sample name	sample
index	1023
start time	 04-19-2021  12:11:24 PM


Wavelength (nm)	Absorbance
494.344910	-0.020645
494.563924	-0.020645
494.782919	-0.020645
495.001897	-0.079155
495.220856	-0.033763
495.439797	-0.035828
495.658719	-0.036117
495.877624	-0.029826
496.096510	-0.028247
496.315378	-0.014988
496.534227	-0.018912
496.753059	-0.022464
496.971872	-0.018339
497.190667	0.018243
497.409444	0.041755
497.628203	0.048621
497.846943	0.049948
498.065665	0.054231
498.284369	0.056325
498.503055	0.056418
498.721723	0.058251
498.940372	0.058069
499.159003	0.058530
499.377616	0.057337
499.596210	0.058532
499.814787	0.059501
500.033345	0.059248
500.251885	0.057881
500.470406	0.058655
500.688910	0.056818
500.907395	0.057987
501.125862	0.057712
501.344311	0.058213
501.562742	0.056643
501.781154	0.055171
501.999548	0.054541
502.217924	0.055412
502.436282	0.054763
502.654621	0.055486
502.872942	0.055185
503.091245	0.055390
503.309530	0.055685
503.527797	0.055749
503.746045	0.056651
503.964275	0.056875
504.182487	0.056144
504.400681	0.056538
504.618856	0.056140
504.837013	0.055184
505.055152	0.054801
505.273273	0.053681
505.491376	0.053565
505.709460	0.053012
505.927526	0.053033
506.145574	0.053069
506.363604	0.051816
506.581615	0.052309
506.799608	0.053155
507.017583	0.052862
507.235540	0.053654
507.453478	0.053576
507.671399	0.054225
507.889301	0.053881
508.107185	0.053572
508.325050	0.054670
508.542898	0.053276
508.760727	0.053365
508.978538	0.053711
509.196330	0.053580
509.414105	0.053955
509.631861	0.053990
509.849599	0.054309
510.067319	0.054591
510.285021	0.053649
510.502704	0.054352
510.720369	0.054289
510.938016	0.054367
511.155645	0.054860
511.373255	0.054850
511.590848	0.054186
511.808422	0.053943
512.025977	0.053675
512.243515	0.054290
512.461034	0.054662
512.678536	0.053928
512.896018	0.054131
513.113483	0.053303
513.330930	0.053302
513.548358	0.053537
513.765768	0.053234
513.983160	0.053023
514.200533	0.052895
514.417889	0.053465
514.635226	0.053657
514.852545	0.053368
515.069845	0.053889
515.287128	0.054156
515.504392	0.054019
515.721638	0.053885
515.938866	0.054186
516.156075	0.054230
516.373267	0.053162
516.590440	0.053322
516.807594	0.053899
517.024731	0.052939
517.241850	0.052325
517.458950	0.051925
517.676032	0.052176
517.893095	0.051761
518.110141	0.051224
518.327168	0.051696
518.544177	0.052039
518.761168	0.051573
518.978141	0.052468
519.195095	0.052799
519.412031	0.053344
519.628949	0.053345
519.845849	0.053463
520.062731	0.053768
520.279594	0.053817
520.496439	0.053258
520.713266	0.053643
520.930074	0.052758
521.146865	0.052115
521.363637	0.051903
521.580391	0.051866
521.797127	0.051793
522.013844	0.051809
522.230543	0.051156
522.447224	0.051222
522.663887	0.050476
522.880532	0.051574
523.097158	0.052063
523.313766	0.051679
523.530356	0.051398
523.746928	0.051422
523.963481	0.051844
524.180017	0.052883
524.396534	0.052852
524.613032	0.052585
524.829513	0.052037
525.045975	0.052256
525.262420	0.053063
525.478845	0.053436
525.695253	0.053425
525.911643	0.052807
526.128014	0.052110
526.344367	0.052799
526.560702	0.053418
526.777018	0.053350
526.993316	0.053224
527.209597	0.052836
527.425858	0.052829
527.642102	0.052962
527.858328	0.053533
528.074535	0.054019
528.290724	0.053523
528.506894	0.053467
528.723047	0.052995
528.939181	0.052910
529.155297	0.053389
529.371395	0.053436
529.587475	0.052989
529.803536	0.052820
530.019579	0.052189
530.235604	0.052227
530.451611	0.052864
530.667600	0.053377
530.883570	0.053407
531.099522	0.052839
531.315456	0.052669
531.531372	0.053485
531.747269	0.054149
531.963148	0.054284
532.179009	0.054244
532.394852	0.053949
532.610676	0.053941
532.826482	0.053779
533.042271	0.054035
533.258040	0.054457
533.473792	0.053909
533.689525	0.053449
533.905240	0.053804
534.120937	0.054106
534.336616	0.054292
534.552277	0.054504
534.767919	0.054733
534.983543	0.054806
535.199149	0.053889
535.414736	0.053942
535.630306	0.053599
535.845857	0.053426
536.061390	0.053077
536.276904	0.052923
536.492401	0.052670
536.707879	0.052473
536.923339	0.052686
537.138781	0.053276
537.354204	0.053625
537.569610	0.053699
537.784997	0.053876
538.000366	0.053638
538.215716	0.053047
538.431049	0.052741
538.646363	0.052697
538.861659	0.052286
539.076937	0.052766
539.292196	0.052283
539.507438	0.052420
539.722661	0.052050
539.937866	0.052543
540.153052	0.052892
540.368221	0.053384
540.583371	0.053512
540.798503	0.053501
541.013617	0.052852
541.228712	0.053129
541.443789	0.052585
541.658848	0.052913
541.873889	0.052899
542.088912	0.052425
542.303916	0.052220
542.518902	0.051952
542.733870	0.052234
542.948820	0.052600
543.163752	0.052416
543.378665	0.053106
543.593560	0.052759
543.808437	0.052280
544.023295	0.052856
544.238136	0.053180
544.452958	0.053033
544.667762	0.052801
544.882548	0.052370
545.097315	0.052634
545.312064	0.052398
545.526795	0.052805
545.741508	0.053119
545.956203	0.052657
546.170879	0.052182
546.385537	0.052632
546.600177	0.052801
546.814799	0.052948
547.029402	0.052777
547.243988	0.052799
547.458555	0.052851
547.673103	0.052972
547.887634	0.053514
548.102146	0.054144
548.316640	0.054192
548.531116	0.054142
548.745574	0.054269
548.960013	0.054426
549.174435	0.054520
549.388838	0.054267
549.603222	0.054267
549.817589	0.053490
550.031937	0.053035
550.246267	0.052668
550.460579	0.052729
550.674873	0.052596
550.889148	0.052793
551.103405	0.052759
551.317644	0.052667
551.531865	0.052734
551.746068	0.052991
551.960252	0.052823
552.174418	0.052944
552.388566	0.052472
552.602696	0.051959
552.816807	0.051577
553.030900	0.051153
553.244975	0.051096
553.459032	0.050948
553.673070	0.051021
553.887091	0.051170
554.101093	0.050878
554.315077	0.050629
554.529042	0.050862
554.742990	0.050707
554.956919	0.051044
555.170830	0.050792
555.384722	0.050856
555.598597	0.051083
555.812453	0.050802
556.026291	0.051243
556.240111	0.051275
556.453913	0.051450
556.667696	0.051702
556.881461	0.051178
557.095208	0.051275
557.308937	0.050890
557.522647	0.050520
557.736339	0.050722
557.950013	0.050169
558.163669	0.050431
558.377307	0.050396
558.590926	0.050026
558.804527	0.050139
559.018110	0.050600
559.231675	0.050952
559.445221	0.051075
559.658749	0.050639
559.872259	0.051005
560.085751	0.050884
560.299225	0.050733
560.512680	0.050934
560.726117	0.051184
560.939536	0.050696
561.152937	0.050474
561.366319	0.050604
561.579683	0.051302
561.793029	0.050881
562.006357	0.050786
562.219667	0.050776
562.432958	0.050934
562.646231	0.050738
562.859486	0.050569
563.072723	0.050408
563.285941	0.049705
563.499141	0.049365
563.712323	0.049246
563.925487	0.049162
564.138632	0.048853
564.351760	0.048640
564.564869	0.048530
564.777960	0.048542
564.991032	0.048574
565.204087	0.049230
565.417123	0.048949
565.630141	0.049090
565.843140	0.049518
566.056122	0.049621
566.269085	0.049290
566.482030	0.049561
566.694957	0.050169
566.907866	0.050185
567.120756	0.049697
567.333628	0.049561
567.546482	0.049611
567.759318	0.049307
567.972135	0.049416
568.184935	0.049450
568.397716	0.049081
568.610478	0.048500
568.823223	0.048428
569.035949	0.048908
569.248657	0.048929
569.461347	0.049002
569.674019	0.049180
569.886672	0.049215
570.099308	0.049240
570.311925	0.049391
570.524523	0.049633
570.737104	0.049546
570.949666	0.049360
571.162210	0.049696
571.374736	0.049549
571.587244	0.049388
571.799733	0.049333
572.012205	0.049493
572.224658	0.049184
572.437092	0.048746
572.649509	0.049101
572.861907	0.048930
573.074287	0.048607
573.286649	0.048608
573.498993	0.048251
573.711318	0.048270
573.923625	0.048467
574.135914	0.048883
574.348185	0.049074
574.560438	0.048682
574.772672	0.048619
574.984888	0.048678
575.197086	0.048593
575.409266	0.048697
575.621427	0.048700
575.833570	0.048640
576.045695	0.048857
576.257802	0.049128
576.469890	0.049262
576.681961	0.049068
576.894013	0.049329
577.106046	0.049583
577.318062	0.049829
577.530059	0.049643
577.742039	0.049386
577.954000	0.049035
578.165942	0.048761
578.377867	0.048609
578.589773	0.048782
578.801661	0.048896
579.013531	0.048613
579.225382	0.048632
579.437216	0.048709
579.649031	0.048665
579.860828	0.048902
580.072606	0.048807
580.284367	0.048929
580.496109	0.048712
580.707833	0.048341
580.919539	0.048791
581.131227	0.048592
581.342896	0.048788
581.554547	0.048697
581.766180	0.048237
581.977795	0.048717
582.189391	0.048719
582.400969	0.048882
582.612529	0.049120
582.824071	0.048941
583.035595	0.049269
583.247100	0.049369
583.458587	0.049881
583.670056	0.050160
583.881506	0.049637
584.092939	0.049418
584.304353	0.049943
584.515749	0.049784
584.727127	0.049645
584.938486	0.049720
585.149828	0.049433
585.361151	0.048742
585.572456	0.048869
585.783742	0.048919
585.995011	0.049217
586.206261	0.048607
586.417493	0.048869
586.628706	0.049064
586.839902	0.048695
587.051079	0.048927
587.262238	0.049433
587.473379	0.049500
587.684502	0.049793
587.895606	0.049518
588.106692	0.049760
588.317760	0.049722
588.528810	0.049641
588.739841	0.049669
588.950855	0.049343
589.161850	0.049044
589.372827	0.048830
589.583785	0.048559
589.794726	0.048936
590.005648	0.048863
590.216552	0.048759
590.427437	0.048768
590.638305	0.048997
590.849154	0.049072
591.059985	0.049360
591.270798	0.048975
591.481592	0.049189
591.692369	0.048878
591.903127	0.049009
592.113867	0.049083
592.324588	0.049128
592.535292	0.048935
592.745977	0.049090
592.956644	0.048993
593.167293	0.049458
593.377923	0.049405
593.588536	0.049655
593.799130	0.049940
594.009706	0.049762
594.220263	0.049687
594.430803	0.049700
594.641324	0.049919
594.851827	0.050238
595.062312	0.050051
595.272778	0.050147
595.483227	0.050156
595.693657	0.050077
595.904069	0.050454
596.114462	0.050656
596.324838	0.050661
596.535195	0.050471
596.745534	0.050226
596.955855	0.050288
597.166157	0.050265
597.376441	0.050246
597.586707	0.050173
597.796955	0.050211
598.007185	0.050178
598.217396	0.050539
598.427589	0.050919
598.637764	0.051226
598.847921	0.051491
599.058060	0.051559
599.268180	0.051662
599.478282	0.051779
599.688366	0.051703
599.898431	0.051690
600.108479	0.051638
600.318508	0.051327
600.528519	0.051269
600.738511	0.051367
600.948486	0.051359
601.158442	0.051287
601.368380	0.051128
601.578300	0.050864
601.788202	0.050970
601.998085	0.050883
602.207950	0.051041
602.417797	0.050971
602.627626	0.050948
602.837436	0.050805
603.047228	0.050727
603.257002	0.050503
603.466758	0.050369
603.676496	0.050532
603.886215	0.050603
604.095916	0.050656
604.305599	0.050319
604.515264	0.050050
604.724910	0.050257
604.934538	0.050152
605.144148	0.050395
605.353740	0.050656
605.563314	0.050396
605.772869	0.050183
605.982406	0.050115
606.191925	0.050384
606.401425	0.050538
606.610908	0.050457
606.820372	0.050584
607.029818	0.050368
607.239246	0.050186
607.448655	0.049887
607.658047	0.049993
607.867420	0.049828
608.076775	0.049516
608.286111	0.049123
608.495430	0.049298
608.704730	0.049303
608.914012	0.049478
609.123275	0.049418
609.332521	0.049841
609.541748	0.049778
609.750957	0.049946
609.960148	0.050159
610.169321	0.050449
610.378475	0.050164
610.587611	0.049998
610.796729	0.049802
611.005829	0.049764
611.214910	0.049320
611.423974	0.049099
611.633019	0.049129
611.842045	0.049080
612.051054	0.049018
612.260044	0.049141
612.469017	0.049214
612.677970	0.049232
612.886906	0.049245
613.095824	0.049424
613.304723	0.049478
613.513604	0.049342
613.722467	0.049457
613.931311	0.049548
614.140138	0.049512
614.348946	0.049548
614.557736	0.049758
614.766507	0.050015
614.975261	0.050131
615.183996	0.050111
615.392713	0.049997
615.601412	0.049818
615.810092	0.049839
616.018754	0.049804
616.227399	0.049918
616.436024	0.049789
616.644632	0.049774
616.853222	0.049754
617.061793	0.049738
617.270346	0.049706
617.478880	0.049670
617.687397	0.049700
617.895895	0.049942
618.104375	0.049791
618.312837	0.050185
618.521281	0.050218
618.729706	0.050080
618.938113	0.050395
619.146502	0.050457
619.354873	0.050433
619.563226	0.050341
619.771560	0.049945
619.979876	0.049889
620.188174	0.049609
620.396453	0.049477
620.604715	0.049930
620.812958	0.049845
621.021183	0.049742
621.229390	0.049935
621.437578	0.049823
621.645748	0.050140
621.853900	0.050411
622.062034	0.050480
622.270150	0.050635
622.478247	0.050435
622.686326	0.050399
622.894387	0.050375
623.102430	0.050536
623.310454	0.050829
623.518461	0.050481
623.726449	0.050194
623.934418	0.050064
624.142370	0.050054
624.350303	0.049824
624.558218	0.049611
624.766115	0.049713
624.973994	0.049593
625.181855	0.049402
625.389697	0.049478
625.597521	0.049425
625.805327	0.049482
626.013114	0.049429
626.220883	0.049279
626.428634	0.049260
626.636367	0.049149
626.844082	0.049141
627.051778	0.049103
627.259457	0.049222
627.467117	0.049439
627.674758	0.049383
627.882382	0.049384
628.089987	0.049673
628.297574	0.049887
628.505143	0.050256
628.712694	0.050106
628.920226	0.050528
629.127740	0.050591
629.335236	0.050629
629.542714	0.050770
629.750174	0.050868
629.957615	0.050679
630.165038	0.050782
630.372443	0.050818
630.579829	0.050911
630.787198	0.050697
630.994548	0.050662
631.201880	0.050786
631.409194	0.051038
631.616489	0.050987
631.823766	0.051157
632.031025	0.051150
632.238266	0.051015
632.445489	0.050920
632.652693	0.050821
632.859879	0.050931
633.067047	0.050873
633.274197	0.050618
633.481329	0.050674
633.688442	0.050902
633.895537	0.050656
634.102614	0.050622
634.309672	0.050768
634.516713	0.050929
634.723735	0.050967
634.930739	0.051094
635.137724	0.051113
635.344692	0.051201
635.551641	0.051092
635.758572	0.051504
635.965485	0.051630
636.172379	0.051896
636.379256	0.051815
636.586114	0.051922
636.792954	0.051992
636.999775	0.052042
637.206579	0.051953
637.413364	0.051954
637.620131	0.051890
637.826880	0.051899
638.033610	0.051975
638.240323	0.052047
638.447017	0.051926
638.653692	0.051714
638.860350	0.051841
639.066990	0.051855
639.273611	0.051775
639.480214	0.051709
639.686798	0.051721
639.893365	0.051391
640.099913	0.051312
640.306443	0.051365
640.512955	0.051314
640.719449	0.050982
640.925924	0.050936
641.132381	0.050894
641.338820	0.051043
641.545241	0.051025
641.751644	0.050963
641.958028	0.051046
642.164394	0.051143
642.370742	0.051316
642.577071	0.051624
642.783383	0.051777
642.989676	0.051930
643.195951	0.051802
643.402207	0.051853
643.608446	0.052025
643.814666	0.052186
644.020868	0.052236
644.227052	0.052113
644.433218	0.051992
644.639365	0.052136
644.845494	0.052152
645.051605	0.052430
645.257698	0.052783
645.463772	0.052784
645.669828	0.052727
645.875866	0.052723
646.081886	0.053015
646.287888	0.053215
646.493871	0.053069
646.699836	0.053184
646.905783	0.053006
647.111712	0.052778
647.317622	0.052776
647.523514	0.052863
647.729388	0.052904
647.935244	0.052901
648.141082	0.053066
648.346901	0.052959
648.552702	0.052958
648.758485	0.053068
648.964250	0.053158
649.169996	0.053473
649.375724	0.053286
649.581434	0.053319
649.787126	0.053264
649.992800	0.053144
650.198455	0.053513
650.404092	0.053713
650.609711	0.053715
650.815311	0.053543
651.020894	0.053327
651.226458	0.053292
651.432004	0.053191
651.637532	0.053049
651.843041	0.052879
652.048532	0.052626
652.254006	0.052553
652.459460	0.052481
652.664897	0.052469
652.870315	0.052348
653.075716	0.052571
653.281097	0.052615
653.486461	0.052702
653.691807	0.052919
653.897134	0.053002
654.102443	0.053045
654.307734	0.053025
654.513006	0.053315
654.718261	0.053475
654.923497	0.053555
655.128715	0.053776
655.333915	0.053805
655.539096	0.053820
655.744259	0.053802
655.949404	0.053830
656.154531	0.053999
656.359640	0.053903
656.564730	0.054162
656.769802	0.054123
656.974856	0.053920
657.179892	0.054145
657.384909	0.054066
657.589908	0.054173
657.794889	0.053904
657.999852	0.053744
658.204797	0.053694
658.409723	0.053467
658.614631	0.053369
658.819521	0.053476
659.024393	0.053417
659.229246	0.053304
659.434081	0.053315
659.638898	0.053550
659.843697	0.053664
660.048478	0.053595
660.253240	0.053610
660.457984	0.053717
660.662710	0.053623
660.867417	0.053618
661.072107	0.053870
661.276778	0.053982
661.481431	0.054124
661.686066	0.054236
661.890682	0.054429
662.095281	0.054695
662.299861	0.054756
662.504422	0.054754
662.708966	0.054760
662.913491	0.054700
663.117999	0.054599
663.322488	0.054380
663.526958	0.054166
663.731411	0.053972
663.935845	0.053644
664.140261	0.053660
664.344659	0.053608
664.549038	0.053474
664.753400	0.053580
664.957743	0.053543
665.162068	0.053497
665.366375	0.053677
665.570663	0.053734
665.774933	0.053720
665.979185	0.053743
666.183419	0.054023
666.387635	0.054168
666.591832	0.054171
666.796011	0.054221
667.000172	0.054474
667.204315	0.054553
667.408439	0.054836
667.612545	0.055088
667.816634	0.055125
668.020703	0.055145
668.224755	0.055279
668.428788	0.055270
668.632803	0.055475
668.836800	0.055470
669.040779	0.055588
669.244739	0.055488
669.448681	0.055604
669.652605	0.055605
669.856511	0.055477
670.060399	0.055388
670.264268	0.055501
670.468119	0.055483
670.671952	0.055445
670.875767	0.055360
671.079563	0.055258
671.283341	0.055068
671.487101	0.055168
671.690843	0.055072
671.894567	0.055153
672.098272	0.055012
672.301959	0.054845
672.505628	0.054921
672.709278	0.054984
672.912911	0.054924
673.116525	0.055045
673.320121	0.054934
673.523699	0.055053
673.727258	0.054805
673.930799	0.054814
674.134322	0.054764
674.337827	0.054681
674.541314	0.054415
674.744782	0.054614
674.948232	0.054610
675.151664	0.054595
675.355078	0.054653
675.558474	0.054913
675.761851	0.054880
675.965210	0.054987
676.168551	0.054843
676.371873	0.054945
676.575178	0.054964
676.778464	0.054832
676.981732	0.054883
677.184981	0.054821
677.388213	0.054696
677.591426	0.054754
677.794621	0.054797
677.997798	0.054856
678.200956	0.054991
678.404097	0.054806
678.607219	0.054890
678.810323	0.054698
679.013408	0.054660
679.216476	0.054663
679.419525	0.054484
679.622556	0.054312
679.825569	0.054364
680.028563	0.054320
680.231540	0.054348
680.434498	0.054305
680.637438	0.054604
680.840359	0.054659
681.043263	0.054603
681.246148	0.054743
681.449015	0.054849
681.651864	0.054968
681.854694	0.055046
682.057506	0.055058
682.260301	0.055207
682.463076	0.055241
682.665834	0.055274
682.868573	0.055450
683.071295	0.055703
683.273998	0.055855
683.476682	0.055835
683.679349	0.056033
683.881997	0.056161
684.084627	0.056123
684.287239	0.056027
684.489833	0.056066
684.692408	0.055986
684.894965	0.055933
685.097504	0.055838
685.300025	0.055804
685.502527	0.055642
685.705012	0.055708
685.907478	0.055796
686.109925	0.055564
686.312355	0.055508
686.514766	0.055765
686.717159	0.055793
686.919534	0.055789
687.121891	0.055878
687.324230	0.055969
687.526550	0.055978
687.728852	0.055823
687.931136	0.056196
688.133401	0.056353
688.335649	0.056201
688.537878	0.056183
688.740089	0.056166
688.942281	0.056261
689.144456	0.056137
689.346612	0.055951
689.548750	0.056066
689.750870	0.055829
689.952971	0.055649
690.155055	0.055589
690.357120	0.055412
690.559167	0.055284
690.761195	0.054963
690.963206	0.054917
691.165198	0.054868
691.367172	0.054679
691.569128	0.054578
691.771065	0.054524
691.972984	0.054477
692.174885	0.054649
692.376768	0.054806
692.578633	0.054923
692.780479	0.054936
692.982308	0.055004
693.184118	0.055182
693.385909	0.055269
693.587683	0.055386
693.789438	0.055316
693.991175	0.055151
694.192894	0.055074
694.394595	0.055155
694.596277	0.055033
694.797941	0.055122
694.999587	0.055173
695.201215	0.055190
695.402824	0.055281
695.604416	0.055505
695.805989	0.055526
696.007543	0.055594
696.209080	0.055570
696.410598	0.055707
696.612099	0.055747
696.813580	0.055650
697.015044	0.055771
697.216490	0.055695
697.417917	0.055513
697.619326	0.055487
697.820717	0.055542
698.022089	0.055405
698.223444	0.055416
698.424780	0.055401
698.626098	0.055503
698.827397	0.055592
699.028679	0.055717
699.229942	0.055718
699.431187	0.055830
699.632414	0.055992
699.833622	0.056143
700.034813	0.056144
700.235985	0.056173
700.437139	0.056108
700.638274	0.056105
700.839392	0.056180
701.040491	0.056393
701.241572	0.056527
701.442635	0.056447
701.643679	0.056608
701.844706	0.056663
702.045714	0.056733
702.246704	0.056879
702.447675	0.056923
702.648629	0.056827
702.849564	0.056972
703.050481	0.056747
703.251380	0.056875
703.452260	0.056964
703.653122	0.056969
703.853966	0.056993
704.054792	0.056969
704.255600	0.056944
704.456389	0.056856
704.657160	0.056632
704.857913	0.056793
705.058648	0.056892
705.259365	0.056728
705.460063	0.056765
705.660743	0.056769
705.861405	0.056819
706.062048	0.057034
706.262674	0.057218
706.463281	0.057429
706.663870	0.057493
706.864441	0.057363
707.064993	0.057379
707.265527	0.057449
707.466043	0.057503
707.666541	0.057466
707.867021	0.057335
708.067482	0.057277
708.267925	0.057283
708.468350	0.057222
708.668757	0.057087
708.869145	0.057015
709.069516	0.057050
709.269868	0.056811
709.470201	0.056753
709.670517	0.056608
709.870814	0.056655
710.071093	0.056592
710.271354	0.056521
710.471597	0.056405
710.671821	0.056524
710.872028	0.056567
711.072216	0.056675
711.272385	0.056822
711.472537	0.056842
711.672670	0.056730
711.872785	0.056713
712.072882	0.056772
712.272961	0.057012
712.473021	0.056957
712.673063	0.056692
712.873087	0.056624
713.073093	0.056455
713.273081	0.056536
713.473050	0.056460
713.673001	0.056266
713.872934	0.056227
714.072849	0.056088
714.272745	0.055974
714.472623	0.056022
714.672483	0.056106
714.872325	0.056084
715.072148	0.055981
715.271954	0.056085
715.471741	0.056276
715.671509	0.056371
715.871260	0.056306
716.070992	0.056480
716.270707	0.056418
716.470403	0.056379
716.670080	0.056529
716.869740	0.056527
717.069381	0.056519
717.269004	0.056340
717.468609	0.056183
717.668195	0.056261
717.867764	0.056118
718.067314	0.056116
718.266846	0.056006
718.466360	0.055745
718.665855	0.055656
718.865332	0.055505
719.064791	0.055429
719.264232	0.055287
719.463655	0.055293
719.663059	0.055187
719.862445	0.055198
720.061813	0.055194
720.261163	0.055224
720.460494	0.055286
720.659807	0.055284
720.859102	0.055440
721.058379	0.055652
721.257638	0.055639
721.456878	0.055525
721.656100	0.055498
721.855304	0.055332
722.054490	0.055039
722.253657	0.054693
722.452806	0.054494
722.651937	0.054236
722.851050	0.053911
723.050145	0.053732
723.249221	0.053676
723.448279	0.053487
723.647319	0.053511
723.846340	0.053729
724.045344	0.053768
724.244329	0.053865
724.443296	0.053713
724.642245	0.053665
724.841175	0.053411
725.040088	0.053474
725.238982	0.053372
725.437857	0.053219
725.636715	0.053065
725.835554	0.053009
726.034376	0.052925
726.233179	0.052989
726.431963	0.052993
726.630730	0.053124
726.829478	0.053090
727.028208	0.053161
727.226920	0.053222
727.425614	0.053211
727.624289	0.053171
727.822946	0.053098
728.021585	0.053048
728.220206	0.053220
728.418808	0.053173
728.617392	0.053221
728.815958	0.053340
729.014506	0.053521
729.213036	0.053788
729.411547	0.054026
729.610040	0.054148
729.808515	0.054235
730.006972	0.054098
730.205410	0.054292
730.403831	0.054326
730.602233	0.054238
730.800616	0.054078
730.998982	0.053830
731.197329	0.053773
731.395658	0.053695
731.593969	0.053716
731.792262	0.053770
731.990536	0.053527
732.188793	0.053449
732.387031	0.053421
732.585250	0.053426
732.783452	0.053351
732.981635	0.053452
733.179800	0.053475
733.377947	0.053431
733.576076	0.053329
733.774186	0.053358
733.972278	0.053270
734.170352	0.053232
734.368408	0.053177
734.566446	0.053194
734.764465	0.052978
734.962466	0.052853
735.160449	0.052605
735.358413	0.052707
735.556360	0.052724
735.754288	0.052732
735.952198	0.052919
736.150090	0.053052
736.347963	0.053252
736.545818	0.053383
736.743655	0.053552
736.941474	0.053770
737.139275	0.053647
737.337057	0.053816
737.534821	0.053865
737.732567	0.053700
737.930295	0.053764
738.128005	0.053636
738.325696	0.053738
738.523369	0.053816
738.721024	0.053777
738.918660	0.053932
739.116279	0.053868
739.313879	0.054012
739.511461	0.054224
739.709024	0.054263
739.906570	0.054353
740.104097	0.054195
740.301606	0.054035
740.499097	0.054182
740.696569	0.054123
740.894024	0.054137
741.091460	0.054058
741.288878	0.053926
741.486277	0.053917
741.683659	0.053954
741.881022	0.053968
742.078367	0.054155
742.275694	0.054185
742.473002	0.054191
742.670293	0.054434
742.867565	0.054462
743.064819	0.054592
743.262054	0.054636
743.459272	0.054714
743.656471	0.054780
743.853652	0.054815
744.050815	0.054527
744.247959	0.054541
744.445085	0.054261
744.642194	0.054275
744.839283	0.054213
745.036355	0.054197
745.233408	0.054182
745.430444	0.054268
745.627461	0.054407
745.824459	0.054805
746.021440	0.054795
746.218402	0.055093
746.415346	0.055097
746.612272	0.054914
746.809180	0.054888
747.006069	0.054864
747.202940	0.054736
747.399793	0.054386
747.596628	0.054232
747.793444	0.054189
747.990243	0.053976
748.187023	0.053777
748.383784	0.053824
748.580528	0.053683
748.777253	0.053567
748.973960	0.053542
749.170649	0.053312
749.367320	0.053279
749.563973	0.053182
749.760607	0.052957
749.957223	0.052822
750.153821	0.052706
750.350400	0.052645
750.546962	0.052436
750.743505	0.052214
750.940030	0.052330
751.136536	0.052225
751.333025	0.052238
751.529495	0.052267
751.725947	0.052350
751.922381	0.052193
752.118796	0.051949
752.315194	0.051944
752.511573	0.051902
752.707934	0.051653
752.904276	0.051644
753.100601	0.051586
753.296907	0.051576
753.493195	0.051596
753.689465	0.051800
753.885716	0.052134
754.081949	0.052225
754.278164	0.052238
754.474361	0.052489
754.670540	0.052531
754.866700	0.052701
755.062843	0.052680
755.258967	0.052759
755.455072	0.052739
755.651160	0.052635
755.847229	0.052715
756.043280	0.052785
756.239313	0.052786
756.435328	0.052770
756.631324	0.052614
756.827302	0.052562
757.023262	0.052326
757.219204	0.052389
757.415127	0.052361
757.611033	0.052153
757.806920	0.052125
758.002788	0.052102
758.198639	0.052132
758.394471	0.051989
758.590286	0.051872
758.786081	0.052003
758.981859	0.051906
759.177619	0.051842
759.373360	0.051842
759.569083	0.051630
759.764788	0.051339
759.960474	0.051100
760.156143	0.051083
760.351793	0.051044
760.547425	0.051050
760.743038	0.051091
760.938634	0.051051
761.134211	0.051130
761.329770	0.051030
761.525311	0.051300
761.720833	0.051472
761.916338	0.051454
762.111824	0.051590
762.307292	0.051648
762.502741	0.051449
762.698173	0.051397
762.893586	0.051142
763.088981	0.051337
763.284358	0.051102
763.479716	0.050933
763.675057	0.050934
763.870379	0.050873
764.065683	0.050441
764.260968	0.050346
764.456236	0.050388
764.651485	0.050503
764.846716	0.050519
765.041929	0.050555
765.237123	0.050453
765.432299	0.050542
765.627457	0.050426
765.822597	0.050690
766.017719	0.051062
766.212822	0.050976
766.407907	0.051101
766.602974	0.051256
766.798023	0.051480
766.993054	0.051698
767.188066	0.051719
767.383060	0.051956
767.578036	0.051861
767.772993	0.051722
767.967933	0.051662
768.162854	0.051425
768.357757	0.051185
768.552642	0.051030
768.747508	0.050814
768.942356	0.050649
769.137186	0.050484
769.331998	0.050494
769.526792	0.050319
769.721567	0.050289
769.916324	0.050468
770.111063	0.050622
770.305784	0.050667
770.500486	0.050596
770.695171	0.050641
770.889837	0.050701
771.084484	0.050779
771.279114	0.050850
771.473725	0.050886
771.668318	0.050701
771.862893	0.050608
772.057450	0.050619
772.251988	0.050666
772.446509	0.050842
772.641011	0.050946
772.835494	0.050881
773.029960	0.050917
773.224407	0.051065
773.418836	0.051215
773.613247	0.051315
773.807640	0.051238
774.002014	0.051503
774.196370	0.051447
774.390708	0.051277
774.585028	0.051415
774.779330	0.051486
774.973613	0.051363
775.167878	0.051332
775.362125	0.051202
775.556354	0.051470
775.750564	0.051359
775.944756	0.051500
776.138930	0.051739
776.333086	0.051667
776.527223	0.051669
776.721343	0.051958
776.915444	0.051979
777.109526	0.052114
777.303591	0.051934
777.497637	0.051992
777.691666	0.051802
777.885676	0.051578
778.079667	0.051719
778.273641	0.051780
778.467596	0.051515
778.661533	0.051772
778.855452	0.051830
779.049352	0.052066
779.243235	0.052003
779.437099	0.052095
779.630945	0.052361
779.824773	0.052359
780.018582	0.052628
780.212373	0.052678
780.406146	0.052453
780.599901	0.052451
780.793638	0.052409
780.987356	0.052584
781.181056	0.052753
781.374738	0.052773
781.568402	0.052896
781.762047	0.052803
781.955674	0.053088
782.149283	0.053490
782.342874	0.053771
782.536447	0.053963
782.730001	0.054063
782.923537	0.054317
783.117055	0.054434
783.310555	0.054466
783.504036	0.054437
783.697499	0.054519
783.890944	0.054255
784.084371	0.054161
784.277780	0.053883
784.471170	0.053790
784.664542	0.053465
784.857896	0.053281
785.051231	0.053217
785.244549	0.052856
785.437848	0.052562
785.631129	0.052621
785.824392	0.052274
786.017636	0.052255
786.210863	0.052172
786.404071	0.052172
786.597260	0.052080
786.790432	0.051938
786.983585	0.052136
787.176721	0.052127
787.369838	0.051933
787.562936	0.051993
787.756017	0.052080
787.949079	0.052041
788.142123	0.051937
788.335149	0.052004
788.528156	0.052055
788.721146	0.051897
788.914117	0.051777
789.107070	0.051900
789.300005	0.052040
789.492921	0.052054
789.685819	0.052020
789.878699	0.052032
790.071561	0.052161
790.264405	0.052021
790.457230	0.052159
790.650037	0.052416
790.842826	0.052324
791.035597	0.052353
791.228349	0.052259
791.421084	0.052247
791.613800	0.051961
791.806497	0.051766
791.999177	0.051958
792.191838	0.051927
792.384481	0.051844
792.577106	0.052002
792.769713	0.051961
792.962301	0.051839
793.154871	0.051850
793.347423	0.052016
793.539957	0.051963
793.732473	0.051816
793.924970	0.051786
794.117449	0.051556
794.309910	0.051426
794.502353	0.051327
794.694777	0.051364
794.887183	0.051691
795.079571	0.051891
795.271941	0.051898
795.464293	0.052169
795.656626	0.052203
795.848941	0.052438
796.041238	0.052482
796.233516	0.052530
796.425777	0.052489
796.618019	0.052304
796.810243	0.052345
797.002449	0.052448
797.194636	0.052217
797.386805	0.052459
797.578956	0.052521
797.771089	0.052569
797.963204	0.052761
798.155300	0.052956
798.347378	0.053009
798.539438	0.053016
798.731480	0.053046
798.923503	0.053282
799.115509	0.053286
799.307496	0.053246
799.499465	0.053519
799.691415	0.053426
799.883348	0.053490
800.075262	0.053398
800.267158	0.053225
800.459035	0.053280
800.650895	0.053284
800.842736	0.053136
801.034559	0.053258
801.226364	0.053039
801.418150	0.052941
801.609919	0.052741
801.801669	0.052828
801.993401	0.053171
802.185114	0.053121
802.376810	0.053022
802.568487	0.052795
802.760146	0.052741
802.951787	0.052558
803.143409	0.052471
803.335014	0.052666
803.526600	0.052512
803.718168	0.052432
803.909717	0.052527
804.101249	0.052539
804.292762	0.052973
804.484257	0.052997
804.675734	0.053159
804.867192	0.053421
805.058632	0.053497
805.250054	0.053706
805.441458	0.053496
805.632844	0.053558
805.824211	0.053633
806.015561	0.053644
806.206891	0.053762
806.398204	0.053862
806.589499	0.053904
806.780775	0.053904
806.972033	0.054005
807.163273	0.054392
807.354495	0.054559
807.545698	0.054575
807.736883	0.054484
807.928050	0.054559
808.119199	0.054756
808.310329	0.054693
808.501441	0.054730
808.692535	0.054724
808.883611	0.054704
809.074669	0.054625
809.265708	0.054917
809.456729	0.055078
809.647732	0.055006
809.838717	0.054876
810.029683	0.054988
810.220632	0.055052
810.411562	0.055174
810.602474	0.055383
810.793367	0.055514
810.984242	0.055421
811.175100	0.055434
811.365938	0.055542
811.556759	0.055593
811.747562	0.055517
811.938346	0.055534
812.129112	0.055626
812.319860	0.055441
812.510589	0.055339
812.701300	0.055496
812.891994	0.055596
813.082668	0.055705
813.273325	0.056005
813.463964	0.056269
813.654584	0.056526
813.845186	0.056611
814.035769	0.056658
814.226335	0.056804
814.416882	0.056823
814.607411	0.056908
814.797922	0.056903
814.988415	0.056805
815.178889	0.056941
815.369345	0.056934
815.559783	0.057009
815.750203	0.057048
815.940605	0.057140
816.130988	0.057088
816.321353	0.056996
816.511700	0.057026
816.702028	0.057061
816.892339	0.057157
817.082631	0.057156
817.272905	0.057128
817.463161	0.057362
817.653398	0.057536
817.843617	0.057717
818.033819	0.057878
818.224001	0.057923
818.414166	0.058114
818.604312	0.058248
818.794440	0.058430
818.984550	0.058561
819.174642	0.058567
819.364716	0.058690
819.554771	0.058815
819.744808	0.059078
819.934827	0.059324
820.124827	0.059270
820.314810	0.059251
820.504774	0.059076
820.694720	0.059010
820.884647	0.058976
821.074557	0.058774
821.264448	0.058703
821.454321	0.058496
821.644176	0.058415
821.834012	0.058488
822.023831	0.058276
822.213631	0.058304
822.403413	0.058207
822.593176	0.058143
822.782922	0.058123
822.972649	0.058121
823.162358	0.058225
823.352049	0.058038
823.541721	0.058072
823.731376	0.058108
823.921012	0.058062
824.110629	0.058154
824.300229	0.058577
824.489811	0.058788
824.679374	0.058729
824.868919	0.058676
825.058445	0.059054
825.247954	0.059050
825.437444	0.059174
825.626916	0.059601
825.816370	0.059886
826.005806	0.059949
826.195223	0.059888
826.384622	0.060057
826.574003	0.060163
826.763366	0.060161
826.952711	0.060168
827.142037	0.060272
827.331345	0.060355
827.520635	0.060371
827.709906	0.060065
827.899160	0.060276
828.088395	0.060330
828.277612	0.060644
828.466810	0.060758
828.655991	0.061051
828.845153	0.061129
829.034297	0.061250
829.223423	0.061376
829.412531	0.061641
829.601620	0.061721
829.790691	0.061947
829.979744	0.061879
830.168779	0.062054
830.357795	0.062070
830.546793	0.062353
830.735773	0.062268
830.924735	0.062502
831.113679	0.062520
831.302604	0.062774
831.491511	0.062772
831.680400	0.062853
831.869271	0.063056
832.058123	0.063089
832.246957	0.063231
832.435773	0.063463
832.624571	0.063279
832.813351	0.063522
833.002112	0.063599
833.190855	0.063717
833.379580	0.063751
833.568287	0.063563
833.756975	0.063559
833.945645	0.063527
834.134297	0.063488
834.322931	0.063676
834.511547	0.063558
834.700144	0.063434
834.888723	0.063542
835.077284	0.063678
835.265826	0.063811
835.454351	0.064098
835.642857	0.064010
835.831345	0.063900
836.019815	0.063932
836.208266	0.064158
836.396699	0.064191
836.585114	0.064137
836.773511	0.064163
836.961890	0.064164
837.150250	0.064305
837.338592	0.064792
837.526916	0.065156
837.715222	0.065199
837.903510	0.065171
838.091779	0.065396
838.280030	0.065559
838.468263	0.065762
838.656477	0.065976
838.844674	0.065818
839.032852	0.065488
839.221012	0.065631
839.409153	0.065727
839.597277	0.065808
839.785382	0.065643
839.973469	0.065768
840.161538	0.065741
840.349589	0.065719
840.537621	0.065934
840.725635	0.066137
840.913631	0.065936
841.101609	0.066093
841.289568	0.066093
841.477509	0.066041
841.665432	0.065621
841.853337	0.065685
842.041224	0.065656
842.229092	0.065572
842.416942	0.065550
842.604774	0.065556
842.792588	0.065364
842.980383	0.065558
843.168160	0.065657
843.355919	0.065967
843.543660	0.065831
843.731382	0.065986
843.919087	0.066319
844.106773	0.066470
844.294441	0.066904
844.482090	0.067298
844.669722	0.067368
844.857335	0.067768
845.044930	0.068012
845.232507	0.068389
845.420065	0.068636
845.607605	0.068567
845.795127	0.068944
845.982631	0.068895
846.170117	0.068906
846.357584	0.068966
846.545033	0.068957
846.732464	0.069129
846.919877	0.069171
847.107272	0.069161
847.294648	0.069151
847.482006	0.068961
847.669346	0.069001
847.856667	0.069117
848.043971	0.069245
848.231256	0.069461
848.418523	0.069566
848.605771	0.069431
848.793002	0.069503
848.980214	0.069627
849.167408	0.069745
849.354584	0.069886
849.541742	0.069867
849.728881	0.069984
849.916002	0.070038
850.103105	0.070119
850.290190	0.070506
850.477256	0.070560
850.664304	0.070807
850.851334	0.071048
851.038346	0.071100
851.225340	0.071400
851.412315	0.071882
851.599272	0.071962
851.786211	0.072052
851.973132	0.072006
852.160034	0.072048
852.346918	0.072041
852.533784	0.072072
852.720632	0.072275
852.907462	0.072284
853.094273	0.071892
853.281066	0.072048
853.467841	0.072117
853.654598	0.072295
853.841336	0.072596
854.028056	0.072765
854.214758	0.072680
854.401442	0.072783
854.588107	0.072930
854.774755	0.073071
854.961384	0.073194
855.147995	0.073263
855.334587	0.073298
855.521162	0.073391
855.707718	0.073408
855.894256	0.073693
856.080775	0.073540
856.267277	0.073435
856.453760	0.073747
856.640225	0.073984
856.826672	0.074265
857.013101	0.074650
857.199511	0.074897
857.385903	0.075144
857.572277	0.075273
857.758633	0.075879
857.944970	0.076209
858.131290	0.076352
858.317591	0.076378
858.503873	0.076365
858.690138	0.076519
858.876384	0.076331
859.062612	0.076547
859.248822	0.076561
859.435014	0.076572
859.621188	0.076708
859.807343	0.076781
859.993480	0.076717
860.179599	0.076832
860.365699	0.076896
860.551781	0.077186
860.737846	0.077224
860.923891	0.077542
861.109919	0.077730
861.295929	0.078018
861.481920	0.077870
861.667893	0.077995
861.853848	0.078021
862.039784	0.077983
862.225702	0.078197
862.411603	0.078103
862.597484	0.077830
862.783348	0.077684
862.969193	0.077323
863.155021	0.077700
863.340830	0.077731
863.526620	0.077750
863.712393	0.077752
863.898147	0.077571
864.083883	0.077681
864.269601	0.077887
864.455301	0.077814
864.640982	0.078192
864.826645	0.077958
865.012290	0.078115
865.197917	0.078463
865.383526	0.078493
865.569116	0.078727
865.754688	0.078875
865.940242	0.079188
866.125777	0.079429
866.311295	0.079404
866.496794	0.079619
866.682275	0.079495
866.867737	0.079286
867.053182	0.079473
867.238608	0.079363
867.424016	0.079632
867.609406	0.079280
867.794778	0.079143
867.980131	0.078830
868.165466	0.078905
868.350783	0.079068
868.536082	0.079341
868.721362	0.079319
868.906625	0.079236
869.091869	0.078930
869.277094	0.079209
869.462302	0.079328
869.647491	0.079548
869.832662	0.079427
870.017815	0.079402
870.202950	0.079548
870.388066	0.079260
870.573165	0.079270
870.758245	0.079223
870.943306	0.079112
871.128350	0.079014
871.313375	0.079229
871.498382	0.079298
871.683371	0.079406
871.868342	0.079067
872.053294	0.079315
872.238229	0.079345
872.423144	0.079251
872.608042	0.079348
872.792922	0.079240
872.977783	0.079139
873.162626	0.079282
873.347451	0.079600
873.532258	0.079574
873.717046	0.079541
873.901816	0.080060
874.086568	0.080545
874.271302	0.080337
874.456017	0.080645
874.640715	0.080473
874.825394	0.080232
875.010055	0.080099
875.194697	0.080165
875.379322	0.080244
875.563928	0.079786
875.748516	0.079673
875.933085	0.079893
876.117637	0.079794
876.302170	0.080076
876.486685	0.080234
876.671182	0.080015
876.855661	0.080105
877.040121	0.080325
877.224563	0.080584
877.408987	0.080492
877.593393	0.080825
877.777780	0.081126
877.962150	0.081334
878.146501	0.081738
878.330833	0.081923
878.515148	0.081966
878.699444	0.081847
878.883722	0.082120
879.067982	0.082331
879.252224	0.081989
879.436447	0.081841
879.620653	0.081542
879.804840	0.081666
879.989008	0.081790
880.173159	0.081913
880.357291	0.082196
880.541405	0.081757
880.725501	0.081920
880.909579	0.082247
881.093638	0.082514
881.277680	0.083114
881.461703	0.082992
881.645707	0.083130
881.829694	0.083412
882.013662	0.083539
882.197612	0.084189
882.381544	0.084275
882.565458	0.084368
882.749353	0.084307
882.933230	0.083905
883.117089	0.083983
883.300930	0.083870
883.484753	0.083540
883.668557	0.083326
883.852343	0.082866
884.036111	0.082559
884.219861	0.082239
884.403592	0.082305
884.587305	0.082309
884.771000	0.081881
884.954677	0.081771
885.138335	0.081741
885.321976	0.081549
885.505598	0.081435
885.689201	0.081406
885.872787	0.081499
886.056354	0.081442
886.239904	0.081516
886.423434	0.081721
886.606947	0.081549
886.790442	0.081454
886.973918	0.081632
887.157376	0.082061
887.340816	0.082359
887.524237	0.082311
887.707641	0.082373
887.891026	0.082351
888.074393	0.082503
888.257741	0.082914
888.441072	0.083015
888.624384	0.083000
888.807678	0.082648
888.990954	0.082301
889.174211	0.082275
889.357451	0.082130
889.540672	0.082227
889.723875	0.082190
889.907059	0.081976
890.090226	0.081913
890.273374	0.081950
890.456504	0.082215
890.639616	0.082178
890.822709	0.082569
891.005785	0.082612
891.188842	0.082462
891.371881	0.082211
891.554901	0.082343
891.737904	0.082634
891.920888	0.082343
892.103854	0.082305
892.286802	0.082379
892.469731	0.082131
892.652643	0.082146
892.835536	0.082040
893.018410	0.081992
893.201267	0.081681
893.384106	0.081847
893.566926	0.081858
893.749728	0.081750
893.932511	0.081834
894.115277	0.081653
894.298024	0.081209
894.480753	0.081099
894.663464	0.081282
894.846157	0.081455
895.028831	0.081214
895.211487	0.081217
895.394125	0.081157
895.576745	0.080603
895.759346	0.080473
895.941930	0.080599
896.124495	0.080121
896.307041	0.079666
896.489570	0.079320
896.672080	0.078788
896.854573	0.078825
897.037046	0.078467
897.219502	0.078577
897.401940	0.078453
897.584359	0.078246
897.766760	0.078658
897.949143	0.078784
898.131507	0.078876
898.313854	0.078944
898.496182	0.078718
898.678492	0.079164
898.860783	0.079230
899.043057	0.079153
899.225312	0.079237
899.407549	0.079355
899.589768	0.079656
899.771968	0.079318
899.954151	0.079546
900.136315	0.079719
900.318461	0.079395
900.500588	0.079475
900.682698	0.079741
900.864789	0.079821
901.046862	0.079765
901.228917	0.079546
901.410953	0.079779
901.592971	0.079574
901.774972	0.079385
901.956953	0.079165
902.138917	0.078969
902.320862	0.079010
902.502790	0.079225
902.684699	0.078954
902.866589	0.078969
903.048462	0.079191
903.230316	0.079233
903.412152	0.079373
903.593970	0.079651
903.775770	0.080032
903.957551	0.079520
904.139314	0.079003
904.321059	0.079318
904.502786	0.079112
904.684494	0.078964
904.866185	0.079072
905.047857	0.079115
905.229510	0.078683
905.411146	0.078259
905.592763	0.078469
905.774363	0.078872
905.955943	0.078361
906.137506	0.078476
906.319051	0.078426
906.500577	0.078008
906.682085	0.077562
906.863575	0.077858
907.045046	0.077854
907.226500	0.077721
907.407935	0.077579
907.589352	0.077891
907.770750	0.077564
907.952131	0.077438
908.133493	0.077484
908.314837	0.077339
908.496163	0.076898
908.677470	0.076794
908.858760	0.077060
909.040031	0.076770
909.221284	0.076248
909.402518	0.076253
909.583735	0.076429
909.764933	0.076105
909.946113	0.076459
910.127275	0.076679
910.308418	0.076754
910.489544	0.076429
910.670651	0.076237
910.851740	0.076543
911.032810	0.076315
911.213863	0.075691
911.394897	0.075928
911.575913	0.075196
911.756911	0.075004
911.937890	0.074467
912.118851	0.074031
912.299794	0.073956
912.480719	0.073738
912.661626	0.073572
912.842514	0.073372
913.023384	0.072869
913.204236	0.073001
913.385070	0.072738
913.565886	0.073442
913.746683	0.073326
913.927462	0.073257
914.108223	0.073195
914.288965	0.073033
914.469690	0.073158
914.650396	0.073183
914.831084	0.073021
915.011754	0.072707
915.192405	0.072080
915.373038	0.072004
915.553653	0.071605
915.734250	0.071153
915.914829	0.071060
916.095389	0.070495
916.275931	0.070621
916.456455	0.070141
916.636961	0.069984
916.817448	0.069845
916.997917	0.069188
917.178368	0.068960
917.358801	0.068833
917.539216	0.068414
917.719612	0.068373
917.899990	0.067467
918.080350	0.067685
918.260692	0.067531
918.441015	0.067158
918.621320	0.067620
918.801607	0.067631
918.981876	0.067283
919.162127	0.067061
919.342359	0.066688
919.522573	0.066628
919.702769	0.066670
919.882947	0.066532
920.063106	0.065816
920.243247	0.065164
920.423370	0.064932
920.603475	0.064891
920.783562	0.065079
920.963630	0.064894
921.143680	0.064794
921.323712	0.064069
921.503725	0.063533
921.683721	0.063464
921.863698	0.063014
922.043657	0.062554
922.223598	0.062265
922.403520	0.061802
922.583424	0.061907
922.763311	0.061911
922.943178	0.061542
923.123028	0.061817
923.302859	0.061893
923.482673	0.061759
923.662467	0.062035
923.842244	0.061672
924.022003	0.061061
924.201743	0.060383
924.381465	0.059954
924.561169	0.059991
924.740854	0.059624
924.920522	0.059694
925.100171	0.059852
925.279802	0.059119
925.459414	0.059013
925.639009	0.059592
925.818585	0.059903
925.998143	0.059506
926.177683	0.059319
926.357205	0.058794
926.536708	0.058127
926.716193	0.057852
926.895660	0.057753
927.075109	0.058030
927.254539	0.057392
927.433951	0.057153
927.613345	0.057118
927.792721	0.056914
927.972079	0.057185
928.151418	0.056886
928.330739	0.056518
928.510042	0.056299
928.689327	0.055400
928.868593	0.055428
929.047841	0.055098
929.227071	0.055023
929.406283	0.054690
929.585476	0.054143
929.764652	0.054054
929.943809	0.054016
930.122948	0.053106
930.302068	0.052507
930.481171	0.051718
930.660255	0.050899
930.839321	0.050631
931.018369	0.050594
931.197398	0.049963
931.376409	0.049545
931.555402	0.048746
931.734377	0.049026
931.913334	0.048668
932.092272	0.047902
932.271192	0.048239
932.450094	0.048017
932.628978	0.047348
932.807844	0.046914
932.986691	0.046577
933.165520	0.046928
933.344331	0.046490
933.523123	0.046835
933.701898	0.046868
933.880654	0.045930
934.059392	0.045495
934.238111	0.045163
934.416813	0.045399
934.595496	0.044817
934.774161	0.043908
934.952808	0.043726
935.131437	0.043075
935.310047	0.042990
935.488639	0.043403
935.667213	0.042752
935.845769	0.043113
936.024306	0.042995
936.202825	0.042639
936.381326	0.042474
936.559809	0.041869
936.738274	0.041206
936.916720	0.040720
937.095148	0.039860
937.273558	0.039849
937.451950	0.039085
937.630323	0.038387
937.808678	0.038316
937.987015	0.038317
938.165334	0.038144
938.343635	0.038458
938.521917	0.038376
938.700181	0.038236
938.878427	0.037748
939.056655	0.037856
939.234864	0.037197
939.413055	0.037713
939.591228	0.037330
939.769383	0.036807
939.947519	0.036572
940.125638	0.036202
940.303738	0.035865
940.481820	0.035595
940.659883	0.034813
940.837929	0.034377
941.015956	0.033642
941.193965	0.033006
941.371955	0.032550
941.549928	0.031500
941.727882	0.031365
941.905818	0.030631
942.083736	0.029884
942.261636	0.028912
942.439517	0.029578
942.617380	0.028164
942.795225	0.027983
942.973052	0.028649
943.150860	0.028877
943.328651	0.027427
943.506423	0.026738
943.684176	0.026461
943.861912	0.026412
944.039629	0.026146
944.217328	0.027012
944.395009	0.026765
944.572672	0.025571
944.750317	0.025931
944.927943	0.026620
945.105551	0.027560
945.283141	0.028191
945.460712	0.028965
945.638265	0.027720
945.815801	0.027144
945.993317	0.027296
946.170816	0.027593
946.348297	0.026682
946.525759	0.026500
946.703203	0.025919
946.880629	0.025658
947.058036	0.024133
947.235425	0.024887
947.412797	0.024642
947.590149	0.024328
947.767484	0.024267
947.944800	0.025016
948.122099	0.025084
948.299379	0.025604
948.476640	0.025406
948.653884	0.026415
948.831109	0.024885
949.008316	0.024815
949.185505	0.024261
949.362676	0.023843
949.539828	0.023017
949.716962	0.022587
949.894078	0.021741
950.071176	0.022560
950.248256	0.023331
950.425317	0.023903
950.602360	0.024376
950.779385	0.024104
950.956391	0.024186
951.133380	0.023623
951.310350	0.024441
951.487302	0.025102
951.664235	0.024320
951.841151	0.023305
952.018048	0.024268
952.194927	0.023878
952.371788	0.025262
952.548631	0.025563
952.725455	0.027688
952.902261	0.027454
953.079049	0.027364
953.255819	0.026957
953.432570	0.025152
953.609303	0.025465
953.786018	0.025704
953.962715	0.025603
954.139394	0.026301
954.316054	0.025432
954.492696	0.025788
954.669320	0.025224
954.845926	0.026460
955.022513	0.028577
955.199083	0.028698
955.375634	0.029105
955.552166	0.028919
955.728681	0.028543
955.905177	0.029052
956.081655	0.031061
956.258115	0.033234
956.434557	0.033273
956.610980	0.033846
956.787385	0.033475
956.963772	0.032884
957.140141	0.034159
957.316492	0.034776
957.492824	0.034743
957.669138	0.033764
957.845434	0.032692
958.021712	0.033207
958.197971	0.032907
958.374212	0.034843
958.550435	0.036779
958.726640	0.035557
958.902826	0.034925
959.078995	0.033471
959.255145	0.032438
959.431277	0.033877
959.607390	0.033787
959.783486	0.033194
959.959563	0.032819
960.135622	0.032475
960.311662	0.034433
960.487685	0.034749
960.663689	0.036988
960.839675	0.037730
961.015643	0.039042
961.191593	0.039739
961.367524	0.040772
961.543437	0.041393
961.719332	0.041991
961.895209	0.041870
962.071067	0.042921
962.246907	0.043688
962.422730	0.044225
962.598533	0.044262
962.774319	0.044371
962.950086	0.046721
963.125835	0.046601
963.301566	0.048212
963.477279	0.048470
963.652973	0.049868
963.828650	0.049225
964.004308	0.050558
964.179947	0.049279
964.355569	0.049018
964.531172	0.048449
964.706757	0.049007
964.882324	0.048203
965.057873	0.047825
965.233403	0.046214
965.408916	0.046740
965.584410	0.046887
965.759885	0.047416
965.935343	0.048207
966.110782	0.047379
966.286203	0.044785
966.461606	0.044654
966.636991	0.045765
966.812357	0.047115
966.987705	0.046457
967.163035	0.045544
967.338347	0.045775
967.513641	0.045347
967.688916	0.045347
967.864173	0.047109
968.039412	0.047084
968.214632	0.048092
968.389835	0.047214
968.565019	0.047555
968.740185	0.049474
968.915333	0.049532
969.090462	0.048637
969.265573	0.048583
969.440667	0.049590
969.615741	0.050016
969.790798	0.048695
969.965836	0.048456
970.140856	0.047718
970.315858	0.045455
970.490842	0.045584
970.665808	0.046781
970.840755	0.048227
971.015684	0.047636
971.190595	0.048016
971.365487	0.048452
971.540362	0.049410
971.715218	0.050335
971.890056	0.052110
972.064875	0.051681
972.239677	0.051861
972.414460	0.051705
972.589225	0.052766
972.763972	0.052857
972.938700	0.051788
973.113411	0.052102
973.288103	0.052439
973.462777	0.050677
973.637432	0.051731
973.812070	0.051704
973.986689	0.051869
974.161290	0.050764
974.335873	0.051015
974.510437	0.050760
974.684984	0.050196
974.859512	0.049346
975.034022	0.050197
975.208513	0.047236
975.382987	0.048695
975.557442	0.048358
975.731879	0.047947
975.906298	0.047093
976.080698	0.047888
976.255080	0.047637
976.429445	0.048431
976.603790	0.048330
976.778118	0.049854
976.952427	0.049732
977.126719	0.050348
977.300992	0.052727
977.475246	0.052474
977.649483	0.052037
977.823701	0.052658
977.997901	0.051688
978.172083	0.052643
978.346247	0.053388
978.520392	0.052729
978.694519	0.051084
978.868628	0.048818
979.042719	0.049723
979.216791	0.049677
979.390845	0.049764
979.564882	0.049311
979.738899	0.048571
979.912899	0.047482
980.086880	0.047888
980.260843	0.047614
980.434788	0.049127
980.608715	0.048819
980.782623	0.049828
980.956514	0.049677
981.130386	0.051862
981.304240	0.051417
981.478075	0.051725
981.651892	0.050812
981.825692	0.052656
981.999472	0.050738
982.173235	0.050406
982.346980	0.050275
982.520706	0.050120
982.694414	0.049716
982.868104	0.050284
983.041775	0.052293
983.215428	0.052810
983.389064	0.051527
983.562680	0.053841
983.736279	0.053500
983.909860	0.053881
984.083422	0.052631
984.256966	0.051520
984.430491	0.051500
984.603999	0.050915
984.777488	0.051288
984.950959	0.051651
985.124412	0.049791
985.297847	0.050650
985.471263	0.050633
985.644661	0.052406
985.818041	0.054694
985.991403	0.053756
986.164747	0.052027
986.338072	0.049892
986.511379	0.050019
986.684668	0.049869
986.857938	0.049738
987.031191	0.049723
987.204425	0.048442
987.377641	0.046679
987.550839	0.047726
987.724018	0.047787
987.897179	0.047922
988.070322	0.048037
988.243447	0.048302
988.416554	0.047423
988.589642	0.047162
988.762712	0.049247
988.935764	0.049121
989.108798	0.048887
989.281813	0.050143
989.454811	0.052333
989.627790	0.052716
989.800751	0.052395
989.973693	0.053486
990.146617	0.053525
990.319524	0.053007
990.492412	0.054549
990.665281	0.054332
990.838133	0.054952
991.010966	0.053553
991.183781	0.052401
991.356578	0.052992
991.529356	0.052512
991.702117	0.052615
991.874859	0.051741
992.047583	0.051368
992.220288	0.051366
992.392976	0.048879
992.565645	0.048260
992.738296	0.048641
992.910929	0.048134
993.083543	0.047798
993.256139	0.047060
993.428718	0.047637
993.601277	0.048187
993.773819	0.048450
993.946342	0.050176
994.118848	0.050897
994.291335	0.050155
994.463803	0.052009
994.636254	0.051883
994.808686	0.052409
994.981100	0.053533
995.153496	0.051625
995.325874	0.051457
995.498233	0.049903
995.670574	0.050424
995.842897	0.050474
996.015202	0.049819
996.187488	0.050002
996.359757	0.048977
996.532007	0.047203
996.704239	0.047983
996.876452	0.048074
997.048648	0.050896
997.220825	0.050454
997.392984	0.050347
997.565124	0.050723
997.737247	0.050478
997.909351	0.050693
998.081437	0.050612
998.253505	0.050906
998.425554	0.050776
998.597586	0.048558
998.769599	0.048201
998.941594	0.048508
999.113571	0.046848
999.285529	0.047254
999.457469	0.049045
999.629391	0.047950
999.801295	0.047253
999.973181	0.047993
1000.145048	0.048289
1000.316897	0.047856
1000.488728	0.049376
1000.660541	0.049884
1000.832335	0.049532
1001.004111	0.048715
1001.175869	0.050112
1001.347609	0.049321
1001.519331	0.049572
1001.691034	0.050117
1001.862719	0.050529
1002.034386	0.049411
1002.206035	0.049586
1002.377665	0.049046
1002.549277	0.048557
1002.720871	0.046837
1002.892447	0.047359
1003.064004	0.045573
1003.235544	0.044876
1003.407065	0.044710
1003.578568	0.044916
1003.750052	0.044910
1003.921519	0.045956
1004.092967	0.044505
1004.264397	0.045278
1004.435809	0.046157
1004.607202	0.046521
1004.778577	0.046478
1004.949934	0.046352
1005.121273	0.045827
1005.292594	0.045547
1005.463896	0.045531
1005.635180	0.046704
1005.806446	0.047864
1005.977694	0.046976
1006.148923	0.047334
1006.320135	0.047659
1006.491328	0.046990
1006.662503	0.047153
1006.833659	0.046644
1007.004798	0.046008
1007.175918	0.046573
1007.347020	0.047572
1007.518103	0.048839
1007.689169	0.048429
1007.860216	0.048857
1008.031245	0.049676
1008.202256	0.050129
1008.373248	0.050586
1008.544223	0.050849
1008.715179	0.051793
1008.886117	0.050953
1009.057036	0.049596
1009.227938	0.050319
1009.398821	0.048207
1009.569686	0.048155
1009.740533	0.046915
1009.911361	0.048494
1010.082172	0.048453
1010.252964	0.047482
1010.423738	0.048060
1010.594493	0.047086
1010.765231	0.047098
1010.935950	0.048880
1011.106651	0.050146
1011.277334	0.051603
1011.447998	0.050814
1011.618645	0.050292
1011.789273	0.048869
1011.959882	0.046871
1012.130474	0.047943
1012.301048	0.048096
1012.471603	0.046952
1012.642140	0.044832
1012.812658	0.046006
1012.983159	0.044375
1013.153641	0.043749
1013.324105	0.044548
1013.494551	0.044891
1013.664979	0.044410
1013.835388	0.043624
1014.005779	0.045839
1014.176152	0.047561
1014.346507	0.046078
1014.516843	0.047249
1014.687162	0.048578
1014.857462	0.048076
1015.027744	0.047703
1015.198007	0.048052
1015.368252	0.049031
1015.538480	0.049007
1015.708689	0.049519
1015.878879	0.048830
1016.049052	0.048491
1016.219206	0.048021
1016.389342	0.048602
1016.559460	0.050082
1016.729559	0.049418
1016.899641	0.050049
1017.069704	0.048343
1017.239749	0.047704
1017.409775	0.047702
1017.579784	0.048204
1017.749774	0.051067
1017.919746	0.051755
1018.089700	0.051548
1018.259635	0.050050
1018.429553	0.048569
1018.599452	0.049507
1018.769333	0.046829
1018.939195	0.048213
1019.109040	0.046837
1019.278866	0.043652
1019.448674	0.041429
1019.618464	0.040660
1019.788235	0.042673
1019.957989	0.041840
1020.127724	0.041464
1020.297441	0.043100
1020.467139	0.042174
1020.636820	0.043097
1020.806482	0.043151
1020.976126	0.044382
1021.145752	0.045238
1021.315359	0.046255
1021.484948	0.047204
1021.654519	0.046540
1021.824072	0.045603
1021.993607	0.044592
1022.163123	0.044833
1022.332621	0.045194
1022.502101	0.045270
1022.671563	0.043741
1022.841007	0.043232
1023.010432	0.043156
1023.179839	0.043692
1023.349228	0.045326
1023.518598	0.045648
1023.687951	0.043825
1023.857285	0.044186
1024.026601	0.043059
1024.195899	0.043083
1024.365178	0.043193
1024.534439	0.042080
1024.703682	0.042468
1024.872907	0.042343
1025.042114	0.044131
1025.211302	0.045577
1025.380472	0.044897
1025.549624	0.045023
1025.718758	0.046292
1025.887873	0.046477
1026.056970	0.048034
1026.226049	0.047797
1026.395110	0.046474
1026.564153	0.045075
1026.733177	0.044744
1026.902183	0.045555
1027.071171	0.046835
1027.240141	0.047512
1027.409092	0.046572
1027.578026	0.046258
1027.746940	0.046069
1027.915837	0.048098
1028.084716	0.048913
1028.253576	0.049454
1028.422418	0.049147
1028.591242	0.049237
1028.760048	0.048777
1028.928835	0.048614
1029.097604	0.046948
1029.266355	0.045285
1029.435088	0.044140
1029.603803	0.043102
1029.772499	0.043052
1029.941177	0.043520
1030.109837	0.044425
1030.278478	0.042461
1030.447102	0.042582
1030.615707	0.043624
1030.784294	0.044976
1030.952863	0.045021
1031.121413	0.045480
1031.289945	0.043808
1031.458460	0.042504
1031.626955	0.041155
1031.795433	0.042390
1031.963892	0.042201
1032.132334	0.041032
1032.300756	0.041937
1032.469161	0.042831
1032.637548	0.042237
1032.805916	0.042878
1032.974266	0.041832
1033.142598	0.040776
1033.310911	0.042797
1033.479207	0.043639
1033.647484	0.044441
1033.815743	0.042454
1033.983983	0.041534
1034.152206	0.041143
1034.320410	0.042121
1034.488596	0.043399
1034.656764	0.044201
1034.824914	0.042772
1034.993045	0.041923
1035.161158	0.041980
1035.329253	0.043607
1035.497330	0.044220
1035.665388	0.044264
1035.833428	0.043293
1036.001450	0.043230
1036.169454	0.044330
1036.337440	0.043841
1036.505407	0.044526
1036.673356	0.045262
1036.841287	0.044655
1037.009200	0.043592
1037.177094	0.042450
1037.344970	0.043133
1037.512828	0.043566
1037.680668	0.041732
1037.848489	0.040818
1038.016293	0.040573
1038.184078	0.040289
1038.351845	0.040087
1038.519593	0.039911
1038.687324	0.041128
1038.855036	0.041135
1039.022730	0.041294
1039.190406	0.043644
1039.358063	0.042713
1039.525702	0.042884
1039.693323	0.042745
1039.860926	0.044605
1040.028511	0.046089
1040.196077	0.047431
1040.363625	0.046516
1040.531155	0.046584
1040.698667	0.045581
1040.866161	0.046731
1041.033636	0.047385
1041.201093	0.047181
1041.368532	0.044940
1041.535952	0.042810
1041.703355	0.041503
1041.870739	0.042391
1042.038105	0.042153
1042.205452	0.041306
1042.372782	0.041842
1042.540093	0.040261
1042.707386	0.041054
1042.874661	0.040922
1043.041918	0.041303
1043.209156	0.041800
1043.376376	0.041143
1043.543578	0.040831
1043.710762	0.040456
1043.877927	0.040568
1044.045074	0.041123
1044.212203	0.040786
1044.379314	0.042324
1044.546407	0.042205
1044.713481	0.043538
1044.880537	0.042480
1045.047575	0.042682
1045.214595	0.043986
1045.381596	0.044169
1045.548579	0.043785
1045.715544	0.044141
1045.882491	0.043769
1046.049420	0.044569
1046.216330	0.042365
1046.383222	0.041716
1046.550096	0.041612
1046.716951	0.039874
1046.883789	0.040356
1047.050608	0.040001
1047.217409	0.039513
1047.384192	0.038262
1047.550956	0.039075
1047.717703	0.041036
1047.884431	0.043741
1048.051140	0.042733
1048.217832	0.044013
1048.384505	0.044048
1048.551161	0.043986
1048.717798	0.044018
1048.884416	0.043738
1049.051017	0.043197
1049.217599	0.041203
1049.384163	0.042276
1049.550709	0.043223
1049.717237	0.042407
1049.883746	0.041769
1050.050237	0.043916
1050.216710	0.041939
1050.383165	0.043318
1050.549601	0.043217
1050.716019	0.044488
1050.882420	0.043550
1051.048801	0.042225
1051.215165	0.042208
1051.381510	0.041951
1051.547837	0.041560
1051.714146	0.044468
1051.880437	0.043471
1052.046709	0.044035
1052.212964	0.042043
1052.379200	0.041189
1052.545417	0.042330
1052.711617	0.041809
1052.877798	0.041416
1053.043961	0.040756
1053.210106	0.040097
1053.376233	0.040458
1053.542341	0.039212
1053.708432	0.041733
1053.874504	0.041308
1054.040557	0.039209
1054.206593	0.041193
1054.372610	0.040674
1054.538609	0.039748
1054.704590	0.038785
1054.870553	0.038751
1055.036497	0.038483
1055.202424	0.037403
1055.368331	0.038082
1055.534221	0.040660
1055.700093	0.040778
1055.865946	0.041082
1056.031781	0.040963
1056.197598	0.041492
1056.363397	0.041632
1056.529177	0.042109
1056.694939	0.041505
1056.860683	0.039780
1057.026409	0.037937
1057.192116	0.037212
1057.357806	0.036249
1057.523477	0.036692
1057.689130	0.036383
1057.854764	0.036352
1058.020381	0.036035
1058.185979	0.035688
1058.351559	0.035762
1058.517120	0.037000
1058.682664	0.036923
1058.848189	0.037514
1059.013696	0.038668
1059.179185	0.039930
1059.344656	0.039770
1059.510108	0.040227
1059.675542	0.040727
1059.840958	0.042788
1060.006356	0.042679
1060.171735	0.042720
1060.337096	0.043313
1060.502439	0.042017
1060.667764	0.040856
1060.833071	0.040865
1060.998359	0.040834
1061.163629	0.040105
1061.328881	0.039458
1061.494115	0.038693
1061.659330	0.037062
1061.824527	0.037143
1061.989706	0.036973
1062.154867	0.036990
1062.320010	0.035955
1062.485134	0.035220
1062.650240	0.037031
1062.815328	0.035255
1062.980398	0.035947
1063.145449	0.036398
1063.310482	0.034479
1063.475497	0.035448
1063.640494	0.036845
1063.805473	0.037644
1063.970433	0.037916
1064.135375	0.037894
1064.300299	0.038672
1064.465204	0.038119
1064.630092	0.040020
1064.794961	0.041706
1064.959812	0.040792
1065.124645	0.039179
1065.289459	0.039522
1065.454256	0.039357
1065.619034	0.037898
1065.783793	0.039048
1065.948535	0.039138
1066.113258	0.036883
1066.277964	0.038123
1066.442651	0.036331
1066.607319	0.035603
1066.771970	0.036551
1066.936602	0.036871
1067.101216	0.038407
1067.265812	0.037201
1067.430389	0.039248
1067.594949	0.038017
1067.759490	0.038160
1067.924013	0.040589
1068.088518	0.041619
1068.253004	0.041708
1068.417472	0.042110
1068.581922	0.040797
1068.746354	0.041953
1068.910768	0.038189
1069.075163	0.040584
1069.239540	0.039328
1069.403899	0.036200
1069.568240	0.035630
1069.732562	0.033347
1069.896866	0.033123
1070.061152	0.032605
1070.225420	0.031363
1070.389670	0.033373
1070.553901	0.032541
1070.718114	0.032275
1070.882309	0.033995
1071.046486	0.035837
1071.210644	0.037702
1071.374784	0.037268
1071.538906	0.037490
1071.703010	0.037255
1071.867096	0.036782
1072.031163	0.037376
1072.195212	0.037275
1072.359243	0.038778
1072.523256	0.038113
1072.687250	0.037188
1072.851226	0.037455
1073.015184	0.036822
1073.179124	0.038585
1073.343045	0.039994
1073.506949	0.038736
1073.670834	0.039940
1073.834701	0.039035
1073.998549	0.038375
1074.162380	0.037921
1074.326192	0.039392
1074.489986	0.040668
1074.653761	0.039800
1074.817519	0.038604
1074.981258	0.038922
1075.144979	0.038551
1075.308682	0.038283
1075.472367	0.037779
1075.636033	0.038354
1075.799681	0.036707
1075.963311	0.036245
1076.126923	0.037184
1076.290516	0.036586
1076.454092	0.036538
1076.617649	0.036153
1076.781187	0.038263
1076.944708	0.037096
1077.108210	0.036913
1077.271695	0.036662
1077.435160	0.038102
1077.598608	0.038028
1077.762038	0.038312
1077.925449	0.038885
1078.088842	0.039275
1078.252217	0.036820
1078.415573	0.036767
1078.578912	0.035846
1078.742232	0.035217
1078.905534	0.034336
1079.068817	0.033839
1079.232083	0.034359
1079.395330	0.032969
1079.558559	0.032733
1079.721770	0.032544
1079.884962	0.032906
1080.048136	0.034513
1080.211293	0.034920
1080.374430	0.035327
1080.537550	0.035792
1080.700651	0.034638
1080.863735	0.033829
1081.026800	0.033991
1081.189846	0.033759
1081.352875	0.035811
1081.515885	0.036266
1081.678877	0.037246
1081.841851	0.034640
1082.004807	0.034545
1082.167744	0.035187
1082.330663	0.036521
1082.493564	0.034487
1082.656447	0.034609
1082.819312	0.031159
1082.982158	0.030413
1083.144986	0.030499
1083.307796	0.031695
1083.470587	0.032782
1083.633361	0.032513
1083.796116	0.032903
1083.958853	0.035701
1084.121571	0.036066
1084.284272	0.038603
1084.446954	0.038943
1084.609618	0.037662
1084.772264	0.037059
1084.934892	0.034477
1085.097501	0.035306
1085.260092	0.036962
1085.422665	0.034535
1085.585220	0.034959
1085.747756	0.034113
1085.910274	0.031919
1086.072774	0.031583
1086.235256	0.032427
1086.397720	0.031900
1086.560165	0.029824
1086.722592	0.029290
1086.885001	0.029300
1087.047392	0.027951
1087.209764	0.029019
1087.372119	0.031011
1087.534455	0.031305
1087.696772	0.031925
1087.859072	0.032939
1088.021353	0.036026
1088.183616	0.036393
1088.345861	0.037035
1088.508088	0.038131
1088.670296	0.036908
1088.832486	0.036526
1088.994658	0.036508
1089.156812	0.037096
1089.318948	0.036651
1089.481065	0.034843
1089.643164	0.032236
1089.805245	0.031533
1089.967308	0.030734
1090.129352	0.029718
1090.291378	0.027639
1090.453386	0.027380
1090.615376	0.024671
1090.777347	0.026357
1090.939301	0.026222
1091.101236	0.026224
1091.263153	0.025947
1091.425051	0.027449
1091.586932	0.029482
1091.748794	0.028575
1091.910638	0.028065
1092.072463	0.028322
1092.234271	0.028251
1092.396060	0.029425
1092.557831	0.032964
1092.719584	0.033518
1092.881319	0.030993
1093.043035	0.030241
1093.204733	0.032182
1093.366413	0.033844
1093.528075	0.034330
1093.689718	0.029732
1093.851343	0.028566
1094.012950	0.027696
1094.174539	0.029845
1094.336110	0.030016
1094.497662	0.029174
1094.659196	0.030342
1094.820712	0.029747
1094.982210	0.029666
1095.143689	0.034486
1095.305151	0.035711
1095.466594	0.036026
1095.628018	0.033164
1095.789425	0.035608
1095.950813	0.036835
1096.112183	0.036381
1096.273535	0.037901
1096.434869	0.038674
1096.596184	0.036703
1096.757482	0.035291
1096.918761	0.031101
1097.080021	0.032913
1097.241264	0.032927
1097.402488	0.031264
1097.563694	0.030694
1097.724882	0.028593
1097.886052	0.025133
1098.047203	0.026282
1098.208336	0.027943
1098.369451	0.029185
1098.530548	0.029653
1098.691627	0.026426
1098.852687	0.029941
1099.013729	0.029118
1099.174753	0.030159
1099.335758	0.033588
1099.496746	0.032851
1099.657715	0.032136
1099.818666	0.032821
1099.979599	0.029756
1100.140513	0.032356
1100.301409	0.030103
1100.462287	0.031480
1100.623147	0.028449
1100.783989	0.031469
1100.944812	0.030132
1101.105617	0.028036
1101.266404	0.026415
1101.427173	0.027403
1101.587923	0.026559
1101.748656	0.023117
1101.909370	0.022030
1102.070066	0.024365
1102.230743	0.021532
1102.391403	0.020526
1102.552044	0.023308
1102.712667	0.025728
1102.873271	0.027156
1103.033858	0.027921
1103.194426	0.032000
1103.354976	0.030071
1103.515508	0.028310
1103.676021	0.027422
1103.836517	0.028519
1103.996994	0.024847
1104.157453	0.026168
1104.317893	0.023374
1104.478316	0.019275
1104.638720	0.015825
1104.799106	0.017964
1104.959474	0.021277
1105.119823	0.021216
1105.280155	0.024335
1105.440468	0.025795
1105.600763	0.021307
1105.761039	0.021921
1105.921298	0.025971
1106.081538	0.028755
1106.241760	0.030282
1106.401964	0.028379
1106.562149	0.027554
1106.722316	0.023657
1106.882465	0.025242
1107.042596	0.024867
1107.202709	0.025490
1107.362803	0.023623
1107.522879	0.023905
1107.682937	0.020157
1107.842977	0.020147
1108.002999	0.021031
1108.163002	0.021909
1108.322987	0.020176
1108.482954	0.025824
1108.642902	0.024630
1108.802833	0.025722
1108.962745	0.027268
1109.122639	0.029665
1109.282515	0.031442
1109.442372	0.031663
1109.602211	0.032043
1109.762032	0.032520
1109.921835	0.030734
1110.081620	0.028648
1110.241386	0.027015
1110.401134	0.026882
1110.560864	0.025764
1110.720576	0.021407
1110.880269	0.021246
1111.039945	0.021471
1111.199602	0.019451
1111.359240	0.016154
1111.518861	0.019259
1111.678463	0.018288
1111.838047	0.018228
1111.997613	0.019730
1112.157161	0.019714
1112.316690	0.021632
1112.476202	0.022718
1112.635695	0.026943
1112.795169	0.029088
1112.954626	0.026444
1113.114064	0.028451
1113.273484	0.025934
1113.432886	0.029637
1113.592270	0.033169
1113.751635	0.033108
1113.910983	0.031336
1114.070312	0.028989
1114.229622	0.027881
1114.388915	0.033180
1114.548189	0.035975
1114.707445	0.038414
1114.866683	0.036449
1115.025903	0.036084
1115.185104	0.034450
1115.344287	0.035378
1115.503452	0.033801
1115.662599	0.033728
1115.821727	0.030527
1115.980838	0.030871
1116.139930	0.028998
1116.299004	0.027976
1116.458059	0.028212
1116.617097	0.028435
1116.776116	0.029144
1116.935117	0.031984
1117.094099	0.030845
1117.253064	0.027307
1117.412010	0.028815
1117.570938	0.028684
1117.729848	0.027797
1117.888740	0.027666
1118.047613	0.026649
1118.206468	0.025414
1118.365305	0.024842
1118.524124	0.030341
1118.682924	0.034079
1118.841707	0.029410
1119.000471	0.031668
1119.159216	0.030704
1119.317944	0.033208
1119.476653	0.034374
1119.635344	0.036930
1119.794017	0.034347
1119.952672	0.031123
1120.111308	0.033782
1120.269927	0.037485
1120.428527	0.033051
1120.587108	0.033812
1120.745672	0.030285
1120.904217	0.030801
1121.062744	0.026457
1121.221253	0.027668
1121.379744	0.027169
1121.538216	0.025544
1121.696671	0.024735
1121.855107	0.025656
1122.013524	0.026943
1122.171924	0.030059
1122.330305	0.029405
1122.488668	0.031147
1122.647013	0.032294
1122.805340	0.035356
1122.963648	0.036057
1123.121938	0.031747
1123.280210	0.032143
1123.438464	0.030675
1123.596700	0.025576
1123.754917	0.024487
1123.913116	0.019304
1124.071297	0.018408
1124.229459	0.016866
1124.387604	0.015381
1124.545730	0.014558
1124.703838	0.011678
1124.861928	0.010481
1125.019999	0.011637
1125.178052	0.015123
1125.336088	0.017355
1125.494104	0.019480
1125.652103	0.016751
1125.810083	0.019489
1125.968045	0.023313
1126.125989	0.030936
1126.283915	0.032683
1126.441823	0.035788
1126.599712	0.034438
1126.757583	0.037108
1126.915436	0.037325
1127.073270	0.040743
1127.231087	0.035308
1127.388885	0.034854
1127.546665	0.030368
1127.704426	0.031060
1127.862170	0.029710
1128.019895	0.032207
1128.177602	0.032444
1128.335291	0.027929
1128.492961	0.025668
1128.650614	0.030625
1128.808248	0.032313
1128.965864	0.030487
1129.123461	0.025594
1129.281041	0.021795
1129.438602	0.021509
1129.596145	0.020933
1129.753670	0.025380
1129.911176	0.026467
1130.068665	0.022178
1130.226135	0.019345
1130.383587	0.019190
1130.541020	0.020516
1130.698436	0.020236
1130.855833	0.016117
1131.013212	0.016456
1131.170573	0.019211
1131.327915	0.021357
1131.485239	0.027860
1131.642545	0.024231
1131.799833	0.024494
1131.957103	0.026519
1132.114354	0.027600
1132.271588	0.027720
1132.428803	0.026757
1132.585999	0.019895
1132.743178	0.015881
1132.900338	0.014319
1133.057480	0.019206
1133.214604	0.021371
1133.371710	0.021501
1133.528797	0.021513
1133.685866	0.023897
1133.842917	0.025334
1133.999950	0.029736
1134.156964	0.030619
1134.313960	0.030364
1134.470938	0.032031
1134.627898	0.030874
1134.784840	0.033313
1134.941763	0.041656
1135.098668	0.040889
1135.255555	0.042838
1135.412424	0.043353
1135.569274	0.045687
1135.726107	0.044236
1135.882921	0.039567
1136.039716	0.043955
1136.196494	0.043681
1136.353253	0.038260
1136.509995	0.037211
1136.666717	0.032008
1136.823422	0.032488
1136.980109	0.033960
1137.136777	0.030560
1137.293427	0.032198
1137.450059	0.031007
1137.606672	0.030875
1137.763267	0.029340
1137.919844	0.025500
1138.076403	0.029221
1138.232944	0.030621
1138.389466	0.024096
1138.545971	0.023010
1138.702457	0.024458
1138.858924	0.019446
1139.015374	0.020266
1139.171805	0.020052
1139.328218	0.023783
1139.484613	0.018246
1139.640990	0.013233
1139.797348	0.017022
1139.953688	0.020166
1140.110010	0.017572
1140.266314	0.020304
1140.422600	0.019618
1140.578867	0.017168
1140.735116	0.017818
1140.891347	0.018768
1141.047559	0.023574
1141.203754	0.020634
1141.359930	0.014761
1141.516088	0.019926
1141.672228	0.015733
1141.828349	0.017377
1141.984452	0.020377
1142.140537	0.016414
1142.296604	0.019542
1142.452653	0.016252
1142.608683	0.021106
1142.764695	0.028948
1142.920689	0.025067
1143.076665	0.029055
1143.232622	0.028274
1143.388562	0.030084
1143.544483	0.032348
1143.700385	0.032694
1143.856270	0.030068
1144.012136	0.030422
1144.167985	0.025675
1144.323814	0.023228
1144.479626	0.027857
1144.635420	0.026692
1144.791195	0.026363
1144.946952	0.025763
1145.102691	0.029353
1145.258411	0.030417
1145.414113	0.025679
1145.569798	0.031051
1145.725463	0.034844
1145.881111	0.032380
1146.036741	0.033948
1146.192352	0.031305
1146.347945	0.033132
1146.503519	0.029427
1146.659076	0.029375
1146.814614	0.031454
1146.970134	0.029920
1147.125636	0.029267
1147.281120	0.024760
1147.436585	0.018547
1147.592032	0.019485
1147.747461	0.027540
1147.902872	0.024229
1148.058265	0.021121
1148.213639	0.017508
1148.368995	0.017131
1148.524333	0.016202
1148.679653	0.016703
1148.834954	0.016680
1148.990237	0.017072
1149.145502	0.007432
1149.300749	0.010781
1149.455977	0.017733
1149.611188	0.018153
1149.766380	0.018160
1149.921553	0.017107
1150.076709	0.015049
1150.231846	0.018676
1150.386966	0.014077
1150.542066	0.019085
1150.697149	0.022872
1150.852214	0.016370
1151.007260	0.012691
1151.162288	0.008853
1151.317298	0.012696
1151.472289	0.021388
1151.627263	0.019709
1151.782218	0.021823
1151.937155	0.017220
1152.092073	0.014325
1152.246974	0.014223
1152.401856	0.022840
1152.556720	0.021487
1152.711566	0.023505
1152.866393	0.022118
1153.021203	0.020309
1153.175994	0.024323
1153.330767	0.028363
1153.485521	0.028731
1153.640258	0.034998
1153.794976	0.034395
1153.949676	0.037297
1154.104358	0.029672
1154.259021	0.025171
1154.413667	0.027443
1154.568294	0.031675
1154.722903	0.030455
1154.877493	0.038748
1155.032066	0.036805
1155.186620	0.033281
1155.341156	0.039909
1155.495674	0.045316
1155.650173	0.041122
1155.804654	0.034989
1155.959118	0.031281
1156.113562	0.030426
1156.267989	0.025839
1156.422397	0.026892
1156.576788	0.028916
1156.731160	0.021318
1156.885513	0.026878
1157.039849	0.028047
1157.194166	0.036575
1157.348465	0.039512
1157.502746	0.038059
1157.657009	0.035388
1157.811253	0.036509
1157.965479	0.033497
1158.119687	0.035889
1158.273877	0.025039
1158.428048	0.031197
1158.582201	0.024990
1158.736337	0.020249
1158.890453	0.018815
1159.044552	0.014929
1159.198632	0.010982
1159.352694	0.021098
1159.506738	0.022537
1159.660764	0.030862
1159.814771	0.030052
1159.968761	0.036212
1160.122732	0.027778
1160.276685	0.027431
1160.430619	0.027064
1160.584535	0.028825
1160.738434	0.027413
1160.892313	0.025619
1161.046175	0.017183
1161.200019	0.017214
1161.353844	0.016141
1161.507651	0.029074
1161.661440	0.026871
1161.815210	0.022650
1161.968962	0.022179
1162.122697	0.019934
1162.276412	0.020810
1162.430110	0.028473
1162.583789	0.027012
1162.737451	0.023237
1162.891094	0.018203
1163.044718	0.017134
1163.198325	0.023836
1163.351913	0.028448
1163.505483	0.022298
1163.659035	0.026822
1163.812569	0.015406
1163.966084	0.012930
1164.119581	0.020136
1164.273060	0.019016
1164.426521	0.023879
1164.579964	0.024706
1164.733388	0.021862
1164.886794	0.023501
1165.040182	0.018730
1165.193551	0.027080
1165.346903	0.026525
1165.500236	0.021258
1165.653551	0.022360
1165.806848	0.020177
1165.960126	0.024162
1166.113386	0.028520
1166.266628	0.026112
1166.419852	0.026901
1166.573058	0.024355
1166.726245	0.030920
1166.879414	0.032659
1167.032565	0.036982
1167.185698	0.038641
1167.338812	0.037054
1167.491909	0.027789
1167.644987	0.029621
1167.798046	0.025765
1167.951088	0.017872
1168.104111	0.010215
1168.257117	0.004838
1168.410103	-0.006658
1168.563072	-0.011943
1168.716023	-0.018193
1168.868955	-0.012534
1169.021869	-0.011406
1169.174765	-0.011666
1169.327642	-0.002403
1169.480501	-0.003223
1169.633343	0.000258
1169.786165	-0.004469
1169.938970	0.004004
1170.091757	0.007658
1170.244525	0.005175
1170.397275	0.001424
1170.550007	0.003512
1170.702720	0.003413
1170.855415	0.006579
1171.008092	0.013571
1171.160751	0.034566
1171.313392	0.040554
1171.466014	0.003661
1171.618619	0.098426
1171.771205	0.098426
1171.923772	0.098426
