sample name	sample
index	1046
start time	 04-19-2021  02:21:24 PM
880	0.051699
Peak Time (s)	102.536
Peak Height 	0.0517
calc peak height	100,103
Baseline Time (s)	10.034
Baseline Value 	-0.003704
subtract baseline	10,4
Abs	0.029775
Peak Time (s)	100.535
Peak Height 	0.02978
calc peak height	100,103
Baseline Time (s)	11.036
Baseline Value 	-2.2856E-4
subtract baseline	10,3
PK_550	0.029098
Peak Time (s)	102.536
Peak Height 	0.0291
calc peak height	100,103
Baseline Time (s)	10.034
Baseline Value 	3.173E-4
subtract baseline	10,2
PK_880	0.035162
Peak Time (s)	101.035
Peak Height 	0.03516
calc peak height	100,103
Baseline Time (s)	10.034
Baseline Value 	-2.327E-4
subtract baseline	10,1


Time (s)	A880-A510	A880-A775	A880-A975	A880	I510	I775	I975	I880	
0.035000	-0.000600	-0.000112	-0.002103	0.003122	6567.600155	45910.789373	3990.808843	24302.355199
0.535000	-0.002755	-0.000792	-0.003111	0.007638	6512.073158	45400.498287	3976.825839	24081.180673
1.035000	-0.002496	-0.000455	-0.003154	0.004232	6542.467409	45767.401618	3985.315447	24247.755006
1.536500	-0.000207	-0.000832	0.001168	0.001123	6587.717152	46037.253209	4004.313768	24400.955195
2.036000	0.002585	-0.000719	-0.000229	0.001302	6609.816861	46030.757349	4000.258858	24392.112994
2.536500	-0.003840	-0.000570	-0.002486	0.005786	6518.418636	45603.400544	3983.074094	24171.610892
3.039000	0.000807	0.000053	0.006142	-0.000575	6610.658385	46294.070325	4021.651132	24485.104395
3.537000	0.001632	-0.000270	-0.003303	0.000975	6604.514593	46107.689372	3993.223074	24408.287949
4.036500	0.001646	0.000317	-0.000191	0.000804	6606.079408	46183.070279	4001.637096	24416.757090
4.537500	-0.001622	-0.000698	0.001033	0.000990	6576.920466	46063.757550	4004.308810	24407.539392
5.035000	0.001834	-0.000283	0.001715	0.000493	6610.307190	46154.232315	4007.351981	24432.126335
5.534500	0.001122	-0.000197	0.003045	0.000524	6604.011911	46159.785761	4010.718667	24430.631207
6.035000	-0.000524	-0.000001	0.000339	0.000773	6587.996903	46154.564727	4003.081968	24418.300946
6.535500	0.000584	0.000130	0.000677	-0.000172	6605.345297	46261.485356	4006.388785	24465.083183
7.036000	0.000938	-0.000003	-0.005945	0.000433	6603.223945	46188.076052	3987.873482	24435.122303
7.539000	0.001887	0.000666	0.003787	0.000770	6608.409313	46221.058802	4012.003968	24418.409117
8.036000	0.001064	-0.000135	0.007276	0.000202	6606.245371	46197.871111	4022.586012	24446.549185
8.536500	-0.000208	-0.000745	0.002475	-0.000618	6602.424319	46218.922074	4012.203062	24487.256458
9.037000	0.001508	-0.000450	-0.001661	-0.000431	6615.385687	46229.584547	4001.031222	24477.958833
9.537500	0.000398	-0.000468	-0.001049	-0.000746	6608.647017	46259.192859	4003.418187	24493.615437
10.034500	0.000000	0.000000	0.001116	0.000000	6598.949373	46231.481057	4007.078954	24456.577191
10.535000	-0.000470	0.000243	-0.001287	0.004144	6560.122581	45844.918557	3990.280810	24252.062432
11.035500	0.001179	0.000278	0.000000	0.000076	6608.290337	46251.512775	4004.001441	24452.784686
11.536000	-0.000612	0.000025	0.000068	0.000057	6593.293489	46228.305528	4004.227217	24453.743629
12.039000	0.001728	-0.000178	0.003119	-0.000157	6614.933551	46229.339202	4012.677525	24464.360525
12.535500	-0.003351	-0.000265	-0.004211	0.004164	6535.920839	45792.826343	3982.811274	24251.102832
13.036000	0.001076	0.000478	0.003109	0.000606	6602.931200	46218.777474	4010.670658	24426.554858
13.539000	0.001375	-0.000328	-0.000196	0.000205	6608.863524	46178.455072	4003.164387	24446.414542
14.037500	-0.001499	-0.000866	-0.000024	0.001610	6572.738881	45985.686438	3999.994764	24376.900558
14.538000	-0.001603	-0.000171	-0.000591	0.003828	6553.297347	45835.279175	3992.864391	24267.630240
15.035000	0.001886	0.000144	-0.001489	0.000495	6610.735759	46196.517586	3999.095517	24432.033507
15.535000	0.001126	0.000497	-0.000270	0.000564	6603.706863	46224.793118	4002.048746	24428.611833
16.036000	0.001934	0.000616	0.004637	0.000753	6608.960365	46217.924984	4014.259144	24419.293219
16.538500	-0.003900	-0.000876	-0.004206	0.004609	6527.663698	45688.983904	3981.700366	24229.259090
17.036000	0.001517	-0.000149	0.006201	-0.001718	6626.420966	46387.991160	4024.803852	24541.950886
17.536500	0.001376	-0.000161	0.000290	0.001057	6601.654189	46110.429327	4002.222605	24404.243517
18.036500	-0.000638	0.000061	0.003437	0.001917	6577.396270	46047.154727	4008.123743	24361.744853
18.536500	-0.001109	0.000714	0.001035	0.002967	6564.628088	46007.844667	3999.228493	24309.971912
19.037500	0.000579	0.000727	-0.003918	0.002268	6584.691773	46078.377125	3988.362525	24344.412095
19.535000	0.002343	-0.000150	-0.002166	0.001692	6604.463257	46048.566993	3994.297316	24372.867376
20.035000	0.000173	-0.000347	0.000773	0.001288	6589.524661	46068.985761	4002.871151	24392.787703
20.535500	-0.000065	0.000078	0.001108	0.002335	6578.701443	46007.328598	4001.039261	24341.093659
21.038500	-0.000007	0.000316	-0.001107	0.001842	6583.337340	46079.817608	3996.620194	24365.417425
21.536000	-0.000066	-0.000368	0.003251	0.001257	6587.777282	46069.994497	4009.351481	24394.343199
22.036500	0.002416	0.000345	0.001972	0.001619	6605.700099	46104.924148	4005.110628	24376.465350
22.536500	-0.000320	-0.000239	-0.006379	0.002250	6577.267462	45984.365744	3982.169424	24345.286360
23.036500	-0.001237	-0.000385	-0.000370	0.001819	6573.187361	46012.691064	3998.570411	24366.589579
23.540000	-0.000106	0.000353	0.000052	0.002103	6580.314531	46057.636766	3998.924808	24352.570262
24.034500	0.000366	0.000820	-0.002506	0.002195	6583.509331	46094.876859	3992.144477	24348.031638
24.535000	-0.000247	-0.000171	-0.003789	0.002820	6573.092102	45934.730714	3987.286320	24317.188978
25.035500	-0.001098	0.000167	0.003268	0.001444	6577.507291	46104.534497	4008.912186	24385.096508
25.538500	0.000051	-0.000357	0.000119	0.001480	6586.886151	46049.082383	4000.696879	24383.335736
26.036000	0.000589	0.000015	-0.002769	0.001465	6591.544676	46087.325462	3993.334344	24384.048739
26.536000	-0.001499	0.000138	-0.000669	0.001692	6572.056056	46077.124290	3998.127879	24372.853270
27.036500	-0.000870	-0.000414	0.001558	0.001161	6581.806518	46074.959803	4005.223774	24399.093683
27.536500	0.000724	0.000157	0.002676	-0.000261	6607.291644	46273.164639	4011.797867	24469.536136
28.037000	0.000202	0.000235	0.001612	0.000301	6598.116495	46224.929863	4007.584367	24441.670404
28.537500	0.001094	0.000095	-0.001463	0.000705	6602.239877	46170.817102	3998.621346	24421.635834
29.034500	0.001988	0.000151	0.004408	0.000385	6612.527310	46208.193536	4014.618654	24437.474762
29.535500	0.000942	0.000678	0.004275	0.000686	6601.119837	46230.664803	4013.489861	24422.593363
30.038500	0.001741	-0.000215	0.001677	0.000342	6610.798014	46176.077485	4007.645149	24439.615720
30.535500	-0.002323	-0.000118	-0.005567	0.005100	6536.691314	45715.189598	3977.032680	24205.196455
31.036000	-0.000157	-0.000153	0.005638	0.002365	6577.677602	45981.614711	4012.669487	24339.657792
31.536000	0.001528	-0.000257	-0.001098	0.000322	6609.165361	46173.845633	4000.542868	24440.600257
32.036500	-0.000910	0.000034	0.000229	0.000771	6584.761687	46158.215180	4002.803604	24418.393926
32.536500	-0.001708	-0.001010	-0.001722	0.005010	6542.551750	45636.316937	3986.973993	24209.579294
33.037000	-0.000304	0.000846	-0.000270	0.000839	6589.293677	46232.108894	4001.343325	24415.005613
33.542000	0.000849	-0.000639	0.003563	-0.001579	6619.548251	46325.144187	4017.535819	24535.027501
34.037500	0.001167	-0.000226	0.002923	0.002319	6589.213882	45978.860767	4005.757590	24341.905234
34.538000	-0.000875	-0.000418	0.000649	0.002149	6573.453920	45976.680643	4000.338351	24350.284373
35.035500	0.000649	0.000142	-0.001423	0.002131	6586.438115	46033.956701	3995.072762	24351.188088
35.536000	-0.000873	-0.001068	-0.000467	0.001653	6577.644152	45961.468900	3998.747489	24374.784262
36.036000	0.001328	0.000209	0.001754	0.002842	6586.168988	45970.261798	4001.399081	24316.145418
36.536000	-0.002419	-0.000291	0.001232	0.002870	6554.480234	45918.019711	3999.984780	24314.748716
37.036500	0.000542	-0.000210	0.004798	0.002172	6585.191738	45995.069105	4010.991695	24349.170249
37.536500	0.000340	0.000047	0.000131	0.002047	6584.533815	46032.765005	3999.268550	24355.296530
38.037500	-0.001578	-0.000640	-0.002741	0.001279	6574.858849	46040.863837	3993.882740	24393.257593
38.534500	0.000765	-0.000065	-0.001201	0.001819	6590.042067	46044.299268	3996.438072	24366.555981
39.038000	0.001677	-0.000273	-0.000467	0.001745	6598.370602	46031.011483	3998.510300	24370.218386
39.535500	-0.001226	0.000035	-0.000995	0.001606	6575.070466	46075.454338	3997.514725	24377.116115
40.036000	0.000052	0.000236	0.000776	0.002130	6581.417970	46043.401221	4000.714317	24351.240368
40.536000	-0.000478	-0.000397	-0.001528	0.002289	6575.613613	45964.860367	3994.398826	24343.363486
41.036500	-0.000065	-0.000182	0.002337	0.001959	6581.871440	46018.900306	4005.174336	24359.678225
41.536500	-0.000766	-0.000325	-0.002214	0.001676	6578.345406	46032.695169	3994.212573	24373.626465
42.037000	0.000228	0.000573	0.000489	0.002479	6579.958098	46042.136887	3999.078682	24334.015994
42.537000	-0.001134	0.000121	-0.003412	0.002847	6565.428703	45961.044000	3988.176875	24315.901166
43.034500	-0.001038	0.000035	0.003199	0.001684	6575.990550	46067.648532	4008.110213	24373.238481
43.538000	-0.000559	0.000391	0.000539	0.001624	6580.530544	46108.930470	4001.405760	24376.210238
44.035000	0.002851	0.000272	0.002855	-0.002309	6642.866026	46489.164506	4017.594880	24571.390466
44.536000	-0.000410	0.000079	-0.000045	0.005594	6548.509470	45686.027536	3989.753449	24181.010969
45.036000	0.000121	-0.000133	-0.000396	0.000302	6597.421911	46188.212576	4002.400974	24441.625227
45.536000	0.002229	0.000073	-0.001446	0.000503	6613.580105	46188.749848	3999.186044	24431.653046
46.036500	0.000423	-0.000523	-0.005519	0.003319	6574.535767	45850.746828	3981.641392	24292.641682
46.536500	-0.001618	-0.000142	-0.000609	0.005898	6535.910216	45634.402335	3987.546661	24166.106406
47.036500	0.000405	-0.000163	-0.000971	0.001313	6591.282762	46084.816204	3998.327129	24391.592719
47.538500	-0.001940	-0.000021	-0.001110	0.002357	6562.778779	45995.466446	3995.294854	24340.028805
48.037000	-0.001558	-0.000293	0.000256	0.003823	6553.709561	45823.748245	3995.039178	24267.853740
48.535500	-0.000368	-0.000044	-0.001097	0.005389	6550.568765	45694.078246	3987.600007	24191.022248
49.035000	0.002164	-0.000700	-0.000167	0.000043	6616.937557	46157.582125	4003.658991	24454.455486
49.535500	0.002341	-0.000063	0.004482	-0.002340	6638.761024	46458.755047	4021.927172	24572.916847
50.035500	-0.000664	-0.000043	-0.000136	0.004499	6555.534512	45781.703613	3992.312689	24234.657513
50.536000	0.002270	0.000426	0.003592	0.028420	6384.258236	43532.807660	3941.978973	23092.543207
51.036500	0.005701	-0.015981	-0.002678	0.503575	4092.497535	16070.529238	3233.491318	9676.816776
51.536000	-0.011441	-0.016115	-0.043973	0.071772	5958.332230	38311.640262	3742.230906	21176.445089
52.037000	-0.029838	-0.091798	-0.053549	-0.250670	9033.936974	65325.418026	4647.399856	41274.662130
52.539500	-0.009206	-0.139832	-0.022722	-0.300161	10104.416691	65535.000000	5005.531474	45903.907443
53.035000	-0.006603	-0.131770	-0.019155	-0.292099	10014.737089	65535.000000	4983.695463	45113.394627
53.535000	-0.010914	-0.100936	-0.019927	-0.261266	9463.603347	65535.000000	4836.346575	42221.857124
54.035500	-0.008866	-0.087564	-0.020224	-0.247893	9295.316480	65535.000000	4775.872588	41030.269728
54.535500	-0.012789	-0.079532	-0.022220	-0.239673	9119.659008	65507.903309	4731.897346	40315.761929
55.036000	-0.007754	-0.069841	-0.017410	-0.227259	9015.302625	65117.190163	4699.831811	39262.065961
55.536000	-0.005862	-0.069200	-0.012774	-0.225923	9023.100020	65017.852242	4713.677173	39150.428237
56.036500	-0.011993	-0.042211	-0.015356	-0.185992	8409.434200	63196.944043	4543.099990	35968.049905
56.537000	-0.004732	-0.023769	-0.005001	-0.146214	8013.808669	60311.338267	4434.452804	33075.924535
57.040000	-0.006902	-0.019480	-0.009401	-0.129465	7796.876710	58690.419774	4360.780280	31935.151801
57.537500	-0.005555	-0.011689	-0.010835	-0.088510	7372.221391	54596.124156	4223.494735	29324.302866
58.035000	-0.002450	-0.008250	-0.011892	-0.063974	7158.088223	52149.798824	4146.864317	27874.103013
58.535500	-0.003886	-0.007800	-0.009448	-0.047136	6983.665518	50329.801619	4105.712253	26925.263995
59.035500	0.002830	-0.002471	-0.007569	-0.034152	6925.506137	49502.822826	4074.878879	26218.269281
59.536000	0.000019	-0.002090	-0.012533	-0.023943	6807.358325	48462.391511	4034.007434	25677.084678
60.036000	-0.004677	-0.002628	-0.010291	-0.006948	6618.209973	46663.647822	3995.612965	24803.852206
60.536500	0.002792	-0.000591	-0.007618	0.010304	6535.949249	45160.504308	3958.929337	23951.680437
61.037000	-0.002385	0.001534	-0.011244	0.032999	6311.486552	43210.314700	3895.746075	22881.038732
61.539500	-0.001923	-0.000765	-0.009561	0.024800	6379.696106	43760.185655	3919.019591	23261.393294
62.037500	-0.006194	0.001945	-0.010978	0.033646	6276.916496	43188.360782	3894.856949	22851.297625
62.534500	-0.000866	0.003417	-0.010810	0.028765	6356.646421	43780.609001	3906.674857	23076.548226
63.035000	0.001252	0.004677	-0.002280	0.037680	6303.353822	43068.063324	3905.766951	22667.045054
63.535500	0.005656	0.005772	0.003674	0.042621	6299.177721	42714.818733	3908.151953	22443.706563
64.035000	0.004584	0.005430	-0.003385	0.047005	6257.050197	42285.019466	3881.530910	22247.633061
64.535500	0.011481	0.006730	0.002898	0.038913	6374.060578	43143.860652	3915.087897	22611.082458
65.036500	0.011875	0.007763	0.004660	0.032931	6425.067542	43797.485092	3933.629864	22884.136105
65.536000	0.013157	0.008593	0.004243	0.036288	6408.386952	43560.795385	3924.550013	22730.425813
66.039500	0.012143	0.009661	0.005407	0.041417	6359.459689	43183.302183	3915.099465	22497.894409
66.537000	0.016418	0.011984	0.009164	0.028480	6498.319228	44620.338416	3955.489458	23089.794622
67.037500	0.015802	0.012494	0.012372	0.045226	6358.283175	43093.140439	3922.617011	22326.984552
67.535000	0.019134	0.015605	0.008637	0.056605	6295.244660	42337.041477	3887.106949	21825.153437
68.035500	0.013320	0.013581	0.011538	0.054662	6265.349780	42329.806909	3898.354598	21909.949856
68.535500	0.017682	0.014541	0.010539	0.048756	6345.259996	42956.405631	3909.875275	22169.884953
69.035500	0.016293	0.014508	0.014986	0.045238	6362.066330	43278.317557	3928.853611	22326.420001
69.536000	0.017958	0.014589	0.011289	0.041990	6401.167241	43588.188875	3927.773808	22472.075364
70.042500	0.019200	0.015453	0.011941	0.045570	6382.500975	43335.203982	3920.764017	22311.586459
70.539500	0.024161	0.016407	0.016814	0.038515	6479.506713	44085.927771	3949.622213	22629.151858
71.037000	0.022346	0.017554	0.016373	0.036990	6477.134218	44339.445999	3952.282653	22698.452302
71.537500	0.021828	0.017229	0.016442	0.034419	6493.965454	44553.802263	3958.794846	22815.884216
72.037500	0.022121	0.017846	0.012446	0.038424	6463.586816	44230.866917	3939.181942	22633.251067
72.535000	0.020641	0.018103	0.010867	0.036686	6465.688948	44420.693409	3939.568718	22712.292699
73.035500	0.022692	0.017750	0.013774	0.030260	6535.485501	45004.088963	3962.489868	23007.309540
73.536000	0.021258	0.018280	0.019008	0.029459	6530.219252	45132.869137	3977.574759	23044.347817
74.036000	0.021553	0.018665	0.013019	0.033953	6495.536742	44736.208426	3951.505262	22837.246574
74.536500	0.020917	0.018270	0.011912	0.032164	6505.029143	44870.418063	3953.181470	22919.439333
75.039500	0.023375	0.019463	0.020175	0.026555	6572.144942	45531.356759	3987.869195	23179.377500
75.536500	0.022383	0.019019	0.020635	0.026254	6566.347403	45517.324096	3989.803782	23193.408067
76.037000	0.024040	0.019435	0.018766	0.026986	6574.104234	45486.344204	3983.203472	23159.247543
76.534500	0.023407	0.020532	0.021383	0.027850	6561.556414	45509.144880	3987.649513	23119.059163
77.035000	0.023421	0.020450	0.018999	0.028402	6557.054365	45447.137873	3980.215076	23093.385225
77.535500	0.024399	0.020488	0.020188	0.027852	6569.855749	45504.657025	3984.611232	23118.950212
78.035500	0.022307	0.020041	0.018800	0.032518	6513.574829	45007.209066	3969.382984	22903.135692
78.536000	0.024675	0.020454	0.019470	0.026651	6582.270512	45618.980313	3985.835440	23174.886702
79.036000	0.026915	0.021088	0.025696	0.026776	6600.131124	45669.043191	4001.418309	23169.074342
79.539500	0.030499	0.022152	0.022660	0.027394	6625.315353	45712.798827	3992.059871	23140.271510
80.036500	0.024728	0.020873	0.018541	0.031554	6541.655579	45181.350887	3971.145519	22947.557046
80.536500	0.022815	0.021900	0.023796	0.031723	6524.350911	45264.653268	3983.945471	22939.723631
81.037000	0.027149	0.022310	0.020069	0.027946	6592.209714	45674.070442	3984.071769	23114.566258
81.537000	0.024828	0.022486	0.019683	0.028093	6571.437660	45677.003740	3982.724344	23107.764702
82.035500	0.020440	0.021077	0.020284	0.032124	6501.424846	45145.727078	3974.084099	22921.257044
82.535500	0.023628	0.022454	0.018051	0.028180	6560.641123	45665.253045	3978.386715	23103.724059
83.036000	0.023668	0.022902	0.018954	0.029152	6552.850348	45613.832962	3978.212632	23058.610667
83.536000	0.022576	0.022391	0.018083	0.029057	6544.527099	45573.032138	3976.257544	23062.983425
84.039000	0.018894	0.022003	0.016588	0.034690	6467.727936	44986.917722	3958.486427	22803.478724
84.536500	0.024202	0.022614	0.021865	0.030510	6545.973631	45452.572739	3982.128696	22995.728676
85.036500	0.024630	0.023576	0.019983	0.032403	6533.778192	45361.705339	3972.630362	22908.419322
85.537000	0.023637	0.023312	0.017323	0.032666	6523.357356	45310.403908	3965.330776	22896.340781
86.037500	0.020840	0.022770	0.021699	0.037778	6458.418494	44763.117121	3963.499507	22662.605458
86.534500	0.024331	0.023268	0.020758	0.038494	6481.071726	44742.183346	3959.391699	22630.092509
87.035500	0.028325	0.023730	0.027242	0.034487	6547.188140	45173.906846	3985.674199	22812.763198
87.535500	0.026830	0.023579	0.018216	0.034924	6531.105046	45116.802413	3961.937943	22792.732721
88.035500	0.023609	0.023336	0.024852	0.040740	6456.853679	44533.434398	3963.976139	22528.456959
88.595500	0.025664	0.023863	0.022325	0.041266	6469.312366	44533.455821	3956.415025	22504.728242
89.427500	0.029090	0.024196	0.022622	0.037996	6524.374973	44879.457550	3965.254675	22652.710975
89.901500	0.029333	0.024142	0.024031	0.038549	6521.804152	44820.985035	3967.384535	22627.594048
90.036500	0.028377	0.023956	0.026475	0.038676	6512.848129	44790.839781	3973.178827	22621.832433
90.537500	0.026050	0.024176	0.021429	0.044509	6446.062922	44254.224146	3946.246128	22359.031972
91.037500	0.029936	0.025558	0.028685	0.040529	6510.424200	44766.685414	3974.073805	22537.979100
91.534500	0.028091	0.024395	0.026393	0.039800	6501.222123	44724.947907	3970.160685	22570.918771
92.035500	0.030610	0.025494	0.024523	0.041072	6511.501650	44708.323331	3962.332689	22513.442726
92.535500	0.028810	0.026058	0.025836	0.047269	6446.069444	44170.875348	3950.279246	22235.913161
93.038500	0.030422	0.025512	0.027096	0.042177	6500.838516	44604.065753	3965.982404	22463.674053
93.536500	0.030642	0.025538	0.027680	0.042475	6500.203419	44578.079384	3966.696913	22450.285497
94.036500	0.030734	0.025795	0.022572	0.047423	6460.440831	44131.347116	3941.924956	22229.055475
94.537000	0.028256	0.026778	0.023872	0.049228	6425.750367	44053.598181	3940.696237	22149.000605
95.037000	0.033182	0.026640	0.026620	0.044544	6504.075906	44485.523244	3958.924448	22357.455808
95.537500	0.032785	0.027288	0.030543	0.044842	6498.355543	44519.090966	3967.932242	22344.150695
96.035000	0.033157	0.026882	0.021861	0.046527	6487.571111	44319.632142	3942.375750	22268.937242
96.537500	0.034536	0.027044	0.028956	0.045021	6511.316714	44478.604518	3963.535036	22336.139804
97.035500	0.033287	0.027664	0.029995	0.045993	6493.022543	44445.045366	3963.702956	22292.744704
97.539000	0.031357	0.027380	0.025185	0.045386	6482.172200	44475.851874	3953.307991	22319.838118
98.036000	0.032997	0.027999	0.032385	0.045991	6490.657361	44477.184616	3969.661572	22292.821683
98.536500	0.034510	0.027602	0.032361	0.046142	6501.848869	44424.829864	3969.224153	22286.069062
99.036500	0.033279	0.027741	0.028411	0.046251	6490.832909	44427.725661	3959.135041	22281.231950
99.537000	0.032636	0.027578	0.030877	0.046712	6481.775203	44368.214198	3964.107015	22260.677044
100.036500	0.030423	0.027424	0.027531	0.050204	6435.366437	44022.384590	3947.241256	22105.832800
100.534500	0.034146	0.028404	0.029775	0.047784	6485.366506	44344.822655	3958.716937	22213.018350
101.035000	0.035162	0.028006	0.028021	0.047251	6498.084538	44357.613414	3955.697882	22236.689518
101.535500	0.031988	0.027828	0.028268	0.047478	6470.214021	44319.033969	3955.747768	22226.592141
102.038500	0.034186	0.027984	0.027088	0.049798	6469.225358	44113.739000	3947.150282	22123.763592
102.536000	0.034018	0.029098	0.029118	0.051699	6452.378854	44039.294300	3947.465224	22039.911947
103.035500	0.032856	0.028255	0.031121	0.048299	6470.606472	44281.697616	3960.774068	22190.176385
103.536500	0.034172	0.028884	0.031742	0.048946	6476.065167	44279.868837	3960.707950	22161.457987
104.037000	0.032240	0.029481	0.031413	0.051840	6436.822850	44062.206049	3952.751040	22033.685888
104.537000	0.034467	0.029293	0.034686	0.049655	6472.679354	44251.415105	3966.259718	22130.077546
105.037500	0.034264	0.030196	0.032133	0.050485	6464.255213	44258.419214	3957.868918	22093.426644
105.535000	0.034740	0.028775	0.031665	0.049763	6474.037000	44192.013946	3958.495223	22125.315903
106.035000	0.032520	0.028705	0.027189	0.052414	6434.447539	43934.745490	3941.014347	22008.446859
106.538000	0.035320	0.029464	0.027726	0.050978	6468.843233	44142.127272	3945.825303	22071.660576
107.036000	0.035249	0.029970	0.033979	0.051269	6465.893894	44162.534541	3960.494947	22058.848875
107.536000	0.036868	0.030048	0.033877	0.051588	6476.511326	44139.698507	3959.451878	22044.780434
108.036500	0.035987	0.029924	0.030532	0.053448	6454.168132	43952.170755	3946.645608	21963.067403
108.536500	0.033093	0.029498	0.023499	0.056223	6408.392140	43651.478709	3922.925051	21841.790643
109.037000	0.038170	0.030067	0.034884	0.052885	6476.544231	44018.772882	3958.735114	21987.754245
109.534500	0.036181	0.030120	0.033013	0.052870	6460.449231	44025.239078	3954.153755	21988.435209
110.037500	0.035857	0.029766	0.026584	0.054478	6444.751276	43840.273522	3934.540851	21917.954705
110.535000	0.034008	0.030488	0.028790	0.057871	6402.520637	43589.908614	3931.674845	21770.150892
111.038000	0.037198	0.030953	0.030481	0.054144	6458.352237	43983.660746	3944.821018	21932.595817
111.535500	0.037684	0.030570	0.038331	0.054452	6459.798571	43918.397093	3963.395966	21919.101527
112.035500	0.036780	0.030500	0.032288	0.055442	6444.423550	43818.714786	3946.065591	21875.859904
