sample name	sample
index	653
start time	 03-19-2021  04:17:33 PM
880	0.291524
Peak Time (s)	92.538
Peak Height 	0.2915
calc peak height	90,93
Baseline Time (s)	11.536
Baseline Value 	-0.001832
subtract baseline	10,4
Abs	0.184684
Peak Time (s)	91.035
Peak Height 	0.1847
calc peak height	90,93
Baseline Time (s)	11.036
Baseline Value 	0.005066
subtract baseline	10,3
PK_550	0.086155
Peak Time (s)	90.039
Peak Height 	0.08616
calc peak height	90,93
Baseline Time (s)	9.54
Baseline Value 	3.7916E-4
subtract baseline	10,2
PK_880	0.178574
Peak Time (s)	91.035
Peak Height 	0.1786
calc peak height	90,93
Baseline Time (s)	11.036
Baseline Value 	0.00244
subtract baseline	10,1


Time (s)	A880-A510	A880-A775	A880-A975	A880	I510	I775	I975	I880	
0.034500	-0.005598	-0.000581	-0.003009	0.005025	7289.330956	44971.489400	4048.232894	23963.512778
0.538000	-0.004468	0.000603	-0.006280	0.004149	7309.209705	45170.769769	4042.255877	24005.866632
1.038000	-0.003151	-0.000596	-0.005937	0.002936	7334.396405	45172.114597	4046.135121	24064.594729
1.539500	-0.000834	0.000133	-0.005493	0.001260	7374.461373	45405.957378	4051.444811	24146.039199
2.036000	-0.006585	-0.000861	-0.005670	0.004488	7284.883701	44996.330948	4042.930640	23989.448717
2.539000	-0.002337	-0.000426	-0.004502	0.000963	7362.321963	45380.473601	4054.683479	24160.521968
3.036500	0.000662	-0.000776	-0.000220	-0.002588	7428.652958	45693.416260	4074.583767	24334.201291
3.537000	-0.001644	0.000030	-0.002494	0.000184	7377.143263	45500.838864	4061.722499	24198.483420
4.037000	-0.003754	-0.000939	-0.008649	0.004635	7311.469005	44974.610126	4035.172222	23982.355794
4.537500	-0.002331	-0.001073	-0.006611	0.003807	7333.882409	45041.601208	4042.283144	24022.388839
5.035000	-0.002559	-0.000489	-0.000309	-0.000364	7373.436246	45503.676360	4068.669030	24225.224770
5.540500	-0.001059	0.000205	0.001926	-0.000171	7386.627907	45552.667330	4073.887057	24215.797228
6.035500	-0.000558	0.000638	-0.004110	0.000761	7382.270082	45503.929541	4056.179665	24170.330237
6.538500	-0.000798	0.000217	-0.002376	0.000597	7381.508105	45478.846549	4060.975077	24178.340922
7.036000	0.000607	0.000429	-0.003258	0.001048	7391.152981	45455.525208	4057.606583	24156.374122
7.539000	-0.000951	-0.000452	-0.000110	0.000094	7385.044515	45462.605984	4068.010792	24202.899376
8.036500	-0.000323	0.000771	-0.007761	0.000821	7384.035100	45510.962179	4046.862918	24167.393827
8.537000	0.000817	0.000835	-0.006439	0.000687	7396.939155	45530.401820	4050.509863	24173.968400
9.037500	0.000844	0.000775	0.002947	0.000598	7398.111370	45533.262882	4074.534260	24178.310752
9.540000	-0.001313	0.000000	0.000884	-0.000127	7383.621749	45528.334252	4071.108358	24213.664664
10.035000	0.000768	0.000048	-0.004141	0.000010	7403.291254	45519.578012	4057.994341	24206.970341
10.538000	-0.002058	-0.000507	-0.005673	-0.000471	7379.567044	45512.391327	4055.343437	24230.461054
11.035500	0.000000	-0.000456	0.000000	-0.000434	7400.007864	45513.755051	4069.635084	24228.651584
11.535500	-0.000844	-0.000078	0.002662	0.000000	7387.078562	45508.324196	4075.337196	24207.465795
12.036000	0.000454	-0.000261	-0.002605	-0.000538	7405.672297	45543.011212	4063.272702	24233.753469
12.539000	-0.001869	-0.000358	-0.002233	0.003387	7342.697716	45151.383448	4054.291056	24042.711310
13.039500	-0.001569	-0.000155	0.003641	0.000708	7372.612163	45431.606262	4076.031720	24172.905081
13.536500	0.001169	0.000285	0.002436	0.001784	7389.386233	45369.649060	4070.192345	24120.521802
14.037500	-0.001853	-0.000693	-0.003545	0.002689	7349.846922	45186.584043	4052.747532	24076.563296
14.537500	-0.004190	-0.000371	-0.005541	0.004349	7309.980230	45057.145692	4043.598792	23996.190234
15.035000	0.000335	0.000881	0.000865	0.001919	7379.601779	45414.560723	4065.844112	24113.981071
15.535500	-0.000017	-0.000186	-0.003198	0.001285	7382.446322	45372.351533	4057.157286	24144.805324
16.036000	-0.001024	0.000184	0.000623	0.001406	7371.074522	45396.657238	4066.536089	24138.945046
16.536000	-0.005440	-0.000308	-0.009290	0.006252	7278.780571	44879.596876	4029.604824	23904.406091
17.036000	0.002927	0.000573	-0.000234	-0.001767	7443.403851	45745.260841	4072.443545	24293.896133
17.542500	-0.001652	-0.000613	-0.000846	0.001505	7363.755450	45309.335352	4062.551135	24134.092529
18.037000	-0.001798	0.000066	-0.001329	0.003472	7342.564363	45184.388903	4056.357500	24038.636289
18.537000	-0.001512	-0.000519	-0.005343	0.002555	7354.618543	45216.552214	4048.574673	24083.074942
19.034500	-0.000849	0.000315	-0.005682	0.002600	7360.826962	45293.222193	4047.613645	24080.918610
19.535000	-0.000439	-0.000040	-0.006822	0.002521	7365.737273	45266.407907	4044.963947	24084.747996
20.035000	-0.001866	-0.000079	-0.003890	0.002394	7352.681336	45274.975419	4052.624626	24090.918012
20.535500	-0.001738	-0.000456	-0.005027	0.003646	7341.419915	45116.785677	4046.633906	24030.165522
21.036000	-0.001865	0.000297	-0.004551	0.002585	7350.771650	45292.845597	4050.483336	24081.615582
21.536000	-0.000407	0.000621	0.000292	0.003366	7357.567635	45248.465987	4060.717904	24043.743017
22.036500	0.000046	-0.000581	-0.004049	0.002193	7373.928799	45245.694245	4052.728081	24100.673856
22.542000	-0.000276	0.000923	-0.000193	0.004043	7352.089967	45212.102903	4057.780511	24010.972275
23.036500	-0.001133	-0.000467	-0.002520	0.002365	7360.334557	45240.090756	4056.144428	24092.316164
23.536500	-0.004069	0.000184	-0.000059	0.003184	7322.766693	45223.705556	4060.289797	24052.554263
24.037500	-0.001400	-0.000082	-0.005734	0.003040	7350.869677	45211.818739	4046.383429	24059.543467
24.540500	0.000373	0.001245	-0.001332	0.003972	7359.308887	45250.195870	4055.086556	24014.394370
25.038000	0.000290	0.000527	-0.000841	0.003327	7364.966056	45243.165815	4057.954818	24045.656686
25.535500	-0.000987	0.000901	-0.003453	0.003342	7351.982207	45277.998420	4051.339015	24044.892396
26.036000	-0.000376	0.000531	-0.004576	0.003659	7354.937079	45211.273997	4047.729580	24029.543879
26.541500	0.000987	0.000873	-0.004122	0.004149	7363.706339	45196.907036	4047.640172	24005.838023
27.036500	0.000003	0.000534	-0.003536	0.001173	7383.780992	45453.527019	4056.587855	24150.262611
27.537000	0.002455	0.000462	0.000687	0.001122	7409.134297	45451.504055	4067.419947	24152.749737
28.037500	-0.002241	0.000555	-0.005375	0.006080	7312.149162	44979.322287	4039.705124	23912.685659
28.543000	0.001508	0.000530	0.000198	0.002396	7386.624943	45333.906616	4062.939788	24090.796130
29.035000	-0.000046	0.000142	-0.001257	0.002595	7368.947636	45276.907744	4058.751299	24081.161120
29.535000	-0.000427	-0.000292	-0.004535	0.002515	7365.922802	45242.464992	4050.699042	24085.031627
30.035500	-0.002906	0.000443	-0.007324	0.004923	7317.035016	45080.214968	4037.738072	23968.433246
30.536000	-0.001928	0.000611	-0.007347	0.004269	7333.296029	45159.848859	4039.306694	24000.050874
31.036000	-0.000657	0.000334	-0.000922	0.004714	7341.547240	45089.918694	4054.252360	23978.538742
31.536500	0.001295	0.000542	-0.002827	0.003094	7377.430672	45267.137368	4053.533272	24056.911112
32.037000	-0.000840	0.000306	-0.001867	0.006393	7322.973368	44925.139086	4047.670296	23897.624714
32.539500	-0.001767	0.000776	0.001768	0.007253	7305.209992	44887.550083	4054.633662	23856.283762
33.037500	0.001248	-0.000040	-0.007111	0.002923	7378.685054	45227.336508	4043.239730	24065.228164
33.539000	0.001459	0.000506	-0.002949	0.000094	7409.458713	45556.170072	4060.795881	24202.857987
34.037500	0.000505	0.001072	0.002116	0.005185	7348.470452	45115.810853	4060.730745	23955.803054
34.535500	0.000050	0.001301	0.007900	0.005789	7337.879552	45079.571439	4073.926201	23926.704525
35.035500	0.000498	0.001253	-0.003686	0.005071	7349.541034	45144.388018	4046.426481	23961.307535
35.535000	-0.001470	-0.000051	0.000343	0.003964	7340.927757	45125.330264	4059.337118	24014.812613
36.036000	-0.000992	0.000775	0.000783	0.004748	7337.867645	45129.372200	4058.466704	23976.920794
36.536500	0.000102	0.001728	-0.004755	0.005769	7338.599335	45122.801376	4042.020702	23927.662956
37.036500	0.000034	0.000877	-0.006237	0.004676	7348.856183	45146.220203	4041.053599	23980.392884
37.539500	-0.000222	0.001509	-0.001944	0.005309	7339.949964	45146.108123	4050.188292	23949.807834
38.037500	-0.001493	0.000580	-0.000983	0.004400	7336.335341	45144.225914	4054.890543	23993.728800
38.534500	-0.000615	0.000327	0.000016	0.005249	7336.615141	45037.500733	4055.266354	23952.695004
39.035000	0.000797	0.000742	-0.000276	0.004745	7355.812597	45126.536809	4055.801152	23977.063289
39.535000	-0.000151	0.000625	-0.000912	0.004787	7345.889898	45111.024058	4054.093459	23975.014349
40.035500	0.001361	0.000483	-0.000491	0.005016	7358.746916	45075.151278	4054.576409	23963.943746
40.535500	0.001132	0.000977	-0.001144	0.005579	7350.809102	45068.491465	4051.519502	23936.802413
41.036000	-0.001096	0.000549	0.003262	0.004818	7336.123922	45100.690664	4064.567694	23973.507276
41.537000	0.000370	0.000429	-0.001949	0.004612	7352.859800	45109.008345	4051.926779	23983.464449
42.037000	0.001445	0.001015	0.000734	0.005726	7352.471153	45057.921754	4055.875756	23929.727239
42.539500	0.001436	0.001176	-0.001689	0.005895	7350.679602	45057.153456	4049.360171	23921.565612
43.037500	0.001570	0.001128	0.000299	0.005472	7356.270020	45093.386718	4055.418731	23941.953812
43.535000	0.001515	0.001628	0.005627	0.004873	7361.738597	45199.925569	4070.452600	23970.861265
44.034500	0.002637	0.001833	-0.001168	0.004235	7379.465214	45281.769706	4054.839900	24001.695470
44.535000	-0.000822	0.001095	0.000074	0.009183	7295.445400	44732.701747	4045.545480	23763.782973
45.035500	-0.000207	0.001180	0.002241	0.004444	7348.765124	45198.107795	4062.926499	23991.595992
45.535500	0.002490	0.000959	0.000118	0.004136	7378.975477	45206.479767	4058.330560	24006.472067
46.036500	0.001154	0.000728	-0.000926	0.005228	7354.551348	45078.411787	4052.950018	23953.754351
46.536500	-0.004160	0.000232	-0.006594	0.007751	7276.623250	44787.332407	4032.553473	23832.379318
47.034000	0.000410	0.001166	0.000409	0.004766	7351.716834	45165.525573	4057.477205	23976.042711
47.534000	-0.000958	0.001139	0.002131	0.006181	7323.900814	45025.915603	4058.249122	23907.789616
48.040500	0.000009	0.000415	0.002239	0.004857	7346.788736	45083.982061	4061.874410	23971.632261
48.537500	-0.000697	0.000860	-0.002003	0.009656	7292.002816	44664.864548	4039.198350	23741.203131
49.035500	0.001018	0.001873	0.003503	0.005013	7355.340203	45210.116634	4064.687829	23964.123804
49.538500	0.004240	0.001742	0.005058	0.002581	7412.445998	45434.020360	4074.863715	24081.824639
50.036000	0.000820	0.001071	0.004974	0.005424	7349.231539	45092.576342	4067.381852	23944.285360
50.539000	0.001677	0.001414	-0.003305	0.013108	7281.345166	44388.173314	4027.460986	23576.989345
51.036500	-0.038587	-0.015847	0.004153	0.001783	7005.184381	43827.187448	4074.587898	24120.567704
51.537000	-0.040649	-0.019414	0.011513	-0.030468	7293.706469	46610.183350	4180.906956	25748.540790
52.037000	-0.013182	-0.009265	0.026972	0.023589	7038.535679	42423.128033	4077.188382	23086.404354
52.534500	-0.022846	-0.017525	-0.008996	-0.105459	8317.171722	55042.827201	4343.923765	30035.715911
53.038000	0.006808	-0.016585	-0.001564	-0.127809	8993.912422	57906.121910	4442.067419	31463.334418
53.537500	0.036639	-0.006806	0.021404	-0.106554	9113.505135	56475.971151	4447.919343	30103.946055
54.035000	0.047118	-0.002863	0.028587	-0.077133	8852.474848	53432.931810	4373.710524	28328.758231
54.538500	0.049252	0.000033	0.031015	-0.036711	8358.365377	49263.625728	4255.395276	26077.865851
55.036500	0.049685	0.005540	0.043295	0.002537	7900.008652	45810.489483	4177.477905	24083.970050
55.535500	0.055267	0.011989	0.061973	0.035386	7601.649489	43289.625133	4138.432926	22548.210121
56.036000	0.074131	0.021950	0.082949	0.073355	7403.482217	40777.489410	4093.263151	20911.954069
56.537000	0.088947	0.030920	0.095360	0.106361	7222.737750	38747.106080	4040.831283	19601.251081
57.037000	0.104351	0.039315	0.113004	0.135674	7089.549313	37069.294094	4012.212685	18517.875764
57.537500	0.116684	0.049710	0.121515	0.166546	6918.536136	35503.251734	3959.469919	17453.236825
58.035000	0.124682	0.056566	0.134332	0.194744	6740.325186	33947.821346	3924.735595	16544.778074
58.535000	0.129880	0.062160	0.140862	0.210921	6646.884860	33204.450082	3903.570973	16049.620738
59.035500	0.140508	0.071034	0.149415	0.226846	6602.638406	32719.091913	3887.709586	15579.848293
59.538000	0.141793	0.073812	0.154564	0.244685	6467.798590	31708.446341	3861.029637	15073.696370
60.036000	0.145508	0.075150	0.158027	0.257340	6397.077258	30971.694185	3842.185706	14727.005824
60.536500	0.145460	0.078021	0.159217	0.265003	6337.245995	30665.503900	3829.154108	14521.950817
61.037000	0.146836	0.079852	0.156710	0.270777	6303.595825	30416.077834	3812.761986	14369.805857
61.537000	0.147140	0.080800	0.154755	0.270693	6306.546201	30481.083471	3809.098896	14371.993443
62.038000	0.153996	0.083226	0.159115	0.268093	6379.394369	30800.199795	3822.797373	14440.276768
62.535000	0.152307	0.082836	0.157294	0.266251	6380.587435	30893.106438	3822.838617	14488.886431
63.035500	0.157620	0.084584	0.161721	0.263773	6441.833262	31165.211836	3836.648140	14554.624034
63.543500	0.157704	0.085410	0.162090	0.262028	6456.375306	31332.033835	3840.919719	14601.140688
64.038500	0.159913	0.085874	0.163787	0.261595	6477.479632	31390.445613	3845.242923	14612.698327
64.538500	0.157998	0.085301	0.165689	0.260157	6473.652701	31446.902195	3852.068872	14651.201890
65.036000	0.158191	0.085854	0.164404	0.260637	6471.361285	31451.731710	3848.456648	14638.350964
65.536500	0.158591	0.087302	0.165982	0.261762	6465.559151	31472.788276	3849.380700	14608.228884
66.036500	0.159289	0.087622	0.161598	0.262681	6463.800903	31433.684614	3838.603159	14583.707609
66.537000	0.160611	0.087304	0.164311	0.263896	6464.649542	31333.678646	3841.633936	14551.339799
67.039500	0.159798	0.088448	0.164391	0.263265	6463.196489	31449.423924	3843.076553	14568.126054
67.535000	0.162204	0.088475	0.166123	0.263712	6478.874976	31422.018990	3845.689517	14556.242524
68.035500	0.164989	0.088688	0.166574	0.265403	6487.652289	31325.715515	3843.168664	14511.344720
68.538000	0.166391	0.090372	0.168767	0.266720	6488.337535	31349.633070	3844.949463	14476.500789
69.035500	0.163115	0.089128	0.164754	0.266380	6464.812639	31290.764916	3837.505024	14485.470294
69.539000	0.163026	0.089212	0.171691	0.266536	6462.858288	31286.089303	3851.295457	14481.355864
70.036500	0.164360	0.090080	0.168041	0.268422	6458.452240	31220.035215	3840.020989	14431.610087
70.537000	0.163038	0.089483	0.165065	0.272640	6414.580845	30909.605788	3825.585004	14321.135314
71.037000	0.164891	0.089292	0.170432	0.268874	6459.088670	31139.762721	3843.954404	14419.727307
71.540000	0.165966	0.090517	0.173900	0.270143	6457.542976	31136.937328	3848.436060	14386.423572
72.035000	0.167116	0.089723	0.166118	0.270514	6463.747195	31061.742751	3831.935371	14376.687073
72.538000	0.164891	0.090580	0.172867	0.275683	6405.232469	30785.130107	3835.108368	14242.111157
73.035500	0.167378	0.090310	0.174448	0.271597	6457.211248	31029.811858	3846.586372	14348.375097
73.538000	0.166359	0.090514	0.169528	0.272593	6441.184579	30978.825023	3834.607310	14322.369159
74.036000	0.168582	0.089978	0.169746	0.272444	6460.056532	30953.996036	3835.346538	14326.263397
74.538500	0.167344	0.090295	0.164725	0.278007	6406.244750	30619.121450	3814.300708	14182.124760
75.036500	0.170192	0.089784	0.175286	0.273054	6468.036689	30902.390245	3845.325274	14310.367200
75.536500	0.171098	0.090536	0.171458	0.274045	6467.356384	30887.091875	3835.569232	14284.592254
76.036500	0.169675	0.089571	0.180341	0.273842	6457.621881	30838.258193	3854.054170	14289.859250
76.537500	0.168462	0.089790	0.173525	0.280044	6399.042035	30458.358985	3827.689095	14129.819331
77.037000	0.170175	0.090735	0.165988	0.276183	6442.978254	30763.138891	3820.385689	14229.180066
77.537500	0.172429	0.090844	0.180855	0.276217	6460.642517	30767.904447	3850.236845	14228.297140
78.035500	0.171574	0.089620	0.171194	0.276061	6455.067613	30699.872659	3830.991334	14232.327191
78.535500	0.169005	0.090772	0.173566	0.281902	6388.749908	30403.140681	3824.071914	14082.309777
79.036000	0.171939	0.090609	0.177427	0.277973	6442.780225	30641.209109	3839.688901	14183.009641
79.536500	0.174593	0.091001	0.179737	0.278807	6457.248057	30613.193514	3842.678949	14161.560680
80.036500	0.172475	0.090423	0.176219	0.278722	6441.083390	30581.883371	3835.739029	14163.730455
80.536500	0.170871	0.089018	0.175357	0.279560	6421.769132	30440.136454	3832.321407	14142.212251
81.040500	0.173949	0.089294	0.175481	0.279200	6448.993288	30480.235192	3833.292040	14151.449318
81.540000	0.174776	0.090358	0.175474	0.281311	6438.798892	30414.262752	3829.051703	14097.397797
82.035000	0.172838	0.088903	0.171856	0.279733	6435.953212	30422.019997	3824.984331	14137.792744
82.537500	0.174350	0.088217	0.173573	0.278952	6454.159979	30428.012917	3829.967716	14157.833722
83.038000	0.175904	0.089307	0.178335	0.280910	6450.937955	30373.366566	3835.592523	14107.635920
83.538500	0.174341	0.088677	0.179943	0.281233	6435.974853	30313.548783	3838.184744	14099.399154
84.036500	0.176761	0.089008	0.179453	0.282202	6447.486973	30273.536436	3835.243599	14074.660574
84.536500	0.175716	0.088238	0.181970	0.281629	6443.735191	30261.203186	3841.484125	14089.283248
85.037000	0.176664	0.088451	0.178822	0.282293	6445.993256	30233.021093	3833.792875	14072.350259
85.537000	0.172087	0.087363	0.176001	0.282761	6406.162386	30135.796206	3827.208177	14060.418628
86.037500	0.172620	0.087174	0.176767	0.281882	6417.257597	30178.840949	3830.495835	14082.819405
86.537500	0.172141	0.086636	0.168406	0.281526	6416.291415	30167.516326	3814.619266	14091.906492
87.035000	0.175527	0.086861	0.177023	0.282856	6432.519077	30098.622966	3829.059071	14057.997682
87.537500	0.176319	0.087504	0.178413	0.285653	6416.691673	29964.906325	3826.252194	13987.025598
88.035500	0.176130	0.086707	0.176727	0.283596	6431.433327	30043.009590	3826.991645	14039.169857
88.536000	0.176972	0.086769	0.176884	0.284043	6434.558905	30019.194942	3826.414175	14027.834274
89.036500	0.177628	0.086594	0.181021	0.284538	6435.831865	29977.588100	3833.698422	14015.254461
89.536000	0.176811	0.084997	0.176789	0.283652	6436.379557	29933.559085	3827.002008	14037.746019
90.039000	0.178061	0.086155	0.181693	0.285711	6429.984177	29877.920203	3832.693827	13985.565183
90.537000	0.175769	0.085830	0.179644	0.285740	6411.683780	29856.037037	3828.534343	13984.834163
91.034500	0.178574	0.085750	0.184684	0.285623	6434.730254	29858.323107	3838.894072	13987.784954
91.534500	0.178131	0.085780	0.174754	0.286383	6425.224611	29813.355047	3817.555745	13968.582022
92.035500	0.176699	0.085628	0.175979	0.286602	6412.215217	29790.508081	3819.541130	13963.050254
92.537500	0.174232	0.085206	0.177176	0.291524	6354.601553	29463.648720	3812.209837	13839.527435
93.038500	0.179613	0.084802	0.177485	0.287583	6427.446460	29679.510433	3820.579378	13938.317661
93.536000	0.179052	0.085575	0.179886	0.288786	6413.545194	29653.172134	3822.951539	13908.054896
94.036500	0.178734	0.084625	0.176477	0.287798	6418.823400	29655.552431	3818.162669	13932.913257
94.539000	0.179337	0.083413	0.181504	0.287713	6424.245138	29586.608295	3828.307896	13935.051176
95.037000	0.177089	0.083655	0.183742	0.288008	6404.238519	29583.413082	3832.196831	13927.632033
95.537000	0.175666	0.084242	0.176437	0.292674	6356.802650	29335.504679	3808.516468	13810.865532
96.038000	0.180573	0.084548	0.184566	0.289719	6418.174865	29533.490793	3830.418666	13884.660951
