sample name	sample
index	661
start time	 03-22-2021  10:26:51 AM
880	0.128012
Peak Time (s)	181.537
Peak Height 	0.128
calc peak height	180,183
Baseline Time (s)	8.537
Baseline Value 	-0.002575
subtract baseline	10,4
Abs	0.071015
Peak Time (s)	181.037
Peak Height 	0.07102
calc peak height	180,183
Baseline Time (s)	9.04
Baseline Value 	0.004422
subtract baseline	10,3
PK_550	0.037792
Peak Time (s)	182.035
Peak Height 	0.03779
calc peak height	180,183
Baseline Time (s)	11.536
Baseline Value 	0.001043
subtract baseline	10,2
PK_880	0.060389
Peak Time (s)	181.037
Peak Height 	0.06039
calc peak height	180,183
Baseline Time (s)	11.536
Baseline Value 	0.003822
subtract baseline	10,1


Time (s)	A880-A510	A880-A775	A880-A975	A880	I510	I775	I975	I880	
0.040000	-0.001814	-0.000585	-0.000255	0.000530	7373.748508	45864.544199	3907.248488	24096.496767
0.535000	-0.005743	-0.000910	-0.005600	0.005387	7279.815580	45352.607257	3878.133118	23858.193491
1.035000	-0.005364	-0.000336	-0.001317	0.002656	7312.843054	45678.376162	3898.074874	23991.843405
1.535500	-0.003034	-0.000778	-0.002833	-0.001313	7380.482781	46028.779448	3905.127872	24187.607737
2.035500	-0.002539	-0.000648	-0.002863	-0.000820	7380.501111	45992.667311	3903.620255	24163.220862
2.536000	-0.003724	-0.001022	-0.006367	0.004739	7308.127117	45405.241302	3877.796073	23889.818519
3.036000	-0.001147	-0.000562	-0.003163	-0.002569	7414.589188	46175.855670	3907.799208	24249.915791
3.536000	-0.001514	-0.000128	-0.000659	-0.000041	7383.169365	45966.877362	3907.730543	24124.693714
4.036500	-0.001580	-0.000457	-0.000451	-0.000628	7388.802620	45992.605660	3910.030044	24153.713942
4.537000	-0.001898	-0.000231	-0.005508	-0.000425	7383.157507	45994.758959	3894.898349	24143.641112
5.034500	-0.001598	-0.000101	-0.000284	-0.000407	7386.212333	46006.011292	3909.870696	24142.771782
5.535000	-0.002180	-0.000755	-0.002061	-0.000648	7382.532540	45964.880967	3905.436739	24154.714663
6.035500	-0.001744	-0.000694	-0.006232	-0.000733	7388.165251	45979.382182	3893.711924	24158.906700
6.535500	-0.001206	-0.000541	0.003034	-0.000829	7395.033224	46004.169805	3920.740193	24163.644758
7.036000	-0.001074	0.000459	0.000309	0.000463	7382.469643	45975.025925	3909.069705	24099.786173
7.535500	-0.001059	0.000513	-0.002697	-0.000037	7388.044201	46030.393150	3901.846153	24124.497136
8.036500	-0.001769	-0.000366	-0.000183	-0.000349	7383.740873	45973.777851	3909.997888	24139.903354
8.536500	-0.001485	0.000064	0.001141	0.000000	7383.036605	45981.840702	3912.821222	24122.661859
9.040000	0.000636	-0.000234	0.000000	-0.000462	7411.068243	45998.280670	3910.854412	24145.508727
9.535000	-0.000412	-0.000891	-0.004434	-0.000904	7404.476958	45976.793015	3899.346042	24167.348376
10.034500	0.000765	0.000246	-0.002234	0.000187	7405.405639	45981.382093	3902.532191	24113.420339
10.535000	0.000401	0.000076	0.002328	0.000348	7399.707263	45948.428072	3915.257246	24105.469396
11.035500	-0.001403	-0.000501	-0.002156	-0.000819	7392.792007	46007.212124	3905.654097	24163.143585
11.535500	0.000000	0.000000	0.001657	0.000289	7395.998764	45946.768154	3913.481646	24108.415193
12.036000	0.000112	-0.000353	0.000641	-0.000343	7404.080900	45974.574567	3912.366968	24139.628714
12.536500	-0.000201	0.000425	-0.000271	0.000398	7392.622536	45978.133852	3907.580197	24102.987113
13.036500	-0.000497	0.000073	-0.003772	-0.001184	7406.594406	46100.922697	3902.053596	24181.240450
13.540000	-0.000960	-0.000858	-0.002021	-0.000997	7399.530381	45989.357107	3906.557114	24171.977423
14.037000	-0.003795	-0.000371	-0.003717	0.002917	7326.812553	45649.139099	3890.471914	23979.042200
14.537000	-0.003713	-0.000151	-0.004037	0.003768	7318.600819	45586.762473	3887.138949	23937.316671
15.043500	-0.000418	0.000548	-0.002086	-0.000345	7398.340527	46064.538427	3904.490446	24139.704249
15.535500	-0.000538	0.000159	0.000595	-0.000155	7394.972254	46006.845563	3911.687403	24130.332088
16.035500	-0.001233	0.000400	0.000022	-0.000231	7388.269059	46038.441591	3910.248383	24134.089910
16.535500	-0.004843	-0.000253	0.000926	0.004671	7296.959621	45487.739111	3898.732062	23893.185745
17.036000	0.002493	0.000749	0.001820	-0.001819	7446.184757	46232.161720	3920.086845	24212.699344
17.536000	-0.000282	-0.000033	-0.000773	0.001606	7378.681744	45812.552511	3902.653754	24043.496566
18.039000	0.000143	0.000232	-0.000173	0.001914	7379.945068	45808.253420	3903.492995	24028.327388
18.536500	-0.001191	0.000643	-0.002427	0.004002	7343.078310	45642.063633	3891.054944	23925.872588
19.035000	-0.000473	0.000514	0.002940	0.002249	7369.665739	45803.006788	3911.517296	24011.851443
19.537500	0.000649	0.001557	0.002980	0.003091	7372.689240	45822.973502	3909.196829	23970.518916
20.034500	-0.000932	-0.000151	-0.000995	0.001941	7368.044252	45767.607431	3901.054561	24027.012922
20.535500	-0.001864	0.000736	0.000235	0.004282	7332.866027	45623.647009	3897.863300	23912.174258
21.035500	-0.000442	0.000652	0.001338	0.002684	7365.311570	45773.512899	3905.629825	23990.507614
21.541500	0.000152	0.000275	0.001353	0.002815	7370.299600	45723.157856	3905.292487	23984.035767
22.035500	-0.001646	0.000719	-0.001054	0.002945	7349.551410	45754.297197	3898.003954	23977.694769
22.539500	-0.001249	0.000622	0.000380	0.004114	7341.255879	45629.018392	3898.762720	23920.401462
23.039500	0.000028	0.001520	0.004852	0.003286	7363.887322	45799.964084	3914.056551	23960.970394
23.537000	-0.000673	0.001085	0.000543	0.003325	7355.916207	45752.824542	3901.494458	23959.021438
24.035000	0.000157	0.000949	0.001052	0.003353	7364.559721	45736.637024	3902.879220	23957.671120
24.540500	0.000040	0.000211	0.002583	0.002437	7373.173986	45754.285533	3909.937933	24002.603065
25.038000	0.001527	0.000948	0.004759	0.003293	7380.002432	45742.549707	3913.765191	23960.624890
25.535500	0.000030	0.000482	0.000066	0.003072	7366.221130	45718.188796	3900.850199	23971.444589
26.036000	-0.002110	0.000425	0.000802	0.003065	7343.281527	45713.353367	3902.987942	23971.814701
26.539000	-0.000460	0.000870	0.001399	0.004649	7343.985597	45600.617449	3900.151233	23894.263262
27.036500	0.001770	0.001469	-0.000141	0.001507	7401.978125	45971.693382	3904.756416	24048.335669
27.537000	0.001400	0.000966	0.000774	0.000516	7408.743279	46020.361297	3910.264840	24097.201523
28.037000	0.000768	0.001259	0.002097	0.001553	7390.616553	45946.207792	3911.091824	24046.078055
28.537500	0.002339	0.001456	0.005619	0.002506	7397.316191	45871.067176	3918.553838	23999.236381
29.034000	0.000766	0.002015	0.005627	0.002471	7380.659465	45930.068961	3918.679085	24000.951725
29.540500	0.001648	0.001871	0.005347	0.002032	7394.960198	45959.501949	3919.141894	24022.515777
30.038500	0.001701	0.001567	0.006087	0.002547	7389.952306	45878.016738	3919.799374	23997.230365
30.536000	-0.000706	0.001395	0.002029	0.005626	7330.877288	45556.028311	3899.156639	23846.561553
31.036000	-0.001483	0.000553	0.004806	0.004490	7334.719239	45584.989963	3910.431555	23902.015971
31.539000	0.000525	0.002066	0.003129	0.002421	7378.582828	45940.118649	3911.565753	24003.383325
32.036500	0.001184	0.000913	0.001027	0.001872	7391.670880	45880.123821	3907.075163	24030.397416
32.536500	-0.004220	0.000794	0.006095	0.008314	7264.978715	45232.625548	3903.112966	23715.859750
33.037000	0.002157	0.001918	0.004563	0.002560	7394.752880	45911.580981	3915.321780	23996.560407
33.537500	0.001636	0.001315	0.006361	0.000934	7406.765557	46013.561371	3925.314718	24076.598101
34.034500	-0.001062	0.001527	0.000764	0.004937	7334.450606	45637.160015	3897.505374	23880.189047
34.535000	-0.000515	0.000893	0.001230	0.004456	7345.465924	45621.933002	3900.219314	23903.683732
35.035500	-0.000611	0.001259	0.001603	0.004996	7338.643061	45604.805687	3899.739515	23877.301609
35.536000	-0.000071	0.000383	-0.000132	0.004059	7354.496850	45610.801043	3897.450755	23923.078008
36.039000	0.000216	0.001483	-0.000853	0.004912	7348.426281	45635.284104	3892.950611	23881.410953
36.536500	-0.000112	0.000613	-0.000569	0.005943	7333.840461	45447.698840	3890.817669	23831.075536
37.036500	-0.001085	0.000883	0.004817	0.004951	7334.054004	45572.169229	3909.131382	23879.508564
37.537000	0.000877	0.001705	0.004503	0.005757	7346.448312	45573.720070	3905.896329	23840.182412
38.037500	0.000280	0.000742	0.007877	0.005171	7346.320196	45536.484390	3917.368997	23868.738586
38.537500	0.000145	0.001081	0.002650	0.005802	7338.108116	45507.668985	3900.432007	23837.952628
39.035500	0.001444	0.001493	-0.000431	0.005848	7351.555268	45543.694567	3891.484772	23835.709784
39.537500	-0.000779	0.002051	0.003129	0.005913	7327.026294	45592.408186	3901.488898	23832.561636
40.035500	0.000156	0.000567	0.003901	0.004903	7347.863073	45545.579102	3906.619927	23881.814816
40.538500	0.001107	0.001256	0.003411	0.006197	7344.190741	45485.956347	3901.483941	23818.714953
41.036500	0.000829	0.002253	-0.000606	0.005897	7344.425678	45613.983604	3890.845693	23833.355675
41.536500	-0.000957	0.000260	0.003474	0.004904	7335.919519	45515.267770	3905.386474	23881.792132
42.036500	0.001454	0.001963	0.006077	0.006472	7344.962402	45528.576887	3908.375250	23805.340230
42.537000	0.000837	0.001784	0.002901	0.007584	7326.437741	45401.502225	3896.043512	23751.285195
43.037500	0.002759	0.002111	0.000767	0.006321	7360.616482	45558.092601	3893.554831	23812.694254
43.534500	0.001997	0.002627	0.004253	0.005845	7357.530183	45656.043799	3904.920205	23835.861269
44.035000	0.001860	0.001660	0.005778	0.005309	7361.828916	45613.430383	3910.872882	23862.003112
44.541000	-0.001087	0.001973	0.001211	0.009691	7283.552884	45213.288556	3885.223900	23649.262051
45.038500	0.004002	0.001560	0.004663	0.003744	7401.936523	45758.538646	3912.179665	23938.536744
45.536000	0.003996	0.002047	0.004290	0.003864	7400.561585	45794.862930	3910.750871	23932.646747
46.036000	0.000964	0.001158	-0.000775	0.006054	7344.187776	45490.481630	3889.919162	23825.709962
46.536500	-0.000082	0.001500	0.001533	0.009293	7298.429127	45205.946029	3887.267209	23668.480234
47.037000	0.002206	0.002111	0.003150	0.005606	7362.359909	45628.635406	3902.432041	23847.513156
47.536500	0.000111	0.002523	0.005919	0.007823	7316.140574	45450.675295	3904.022301	23739.693683
48.037500	0.000918	0.001536	0.006430	0.006756	7336.166067	45458.516917	3908.573157	23791.500016
48.535000	-0.001844	0.000887	0.001944	0.008788	7285.096503	45195.401697	3889.876558	23692.941561
49.035000	0.003707	0.002214	0.003302	0.004401	7391.608428	45758.238607	3906.343887	23906.386744
49.538500	0.004722	0.001773	0.008293	0.002410	7424.308176	45912.105545	3926.650420	24003.965114
50.036000	0.000112	0.001822	0.003271	0.006976	7325.194575	45465.077120	3898.844536	23780.829938
50.536000	-0.011526	-0.004961	0.005516	0.010581	7165.112722	44454.406773	3894.952520	23606.326139
51.036500	-0.043764	-0.016376	0.030290	0.267308	4987.570331	25221.661752	3381.139983	14262.339777
51.536500	-0.033851	-0.016388	-0.009797	-0.053202	7613.986828	49803.422788	4041.558788	26918.416743
52.037000	-0.079303	-0.045784	-0.033363	-0.180526	8636.782103	61716.178706	4416.213094	35179.302001
52.537500	-0.025355	-0.178435	-0.020232	-0.340409	12423.977452	65535.000000	5279.028098	49647.706771
53.037500	-0.035797	-0.170698	-0.020011	-0.332672	12024.681169	65535.000000	5233.972072	48818.198986
53.535000	-0.055438	-0.139963	-0.019994	-0.301937	11001.658665	65535.000000	5057.742145	45665.147276
54.038500	-0.043199	-0.105897	-0.016600	-0.267870	10593.940366	65535.000000	4893.780317	42421.419711
54.535500	-0.030821	-0.108932	-0.024318	-0.270905	10879.703042	65535.000000	4869.749775	42700.201345
55.035500	-0.019417	-0.119834	-0.020794	-0.281808	11311.670021	65535.000000	4944.618105	43717.856450
55.542000	-0.013241	-0.105598	-0.017854	-0.267572	11153.033958	65535.000000	4885.788997	42394.149095
56.036500	-0.018278	-0.069893	-0.020473	-0.229319	10349.535035	65167.411794	4685.262111	39044.837623
56.537000	-0.015385	-0.044087	-0.011454	-0.191827	9762.516626	63509.081271	4556.314760	36036.357052
57.037000	-0.013656	-0.026024	-0.011740	-0.155312	9217.638982	60979.811569	4401.698013	33345.628024
57.540000	-0.013494	-0.015829	-0.007633	-0.113412	8618.932509	56877.201365	4255.981232	30524.426216
58.035000	-0.019304	-0.012358	-0.014332	-0.077862	8079.779575	53019.817105	4107.406415	28335.113756
58.535000	-0.009404	-0.007416	-0.013626	-0.055596	7928.311888	51052.306217	4036.982766	27052.479303
59.035500	-0.012174	-0.008030	-0.006077	-0.046139	7782.705328	49944.102064	4030.915360	26527.262125
59.536000	-0.013629	-0.006142	-0.005342	-0.028165	7559.629477	48226.307687	3977.299855	25560.021883
60.036000	-0.016099	-0.005071	-0.007004	-0.012353	7358.628780	46707.129018	3925.084966	24741.606361
60.536500	-0.015321	-0.005238	-0.007424	-0.000390	7239.769090	45495.154387	3889.334411	24141.933285
61.036500	-0.011850	-0.004072	-0.001240	0.005941	7209.868923	44989.224245	3888.914412	23831.186619
61.537000	-0.006485	-0.001688	0.002946	0.014660	7175.049750	44376.906241	3876.083199	23410.582529
62.040000	-0.005176	-0.001423	0.002751	0.014117	7194.236583	44454.509350	3877.065399	23436.531613
62.543000	-0.007114	-0.001784	0.002166	0.012743	7188.395714	44552.099114	3879.291433	23502.366612
63.037500	-0.003129	-0.001353	-0.000854	0.008525	7274.277732	45002.342674	3882.675780	23705.639285
63.537500	-0.001310	-0.000377	0.006041	0.008611	7292.631984	45089.117089	3902.103637	23701.474232
64.037500	-0.001309	0.000066	0.001639	0.009217	7286.217235	45073.278865	3887.784569	23672.144778
64.536000	-0.004744	-0.000608	0.004018	0.015279	7186.662712	44421.207243	3877.360220	23381.038961
65.036500	0.002125	-0.000240	0.003276	0.011322	7300.328734	44838.735261	3886.456527	23570.619439
65.536000	0.002518	0.000963	0.003649	0.012904	7287.700378	44801.983642	3883.029351	23494.630927
66.037000	0.000068	-0.000221	-0.003653	0.018780	7200.276371	44123.111065	3846.272995	23214.741279
66.537000	-0.001432	-0.000135	-0.000875	0.019934	7172.759470	44021.376899	3850.742482	23160.228864
67.034500	0.003768	0.002465	0.006114	0.016659	7261.225600	44584.201779	3879.380462	23315.357220
67.542500	0.003761	0.002109	0.003569	0.019725	7228.940536	44255.450998	3863.641844	23170.085893
68.035500	0.001248	0.002721	0.009078	0.028134	7116.068805	43516.100356	3855.585456	22776.988911
68.535500	0.002830	0.003041	0.000388	0.029921	7113.974974	43378.437637	3826.925906	22694.402876
69.035500	0.005452	0.003535	0.007970	0.025043	7191.140106	43884.741042	3861.086133	22920.588292
69.536000	0.006209	0.003650	0.005326	0.024963	7199.841824	43903.312867	3853.980771	22924.353576
70.036500	0.003974	0.003620	0.002885	0.031077	7113.858567	43324.516423	3830.557512	22641.201918
70.536500	0.006946	0.004630	0.009296	0.026905	7187.326564	43812.063432	3859.598140	22833.975277
71.037000	0.007965	0.004183	0.009396	0.026353	7203.651858	43821.995822	3861.410785	22859.616152
71.537000	0.008089	0.005139	0.010091	0.027150	7196.654781	43837.067011	3861.127532	22822.597458
72.037500	0.005464	0.005484	0.008790	0.032629	7113.218431	43353.688997	3842.416440	22569.937091
72.537500	0.011076	0.005415	0.008334	0.027551	7223.602595	43825.264003	3855.141408	22803.994906
73.035500	0.008541	0.006485	0.012479	0.028829	7183.920642	43805.516669	3863.099231	22744.819456
73.538500	0.009964	0.006216	0.010979	0.028742	7199.592015	43788.335375	3859.171376	22748.873658
74.036000	0.006886	0.006359	0.006958	0.034965	7103.914375	43217.190872	3831.059173	22463.208134
74.536500	0.012933	0.007066	0.010931	0.030246	7214.850481	43726.512335	3854.869586	22679.442762
75.039500	0.010339	0.007744	0.014582	0.031011	7179.937135	43718.249953	3862.879015	22644.208418
75.536500	0.013706	0.007498	0.010153	0.031518	7209.644362	43647.243522	3849.210525	22620.924448
76.037500	0.011027	0.007871	0.010956	0.037668	7118.574506	43106.271796	3834.578081	22340.395187
76.540000	0.010540	0.007816	0.015600	0.037824	7112.003824	43086.543083	3846.847608	22333.306418
77.037500	0.012224	0.008871	0.015943	0.032803	7180.901291	43655.566916	3861.680731	22561.967558
77.535000	0.014976	0.008851	0.010738	0.033232	7205.022942	43613.254802	3846.105299	22542.331107
78.035500	0.012280	0.008965	0.012010	0.039654	7111.083344	43023.330721	3832.042510	22250.628639
78.538000	0.012461	0.008786	0.015586	0.039834	7111.098957	42990.032826	3841.297338	22242.520949
79.036000	0.015258	0.009069	0.016651	0.034567	7194.079810	43508.137408	3858.746127	22481.344172
79.536000	0.014663	0.009292	0.017281	0.035159	7181.762975	43473.517995	3858.852663	22454.373097
80.036500	0.012793	0.009284	0.013787	0.041313	7099.424876	42899.141053	3832.363099	22175.980822
80.537000	0.013336	0.009620	0.016983	0.040979	7108.352885	42961.190230	3841.988712	22190.998789
81.040000	0.017034	0.009626	0.018753	0.036925	7188.038392	43339.306435	3858.035526	22374.068827
81.537500	0.016783	0.009133	0.017381	0.036610	7188.701997	43322.651444	3855.107687	22388.359172
82.035000	0.013756	0.009336	0.016773	0.043293	7089.094952	42721.085728	3835.098677	22087.250494
82.535500	0.013191	0.008893	0.018537	0.043265	7083.652019	42682.923893	3839.986578	22088.517219
83.035500	0.017469	0.010482	0.020369	0.038999	7171.067478	43225.563741	3856.767439	22280.214741
83.536000	0.015728	0.009897	0.020596	0.038370	7159.602543	43229.600348	3859.142302	22308.640693
84.036000	0.017370	0.010365	0.024079	0.039646	7163.363613	43154.260696	3865.284468	22251.004136
84.536000	0.013606	0.009895	0.021577	0.045089	7069.400299	42607.299967	3843.313741	22007.141931
85.036000	0.017631	0.010204	0.023255	0.039733	7165.163415	43131.121547	3862.743561	22247.069258
85.539500	0.018972	0.011032	0.023915	0.040761	7168.402287	43112.569442	3861.720856	22200.814040
86.037500	0.017529	0.010568	0.021703	0.040462	7156.598509	43097.247304	3856.408756	22214.255837
86.534000	0.018028	0.010897	0.025581	0.041214	7153.998488	43057.952588	3865.100091	22180.453450
87.035000	0.018340	0.011564	0.024791	0.042446	7144.531779	43005.407698	3859.469725	22125.158040
87.535500	0.017936	0.010747	0.023304	0.041862	7146.374319	42983.767058	3856.963762	22151.330533
88.035500	0.017183	0.011038	0.022857	0.042348	7133.664835	42965.735306	3854.381903	22129.550626
88.536000	0.016599	0.012022	0.020740	0.048935	7060.791173	42449.679341	3830.549921	21836.641138
89.036500	0.018103	0.012349	0.021043	0.043986	7126.314982	42935.429888	3844.872225	22056.301710
89.536500	0.019250	0.011231	0.024782	0.043731	7140.690075	42855.637518	3855.883873	22067.705787
90.040000	0.017121	0.012133	0.022223	0.049486	7060.501787	42409.398466	3833.078210	21812.319389
90.537500	0.020879	0.013205	0.026351	0.045685	7137.349174	42857.485633	3854.817446	21980.628381
91.037500	0.018282	0.011780	0.027260	0.044807	7119.756998	42806.920841	3859.770863	22019.691087
91.535000	0.020359	0.012418	0.025957	0.045995	7128.844793	42756.069780	3852.869037	21966.823543
92.035500	0.015547	0.012612	0.022533	0.052589	7013.615044	42170.193165	3825.515892	21676.039196
92.538000	0.015424	0.012394	0.027207	0.052776	7010.530326	42133.485089	3837.691880	21667.881991
93.036000	0.019834	0.013238	0.026719	0.047509	7108.022787	42692.233500	3850.794622	21899.684725
93.536000	0.020231	0.013249	0.030994	0.048027	7106.790441	42645.532682	3861.199279	21876.743524
94.036000	0.018601	0.013704	0.026512	0.054305	7026.984773	42113.527988	3831.639570	21601.098697
94.539500	0.018857	0.013279	0.028037	0.054608	7026.515590	42047.538665	3834.960967	21587.897454
95.037000	0.023263	0.014536	0.028648	0.050555	7111.926104	42531.573355	3847.718470	21765.269346
95.537000	0.021815	0.014704	0.031452	0.050910	7093.572643	42514.363680	3854.472740	21749.650494
96.037000	0.020833	0.014126	0.032212	0.053630	7056.154832	42213.284014	3849.065224	21630.564658
96.535000	0.020208	0.014135	0.030981	0.056735	7018.760292	41932.599973	3837.184503	21495.478694
97.035500	0.022338	0.014405	0.030623	0.052422	7083.543172	42348.670003	3848.014788	21683.340489
97.536000	0.023314	0.014830	0.035858	0.052594	7091.696851	42371.785293	3862.025660	21675.812297
98.036000	0.020529	0.015342	0.029869	0.057308	7016.240807	41989.827636	3832.600063	21470.627191
98.536500	0.019863	0.015063	0.029544	0.057707	7005.628711	41928.604601	3830.634527	21453.374086
99.038500	0.024729	0.016010	0.035225	0.055264	7078.987317	42235.972996	3852.868434	21559.345008
99.536500	0.025107	0.015535	0.033184	0.055619	7079.220377	42160.519616	3846.267590	21543.924086
100.037000	0.022701	0.015638	0.033993	0.058688	7024.150655	41891.925511	3840.077037	21411.004681
100.537500	0.022232	0.015640	0.031795	0.062560	6980.981058	41544.314365	3823.602564	21244.643889
101.034500	0.024425	0.016297	0.033991	0.057430	7054.060012	42065.315660	3843.514127	21465.385370
101.538000	0.026283	0.017337	0.031220	0.058547	7061.523900	42058.359763	3832.904954	21417.095433
102.035500	0.023287	0.015848	0.032276	0.061924	6997.749694	41619.873343	3826.616953	21271.876332
102.536000	0.021045	0.015838	0.034280	0.064020	6954.872248	41431.618950	3826.368042	21182.303230
103.036000	0.025660	0.016342	0.030933	0.059175	7048.928796	41911.492961	3830.421076	21389.998024
103.539500	0.026745	0.017325	0.038159	0.060597	7045.548270	41871.941419	3846.260825	21328.819652
104.036500	0.025448	0.017722	0.035503	0.065118	6987.501540	41501.837912	3826.706964	21135.588525
104.540000	0.026455	0.017097	0.036063	0.061396	7034.620701	41779.439534	3838.333729	21294.505505
105.037500	0.026825	0.017672	0.033586	0.062279	7029.490572	41751.777647	3829.202048	21256.698005
105.535000	0.027151	0.017505	0.039915	0.062542	7030.110006	41713.035071	3845.740677	21245.425325
106.035000	0.026530	0.017348	0.035601	0.062928	7020.047728	41664.325426	3832.904730	21228.932837
106.535500	0.027236	0.017903	0.035511	0.063379	7022.593647	41673.619871	3831.435742	21209.655606
107.035500	0.026996	0.017432	0.040788	0.064237	7011.640435	41554.619102	3843.488203	21173.090222
107.536000	0.029395	0.018275	0.036259	0.064961	7028.366283	41565.251051	3829.176348	21142.254001
108.039000	0.025113	0.018073	0.038644	0.067765	6958.049706	41297.233384	3828.041324	21023.375121
108.536500	0.026814	0.018200	0.036795	0.066164	6990.675194	41451.100157	3827.372414	21091.154026
109.037000	0.026948	0.017980	0.037597	0.066074	6992.890866	41439.440504	3829.785526	21094.955222
109.537000	0.028483	0.018769	0.038773	0.067417	6994.807766	41390.098077	3829.333148	21038.094595
110.037500	0.025488	0.018646	0.038367	0.070044	6939.352164	41145.902512	3821.149257	20927.315615
110.535000	0.026258	0.019143	0.038943	0.071971	6928.035208	41019.525194	3817.522006	20846.482165
111.035000	0.028904	0.018606	0.042354	0.068707	6986.180507	41260.874273	3835.554428	20983.612952
111.542500	0.027710	0.017840	0.044005	0.068185	6979.532599	41239.250387	3841.485243	21005.636576
112.036000	0.028258	0.018555	0.042504	0.071441	6952.826788	41014.404338	3828.540953	20868.687747
112.543000	0.024668	0.019291	0.040182	0.075760	6875.790315	40699.630135	3810.705904	20688.591360
113.036500	0.028787	0.018740	0.042068	0.070389	6968.397862	41123.688198	3830.209123	20912.812569
113.536500	0.026924	0.018232	0.043663	0.070238	6951.539154	41092.118995	3834.949692	20919.153629
114.034000	0.028538	0.018529	0.036730	0.073404	6936.318238	40839.314427	3807.788360	20786.597867
114.537500	0.026039	0.019616	0.040366	0.078361	6863.930705	40500.983389	3804.279367	20580.982426
115.035000	0.028863	0.019678	0.046855	0.073151	6941.985684	40962.661675	3835.709800	20797.177254
115.538000	0.029211	0.020974	0.047219	0.074234	6934.780696	40981.500306	3833.754557	20752.025988
116.035500	0.027888	0.019618	0.045338	0.075954	6905.100694	40711.256537	3824.005504	20680.543771
116.536000	0.025666	0.019944	0.037551	0.079856	6845.988915	40399.622908	3792.916093	20519.451959
117.038000	0.030825	0.020144	0.042608	0.074869	6944.369049	40852.537740	3819.578759	20725.583795
117.536500	0.028849	0.020328	0.042411	0.075805	6915.907014	40786.588737	3816.540477	20686.734423
118.036500	0.029136	0.020066	0.044609	0.077361	6903.557223	40627.457644	3818.263110	20622.304062
118.537000	0.026854	0.019591	0.038339	0.081773	6839.014369	40203.169580	3789.956616	20440.844359
119.037500	0.030315	0.020555	0.042268	0.077061	6917.948423	40696.437448	3812.798875	20634.696861
119.537500	0.030236	0.020804	0.040525	0.077648	6911.459808	40666.855540	3806.595480	20610.426788
120.035000	0.032596	0.020789	0.044188	0.080407	6907.578824	40425.203365	3808.997472	20496.823694
120.535500	0.027399	0.020666	0.041101	0.084411	6819.032899	40068.358730	3790.281112	20333.205164
121.035000	0.029879	0.020970	0.045621	0.079327	6891.685656	40534.793489	3815.703131	20541.189546
121.538500	0.030154	0.021602	0.046550	0.080349	6884.460214	40500.858803	3815.456767	20499.202916
122.036000	0.029196	0.020378	0.042192	0.081452	6864.567185	40298.916758	3800.934250	20453.969079
122.536500	0.027084	0.020874	0.040318	0.086419	6796.975929	39913.873092	3782.996865	20251.727303
123.036500	0.031867	0.022400	0.047274	0.082265	6882.493412	40403.661639	3812.269724	20420.708841
123.536500	0.030959	0.021529	0.050408	0.082021	6876.080442	40349.337903	3821.320861	20430.698107
124.037000	0.031826	0.022275	0.047715	0.082885	6876.109000	40339.055651	3811.793901	20395.383599
124.537000	0.028655	0.021478	0.044120	0.088834	6788.992758	39759.039460	3786.611791	20154.240170
125.035000	0.031380	0.021350	0.045797	0.083687	6864.079178	40189.750013	3804.559539	20362.674890
125.535000	0.031912	0.022201	0.044082	0.084568	6860.726073	40187.199574	3797.698509	20326.840496
126.038500	0.030601	0.021674	0.046642	0.084608	6847.745633	40138.258774	3804.357879	20325.211450
126.536000	0.027078	0.021662	0.044422	0.090654	6757.006270	39619.682216	3782.657117	20081.117863
127.036500	0.031647	0.021929	0.046185	0.086011	6844.315698	40039.380964	3799.436772	20268.241597
127.536500	0.031089	0.022575	0.052015	0.086709	6832.314286	40035.000611	3813.063795	20240.015048
128.037000	0.029910	0.022145	0.047651	0.087292	6815.506124	39947.915262	3799.926555	20216.414451
128.537500	0.030507	0.022486	0.049587	0.093307	6764.281368	39464.562736	3789.206423	19975.065272
129.037500	0.033118	0.022835	0.053098	0.088468	6834.894346	39906.310636	3811.258811	20168.983259
129.535000	0.031730	0.021417	0.044076	0.087516	6830.719728	39866.397605	3789.940091	20207.358679
130.035000	0.032407	0.022512	0.049365	0.090010	6813.405573	39746.854876	3797.278062	20106.936787
130.538000	0.032245	0.022635	0.049461	0.089214	6819.447584	39825.399245	3799.631667	20138.954190
131.035500	0.033580	0.023288	0.045769	0.090036	6824.323556	39810.907076	3787.776199	20105.898466
131.536000	0.033218	0.023514	0.047769	0.090893	6812.723391	39757.050793	3790.765801	20071.524249
132.036500	0.033238	0.022989	0.048469	0.091444	6807.684519	39665.338317	3791.159050	20049.480836
132.536500	0.033320	0.023422	0.053065	0.091450	6808.402720	39701.734929	3803.248848	20049.227526
133.037000	0.032807	0.023917	0.054832	0.092084	6797.529896	39689.882116	3806.254148	20023.899367
133.537000	0.033005	0.023014	0.051051	0.091971	6800.476370	39622.728490	3796.557167	20028.413987
134.037500	0.033241	0.023715	0.049815	0.093210	6790.980411	39577.027051	3790.060225	19978.964443
134.535000	0.032589	0.023834	0.058724	0.093327	6783.708178	39577.148615	3813.307748	19974.288891
135.038500	0.035373	0.024492	0.051393	0.094300	6800.843771	39550.468217	3791.337264	19935.572054
135.535500	0.035922	0.024436	0.046292	0.093884	6809.995155	39580.920706	3779.124903	19952.109032
136.036000	0.037491	0.023833	0.053413	0.094504	6819.018719	39477.250076	3796.102397	19927.430553
136.536000	0.032395	0.023763	0.047578	0.100035	6719.067693	39006.080084	3766.582348	19709.059632
137.036000	0.034782	0.024415	0.048555	0.095133	6787.360056	39473.260070	3781.756647	19902.453464
137.536500	0.034995	0.024302	0.047615	0.095838	6782.713141	39404.067605	3777.491523	19874.521467
138.037000	0.033784	0.023850	0.052158	0.095936	6770.374270	39357.632604	3789.054046	19870.627887
138.536500	0.032001	0.023862	0.050766	0.100946	6706.955310	38938.274031	3772.435408	19673.353565
139.035000	0.035133	0.024661	0.047408	0.096688	6775.999966	39362.591776	3774.756995	19840.862178
139.538000	0.036850	0.025234	0.055856	0.097603	6783.562127	39333.775895	3794.379900	19804.733025
140.035500	0.035342	0.024664	0.053193	0.098124	6764.453062	39241.829465	3786.044012	19784.180586
140.535500	0.033626	0.025201	0.052250	0.103248	6700.694666	38858.018199	3770.330560	19583.465129
141.036000	0.036079	0.025391	0.056776	0.098964	6763.488066	39232.351271	3793.221655	19751.121676
141.536500	0.036919	0.025254	0.053149	0.099118	6769.935869	39207.838235	3783.338937	19745.052638
142.036500	0.038118	0.025347	0.052341	0.100363	6769.504879	39111.195042	3778.012187	19696.209339
142.537000	0.036962	0.024524	0.055914	0.099396	6767.730770	39123.288110	3789.831076	19734.150666
143.037500	0.038417	0.025762	0.050662	0.100582	6770.258456	39127.633161	3773.105282	19687.596955
143.536500	0.034763	0.024844	0.055862	0.100464	6737.119961	39060.609852	3786.903082	19692.249044
144.037500	0.037646	0.025415	0.053819	0.101374	6755.570015	39032.155607	3779.220474	19656.592491
144.535500	0.034046	0.025310	0.050433	0.106876	6671.125042	38566.249770	3756.413003	19442.758844
145.035500	0.036849	0.026208	0.054926	0.102318	6739.286620	39019.621929	3779.643846	19619.725344
145.536000	0.036894	0.026059	0.058715	0.103347	6730.114237	38921.233985	3786.825776	19579.626393
146.036500	0.038787	0.026479	0.055496	0.104041	6741.291615	38898.363746	3776.656052	19552.593622
146.536500	0.036722	0.025064	0.052124	0.108179	6683.751224	38438.580030	3757.399043	19392.515469
147.036500	0.040725	0.026102	0.052476	0.103696	6762.678311	38895.685205	3769.759028	19566.015629
147.537000	0.039884	0.027675	0.054209	0.106034	6732.931409	38832.010389	3768.204763	19475.317725
148.037000	0.040815	0.027318	0.060157	0.105737	6744.398369	38826.996065	3784.354050	19486.806779
148.540500	0.040185	0.027046	0.057153	0.105215	6743.384854	38847.803184	3777.907080	19507.032000
149.035000	0.040071	0.027786	0.057096	0.106528	6730.069226	38800.200712	3774.366156	19456.205033
149.535000	0.040380	0.027591	0.055568	0.107745	6721.623247	38683.033647	3767.300093	19409.230044
150.036000	0.042015	0.028059	0.059132	0.108066	6733.857076	38695.182526	3775.650252	19396.852284
150.536000	0.041448	0.028758	0.055237	0.108728	6722.413535	38698.252622	3763.936178	19371.400104
151.036000	0.039913	0.027753	0.057446	0.107866	6716.158326	38686.346433	3771.815936	19404.557227
151.536500	0.040998	0.028199	0.056824	0.110265	6703.970496	38524.939671	3764.063457	19312.380410
152.037000	0.042678	0.028540	0.055987	0.109391	6727.684132	38625.252122	3764.158047	19345.891490
152.537000	0.043522	0.027848	0.062754	0.109608	6733.525595	38550.194015	3781.038007	19337.562256
153.037000	0.042138	0.029208	0.063805	0.110504	6712.324230	38588.501565	3781.443494	19303.231267
153.535000	0.041735	0.028673	0.056083	0.111595	6698.492680	38454.432298	3758.779157	19261.490425
154.035000	0.043287	0.028734	0.053027	0.111612	6712.707590	38458.029650	3750.985433	19260.852530
154.535500	0.041845	0.028907	0.059542	0.116167	6657.456144	38099.119534	3755.949884	19087.753352
155.036000	0.047015	0.030519	0.062666	0.112786	6736.473204	38508.386945	3772.591675	19216.061424
155.536000	0.042442	0.028846	0.057599	0.114041	6682.445902	38267.850458	3756.414880	19168.317814
156.036500	0.044723	0.030118	0.059430	0.113249	6710.841038	38437.262741	3763.096645	19198.426566
156.536000	0.043045	0.029535	0.057436	0.117569	6655.612517	38036.085610	3747.079663	19034.842488
157.037000	0.045495	0.030956	0.063015	0.113967	6711.340113	38447.070453	3770.447390	19171.126171
157.537500	0.045198	0.030468	0.056387	0.116564	6684.589389	38194.070967	3746.967636	19072.733010
158.035000	0.045083	0.029770	0.060030	0.113424	6712.552646	38394.204576	3764.184039	19191.770897
158.535000	0.043207	0.030383	0.058051	0.119702	6637.618305	37931.757992	3743.262475	18954.656319
159.035500	0.047139	0.031544	0.061017	0.115251	6714.681261	38389.852879	3762.036828	19122.392244
159.535500	0.048970	0.030499	0.058898	0.114581	6737.961436	38359.057522	3758.342564	19147.798827
160.035500	0.046863	0.030931	0.057803	0.114872	6715.636178	38370.650965	3754.822073	19136.766244
160.536000	0.045960	0.031249	0.057447	0.120616	6654.401220	37927.849688	3739.459557	18920.429676
161.036500	0.048996	0.031333	0.057739	0.115367	6730.874387	38363.054981	3753.406274	19118.021892
161.537000	0.049430	0.031389	0.060037	0.119592	6695.691468	38022.331781	3748.534674	18958.760187
162.040000	0.051865	0.032374	0.058464	0.116731	6744.924866	38336.506512	3751.789196	19066.446490
162.537000	0.045452	0.031656	0.056965	0.120251	6653.085769	37990.442783	3739.166768	18934.070792
163.035000	0.053985	0.033243	0.063093	0.117426	6758.261195	38350.708805	3761.784836	19040.205260
163.535000	0.052557	0.032194	0.064735	0.116607	6752.559806	38331.932523	3768.084852	19071.115153
164.035500	0.053767	0.033280	0.061250	0.117383	6756.622514	38357.298122	3757.199793	19041.825163
164.535000	0.048334	0.031763	0.055927	0.121320	6669.703907	37912.456889	3733.911474	18894.108075
165.036000	0.051950	0.032691	0.060877	0.117101	6742.256562	38332.173967	3756.968836	19052.480866
165.536500	0.049355	0.032745	0.060840	0.121214	6680.045689	38000.715861	3746.470485	18898.041356
166.036500	0.051493	0.032976	0.062780	0.117148	6737.549172	38351.680260	3761.694825	19050.701480
166.540000	0.054200	0.033804	0.067798	0.117801	6756.767380	38365.989597	3772.891831	19026.068690
167.034500	0.052383	0.033204	0.057376	0.117247	6744.945518	38362.330007	3747.738951	19046.977945
167.537000	0.049948	0.033569	0.060312	0.122466	6673.989645	37965.921617	3742.001222	18851.340070
168.035000	0.053145	0.033583	0.059020	0.117903	6745.935170	38339.527041	3750.231470	19022.244871
168.535000	0.052261	0.034425	0.061679	0.121803	6701.425714	38089.486433	3747.100251	18876.058044
169.035500	0.052456	0.034125	0.061483	0.117535	6742.932420	38414.247829	3757.406479	19036.107891
169.536000	0.051124	0.033635	0.062616	0.121955	6689.523860	38012.835168	3749.080815	18870.392509
170.036500	0.053661	0.033931	0.062229	0.118202	6747.952121	38343.510529	3757.604231	19010.973903
170.536500	0.051478	0.034086	0.061410	0.123038	6682.802433	37961.456356	3743.319505	18830.038653
171.039000	0.055401	0.034480	0.065257	0.118545	6761.055885	38360.452851	3764.455190	18998.092868
171.537000	0.055941	0.034116	0.060723	0.118548	6766.105577	38330.387834	3752.907092	18997.986591
172.037500	0.056182	0.035027	0.063393	0.119455	6759.845428	38330.669946	3757.380778	18963.919827
172.534000	0.054208	0.034162	0.061699	0.123352	6705.120478	37942.171202	3743.257139	18818.372544
173.035000	0.054929	0.034570	0.060939	0.118716	6755.020939	38353.834841	3753.028501	18991.671735
173.535500	0.056956	0.034545	0.061475	0.119009	6771.312536	38327.734854	3753.645649	18980.661654
174.036000	0.056437	0.034696	0.062704	0.118902	6767.429477	38348.871328	3757.034575	18984.661413
174.536000	0.055759	0.034953	0.064393	0.122541	6727.043749	38072.417987	3752.089197	18848.538266
175.036500	0.055732	0.034352	0.067529	0.118772	6762.029874	38331.292582	3769.699073	18989.551651
175.539500	0.056526	0.035997	0.066794	0.119991	6758.046762	38366.287786	3764.689831	18943.827440
176.037000	0.055735	0.035723	0.066650	0.120021	6750.351594	38341.393083	3764.242119	18942.703211
176.537000	0.054331	0.035164	0.063544	0.123108	6708.511627	38043.371721	3748.511005	18827.417036
177.034500	0.057018	0.035131	0.065935	0.119764	6764.791658	38313.865486	3763.070274	18952.311413
177.535000	0.056242	0.035291	0.057822	0.125973	6699.683572	37821.309628	3727.068329	18721.184471
178.035500	0.057554	0.035957	0.064758	0.120626	6761.729421	38310.900181	3757.872077	18920.032191
178.535500	0.056512	0.036775	0.064250	0.124024	6720.250977	38099.990848	3747.983128	18793.379272
179.036000	0.058271	0.036773	0.061896	0.121560	6759.693250	38301.269479	3748.262094	18885.139112
179.536000	0.055745	0.037048	0.063478	0.126923	6686.323329	37886.654177	3738.768338	18686.134194
180.036000	0.058203	0.035382	0.070540	0.120730	6766.856438	38255.284480	3772.411516	18916.159613
180.537000	0.058924	0.035870	0.063921	0.121036	6770.751998	38270.138597	3754.706516	18904.696636
181.037000	0.060389	0.035851	0.071015	0.120712	6787.618610	38295.127802	3773.681255	18916.806315
181.536500	0.055674	0.036960	0.067465	0.128012	6675.644235	37791.337904	3746.033892	18645.993848
182.034500	0.060159	0.037792	0.066918	0.122701	6766.708558	38291.182566	3758.087938	18842.577101
182.535000	0.058915	0.036606	0.062317	0.121657	6764.829999	38279.653760	3749.077889	18881.514009
183.035500	0.059254	0.036573	0.068111	0.121968	6765.098435	38251.445299	3763.001608	18869.907397
183.535500	0.056031	0.035571	0.065394	0.127606	6682.665374	37712.127393	3741.854561	18660.966211
184.036000	0.060038	0.037024	0.067532	0.122774	6764.889240	38222.378470	3759.467294	18839.859196
184.539500	0.059733	0.036718	0.069239	0.122238	6767.064398	38241.183061	3765.193903	18859.837577
185.036000	0.059458	0.037476	0.067199	0.122864	6758.601076	38252.026260	3758.389747	18836.513326
185.537000	0.055210	0.036889	0.063375	0.128252	6669.182549	37766.281370	3735.193917	18637.176018
186.037000	0.061537	0.037277	0.064247	0.122895	6777.854957	38233.188710	3750.825173	18835.354773
