sample name	sample
index	1318
start time	 05-03-2021  10:45:55 AM
880	-0.047998
Peak Time (s)	91.035
Peak Height 	-0.048
calc peak height	90,93
Baseline Time (s)	9.04
Baseline Value 	-0.004263
subtract baseline	10,4
Abs	-0.008063
Peak Time (s)	90.037
Peak Height 	-0.008063
calc peak height	90,93
Baseline Time (s)	8.537
Baseline Value 	0.002982
subtract baseline	10,3
PK_550	0.001618
Peak Time (s)	92.035
Peak Height 	0.001618
calc peak height	90,93
Baseline Time (s)	11.536
Baseline Value 	-9.7226E-4
subtract baseline	10,2
PK_880	-0.009973
Peak Time (s)	90.037
Peak Height 	-0.009973
calc peak height	90,93
Baseline Time (s)	9.04
Baseline Value 	0.001597
subtract baseline	10,1


Time (s)	A880-A510	A880-A775	A880-A975	A880	I510	I775	I975	I880	
0.034500	0.000871	0.001711	-0.003236	0.003273	6086.706061	42830.757242	3839.079877	22050.017833
0.535000	-0.001929	0.000693	0.000871	0.004402	6058.003901	42634.297140	3845.724220	22000.342506
1.038000	-0.004751	-0.000331	-0.000758	0.003454	6044.407831	42627.329634	3844.199786	22042.038104
1.535000	-0.004401	-0.000546	-0.007040	0.007077	6020.803536	42278.669469	3822.303974	21883.123048
2.035500	-0.000010	0.000631	-0.006569	0.001331	6094.498416	42909.926903	3835.990281	22135.778123
2.536000	-0.000489	0.000421	0.002388	0.001003	6093.384453	42920.804875	3856.795618	22150.293832
3.036500	0.001664	-0.000363	0.001129	-0.001118	6124.958529	43043.865213	3858.748382	22244.459586
3.537000	-0.002766	-0.000136	-0.000374	0.002998	6062.135040	42686.886617	3846.081785	22062.153442
4.037000	-0.001504	-0.000180	0.002565	0.000303	6091.073669	42929.915169	3858.785426	22181.347931
4.537500	-0.002964	0.000261	-0.001399	0.000965	6075.519641	42909.526064	3848.340868	22151.985116
5.037500	-0.002627	-0.000364	-0.000733	0.000307	6082.805412	42912.599402	3851.319728	22181.175718
5.534500	-0.001515	-0.000158	-0.002929	0.001066	6085.387201	42861.804097	3844.684991	22147.500367
6.035500	-0.001827	-0.000554	-0.001851	0.000469	6087.484293	42880.292407	3848.441465	22173.984704
6.535500	-0.001446	0.000442	-0.000332	0.000312	6091.429064	42986.262748	3852.211402	22180.918681
7.036000	-0.000006	-0.000362	0.001948	-0.000011	6104.409603	42942.080711	3858.098028	22195.277063
7.536500	0.000321	-0.001095	0.003622	-0.000134	6107.735286	42885.966374	3862.180584	22200.734052
8.036500	-0.001430	-0.000293	0.002164	-0.000012	6093.926414	42948.476008	3858.589551	22195.302183
8.537000	0.000527	-0.000444	0.000000	-0.000518	6112.095137	42981.153813	3854.834797	22217.801050
9.040000	0.000000	0.000030	0.002123	0.000000	6104.374424	42977.127056	3858.469106	22194.780196
9.537500	0.000048	-0.000007	-0.000862	-0.000166	6105.958657	42988.987286	3852.095777	22202.170010
10.035000	-0.000147	0.000341	0.003829	-0.000319	6105.643629	43035.126405	3863.072189	22208.933370
10.535500	0.000419	0.000611	-0.005647	0.000430	6104.290430	42991.020448	3840.041129	22175.703301
11.035500	-0.003803	-0.000595	-0.005098	0.004290	6045.221390	42527.184267	3832.698492	22005.271697
11.536000	-0.000637	0.000000	0.002383	0.000373	6096.928916	42939.998585	3858.212466	22178.228959
12.036000	0.000012	-0.000025	-0.001680	0.000515	6100.664393	42924.630543	3848.721189	22171.940064
12.536000	0.002163	0.000248	0.001402	0.000041	6120.069316	42993.364783	3856.742720	22192.973071
13.036500	0.000338	0.000266	0.001527	-0.002168	6122.916478	43199.033509	3862.040843	22291.265822
13.537000	-0.000489	0.000803	0.000468	0.002151	6084.955124	42850.364317	3849.872738	22099.514966
14.037000	0.001344	0.000486	-0.004737	-0.000116	6115.170270	43029.785583	3843.287680	22199.952707
14.537500	-0.003061	-0.000016	-0.003830	0.001861	6068.260206	42801.886302	3840.899063	22112.317402
15.035000	-0.003125	-0.000349	-0.003849	0.005882	6038.607476	42404.700697	3831.939658	21935.385706
15.539500	0.001140	0.000065	0.001618	0.002652	6093.233807	42736.830292	3851.332122	22077.379084
16.035500	0.000896	0.000081	0.001448	-0.000522	6114.849609	43029.869483	3858.120492	22217.963365
16.535500	0.001950	0.000268	0.001068	-0.000335	6121.271917	43029.811566	3856.835502	22209.642219
17.036500	-0.002918	0.000553	-0.003207	0.005642	6041.833601	42508.471999	3833.886638	21945.896631
17.537000	-0.000435	0.000419	-0.002048	-0.000469	6104.623394	43056.129504	3850.105658	22215.592049
18.036000	0.003149	0.001307	0.001440	-0.002275	6144.642906	43305.430690	3862.085994	22296.027252
18.537000	0.001109	-0.000181	0.002011	0.000596	6108.160199	42902.797366	3856.862028	22168.317872
19.040000	-0.001921	0.000234	0.000817	0.002989	6068.350821	42721.461042	3848.773485	22062.524005
19.538000	-0.000921	0.000471	-0.002410	0.001029	6090.016229	42922.990602	3845.929942	22149.145475
20.035000	0.000048	0.000587	0.003263	0.001638	6092.665214	42877.671233	3857.340244	22122.186704
20.535500	0.000859	0.000947	0.001755	0.001448	6100.030631	42928.219271	3854.356289	22130.587503
21.035500	-0.000227	-0.000798	-0.001989	0.002774	6082.307770	42646.801338	3842.970465	22072.020674
21.536000	0.000077	0.000621	0.004285	0.001548	6093.538311	42889.036159	3859.861924	22126.154431
22.039000	0.001087	0.000364	0.006042	0.001392	6102.127130	42879.860330	3864.220209	22133.095296
22.536500	0.001430	-0.000826	-0.001328	0.000188	6113.551797	42881.112634	3850.247431	22186.451923
23.036500	-0.002616	-0.000349	0.004395	0.002660	6065.686124	42698.262950	3857.589465	22077.035773
23.537500	-0.000877	0.001134	0.000309	0.001319	6088.211487	42957.266928	3851.386363	22136.302369
24.037500	0.000910	0.000146	0.001175	0.000821	6105.032051	42912.168112	3854.462446	22158.350028
24.535000	0.002943	0.000781	-0.009499	0.001704	6113.530058	42889.419310	3828.696032	22119.280975
25.035500	0.001702	0.001134	0.002725	0.001820	6103.505923	42911.260708	3855.710169	22114.156291
25.535500	-0.000143	-0.000135	0.000002	0.000782	6097.558281	42889.993862	3851.905083	22160.102041
26.036000	0.000319	0.000738	-0.000369	0.001252	6097.501165	42927.035925	3850.011895	22139.279992
26.536000	-0.001624	0.001349	-0.001747	0.001597	6080.696807	42951.443034	3846.143014	22124.003453
27.036500	0.000912	0.000244	-0.000990	0.000965	6103.987408	42908.029240	3849.261615	22151.990440
27.537000	0.000820	0.000471	0.003023	0.001106	6102.259841	42915.878112	3858.000065	22145.725367
28.037000	0.003224	0.000449	0.001516	-0.000592	6132.653500	43070.312186	3858.433577	22221.077762
28.540000	0.002373	0.000165	-0.000757	-0.000902	6128.627798	43072.707718	3853.991891	22234.873189
29.035000	-0.001248	0.000934	-0.002425	0.005638	6053.971726	42543.612663	3835.629412	21946.091581
29.540500	0.000320	-0.000040	0.001894	-0.001163	6115.331342	43077.835898	3860.589429	22246.473362
30.038500	0.000875	0.000773	0.002043	-0.000915	6117.608379	43130.074011	3860.364858	22235.453084
30.536000	0.001084	0.000431	0.003347	-0.000631	6117.051991	43072.184911	3862.686910	22222.808931
31.036000	-0.001947	-0.000243	-0.002721	0.004553	6056.774618	42535.147270	3837.378795	21993.678352
31.545000	0.002105	-0.000147	0.002421	-0.000371	6122.696857	42995.006061	3859.989203	22211.277161
32.040000	-0.000748	0.000336	0.002028	0.001499	6087.837168	42867.371147	3854.859671	22128.337021
32.537000	0.000010	0.000343	0.001614	0.001552	6093.018682	42863.205450	3853.805483	22126.005321
33.136500	-0.001822	-0.000402	0.003219	0.004277	6059.688531	42545.885421	3851.279156	22005.827441
33.535000	0.000949	0.000677	0.003499	0.001472	6100.521949	42901.188114	3858.252952	22129.556248
34.034500	0.000088	-0.000425	0.002362	-0.001485	6116.003741	43072.042820	3862.388922	22260.835540
34.622500	0.000993	0.000316	0.005061	-0.001326	6121.532498	43125.803008	3868.190358	22253.745924
35.038500	0.002496	0.000159	0.003033	-0.001146	6131.358949	43094.684304	3863.143712	22245.732054
35.536000	-0.000701	0.000241	0.000649	0.001347	6089.302673	42872.654364	3852.089236	22135.066959
36.037000	0.000996	0.000499	-0.001456	0.001469	6100.889597	42885.151823	3847.083144	22129.686377
36.536500	-0.002577	-0.000567	0.003627	0.000283	6083.347719	42896.201622	3861.244585	22182.232964
37.206500	-0.000265	0.000893	0.000862	0.003595	6076.024497	42726.367900	3847.515158	22035.847452
37.738500	0.000484	0.000498	-0.004784	0.001683	6095.540736	42865.435599	3839.173641	22120.218921
38.076500	-0.002448	0.000169	0.003508	0.000699	6081.233877	42925.549611	3860.026384	22163.755212
38.538000	0.000763	0.000148	-0.000566	0.000844	6103.776384	42910.246736	3850.484929	22157.328999
39.079500	0.002426	0.000250	0.003640	0.001401	6111.943898	42868.481214	3858.732012	22132.677083
39.555000	0.002159	0.000450	0.002068	0.001015	6112.823616	42922.324789	3856.043462	22149.765918
40.067500	-0.001649	-0.000013	-0.001030	0.000782	6086.488911	42901.186008	3849.581826	22160.085650
40.536500	0.000459	0.000418	0.001189	0.001206	6098.870916	42901.885531	3853.627579	22141.324814
41.234500	0.002597	0.000646	0.003690	0.001560	6112.032240	42890.298149	3858.485338	22125.643962
41.537000	-0.000009	-0.000137	0.004053	0.000898	6097.691882	42879.123453	3860.812279	22154.950556
42.037500	0.000042	0.000788	0.006938	0.001732	6091.930362	42887.471035	3865.486575	22118.023576
42.540000	-0.000938	0.000251	0.004792	0.001039	6089.823784	42901.832870	3862.172700	22148.703440
43.128500	0.001440	0.000904	0.006068	0.001602	6103.177505	42910.122095	3863.799470	22123.781999
43.538000	-0.000036	0.000251	0.003234	0.000976	6096.920665	42907.691847	3858.774977	22151.511736
44.035500	-0.000892	0.000171	0.001403	0.000818	6091.783372	42914.840354	3854.986863	22158.500910
44.535500	-0.002112	-0.000521	-0.000713	0.000607	6084.377095	42870.646928	3850.689515	22167.860950
45.036000	-0.000008	0.000104	0.000283	0.002275	6087.569473	42774.900317	3849.176338	22094.021279
45.536500	0.002479	0.000554	0.001930	-0.003013	6145.153591	43304.046202	3864.888517	22329.016139
46.036000	0.002339	0.000536	0.000775	-0.001216	6130.709871	43135.992334	3858.169259	22248.854784
46.536000	0.001174	0.000521	0.001214	-0.000583	6117.360744	43076.019772	3857.728535	22220.667431
47.033500	-0.000350	0.000630	-0.003417	0.004293	6070.298008	42638.504751	3836.411244	22005.103096
47.537000	0.000832	0.000173	0.006517	-0.000698	6115.684711	43054.629017	3870.090174	22225.793321
48.040500	0.002529	0.000682	0.002925	-0.000490	6126.725375	43082.329320	3861.404243	22216.526054
48.535000	0.002216	0.000579	0.007333	-0.000219	6122.394625	43047.908064	3870.863502	22204.516932
49.035500	-0.001596	-0.000375	0.000450	0.003474	6067.182212	42621.479409	3846.860002	22041.150787
49.536000	0.000627	0.000201	0.006124	0.002004	6094.230079	42808.718565	3863.009375	22106.017226
50.036000	0.000914	0.000627	0.006809	-0.000336	6113.608913	43063.135627	3869.929466	22209.714563
50.539500	0.000558	-0.000525	0.003180	-0.001641	6120.636080	43077.231884	3864.609103	22267.770991
51.037000	-0.000796	0.000463	0.003127	0.004247	6067.387257	42627.462588	3851.139414	22007.163317
51.536500	0.000169	0.000573	0.000304	-0.003326	6130.257882	43334.844580	3861.892908	22342.993372
52.039500	0.001198	0.001035	0.011404	-0.005784	6156.304881	43607.034225	3893.246412	22453.290822
52.910000	0.013169	-0.023031	0.025926	0.595961	3737.586348	12604.629315	3137.055202	7801.775552
53.383000	0.015805	-0.021416	0.033001	0.559176	3817.151644	13493.363800	3165.096932	8233.876431
53.557500	0.023846	-0.018049	0.007716	0.157200	5257.212758	29698.296146	3568.133094	16339.069233
54.073500	0.017817	-0.009489	0.004439	0.100253	5550.413036	34046.428798	3659.547954	18220.192518
54.536000	0.011239	-0.026188	-0.005346	-0.158254	7633.990730	57184.177764	4267.459684	30671.750394
55.036000	-0.026209	-0.033828	-0.022748	-0.175039	7414.046337	58337.543576	4265.478517	31765.597440
55.536000	-0.014682	-0.119646	-0.011385	-0.313953	9282.645880	65535.000000	4841.113584	42641.124437
56.036500	0.002620	-0.073054	-0.001694	-0.262878	8805.122826	64892.752881	4662.243359	38233.193671
56.537000	0.006740	-0.042375	0.002773	-0.214719	8235.696246	62450.642796	4491.012759	34525.886903
57.037500	-0.000860	-0.021660	-0.001844	-0.123421	7149.107891	53531.516557	4170.414097	28532.270191
57.534500	-0.006205	-0.021339	-0.008077	-0.125087	7113.262801	53763.299148	4156.844775	28630.744839
58.035000	-0.002458	-0.016968	-0.007902	-0.138329	7281.335977	55864.721081	4197.119590	29426.950692
58.535000	-0.000138	-0.013277	-0.008386	-0.149392	7418.443047	57691.766140	4229.766417	30111.031578
59.035500	0.001326	-0.012008	-0.004338	-0.150853	7448.986809	58036.729745	4247.085225	30202.719617
59.536000	0.000147	-0.009633	-0.011785	-0.147975	7406.688826	57973.038778	4214.805121	30022.449391
60.036500	-0.002515	-0.008664	-0.011556	-0.141236	7310.185621	57247.440005	4194.845548	29605.053580
60.536000	-0.001516	-0.006907	-0.007765	-0.136531	7272.716919	56880.359133	4192.066024	29317.433686
61.036000	-0.000869	-0.006261	-0.002889	-0.111248	7031.575708	53908.305805	4131.524645	27824.140327
61.539500	-0.000242	-0.008553	-0.005226	-0.129727	7217.393534	55842.022780	4179.177850	28907.000273
62.037000	-0.002675	-0.008399	-0.011264	-0.118659	7085.241884	54530.278828	4128.736771	28252.899216
62.534500	-0.003144	-0.006294	-0.009867	-0.096864	6876.100946	52245.857687	4071.128567	27012.618410
63.035000	-0.007236	-0.006707	-0.014231	-0.092037	6795.284183	51655.125776	4046.042252	26746.232011
63.535000	-0.005916	-0.004454	-0.008270	-0.086993	6762.031851	51343.344691	4048.522223	26471.041134
64.036000	-0.004661	-0.002633	-0.009347	-0.084517	6751.189018	51270.517630	4038.947563	26337.145609
64.536000	-0.007912	-0.002600	-0.010723	-0.083248	6711.310468	51133.234197	4031.865783	26268.762475
65.036000	-0.007346	-0.002354	-0.012264	-0.085198	6733.460326	51377.391786	4032.958824	26373.877035
65.536500	-0.007908	-0.001488	-0.009235	-0.084471	6722.096827	51392.771602	4039.121714	26334.636250
66.040500	-0.006771	-0.000566	-0.012372	-0.083805	6726.245358	51421.302642	4028.955744	26298.736256
66.537500	-0.008085	-0.000539	-0.011692	-0.083747	6714.182136	51417.881347	4030.615134	26295.636989
67.035000	-0.011985	-0.000699	-0.017420	-0.077333	6624.664545	50690.354550	3998.702716	25952.839267
67.535000	-0.008312	0.000346	-0.017209	-0.081683	6694.117117	51286.702365	4010.585312	26184.782778
68.035500	-0.010166	0.000062	-0.017280	-0.080730	6669.667937	51149.212224	4007.904956	26133.756347
68.535500	-0.011257	-0.000196	-0.013573	-0.078993	6645.200872	50928.454180	4013.062804	26041.048516
69.036000	-0.013202	-0.000096	-0.014640	-0.070674	6557.735609	50029.902113	3988.692806	25602.270399
69.535500	-0.009268	-0.000570	-0.010843	-0.074754	6625.850694	50422.042027	4009.112106	25816.434481
70.036500	-0.011838	-0.000526	-0.016246	-0.072788	6587.138777	50212.641127	3989.998539	25712.967228
70.536500	-0.010094	0.000246	-0.013655	-0.070314	6580.944686	50027.878856	3990.299143	25583.440856
71.037000	-0.014029	0.000194	-0.015226	-0.063506	6491.013991	49290.698359	3968.952778	25230.831801
71.537500	-0.012100	0.000312	-0.016302	-0.066660	6533.287714	49640.957156	3974.209570	25393.538545
72.037500	-0.011429	0.000276	-0.013450	-0.065389	6528.273596	49500.808981	3978.224889	25327.844919
72.535000	-0.011550	-0.000754	-0.011055	-0.065164	6525.388735	49366.566806	3983.761026	25316.224530
73.035500	-0.012565	-0.001325	-0.017807	-0.060125	6475.206399	48771.388439	3954.013188	25057.804807
73.535500	-0.009916	-0.001860	-0.012211	-0.064399	6532.649950	49167.189537	3978.859526	25276.816685
74.036000	-0.007349	-0.000723	-0.010436	-0.064025	6551.028906	49248.265724	3982.430505	25257.521675
74.536000	-0.009494	-0.000346	-0.011754	-0.063724	6530.530871	49256.397862	3978.302574	25242.045342
75.036000	-0.011894	-0.000642	-0.012628	-0.058716	6469.132371	48694.894134	3963.436315	24986.068165
75.539500	-0.011553	-0.001195	-0.009692	-0.064980	6523.826539	49299.827331	3986.780012	25306.740835
76.037000	-0.009789	-0.000790	-0.013297	-0.065699	6544.601509	49419.803895	3979.403636	25343.818545
76.537000	-0.009164	-0.001014	-0.009826	-0.065888	6551.443097	49416.071226	3988.767031	25353.609157
77.035000	-0.013157	-0.000608	-0.014703	-0.060234	6471.231242	48858.516525	3962.041484	25063.366081
77.537500	-0.009321	-0.000471	-0.010891	-0.066880	6558.464878	49580.432618	3988.578076	25404.920273
78.035500	-0.010166	-0.001350	-0.011789	-0.068251	6562.898150	49633.297872	3989.795227	25476.040261
78.535500	-0.011354	-0.000578	-0.013780	-0.067672	6548.025564	49654.029295	3983.206399	25445.968841
79.036000	-0.009395	-0.000876	-0.014030	-0.068176	6568.768961	49676.210906	3983.855168	25472.139073
79.536500	-0.008753	-0.000747	-0.006943	-0.067907	6571.929620	49661.153138	4001.430634	25458.181392
80.036500	-0.007281	-0.000890	-0.010488	-0.068186	6586.757047	49675.743581	3992.975058	25472.656851
80.536500	-0.007903	-0.001170	-0.009359	-0.068387	6583.186940	49667.275350	3996.410048	25483.103222
81.037500	-0.010551	-0.001052	-0.009819	-0.062987	6515.569646	49103.003505	3981.355952	25204.218381
81.537500	-0.007636	-0.001135	-0.006125	-0.068440	6585.903862	49676.676730	4004.944584	25485.849043
82.035000	-0.009340	-0.000517	-0.007589	-0.067259	6561.503596	49616.263283	3998.073329	25424.560727
82.535000	-0.009183	-0.000488	-0.008156	-0.066871	6559.548554	49577.733734	3995.601018	25404.456578
83.035500	-0.010262	-0.001030	-0.005705	-0.067309	6554.153990	49566.544701	4003.094740	25427.158759
83.536000	-0.008451	-0.000355	-0.005762	-0.066130	6559.476269	49512.542738	3999.881171	25366.117345
84.036500	-0.009898	-0.000941	-0.010978	-0.065689	6543.601037	49402.678832	3985.300419	25343.320320
84.536500	-0.009144	-0.000290	-0.008052	-0.064123	6536.797098	49305.051422	3988.788979	25262.612042
85.039000	-0.012268	-0.000337	-0.011625	-0.057568	6456.649276	48606.211398	3963.073501	24927.793896
85.537000	-0.008617	0.000050	-0.006394	-0.061851	6522.215082	49099.440503	3987.213592	25145.979818
86.037000	-0.010095	-0.000080	-0.013200	-0.061283	6505.190165	49025.361174	3968.455919	25116.905507
86.535000	-0.009939	-0.000482	-0.008602	-0.060329	6498.572249	48881.846673	3977.685426	25068.185931
87.035000	-0.013397	-0.000442	-0.012679	-0.053686	6415.846492	48189.340953	3950.755585	24731.885748
87.535500	-0.012803	0.000152	-0.013513	-0.058520	6460.064289	48757.805395	3960.727401	24976.102660
88.036000	-0.008509	0.000021	-0.009987	-0.058062	6491.642219	48695.803753	3968.436158	24952.830696
88.536000	-0.010725	0.000003	-0.008860	-0.056858	6463.472880	48567.326823	3968.242847	24891.813615
89.036500	-0.011751	0.000109	-0.013277	-0.051575	6412.084038	48027.308350	3944.054437	24626.088811
89.536500	-0.010284	0.000369	-0.009185	-0.055290	6454.243579	48441.431827	3963.479814	24812.635208
90.037000	-0.009973	0.000103	-0.008063	-0.054167	6447.600859	48296.245378	3963.476733	24756.050957
90.537000	-0.011694	-0.000097	-0.013989	-0.053730	6430.015156	48229.860837	3947.620148	24734.110209
91.035000	-0.013773	0.000265	-0.015151	-0.047998	6367.102880	47673.920460	3930.698273	24447.994378
91.538000	-0.012489	0.000317	-0.008619	-0.051468	6405.262016	48037.834024	3955.335739	24620.757859
92.035500	-0.010644	0.001618	-0.012776	-0.049040	6400.553538	47921.056702	3939.052184	24499.721356
92.535500	-0.012405	0.000055	-0.015421	-0.049302	6388.493676	47786.703124	3933.219574	24512.751050
93.036000	-0.016287	0.000569	-0.014140	-0.042236	6301.658322	47115.857070	3919.190214	24164.146084
93.538000	-0.013482	0.000698	-0.011632	-0.046416	6356.808728	47555.861317	3935.424486	24369.691825
94.036500	-0.011015	0.001406	-0.016171	-0.044622	6362.171373	47444.537611	3920.046651	24281.231946
94.539500	-0.013266	0.001301	-0.009825	-0.043878	6338.375077	47357.808808	3933.640226	24244.670266
95.037000	-0.013374	0.001062	-0.015137	-0.038179	6292.708129	46755.302764	3907.089588	23966.569237
95.534500	-0.012647	0.001920	-0.008211	-0.040667	6317.917606	47093.771096	3929.745887	24087.515111
96.040500	-0.012546	0.001069	-0.008440	-0.040018	6313.607410	46941.724898	3927.614598	24055.926178
96.538000	-0.013709	0.000693	-0.013336	-0.038903	6295.749861	46791.094117	3913.120105	24001.704375
97.038500	-0.016361	0.001019	-0.017119	-0.031690	6219.487076	46101.933538	3887.118448	23654.336952
97.535500	-0.011225	0.002246	-0.013890	-0.035559	6289.030016	46610.820653	3903.826804	23839.946944
98.036000	-0.010713	0.001829	-0.007614	-0.034782	6286.966719	46491.019854	3916.959826	23802.518400
