sample name	sample
index	1066
start time	 04-22-2021  10:19:25 AM
880	0.052462
Peak Time (s)	102.538
Peak Height 	0.05246
calc peak height	100,103
Baseline Time (s)	10.536
Baseline Value 	-0.002698
subtract baseline	10,4
Abs	0.025778
Peak Time (s)	102.538
Peak Height 	0.02578
calc peak height	100,103
Baseline Time (s)	9.536
Baseline Value 	0.0017
subtract baseline	10,3
PK_550	0.025883
Peak Time (s)	101.536
Peak Height 	0.02588
calc peak height	100,103
Baseline Time (s)	9.536
Baseline Value 	7.2871E-4
subtract baseline	10,2
PK_880	0.027044
Peak Time (s)	102.538
Peak Height 	0.02704
calc peak height	100,103
Baseline Time (s)	9.536
Baseline Value 	0.001451
subtract baseline	10,1


Time (s)	A880-A510	A880-A775	A880-A975	A880	I510	I775	I975	I880	
0.041000	-0.004285	-0.001064	-0.002320	0.007777	6155.806252	42768.593991	3817.784447	22463.822955
0.535500	0.000150	-0.001184	-0.003248	0.004240	6219.264441	43084.770188	3824.453440	22625.262372
1.036000	-0.002299	-0.000700	-0.001950	0.003719	6203.808638	43178.076517	3829.123605	22649.112282
1.536500	-0.002253	0.000059	-0.004805	0.004230	6200.092282	43201.238738	3820.491846	22625.687803
2.037000	-0.001021	-0.000677	-0.004565	0.002201	6226.244966	43321.831034	3826.303353	22718.892300
2.537500	-0.001453	-0.001302	-0.002853	-0.000042	6240.854107	43473.276440	3836.505231	22822.434662
3.037000	-0.000241	0.000146	0.000042	-0.001157	6259.707038	43714.261851	3846.940769	22874.077023
3.538000	-0.002701	-0.000737	-0.000581	0.002743	6208.405304	43265.578213	3835.174039	22693.935995
4.034500	0.000191	-0.000783	0.000488	0.000004	6253.788894	43517.556036	3845.072524	22820.280827
4.535000	-0.002137	-0.000486	-0.000502	0.000246	6233.004734	43522.775935	3841.861812	22809.101365
5.035500	-0.002487	-0.000582	0.000959	0.000491	6228.210632	43490.720218	3845.030075	22797.756908
5.535500	-0.000992	-0.001573	-0.002012	-0.000453	6247.902568	43486.314485	3839.751782	22841.434700
6.036500	0.000474	0.000259	-0.000511	0.000996	6248.042888	43522.279331	3839.887100	22774.442074
6.536500	-0.001773	-0.000592	0.003702	-0.000023	6238.114112	43538.040687	3853.563405	22821.523973
7.037000	-0.001503	-0.000504	-0.001595	0.000359	6237.211617	43510.530650	3838.727425	22803.877622
7.542500	-0.000109	-0.000243	0.002723	0.000152	6250.162906	43554.457474	3850.535710	22813.449278
8.035000	-0.000897	-0.000729	-0.003119	-0.000308	6247.496777	43551.985990	3836.501926	22834.713186
8.535000	-0.001334	-0.000217	-0.004259	-0.000072	6242.048260	43577.878571	3832.944098	22823.780893
9.035500	-0.000089	-0.000271	-0.002124	-0.000050	6251.959150	43570.737864	3838.415099	22822.783419
9.535500	0.000000	0.000000	0.000000	-0.000112	6253.179193	43602.033780	3844.101289	22825.636357
10.036000	0.000474	0.001019	-0.000666	0.001112	6247.110996	43582.845434	3839.185519	22769.105500
10.536000	0.000484	-0.000426	0.001212	0.000000	6256.197160	43551.548859	3846.974508	22820.471959
11.036500	-0.000795	0.000300	0.000311	0.000836	6239.080096	43541.222955	3842.441985	22781.848018
11.536500	0.001034	0.000162	0.001015	0.000373	6257.637664	43571.680113	3845.486808	22803.227583
12.039500	-0.001899	-0.000890	0.003784	0.003351	6209.953814	43194.688935	3844.939840	22666.002104
12.540000	0.000377	0.000599	0.002903	0.000513	6251.165996	43599.569895	3850.057718	22796.727936
13.037500	-0.000484	-0.000657	-0.002352	-0.002251	6266.634004	43741.685259	3843.546885	22924.900981
13.535000	-0.000462	0.000428	0.000940	-0.000228	6250.384009	43653.301867	3846.861654	22831.040402
14.038500	-0.002290	-0.000876	-0.002306	0.003087	6208.945536	43220.600138	3829.836169	22678.155669
14.540000	-0.003227	-0.000366	0.000256	0.002405	6206.898692	43331.785031	3838.221030	22709.501397
15.036000	0.001085	0.000415	-0.002676	0.000884	6253.900952	43547.397517	3834.563363	22779.599698
15.544000	-0.006658	-0.001017	0.001485	0.004299	6164.539936	43094.753024	3836.497192	22622.565408
16.036500	-0.003879	-0.001533	-0.002206	0.002575	6200.328306	43207.079002	3831.412296	22701.684227
16.537000	-0.000069	-0.000020	0.000847	-0.000570	6256.342372	43643.276001	3847.512834	22846.871503
17.037000	0.003571	-0.000111	0.002586	-0.000664	6286.785291	43643.581203	3852.315906	22851.224800
17.537500	-0.004863	-0.000524	-0.000637	0.003134	6188.025651	43248.996375	3834.019701	22675.987338
18.035000	0.000057	-0.000655	0.003183	0.000915	6245.325720	43444.149845	3849.740434	22778.169124
18.535500	-0.000996	-0.000505	-0.005250	0.001247	6234.127739	43427.088065	3826.994950	22762.840847
19.035500	-0.001348	-0.000962	-0.003859	0.000824	6234.708486	43423.994348	3831.664220	22782.388113
19.535500	-0.002238	-0.000076	-0.002559	0.001631	6221.038551	43431.344602	3832.937333	22745.145317
20.036000	-0.002093	-0.000376	0.001624	0.003155	6209.982421	43260.966065	3839.827144	22675.044670
20.536500	-0.000304	0.000364	-0.004326	0.001818	6235.114376	43455.049130	3827.903304	22736.546618
21.034500	-0.001311	0.000091	0.001189	0.001732	6227.686507	43437.580066	3842.397125	22740.511726
21.540000	-0.001889	-0.000972	0.002834	0.001029	6228.685793	43403.766450	3848.525245	22772.898187
22.037000	0.000729	-0.000083	0.003386	0.001403	6246.813804	43452.055828	3848.993167	22755.673479
22.535000	0.000044	0.000361	0.000761	0.002008	6236.383087	43436.933003	3840.563670	22727.767046
23.035000	-0.003283	-0.000385	-0.001919	0.000989	6217.797702	43462.551674	3836.252034	22774.748778
23.535000	-0.001141	0.000438	0.003551	0.001594	6230.172790	43483.015817	3848.926601	22746.872636
24.035500	-0.000031	-0.000535	0.001953	0.001323	6241.310295	43417.241388	3845.454274	22759.350113
24.536000	-0.001889	-0.001264	-0.001556	0.000461	6233.267982	43429.686094	3838.562965	22799.150753
25.036000	-0.001990	-0.000829	0.000944	0.001185	6226.622891	43402.591985	3843.180610	22765.708793
25.536500	0.001943	0.000214	0.000310	0.001596	6255.082308	43461.774386	3840.461868	22746.743834
26.036500	0.000391	0.000100	0.001570	0.001719	6241.515192	43439.564723	3843.421638	22741.072068
26.537500	-0.001149	-0.000454	-0.002577	0.001064	6234.374485	43449.034969	3834.355317	22771.299219
27.038000	-0.002922	-0.001126	-0.002295	0.000688	6223.119980	43421.324651	3836.058344	22788.644701
27.535000	-0.003381	0.000611	-0.005187	0.003639	6195.810150	43307.899996	3821.029346	22652.821376
28.038000	0.001838	0.000575	0.000431	-0.000972	6275.129244	43737.240287	3847.473156	22865.479409
28.535000	-0.001277	0.000069	0.000355	-0.000690	6247.522667	43663.023518	3846.540015	22852.429712
29.052500	-0.000572	-0.001123	0.005369	-0.000981	6255.590375	43578.237314	3860.489951	22865.917083
29.536500	0.000373	-0.000153	-0.000456	-0.000698	6260.969325	43642.815854	3844.440279	22852.795372
30.036500	-0.001576	0.000029	0.002378	0.004987	6199.459804	43128.014994	3837.026877	22591.055044
30.536500	-0.002152	0.000304	0.000368	0.000011	6234.778992	43619.155656	3844.741194	22819.974757
31.040000	-0.000124	-0.000084	0.004666	-0.000485	6255.203705	43629.191372	3857.322290	22842.908923
31.537000	-0.004347	-0.000624	-0.002720	0.004111	6184.360186	43148.780841	3826.137532	22631.178932
32.035000	-0.003577	-0.000975	-0.004025	0.003341	6196.625242	43187.767077	3824.765320	22666.485826
32.535000	-0.000736	0.000308	-0.001790	-0.000389	6249.464814	43657.156191	3840.164190	22838.482075
33.097500	0.000415	0.000065	0.005080	-0.000551	6260.110508	43649.476949	3858.588656	22845.965266
33.535500	-0.003863	-0.000917	-0.000870	0.004459	6185.429336	43089.094805	3829.998822	22615.192253
34.036000	-0.003999	-0.000501	0.001692	0.003321	6193.421598	43233.799481	3839.570797	22667.419290
34.536000	0.000059	0.000268	0.002839	-0.000405	6256.036435	43654.809989	3852.300208	22839.213699
35.037000	0.001841	0.000073	0.000281	-0.001775	6281.719590	43765.700923	3849.184153	22902.786546
35.534500	-0.001629	-0.000669	-0.000825	0.004567	6202.394172	43102.168189	3829.836462	22610.275665
36.037500	-0.002150	-0.000489	0.000008	0.003423	6207.375730	43225.371717	3834.940224	22662.729028
36.537000	-0.000666	-0.000397	-0.001440	0.001836	6232.043295	43382.136411	3835.299579	22735.696718
37.035000	-0.002095	-0.000387	0.002601	0.001878	6220.203152	43379.124525	3845.695904	22733.761663
37.535000	-0.003047	-0.000005	-0.001696	0.003716	6197.854919	43243.178156	3829.784855	22649.256848
38.035000	-0.001950	-0.001197	0.001170	0.001513	6224.307216	43337.529676	3842.917051	22750.608743
38.536000	-0.002387	-0.000062	0.001109	0.001755	6218.851831	43421.119406	3842.127248	22739.449430
39.036000	-0.000374	-0.000065	-0.000321	0.002210	6231.388831	43378.170868	3837.229363	22718.486689
39.536000	-0.005455	-0.000749	-0.000424	0.002133	6191.280433	43321.538906	3837.163400	22722.044931
40.036500	-0.003360	-0.000968	-0.003091	0.002621	6204.108843	43255.514976	3829.013162	22699.579394
40.539500	0.000129	-0.000613	0.001963	0.001399	6241.987487	43402.805652	3845.281465	22755.839399
41.034500	-0.000980	0.000725	0.002751	0.002612	6223.268255	43414.517583	3844.173793	22699.985091
41.535000	-0.000949	-0.000327	0.002148	0.001761	6230.374772	43395.767613	3844.821134	22739.179937
42.035000	-0.002189	-0.000908	0.003317	0.002977	6210.632142	43227.865229	3844.697316	22683.200523
42.535000	-0.001014	-0.000436	-0.000670	0.001923	6228.540187	43370.322472	3837.070308	22731.702886
43.036000	-0.001613	0.000243	0.002717	0.002096	6222.327963	43417.676981	3845.429486	22723.711005
43.536000	-0.004004	-0.001188	0.000944	0.001243	6209.981680	43363.603899	3843.031625	22763.042297
44.035500	-0.002413	-0.000664	-0.003702	0.002793	6210.312421	43267.828285	3827.001268	22691.669841
44.536500	-0.002270	-0.000851	0.005168	0.001408	6222.572782	43379.637224	3853.657926	22755.422301
45.039500	-0.001059	-0.000063	0.004494	0.001810	6229.088373	43415.838204	3850.831288	22736.912278
45.537000	0.001407	0.000311	0.006683	-0.002624	6285.118892	43868.455359	3868.342959	22942.267550
46.037000	-0.002220	-0.000433	0.000139	0.003432	6206.737472	43229.756814	3835.256527	22662.303237
46.564500	-0.000578	0.000020	-0.003175	-0.000407	6250.889062	43631.661941	3836.614401	22839.296300
47.037500	0.001860	-0.000109	0.000247	-0.000418	6270.793405	43620.583138	3845.545714	22839.833539
47.535500	-0.002946	-0.000679	-0.003736	0.002060	6211.911278	43334.766833	3828.795580	22725.362551
48.036000	-0.002414	-0.000248	0.001263	0.003365	6205.724302	43253.163775	3838.341699	22665.364691
48.536000	0.000043	-0.000168	0.006285	-0.000101	6253.435623	43585.192130	3860.584764	22825.122757
49.036500	-0.000244	0.000208	-0.000827	0.002151	6232.904534	43409.253281	3836.071117	22721.199874
49.537000	-0.002367	-0.001000	0.000123	0.001888	6217.944099	43320.892026	3839.218724	22733.323873
50.037500	-0.003385	-0.000496	0.003556	0.003408	6197.616671	43226.102680	3844.195879	22663.403797
50.540000	-0.001275	-0.000762	0.000787	-0.000538	6246.299808	43570.427919	3847.268347	22845.356975
51.034500	0.000386	-0.000146	0.000555	-0.000760	6261.583275	43649.336341	3847.246486	22855.688651
51.535500	-0.000883	-0.000485	0.000707	0.003066	6220.391992	43258.967967	3837.674665	22679.094486
52.035500	-0.000515	-0.001591	0.004217	0.002537	6227.610616	43205.261831	3848.199164	22703.424989
52.536000	-0.000374	0.000923	0.002776	0.000464	6245.489212	43634.697760	3849.854337	22799.021074
53.036000	0.041777	-0.018477	0.067171	0.530835	3872.748455	14283.665681	3100.709136	8644.957661
53.536000	-0.004149	-0.021579	-0.025111	0.036526	5937.427119	38477.840724	3693.969262	21199.560246
54.036000	-0.022939	-0.109801	-0.060001	-0.296383	9340.376049	65506.625681	4663.021954	42487.174308
54.539500	-0.007125	-0.125583	-0.034446	-0.312362	9842.373728	65535.000000	4858.886044	43977.272143
55.037000	-0.011086	-0.093584	-0.029099	-0.280353	9277.093654	65533.688077	4731.013177	41046.291303
55.537000	-0.014744	-0.092470	-0.036852	-0.279248	9205.699627	65535.000000	4690.239937	40948.939380
56.037500	-0.014594	-0.070470	-0.031533	-0.253513	8835.266033	64997.356678	4599.364453	38749.755748
56.535000	-0.020144	-0.067705	-0.035045	-0.250083	8710.339183	64902.122071	4569.423528	38466.375389
57.038500	-0.014694	-0.066559	-0.035347	-0.249442	8776.913119	64974.471553	4565.389430	38413.623203
57.535500	-0.012209	-0.059635	-0.031682	-0.239645	8675.972541	64564.194948	4539.397240	37617.605084
58.036000	-0.011878	-0.043014	-0.029728	-0.214139	8341.139713	63312.540821	4442.901392	35627.419339
58.536000	-0.011631	-0.022798	-0.026688	-0.167016	7767.110539	59674.604329	4275.763486	32244.329308
59.036500	-0.005122	-0.012599	-0.020727	-0.123102	7351.490741	55423.214973	4144.855263	29405.547336
59.536500	-0.009860	-0.010717	-0.020542	-0.088351	6949.879080	51584.265868	4035.182739	27353.923380
60.037000	-0.006935	-0.007130	-0.015982	-0.075875	6858.103819	50595.017806	4011.269164	26656.483962
60.543000	-0.005902	-0.005612	-0.017400	-0.076994	6878.593998	50886.344930	4010.373514	26718.189163
61.038000	-0.000896	-0.002121	-0.010255	-0.022790	6434.354651	45581.917449	3876.972239	23903.106334
61.534500	-0.003612	0.000046	-0.006085	-0.013605	6334.243492	44895.512317	3863.590753	23459.941077
62.035500	-0.004983	0.001115	-0.014204	-0.028244	6446.028929	46447.511906	3881.019179	24170.720200
62.536000	-0.003194	0.002557	-0.006984	-0.011271	6318.377697	44912.682880	3855.044874	23348.800586
63.036500	-0.003168	0.002067	-0.010280	0.002809	6204.141996	43521.797486	3810.186892	22690.911148
63.536500	-0.007723	0.000379	-0.007343	0.005333	6147.979607	43128.303369	3811.232887	22575.210555
64.039500	-0.005384	0.001597	-0.008049	0.008880	6138.494913	42912.508800	3800.515146	22413.789997
64.537000	-0.005198	0.001659	-0.012111	0.011835	6116.829159	42645.779638	3783.057578	22280.257908
65.034500	0.001219	0.006425	-0.002295	0.047098	5899.230235	39940.843128	3722.066971	20755.290640
65.535000	-0.003935	0.003127	-0.004251	0.031371	5977.317527	41020.371019	3754.629054	21420.150004
66.035000	-0.003839	0.002453	-0.006634	0.038300	5926.639080	40356.380226	3732.497931	21124.256402
66.540500	0.000370	0.005856	0.001327	0.025797	6052.016535	41758.986122	3781.766717	21661.634485
67.035000	-0.000365	0.007740	-0.000998	0.025265	6050.460860	41976.522127	3777.354260	21684.816905
67.553000	0.001367	0.008810	-0.002140	0.020463	6100.783221	42510.367063	3786.376926	21895.610813
68.036500	-0.001418	0.008835	-0.005985	0.021640	6070.180465	42405.115691	3774.017543	21843.732801
68.537500	-0.001465	0.008422	0.001248	0.012936	6137.420280	43169.336757	3813.740210	22230.769742
69.037000	0.000140	0.009440	-0.000125	0.010493	6169.315313	43492.574631	3816.458058	22340.768034
69.537500	0.001260	0.010393	-0.001078	0.008209	6196.381856	43797.451694	3819.851804	22444.236974
70.035000	-0.002613	0.011877	-0.005330	0.011712	6138.013922	43607.008663	3800.232875	22285.805708
70.535000	0.003669	0.013461	0.001047	0.005176	6240.072761	44378.041430	3833.094443	22582.402142
71.038000	0.002935	0.014181	-0.000173	0.004047	6243.262176	44555.577538	3832.859200	22634.075969
71.535500	0.001091	0.013601	-0.000396	0.003062	6236.326119	44594.529771	3834.826544	22679.274246
72.036000	-0.001475	0.014567	0.002923	0.009381	6165.336154	44082.131510	3827.095324	22391.090733
72.536000	0.003568	0.015137	0.002667	0.003972	6249.000375	44654.955633	3840.412051	22637.519778
73.036500	0.001488	0.016201	0.002516	0.004781	6225.679388	44679.596715	3837.920134	22600.495188
73.539500	0.003230	0.015696	0.001317	0.007236	6219.942721	44394.808591	3828.481600	22488.461995
74.037500	-0.002017	0.015574	0.001340	0.013631	6127.655786	43774.687254	3812.209906	22199.594089
74.537500	0.001439	0.017091	0.000709	0.010913	6176.284918	44176.641490	3817.512917	22321.847503
75.037500	0.003450	0.016788	0.002226	0.012430	6180.206615	44003.419360	3817.513296	22253.519987
75.535000	0.004836	0.016133	-0.000468	0.014449	6175.184147	43750.174145	3805.574583	22162.941353
76.035500	0.001046	0.015746	-0.003663	0.019462	6106.066022	43243.621586	3785.086754	21939.864048
76.536000	0.003527	0.016827	0.004066	0.014726	6162.624914	43789.605715	3816.352572	22150.549547
77.036000	0.005005	0.016573	0.003274	0.014967	6172.414458	43742.814387	3813.725940	22139.761643
77.536500	0.004033	0.015756	0.003269	0.016667	6151.303709	43505.976675	3809.406644	22063.907684
78.039500	0.002210	0.017072	-0.002376	0.022964	6087.944681	43041.272036	3779.622811	21785.544203
78.536500	0.004921	0.017778	0.006919	0.019288	6137.681156	43449.796419	3812.011638	21947.547184
79.037000	0.003657	0.019566	0.004305	0.021739	6108.663127	43387.763668	3799.250898	21839.392045
79.535000	0.004031	0.019618	0.002358	0.024504	6090.115540	43134.694528	3787.511279	21718.096817
80.035000	0.003173	0.020021	0.005312	0.029841	6042.544589	42678.600614	3781.622156	21486.144431
80.535500	0.004287	0.020101	0.003315	0.025458	6084.718902	43090.896264	3787.516994	21676.395201
81.035500	0.007446	0.021150	0.010811	0.027818	6090.899356	42969.356554	3800.320028	21573.712509
81.536000	0.003198	0.020652	0.008392	0.029114	6048.272017	42803.567057	3791.044320	21517.537359
82.038500	0.005199	0.020914	0.002110	0.029805	6058.298474	42764.077186	3773.847746	21487.685193
82.536000	0.002407	0.021629	0.005300	0.032189	6018.877891	42610.645768	3775.820204	21384.983375
83.039000	0.003218	0.020516	0.013758	0.033303	6016.586475	42406.758506	3793.975308	21337.186426
83.537000	0.005073	0.019682	0.008471	0.034220	6023.685975	42247.268505	3778.619111	21297.923536
84.037500	0.005769	0.019224	0.006965	0.033221	6036.564783	42296.480193	3777.374469	21340.703784
84.535000	0.004346	0.019368	0.008212	0.033449	6024.021064	42288.857641	3779.877214	21330.926768
85.038000	0.006857	0.019201	0.006851	0.032665	6049.106229	42345.036523	3778.458403	21364.539016
85.535000	0.008063	0.020308	0.011248	0.034402	6045.043372	42287.549269	3785.014474	21290.114607
86.035000	0.009558	0.020047	0.009942	0.034300	6057.262280	42273.125161	3782.041931	21294.509690
86.536000	0.010287	0.023003	0.010490	0.036945	6042.609165	42301.441984	3776.884376	21181.740573
87.036500	0.010596	0.020364	0.012221	0.035809	6053.654079	42164.880102	3783.942331	21230.101409
87.539000	0.009618	0.022030	0.010446	0.037456	6033.623399	42166.510503	3775.524626	21160.047896
88.036500	0.012134	0.023076	0.009603	0.038969	6041.264860	42124.164313	3769.766551	21095.938919
88.537000	0.012344	0.022961	0.010525	0.038910	6043.311161	42119.135615	3772.158766	21098.425838
89.040500	0.011813	0.023057	0.017705	0.039628	6033.804234	42062.825957	3788.063428	21068.106097
89.534500	0.012698	0.022702	0.016502	0.039586	6040.857735	42034.452279	3785.188178	21069.862385
90.034500	0.008759	0.021912	0.013773	0.045346	5967.750766	41446.523971	3764.400950	20828.168062
90.535500	0.014737	0.023465	0.020126	0.041211	6044.016714	41956.642498	3790.141819	21001.364107
91.035000	0.014150	0.024062	0.013736	0.041584	6036.698976	41976.786387	3773.471488	20985.652658
91.535500	0.015846	0.023507	0.013055	0.041667	6049.008153	41919.278002	3771.606083	20982.194353
92.036500	0.011415	0.022903	0.013255	0.047504	5971.465046	41342.644874	3757.932256	20738.437487
92.537000	0.015684	0.023658	0.018841	0.042535	6041.144600	41854.682635	3783.681921	20945.735216
93.037500	0.013818	0.022978	0.017160	0.042328	6028.518912	41812.043198	3780.047234	20954.414621
93.537500	0.016322	0.023307	0.015599	0.043009	6042.396610	41780.407492	3774.545730	20925.857156
94.038500	0.012715	0.023214	0.010529	0.048135	5976.462810	41314.302416	3749.873165	20712.289932
94.535000	0.018028	0.024271	0.017116	0.043804	6049.343340	41795.557820	3776.313447	20892.550351
95.035000	0.016737	0.023840	0.016395	0.043682	6040.421310	41767.834666	3774.844372	20897.648386
95.536000	0.016471	0.024327	0.016860	0.044907	6029.084491	41701.662455	3772.986644	20846.493903
96.036000	0.015848	0.023338	0.011559	0.050040	5985.657525	41156.549421	3747.784705	20633.589656
96.536000	0.017865	0.024144	0.018780	0.045056	6038.547840	41671.821927	3777.323068	20840.260412
97.039000	0.019775	0.022868	0.016851	0.044473	6057.592872	41609.810325	3774.024824	20864.591822
97.536500	0.021216	0.023891	0.021523	0.046162	6055.695686	41550.227176	3781.350333	20794.191300
98.037000	0.021181	0.024352	0.022445	0.046407	6053.556992	41569.596413	3783.019019	20784.017157
98.537000	0.020768	0.025006	0.018170	0.047385	6042.922069	41540.621339	3770.134013	20743.375071
99.038000	0.020609	0.025024	0.020005	0.047506	6040.793701	41531.387465	3774.321762	20738.362555
99.535500	0.022642	0.024116	0.023771	0.047759	6054.391401	41427.969138	3782.956068	20727.886977
100.036000	0.022782	0.025299	0.023019	0.048814	6047.390076	41439.352978	3778.505138	20684.212370
100.536000	0.021485	0.025673	0.021919	0.049725	6030.571340	41391.542881	3773.576372	20646.577388
101.036000	0.024825	0.025119	0.025655	0.050678	6048.758640	41257.752065	3780.404333	20607.303096
101.536000	0.024136	0.025883	0.022306	0.051691	6035.778892	41235.550367	3769.719884	20565.617542
102.037000	0.023876	0.025509	0.025075	0.051626	6034.298269	41208.297723	3776.649890	20568.311533
102.537500	0.027044	0.025390	0.025778	0.052462	6052.081309	41123.807273	3776.322983	20533.993476
103.037000	0.025024	0.025369	0.024621	0.054159	6023.780593	40972.338997	3769.348205	20464.539142
103.538000	0.026300	0.026285	0.027133	0.054686	6029.457426	41006.498575	3774.194552	20443.008902
104.035000	0.025774	0.025942	0.024214	0.055268	6021.062930	40925.222527	3765.662650	20419.319266
104.536000	0.027457	0.026370	0.027905	0.056039	6027.974431	40895.061599	3772.773349	20387.917768
105.035500	0.026912	0.025690	0.026083	0.057642	6011.701264	40695.068853	3764.434087	20322.838933
105.536000	0.026445	0.026203	0.025477	0.057544	6008.921890	40748.468669	3763.205144	20326.814810
106.036000	0.022606	0.025033	0.021227	0.063422	5936.384255	40136.830321	3738.956175	20090.184977
106.538500	0.029326	0.026390	0.029961	0.059280	6017.576423	40613.210471	3769.882400	20256.614623
107.036500	0.026526	0.026470	0.021661	0.062233	5974.319521	40363.680456	3742.806121	20137.816207
107.536500	0.028726	0.026347	0.029201	0.061345	5997.467183	40429.917595	3763.016928	20173.442773
108.051000	0.024504	0.026881	0.025759	0.067991	5916.732784	39903.408320	3738.869246	19908.473469
108.565000	0.030236	0.027834	0.025829	0.063475	5992.809991	40374.190053	3749.780384	20088.100721
109.035000	0.028989	0.026055	0.026506	0.065338	5969.527790	40060.041324	3746.946222	20013.769354
109.535000	0.029894	0.026936	0.031706	0.065193	5977.368368	40148.315731	3759.771203	20019.544626
110.035500	0.026975	0.026772	0.028896	0.071531	5908.900013	39592.641921	3737.918220	19768.986891
110.537500	0.031324	0.026375	0.036392	0.066234	5980.276154	40010.537050	3768.605361	19978.117285
111.039500	0.031196	0.026937	0.031017	0.067589	5969.198483	39942.633657	3752.350588	19924.394663
