sample name	sample
index	1484
start time	 05-18-2021  12:43:10 PM
880	-0.011775
Peak Time (s)	91.037
Peak Height 	-0.01178
calc peak height	90,93
Baseline Time (s)	11.537
Baseline Value 	-0.004686
subtract baseline	10,4
Abs	-0.008747
Peak Time (s)	90.036
Peak Height 	-0.008747
calc peak height	90,93
Baseline Time (s)	10.039
Baseline Value 	0.002501
subtract baseline	10,3
PK_550	0.005679
Peak Time (s)	90.036
Peak Height 	0.005679
calc peak height	90,93
Baseline Time (s)	11.537
Baseline Value 	5.1485E-4
subtract baseline	10,2
PK_880	-0.008496
Peak Time (s)	91.537
Peak Height 	-0.008496
calc peak height	90,93
Baseline Time (s)	10.039
Baseline Value 	0.001192
subtract baseline	10,1


Time (s)	A880-A510	A880-A775	A880-A975	A880	I510	I775	I975	I880	
0.036000	0.000058	-0.000347	0.000071	0.001798	6595.716380	44772.374652	3983.327515	23385.336398
0.536500	-0.002127	-0.000995	-0.005426	0.003713	6561.506857	44526.542369	3965.556931	23295.457500
1.037000	-0.004054	-0.000483	-0.002840	0.005327	6532.221776	44421.179210	3967.869739	23219.970735
1.537000	-0.001898	-0.000824	-0.001696	0.001091	6585.254931	44794.459711	3980.765417	23418.608641
2.038000	-0.002317	-0.000519	0.003811	0.000944	6582.989455	44838.047805	3994.494310	23425.557596
2.538000	0.000263	0.000336	-0.004772	0.001430	6600.521204	44873.632539	3972.561541	23402.658838
3.035000	-0.002746	-0.000481	-0.003570	0.003118	6561.307050	44632.737950	3971.399611	23323.333306
3.535500	-0.000117	-0.000781	-0.001921	-0.000215	6611.150049	44924.581434	3983.377090	23480.259218
4.035500	0.001254	0.000072	0.002260	0.000422	6617.336234	44945.462895	3991.983459	23450.173325
4.536500	0.000749	0.000113	0.003201	-0.000361	6619.678195	45025.098050	3996.193740	23487.142931
5.036500	0.001756	-0.000693	0.000375	-0.000641	6630.559863	44974.283995	3989.981704	23500.406711
5.536500	0.001338	0.000858	-0.000988	0.000371	6618.471443	45026.402905	3984.215883	23452.561849
6.037000	-0.000410	-0.000042	-0.004631	-0.000019	6607.036301	44977.070422	3976.374443	23470.981870
6.537500	0.000896	-0.000738	0.001569	-0.000716	6623.918675	44977.201307	3993.074536	23503.960226
7.037500	-0.000805	-0.001094	-0.001321	-0.000741	6609.794577	44945.169723	3986.105765	23505.145165
7.535000	0.000141	-0.000811	-0.000666	-0.001001	6619.947570	44997.618135	3988.325257	23517.434215
8.035000	0.000627	0.000209	-0.003417	-0.000277	6617.943513	45026.281689	3979.914093	23483.168766
8.536000	0.001672	0.000132	0.001982	0.000495	6620.243724	44944.172981	3991.127177	23446.711499
9.038000	-0.000790	-0.000850	0.000353	-0.000685	6609.442542	44963.302623	3990.035118	23502.484291
9.536500	0.000074	0.000377	-0.002112	0.000105	6610.066126	45005.631455	3982.144618	23465.151042
10.039000	0.000000	-0.000730	0.000000	-0.000629	6615.626010	44969.508423	3989.039543	23499.840082
10.537000	-0.002005	-0.000009	-0.003026	0.002140	6575.613168	44772.049290	3975.045195	23369.272411
11.039500	0.000468	0.000300	0.000516	-0.000017	6614.411353	45010.028306	3988.806554	23470.913139
11.537500	-0.001004	0.000000	-0.000164	0.000000	6601.885767	44979.301944	3987.113442	23470.098494
12.038000	-0.000193	-0.000244	0.001837	-0.000111	6609.639089	44966.435488	3992.251976	23475.361853
12.535500	0.000985	0.000505	-0.000704	0.001767	6603.750886	44857.442237	3981.528762	23386.796094
13.035500	-0.001190	-0.000521	0.000831	-0.002657	6622.693296	45186.320534	3996.011171	23595.985862
13.535500	-0.000888	-0.000767	-0.001718	-0.000520	6607.235862	44955.491397	3984.606566	23494.690218
14.036000	0.001689	0.000153	0.001801	0.000498	6620.365170	44945.951204	3990.678775	23446.578092
14.539000	-0.002230	-0.000666	-0.000326	0.002204	6573.208656	44702.741449	3981.388194	23366.262932
15.037000	0.000775	-0.000789	0.000284	0.000237	6614.854448	44880.187542	3987.623297	23458.883295
15.557000	-0.000248	-0.000633	-0.003764	-0.000439	6611.933865	44960.551956	3979.470064	23490.844831
16.037000	-0.000440	-0.000490	-0.005781	-0.000328	6609.386908	44963.655287	3974.356231	23485.612219
16.540500	-0.000722	0.000175	0.002790	0.001817	6589.021634	44820.784332	3989.875168	23384.439450
17.035000	0.001431	-0.000214	0.000989	0.000384	6619.143546	44921.498154	3988.980258	23451.942728
17.535500	-0.001117	0.000675	0.000502	0.000589	6595.993908	44987.575240	3987.299695	23442.288745
18.035500	0.000645	-0.000415	0.002591	0.000083	6615.066410	44931.154180	3993.616839	23466.188614
18.536000	-0.001083	0.000152	0.000446	0.001469	6588.908736	44852.092589	3985.029715	23400.804099
19.036000	-0.001546	-0.000545	-0.001552	0.003305	6569.722791	44608.582722	3975.786455	23314.547807
19.536500	-0.001057	0.000028	-0.001241	0.001455	6589.247875	44841.590518	3980.986683	23401.488133
20.037000	-0.000015	-0.000252	0.000164	0.001157	6600.482418	44843.282663	3985.103425	23415.528957
20.537000	0.000704	0.000061	-0.000216	0.001936	6599.978007	44798.428056	3982.300076	23378.848879
21.037000	0.000432	-0.000129	-0.002809	0.001255	6603.415749	44845.725142	3977.692949	23410.918738
21.538000	-0.001634	-0.000240	-0.002602	0.001116	6587.249896	44848.323355	3978.522033	23417.429964
22.035000	-0.000074	-0.000246	0.000580	0.001183	6599.770344	44841.393111	3986.048133	23414.306448
22.535500	0.000840	0.000506	-0.000664	0.001780	6602.425011	44856.287035	3981.594880	23386.175529
23.036000	-0.000829	-0.000889	-0.002621	0.000993	6595.023229	44797.688085	3978.774783	23423.233839
23.539000	0.000914	-0.000274	0.000810	0.001550	6604.979526	44803.225618	3985.714548	23396.987017
24.036000	-0.001904	0.000442	-0.001932	0.001299	6583.472373	44896.494593	3979.696356	23408.812523
24.537000	0.000307	-0.000385	-0.000394	0.001480	6600.465175	44799.279338	3982.971086	23400.284092
25.037000	0.000801	0.000025	-0.003063	0.001404	6605.255127	44846.135887	3976.722677	23403.863147
25.537500	-0.000371	-0.000028	-0.000102	0.001122	6597.781357	44868.196135	3984.542635	23417.155536
26.040000	-0.000721	0.000241	-0.000403	0.001393	6592.585614	44868.099089	3983.162073	23404.414614
26.535000	0.000198	-0.000094	-0.001715	0.000969	6603.846689	44876.661693	3981.016359	23424.384723
27.035000	-0.000493	0.000134	-0.001534	0.001163	6596.409828	44879.918046	3980.983154	23415.212026
27.535500	0.000768	0.000451	0.003379	0.001386	6605.128789	44888.909211	3992.359648	23404.710848
28.036000	0.002367	-0.001021	0.002383	-0.003225	6657.692218	45192.919702	4001.211915	23623.007049
28.538500	0.001517	0.000251	0.001499	-0.000130	6624.214335	45016.119940	3991.472106	23476.235423
29.037000	0.001406	-0.000466	0.001727	-0.000510	6626.487767	44983.593894	3992.956346	23494.225865
29.542500	0.001649	-0.000569	-0.001189	-0.000787	6630.889170	45000.377865	3986.535146	23507.321135
30.037500	-0.001808	-0.000171	0.002459	-0.000463	6599.023337	45007.593261	3994.629560	23491.992347
30.537000	0.002405	-0.000019	-0.003311	-0.000408	6634.077695	45016.986932	3980.488103	23489.383454
31.035000	-0.001796	-0.000662	-0.001551	0.004304	6559.348054	44501.777707	3973.392054	23267.767647
31.554000	-0.000029	-0.000334	0.003967	-0.000429	6613.695918	44988.458474	3998.237875	23490.378583
32.034500	-0.001745	-0.000524	-0.005330	0.002305	6576.403852	44706.644242	3969.138652	23361.504298
32.538000	-0.001152	0.000031	-0.000056	0.002436	6580.253956	44747.391563	3981.479324	23355.348029
33.049000	-0.001177	-0.000300	-0.000540	0.004832	6560.103015	44485.870616	3974.548647	23243.081049
33.536500	0.000429	-0.000590	0.001309	-0.000768	6620.411416	44996.547875	3992.563787	23506.404008
34.036500	0.001168	0.000321	-0.001345	0.000128	6619.087072	44997.943075	3983.940222	23464.047954
34.537000	0.001906	0.000629	0.001545	-0.000375	6629.571891	45076.452691	3992.180987	23487.801723
35.037000	-0.002791	-0.000012	-0.001165	0.002888	6562.841923	44699.828459	3977.717289	23334.124639
35.540500	-0.001231	0.000043	0.002823	0.001653	6586.142406	44823.955320	3990.356844	23392.171979
36.035000	0.000564	0.000379	-0.003954	0.001930	6598.845319	44829.599551	3973.322183	23379.113584
36.535500	-0.000490	0.000031	-0.000373	0.001844	6590.735218	44804.316404	3982.142295	23383.169571
37.036000	-0.002165	-0.000213	0.003392	0.002436	6571.809607	44723.922418	3989.835198	23355.339575
37.536500	0.000312	0.000001	-0.002140	0.001457	6600.703521	44838.798835	3978.814821	23401.395122
38.036000	0.000612	-0.000668	0.000883	0.001496	6602.893946	44770.518059	3986.023793	23399.537612
38.536000	-0.002122	0.000499	0.000952	0.001773	6577.691337	44856.239006	3985.519051	23386.510806
39.037000	-0.002385	-0.000092	0.004536	0.001807	6575.212713	44795.996416	3994.155165	23384.898906
39.536500	-0.001941	-0.000050	-0.000663	0.001782	6579.128530	44802.451992	3981.591196	23386.074941
40.040500	0.000679	0.000179	0.001254	0.001348	6604.706792	44866.496739	3987.283841	23406.539328
40.538000	-0.000952	0.000041	-0.000363	0.001363	6590.889471	44851.608876	3983.329459	23405.789060
41.038000	-0.000482	-0.000074	0.002233	0.001970	6589.749914	44782.092367	3988.150348	23377.234512
41.535000	0.001203	0.001070	-0.001183	0.002582	6598.741265	44833.347307	3978.412192	23348.505315
42.036000	0.000720	0.000100	-0.000850	0.001378	6604.793652	44855.824123	3982.116526	23405.085534
42.536000	-0.000900	0.000196	0.001136	0.001174	6592.913439	44884.851620	3987.418333	23414.699907
43.036000	-0.000567	0.000369	0.000036	0.001517	6592.828456	44868.448365	3983.921063	23398.545041
43.536500	-0.000848	-0.000463	0.001726	0.001103	6593.946915	44828.149583	3989.024515	23418.072724
44.037000	-0.001837	-0.000511	0.002506	0.001270	6584.267701	44807.390053	3990.515073	23410.180743
44.537500	-0.001177	-0.000072	0.002723	0.001424	6588.505316	44834.927042	3990.670823	23402.960309
45.037500	0.002657	0.000421	0.002745	-0.003056	6658.726386	45316.926648	4001.688410	23614.974017
45.538000	0.001829	-0.000248	-0.000031	-0.000632	6631.098020	45016.473079	3988.970722	23499.982814
46.039500	0.001049	0.000105	0.003070	-0.000194	6620.802039	45008.175229	3995.464048	23479.253533
46.535500	-0.000392	-0.000553	-0.005051	0.001405	6595.235982	44790.404573	3971.956047	23403.854455
47.035500	-0.000786	-0.000029	0.002722	0.002620	6581.779195	44723.947028	3987.758683	23346.709142
47.536000	0.002213	0.000032	0.002884	-0.000190	6630.605516	45000.752154	3994.999432	23479.058368
48.036500	0.000465	-0.000333	-0.001160	-0.000744	6620.521498	45019.028719	3986.501940	23505.281246
48.536500	-0.002581	-0.000207	-0.003024	0.001509	6576.065651	44813.650400	3976.565206	23398.937867
49.037000	-0.002632	-0.000182	-0.001193	0.002187	6569.997996	44750.858598	3979.338946	23367.050715
49.540000	-0.000089	-0.000287	0.002192	0.000449	6605.806179	44908.199566	3991.752054	23448.897726
50.037500	0.001191	-0.000839	-0.000202	-0.000939	6628.292410	44988.918072	3989.301829	23514.488778
50.535000	0.001496	0.000148	0.003559	0.002010	6606.009396	44799.706526	3991.280070	23375.382058
51.037000	-0.002304	-0.001038	-0.002440	0.001715	6576.657910	44713.889466	3977.471528	23389.227450
51.535500	0.000170	0.000215	0.001077	-0.002526	6633.086957	45245.243290	3996.295319	23589.782784
52.036000	0.000866	0.000566	0.006885	0.001117	6608.221412	44926.122443	4001.606748	23417.411221
52.536500	0.000137	-0.008813	0.004126	0.058386	6151.558854	38958.705763	3863.687529	20889.257211
53.036500	-0.009814	-0.015219	-0.013391	0.211295	5152.059319	27910.782981	3561.674626	15566.273058
53.536500	-0.006402	-0.024861	-0.011073	-0.108614	7580.207703	53912.316265	4253.000117	29299.791215
54.037000	-0.019160	-0.029284	-0.012584	-0.150918	7905.789885	58554.191879	4382.976696	31995.268206
54.537000	-0.015615	-0.018197	-0.004848	-0.090279	7295.942399	52561.741866	4216.707328	28210.642496
55.035000	-0.004216	-0.013750	-0.002826	-0.090821	7416.950418	53134.627695	4224.307139	28242.197312
55.535000	-0.012359	-0.009602	-0.002276	0.035782	6226.820575	40812.027469	3899.055061	21847.483131
56.035500	-0.016434	-0.011174	-0.006256	-0.013993	6589.841024	45252.838193	4006.463837	24141.924410
56.536000	-0.016731	-0.011801	-0.012495	-0.062391	7015.530511	50167.940074	4115.872422	26639.758167
57.035500	-0.014399	-0.012996	-0.008903	-0.109706	7507.251182	55454.752572	4262.952637	29366.123300
57.536500	-0.019549	-0.010791	-0.007948	-0.082592	7181.336432	52529.767576	4185.221743	27767.540013
58.036500	-0.014303	-0.009246	-0.015497	-0.076944	7177.430298	52063.813966	4147.746591	27446.896404
58.537000	-0.013654	-0.009704	-0.010571	-0.083081	7243.920043	52709.867747	4179.083639	27795.485070
59.034500	-0.006282	-0.008484	-0.009292	-0.082130	7307.802997	52740.676489	4180.025422	27741.157799
59.534500	-0.008739	-0.006575	-0.015952	-0.071587	7179.433267	51761.135669	4131.603002	27146.616478
60.035000	-0.010866	-0.007270	-0.013571	-0.058704	7035.933336	50259.635813	4102.969979	26439.482943
60.535500	-0.009432	-0.006502	-0.011926	-0.047320	6943.508354	49118.023901	4077.031892	25831.860909
61.035500	-0.012260	-0.004472	-0.012519	-0.039048	6842.880630	48459.653955	4053.922234	25400.260875
61.536000	-0.015073	-0.006459	-0.011838	-0.036680	6796.773898	48005.901666	4049.575585	25278.175604
62.036000	-0.014414	-0.006459	-0.011363	-0.043383	6862.444796	48706.238441	4068.181346	25625.420207
62.536500	-0.018101	-0.009937	-0.007901	-0.053196	6917.946891	49378.028650	4103.408982	26143.529209
63.039500	-0.022986	-0.010918	-0.015155	-0.015809	6550.421824	45454.955709	3989.099119	24230.690176
63.537500	-0.016519	-0.004474	-0.012894	0.025648	6272.134746	42165.113362	3897.979235	22293.561517
64.048500	-0.012435	0.002183	-0.016493	0.007828	6443.712414	44436.935200	3930.092555	23103.618896
64.537500	-0.016814	0.002199	-0.016553	-0.017049	6612.301464	46882.460520	3988.715562	24291.506890
65.035500	-0.015858	0.002796	-0.021765	-0.021260	6656.076068	47371.273785	3986.287061	24499.446088
65.542000	-0.013344	0.003659	-0.022666	-0.022579	6688.888764	47594.882509	3987.301727	24564.989879
66.042000	-0.013881	0.003607	-0.015390	-0.024113	6697.464885	47747.356699	4008.901289	24641.453604
66.536000	-0.015765	0.004918	-0.022316	-0.023796	6678.545697	47849.836165	3991.108913	24625.597353
67.036500	-0.019218	0.003083	-0.027978	-0.025613	6664.549864	47848.087550	3981.785419	24716.486121
67.539000	-0.017676	0.003177	-0.025915	-0.026914	6688.911690	47992.473420	3989.940081	24781.787554
68.037000	-0.017741	0.003486	-0.019885	-0.025599	6677.067989	47888.249698	4001.475562	24715.788461
68.542000	-0.017870	0.003678	-0.023642	-0.023836	6660.886227	47726.160386	3987.981378	24627.614802
69.037500	-0.017829	0.004864	-0.018757	-0.021574	6641.979194	47615.394680	3994.371784	24515.024994
69.538000	-0.016602	0.004366	-0.020730	-0.021602	6652.646627	47567.121469	3989.628959	24516.393757
70.035000	-0.016163	0.004490	-0.022944	-0.021941	6659.285245	47614.739505	3985.079446	24533.265676
70.535500	-0.017034	0.005141	-0.025889	-0.021659	6649.459881	47652.660243	3977.292264	24519.241188
71.036000	-0.019210	0.004051	-0.024175	-0.020502	6621.211883	47422.058782	3978.630892	24461.844765
71.536500	-0.017406	0.004580	-0.022770	-0.020723	6638.356023	47498.950246	3982.555305	24472.826688
72.036500	-0.016330	0.004862	-0.021299	-0.019548	6637.509261	47407.416757	3983.268385	24414.664172
72.537000	-0.015974	0.003958	-0.021766	-0.017985	6627.296583	47155.844314	3978.371842	24337.577805
73.040000	-0.014190	0.004665	-0.019042	-0.017744	6640.359634	47203.188240	3984.363216	24325.684530
73.534500	-0.015006	0.004481	-0.020135	-0.016965	6626.850079	47105.307263	3979.845049	24287.407712
74.037500	-0.016309	0.004084	-0.020726	-0.016054	6608.183220	46972.539573	3976.229434	24242.682182
74.535500	-0.017820	0.002931	-0.021642	-0.013815	6576.774069	46630.301458	3968.681385	24133.224825
75.035500	-0.014198	0.004478	-0.021630	-0.013391	6603.547422	46743.409411	3967.699719	24112.564817
75.535500	-0.014581	0.004217	-0.018728	-0.013338	6599.880228	46711.630130	3974.506198	24109.951953
76.036500	-0.015184	0.004173	-0.019482	-0.012325	6586.348439	46605.408237	3970.280062	24060.689418
76.536500	-0.016288	0.003554	-0.017347	-0.011167	6567.478906	46427.297796	3972.614955	24004.471222
77.037000	-0.014180	0.003703	-0.013671	-0.012035	6592.314065	46529.120824	3983.546215	24046.586690
77.537000	-0.014092	0.003462	-0.019363	-0.012241	6594.779497	46525.613743	3970.361587	24056.584557
78.036500	-0.013469	0.003024	-0.014475	-0.012487	6602.071839	46506.298815	3982.695046	24068.536885
78.537500	-0.016006	0.002346	-0.017813	-0.013068	6585.679745	46496.637588	3976.053475	24096.806870
79.035000	-0.014783	0.003647	-0.015514	-0.013315	6597.995592	46652.010378	3982.186775	24108.844138
79.535000	-0.013069	0.003803	-0.018047	-0.014247	6620.256867	46761.648770	3978.325865	24154.310861
80.035500	-0.012928	0.003293	-0.017153	-0.015263	6630.034602	46812.622641	3982.933819	24203.976954
80.536000	-0.011641	0.004012	-0.016945	-0.015013	6638.812903	46859.956165	3982.831930	24191.714919
81.036500	-0.015248	0.004057	-0.019110	-0.014349	6602.768300	46797.487253	3976.015536	24159.286137
81.536500	-0.012261	0.003711	-0.014957	-0.015999	6641.918619	46929.234306	3990.042709	24239.992131
82.037000	-0.011628	0.003735	-0.019008	-0.015925	6646.671366	46924.188213	3980.054058	24236.365761
82.539500	-0.013023	0.003736	-0.016338	-0.014308	6621.156891	46760.979789	3982.594742	24157.281473
83.037500	-0.013251	0.004249	-0.018098	-0.015002	6625.090150	46882.864142	3980.021903	24191.186403
83.537500	-0.012243	0.003141	-0.013511	-0.015978	6641.896978	46869.475246	3993.517894	24238.973302
84.035500	-0.012420	0.003498	-0.018760	-0.015708	6638.107696	46878.268913	3980.127905	24225.755723
84.535500	-0.014304	0.003689	-0.013109	-0.013739	6605.581568	46699.013908	3989.042624	24129.535735
85.035500	-0.012699	0.004178	-0.020561	-0.014067	6621.859430	46781.308579	3971.865365	24145.537155
85.535500	-0.009656	0.003490	-0.013729	-0.015059	6656.078242	46811.839914	3990.742725	24193.958214
86.036500	-0.010220	0.004502	-0.014334	-0.014019	6642.436222	46809.048304	3986.746720	24143.175194
86.536500	-0.011480	0.003970	-0.013811	-0.012970	6622.890238	46649.824669	3985.472850	24092.072088
87.037000	-0.008535	0.004412	-0.007563	-0.013415	6651.629356	46739.101330	4001.813502	24113.733207
87.537500	-0.006423	0.005462	-0.010218	-0.012630	6662.939297	46765.767849	3993.381905	24075.507707
88.034500	-0.008624	0.003869	-0.014034	-0.013654	6652.907158	46708.504846	3986.588939	24125.361326
88.534500	-0.009635	0.004419	-0.010327	-0.011251	6623.958943	46522.351988	3989.757133	24008.572355
89.035500	-0.007523	0.005847	-0.010814	-0.011672	6645.411401	46708.071780	3989.595152	24028.960403
89.535500	-0.007066	0.005254	-0.013054	-0.012238	6654.112773	46705.385200	3985.530929	24056.446125
90.036000	-0.009340	0.005679	-0.008747	-0.012010	6632.872277	46725.245255	3995.461414	24045.388033
90.536500	-0.008819	0.005402	-0.014210	-0.012015	6637.329265	46697.885952	3982.198119	24045.648232
91.036500	-0.009024	0.004992	-0.013486	-0.011775	6633.559499	46632.514578	3983.366504	24033.985942
91.537000	-0.008496	0.004683	-0.011203	-0.012159	6641.285993	46639.987569	3989.833614	24052.614485
92.040000	-0.009430	0.004521	-0.015049	-0.012132	6633.135229	46620.931572	3980.453091	24051.300652
92.537500	-0.010374	0.004786	-0.015172	-0.011995	6623.996197	46633.877442	3979.827008	24044.668927
93.037500	-0.007887	0.005426	-0.012729	-0.010762	6634.604192	46574.198857	3982.746360	23984.837383
93.535500	-0.008966	0.004711	-0.012953	-0.011595	6632.522614	46586.128685	3984.221064	24025.257419
94.035500	-0.009138	0.004710	-0.015912	-0.011648	6631.510531	46591.353930	3977.210671	24027.798268
94.535500	-0.008404	0.005068	-0.014711	-0.011597	6637.295915	46622.205464	3979.976975	24025.316252
95.035500	-0.009895	0.004243	-0.007953	-0.011776	6626.189043	46557.297808	3996.832663	24034.018974
95.608000	-0.011178	0.004737	-0.012859	-0.011866	6616.126962	46616.025647	3985.103270	24038.408910
96.077500	-0.010383	0.004395	-0.012939	-0.012083	6624.669733	46603.427095	3985.435650	24048.947536
96.536500	-0.011461	0.003547	-0.014796	-0.012661	6620.440073	46576.371969	3982.342370	24077.042481
97.036500	-0.011992	0.003740	-0.016738	-0.012163	6611.769927	46545.672853	3976.463851	24052.823604
97.537500	-0.010265	0.004609	-0.016523	-0.011690	6622.342200	46585.417352	3975.842726	24029.840381
98.034500	-0.010631	0.004166	-0.017448	-0.012209	6623.632452	46593.062774	3974.867584	24055.027434
98.535500	-0.013373	0.002210	-0.016211	-0.011236	6592.386201	46299.951514	3975.503960	24007.837516
