sample name	sample
index	242
start time	 02-22-2021  11:33:24 AM
880	0.026351
Peak Time (s)	92.038
Peak Height 	0.02635
calc peak height	90,93
Baseline Time (s)	9.536
Baseline Value 	-0.002537
subtract baseline	10,4
Abs	0.042681
Peak Time (s)	91.037
Peak Height 	0.04268
calc peak height	90,93
Baseline Time (s)	11.037
Baseline Value 	0.002527
subtract baseline	10,3
PK_550	0.021131
Peak Time (s)	91.037
Peak Height 	0.02113
calc peak height	90,93
Baseline Time (s)	11.037
Baseline Value 	1.5782E-4
subtract baseline	10,2
PK_880	0.043893
Peak Time (s)	92.535
Peak Height 	0.04389
calc peak height	90,93
Baseline Time (s)	8.536
Baseline Value 	5.8803E-4
subtract baseline	10,1


Time (s)	A880-A510	A880-A775	A880-A975	A880	I510	I775	I975	I880	
0.036500	0.000131	-0.000307	0.000543	0.001350	6911.119088	46792.640765	4011.491032	24692.928898
0.536500	-0.005930	-0.000216	-0.004471	0.006475	6808.717946	46286.831839	3984.756154	24436.887199
1.036500	-0.002956	-0.000185	-0.004687	0.003311	6864.580921	46607.171683	3992.464463	24594.599267
1.536500	-0.000905	-0.000015	-0.006532	0.001048	6904.319151	46852.701163	3993.561325	24708.105623
2.037000	0.002154	-0.000260	-0.001505	0.000419	6938.604762	46891.667386	4008.516458	24739.762690
2.534500	-0.001920	0.000287	-0.003962	0.005178	6856.974737	46466.999155	3989.473433	24501.402834
3.035000	0.001678	0.000106	0.000543	-0.002090	6957.630376	47183.913247	4020.705753	24866.493581
3.534500	-0.000948	-0.000459	-0.001268	-0.000067	6914.255190	46920.838640	4010.443832	24764.288509
4.035500	-0.000375	-0.000232	-0.001116	-0.000073	6919.631522	46944.410233	4010.863452	24764.591211
4.536500	0.001341	-0.000263	-0.003318	0.000191	6933.146314	46914.444112	4004.305505	24751.273075
5.036500	-0.001795	-0.000356	-0.000789	0.000002	6905.770820	46924.287383	4011.537096	24760.814830
5.536000	0.003117	0.000354	-0.003337	0.000928	6942.844106	46902.272455	4002.301496	24714.141215
6.037000	0.000509	-0.000124	-0.000575	0.000341	6924.006442	46913.426642	4011.201772	24743.722986
6.534000	0.001978	0.000427	-0.003154	0.000845	6932.983217	46918.103940	4003.007656	24718.315685
7.037500	0.001009	-0.000628	0.001123	-0.000276	6934.412455	46924.883963	4017.394959	24774.835620
7.538000	-0.001265	-0.000278	-0.003353	-0.000330	6913.753151	46965.799358	4005.595075	24777.536951
8.035500	-0.000284	-0.000817	-0.002254	-0.000938	6928.528996	46972.797497	4010.135345	24808.222650
8.535500	0.000000	-0.000400	-0.006228	-0.000055	6922.956019	46925.587039	3997.265814	24763.690749
9.036000	0.000669	0.000123	-0.002261	0.000185	6926.945158	46954.218164	4007.127410	24751.573340
9.536000	0.000298	0.000186	0.002115	0.000000	6925.216900	46979.430065	4019.313916	24760.894452
10.036500	-0.004518	-0.001032	-0.007936	0.003389	6849.581503	46514.256819	3983.768170	24590.719197
10.538000	-0.000049	0.000510	0.000970	0.000164	6920.462325	46995.605865	4015.804992	24752.631573
11.037500	-0.000455	0.000000	0.000000	-0.000343	6921.394366	46995.311557	4014.563879	24778.182331
11.537500	0.000142	-0.000616	0.000114	-0.000444	6927.889947	46943.071576	4015.139921	24783.290082
12.037500	-0.000315	-0.000457	0.000480	-0.000622	6925.296052	46977.274037	4016.596516	24792.281331
12.534500	-0.001544	0.000118	-0.004273	0.001376	6895.384521	46833.135618	3998.647270	24691.660158
13.035500	-0.000430	-0.000329	-0.002826	-0.001137	6929.014038	47042.506012	4009.140595	24818.269222
13.535500	-0.000980	0.000356	0.001775	-0.000420	6917.240054	47039.381386	4019.528417	24782.085413
14.036000	-0.002886	-0.000291	-0.003120	0.003137	6866.814776	46614.050291	3997.041846	24603.301111
14.536000	-0.000644	-0.000858	-0.007807	0.000964	6907.511826	46775.986763	3990.437611	24712.327896
15.039500	-0.000226	-0.000115	-0.005275	-0.000655	6926.437190	47015.398847	4001.364292	24793.956432
15.542000	-0.001171	-0.000375	-0.002446	-0.000822	6919.197715	47005.957898	4009.317002	24802.394411
16.037000	-0.003881	-0.000943	0.000144	0.004696	6843.460389	46392.067227	4001.543401	24525.419360
16.537500	0.000329	-0.000104	-0.000780	-0.000658	6931.629672	47016.787676	4013.322611	24794.093902
17.035000	-0.000034	0.000269	0.002764	-0.003243	6952.397725	47318.326206	4029.816019	24925.012584
17.535500	-0.000318	0.000385	-0.000801	0.001000	6910.200486	46898.139460	4008.843278	24710.520741
18.035500	-0.003026	-0.000314	-0.004295	0.001629	6879.380580	46763.747082	3997.920212	24678.912920
18.536000	0.000356	-0.000202	-0.005811	0.001246	6914.179299	46813.871502	3994.938873	24698.184345
19.036000	-0.000131	0.000051	-0.003735	0.001121	6910.812755	46852.092974	4000.740086	24704.456850
19.536500	-0.001263	-0.000584	-0.001907	0.000883	6902.533183	46811.906712	4006.215304	24716.427494
20.036500	-0.004209	-0.000932	-0.001607	0.001502	6869.680169	46714.215489	4005.366304	24685.284483
20.536500	-0.001221	-0.000095	-0.004226	0.001118	6900.748847	46837.601519	3999.451480	24704.609267
21.037500	0.000082	0.000253	-0.001509	0.001729	6907.155937	46811.008170	4005.023543	24673.896432
21.538000	-0.002368	-0.000356	-0.002803	0.000980	6891.424286	46825.145808	4003.579342	24711.548476
22.035000	0.001049	-0.000154	-0.001711	0.000927	6923.572587	46850.880917	4006.616884	24714.192806
22.535000	-0.000454	0.000248	-0.003765	0.000991	6909.028072	46885.218017	4001.003956	24710.998031
23.035500	-0.001318	-0.000042	-0.003365	0.000848	6902.351607	46870.336013	4002.442889	24718.205832
23.536500	-0.000161	-0.000820	-0.002489	0.000372	6917.489122	46839.805960	4006.027244	24742.164389
24.036000	-0.001839	0.000089	-0.003142	0.002172	6885.312114	46749.655550	3999.531955	24651.680958
24.536500	-0.000240	0.000311	-0.004368	0.001262	6908.492831	46864.104175	3998.696485	24697.353577
25.037000	-0.000738	0.000149	0.001644	0.000914	6907.108406	46882.989186	4015.599959	24714.887213
25.537500	-0.001849	-0.000496	-0.003528	0.000425	6901.352222	46867.112766	4003.128256	24739.477256
26.035000	-0.001715	-0.000178	0.001947	0.000883	6898.347941	46852.998767	4016.495161	24716.410890
26.534500	0.000927	0.000731	-0.000623	0.001423	6917.824951	46890.356689	4008.190533	24689.267334
27.035500	0.000027	0.000016	0.000075	-0.001688	6938.414342	47133.728146	4018.367468	24846.132243
27.535000	0.001951	0.000947	-0.000400	-0.000418	6944.527650	47099.180052	4013.694446	24781.958743
28.036000	-0.000529	0.000449	-0.001513	-0.000130	6918.733276	47019.291991	4009.956528	24767.440720
28.535500	0.000308	-0.000890	-0.003060	0.000456	6921.062934	46824.080383	4004.285968	24737.902445
29.036500	0.002278	-0.000563	-0.001672	-0.000735	6950.558989	46977.961878	4011.146103	24797.983869
29.537000	0.000986	0.000754	-0.000118	-0.000117	6932.706876	47048.997203	4013.643735	24766.778644
30.037000	-0.002527	-0.000891	-0.001747	0.004346	6859.027658	46432.293956	3997.474444	24542.885403
30.536500	-0.003538	0.000520	0.000131	0.003143	6860.790700	46695.235262	4005.624906	24603.033542
31.035000	0.000687	-0.000303	-0.001371	0.001377	6916.027373	46790.358687	4006.324388	24691.564382
31.544500	0.002088	0.000557	0.001609	0.000065	6941.288975	47010.448702	4017.779101	24757.594789
32.035000	-0.003378	0.000154	-0.001299	0.005494	6840.775484	46421.982407	3995.632192	24485.661247
32.538000	-0.000359	0.000512	0.001401	0.000865	6911.076152	46924.795651	4015.081394	24717.353886
33.061000	0.000109	-0.000010	0.000541	-0.000071	6924.111435	46966.703685	4015.283725	24764.462891
33.536500	0.002700	-0.000017	-0.000580	-0.002360	6969.774233	47198.926356	4018.416235	24880.199183
34.036500	-0.000896	-0.000770	-0.003998	0.002552	6890.498421	46624.661604	3996.271512	24632.605086
34.537000	-0.002182	-0.000192	-0.002451	0.001589	6887.522302	46780.161873	4002.899467	24680.931752
35.037000	-0.001700	0.000429	-0.004368	0.001997	6888.200187	46801.667435	3996.756562	24660.432256
35.537500	-0.000871	0.000334	-0.001813	0.001890	6896.854769	46802.961927	4003.792501	24665.845023
36.035000	-0.001311	-0.000039	0.002815	0.002465	6887.483369	46707.236446	4014.583554	24637.002392
36.535000	-0.000387	-0.000230	-0.004825	0.001992	6900.371267	46735.648101	3995.567211	24660.685864
37.036000	-0.001170	-0.000000	-0.003035	0.001899	6894.005334	46768.251710	4000.533177	24665.375706
37.535500	-0.001125	0.001044	-0.002177	0.002391	6889.873009	46823.992528	4001.501933	24640.668257
38.036000	0.000237	0.000105	-0.004342	0.001847	6907.490284	46784.045787	3997.221023	24667.966910
38.536000	-0.001547	-0.000712	-0.001907	0.001019	6898.643651	46785.167243	4005.851956	24709.571970
39.036000	-0.001318	0.000196	-0.002193	0.001801	6893.539906	46797.953517	4003.021341	24670.274879
39.537000	0.000743	0.000097	-0.001414	0.001582	6914.651496	46810.136124	4005.668182	24681.297350
40.037000	-0.002121	0.000349	-0.000545	0.002197	6882.487236	46773.484609	4006.343857	24650.438117
40.535000	-0.000924	-0.000421	-0.004093	0.001300	6901.811869	46786.265353	3999.322188	24695.457237
41.035000	0.000517	-0.000166	-0.006376	0.001546	6912.882475	46787.145968	3992.663489	24683.076078
41.535500	-0.002002	-0.000520	0.000854	0.001096	6893.739467	46796.924932	4013.002246	24705.732296
42.035500	-0.001065	0.000160	-0.004014	0.002193	6892.255879	46754.747585	3997.174443	24650.614088
42.535500	-0.001474	0.000605	-0.002712	0.002193	6888.482704	46799.671589	4000.610260	24650.616463
43.036000	-0.000230	0.000664	-0.000435	0.001786	6903.739688	46846.913030	4007.728550	24671.066299
43.537000	-0.000821	0.000289	-0.001791	0.000245	6912.537505	46965.029595	4008.217575	24748.552794
44.036500	-0.002976	-0.000365	-0.001558	0.002597	6870.949522	46661.026648	4002.593303	24630.359599
44.537000	-0.000579	0.000140	0.003670	-0.000268	6919.550097	47001.926399	4024.222095	24774.415756
45.037500	0.001500	0.000475	0.002448	0.000056	6935.886853	47003.096159	4020.057567	24758.071324
45.535000	0.000729	0.000240	0.000709	0.000168	6927.657183	46967.812287	4015.094235	24752.409158
46.035000	-0.003963	0.000168	-0.002525	0.004129	6847.890696	46560.461838	3995.999293	24553.731787
46.535500	0.000654	0.000589	-0.000701	0.000636	6922.605120	46955.721178	4010.078160	24728.842732
47.036000	-0.001815	-0.000179	-0.002166	0.001410	6892.565028	46799.617206	4004.129546	24689.948511
47.536500	-0.000937	-0.000144	0.002368	0.002199	6893.377402	46723.423928	4014.097455	24650.301762
48.035500	-0.003498	-0.000593	-0.000331	0.004766	6846.326178	46420.153409	4000.103641	24521.956985
48.536000	0.001315	0.000672	-0.000731	0.001261	6922.935959	46900.803499	4008.335318	24697.405559
49.037000	-0.001078	0.000678	0.002609	0.000369	6909.004851	46991.897201	4019.648396	24742.285163
49.534500	0.002584	0.000913	0.004451	-0.002369	6968.761952	47294.801544	4032.021086	24880.657165
50.035000	-0.002253	-0.000099	-0.001549	0.005329	6852.543490	46413.125880	3995.407553	24493.872419
50.535000	-0.006765	-0.003609	0.000965	0.000528	6855.188967	46542.810143	4014.816250	24734.302126
51.034500	-0.007610	-0.014226	0.018422	0.351953	4648.564069	21858.293992	3391.399717	12602.726893
51.535500	-0.034189	-0.027281	0.003701	-0.017531	6770.468640	45982.299476	4071.805740	25662.763293
52.036000	-0.025280	-0.034292	-0.006938	-0.140860	8153.817054	59215.633789	4432.924463	33148.894242
52.536000	-0.018941	-0.020811	-0.004375	-0.094619	7691.212486	55123.504910	4281.744875	30090.368920
53.037000	-0.015425	-0.019224	-0.004188	-0.102815	7822.617920	56313.364820	4309.595016	30609.050148
53.536500	-0.014617	-0.019760	-0.003435	-0.101713	7819.281170	56112.356124	4308.426321	30538.746822
54.037000	-0.014858	-0.016274	-0.006723	-0.105857	7863.833710	57055.531095	4311.295185	30804.051373
54.537000	-0.002042	-0.011307	0.000949	-0.104473	7996.666554	57504.282005	4332.567393	30715.170211
55.035000	0.003119	-0.007774	-0.002421	-0.088523	7871.204908	55964.893767	4268.182610	29710.941633
55.535000	0.007131	-0.001628	0.004794	-0.064883	7650.830168	53869.706713	4215.653897	28288.809352
56.035500	0.005767	-0.002550	0.006258	-0.054955	7528.479277	52611.980123	4189.350586	27714.236422
56.535500	0.012348	-0.003010	0.010258	-0.068026	7743.476154	54076.703659	4242.930096	28473.415936
57.036000	0.009770	-0.000907	0.008384	-0.057977	7604.225299	53148.818929	4205.288832	27887.749513
57.536500	0.011542	0.002377	0.011894	-0.032518	7353.658388	50647.285455	4138.634964	26463.155676
58.036500	0.012184	0.002983	0.014315	-0.008997	7124.283553	48192.948450	4077.657819	25219.163310
58.537000	0.014062	0.005339	0.018611	0.000347	7052.009858	47469.895941	4063.504262	24743.397034
59.037500	0.015655	0.007189	0.012719	0.001949	7051.925715	47495.399311	4042.791793	24662.845595
59.535000	0.019230	0.007451	0.019683	0.002265	7083.313077	47489.826492	4061.146457	24646.983326
60.035000	0.021337	0.009566	0.020529	0.000616	7119.797019	47878.042080	4068.109134	24729.859789
60.535500	0.021579	0.009208	0.020782	-0.000286	7130.968072	47934.444152	4071.345323	24775.303494
61.035500	0.022241	0.010680	0.023683	-0.001881	7153.098810	48253.674955	4084.025519	24855.925925
61.536000	0.023480	0.017068	0.021930	0.006965	7078.971358	47997.635805	4054.342370	24412.556239
62.036500	0.026134	0.016998	0.023893	-0.004100	7213.604202	49154.066988	4090.930290	24968.560429
62.536500	0.026269	0.015052	0.020374	-0.034979	7534.101415	52340.931197	4171.436646	26597.228043
63.036500	0.029283	0.015948	0.019795	-0.035388	7570.910168	52489.802964	4170.924244	26619.618678
63.543500	0.029811	0.017993	0.025906	-0.031730	7537.249919	52305.825470	4178.387687	26420.366255
64.039500	0.029244	0.018194	0.021598	-0.027593	7487.112248	51860.064785	4152.862748	26197.068611
64.535000	0.031652	0.018312	0.027524	-0.026078	7496.593532	51702.835842	4166.133566	26115.851454
65.035500	0.033599	0.018456	0.029577	-0.023051	7485.132155	51379.873982	4163.189116	25954.341825
65.535500	0.032281	0.018504	0.028485	-0.019106	7429.714746	50946.776834	4148.083035	25745.587867
66.035500	0.029346	0.019167	0.026250	-0.009509	7300.409121	49968.361773	4113.270354	25245.555995
66.536000	0.033384	0.019747	0.028086	-0.010387	7350.691905	50126.633729	4121.171595	25290.840783
67.036000	0.032469	0.019924	0.026208	-0.007133	7308.015009	49793.164927	4106.272888	25123.455990
67.536500	0.032995	0.020486	0.027071	-0.003488	7276.348094	49461.379078	4098.267280	24937.423820
68.037000	0.029576	0.019980	0.026563	0.004605	7161.452494	48548.428372	4073.845365	24529.963728
68.537500	0.033695	0.021333	0.030331	0.002602	7222.179632	48902.645773	4090.179184	24630.133815
69.037500	0.032656	0.021223	0.031474	0.005170	7186.288344	48619.761062	4086.124876	24501.782089
69.535500	0.033086	0.020322	0.030209	0.007015	7172.300268	48331.594637	4077.326334	24410.087886
70.035000	0.032048	0.020994	0.030221	0.011373	7119.339694	47947.604219	4065.133442	24194.969040
70.537500	0.032790	0.020180	0.026955	0.010509	7135.039131	47952.819247	4058.448750	24237.476066
71.035500	0.034469	0.021065	0.032848	0.013225	7124.902493	47763.277523	4067.300036	24104.241174
71.536000	0.033098	0.021300	0.028088	0.014899	7095.276049	47614.777317	4049.441696	24022.539782
72.036500	0.028622	0.020293	0.027770	0.021797	6986.412825	46808.205244	4029.723685	23689.178927
72.536000	0.034381	0.021693	0.030471	0.018238	7075.372941	47312.480357	4046.807404	23860.494511
73.036500	0.035857	0.020555	0.035802	0.018676	7085.410713	47151.633444	4060.338477	23839.356853
73.534500	0.036120	0.022182	0.037726	0.020035	7074.818875	47178.879605	4061.908149	23773.821991
74.035000	0.033256	0.022231	0.030719	0.026693	6983.933410	46510.076564	4024.455686	23455.725852
74.535000	0.037673	0.022017	0.038994	0.021169	7078.873431	47046.694067	4062.281705	23719.318665
75.035500	0.036809	0.022548	0.035377	0.021554	7066.820931	47061.494753	4051.187638	23700.814653
75.535500	0.037110	0.022253	0.036509	0.021576	7069.502327	47029.233846	4054.254167	23699.753022
76.036000	0.033795	0.021890	0.034591	0.026941	6986.676222	46450.958067	4034.275814	23443.976746
76.536500	0.037792	0.022591	0.033252	0.022093	7071.099851	47011.109241	4043.860631	23674.994463
77.039500	0.036424	0.022754	0.033784	0.022478	7054.223653	46988.479257	4044.262813	23656.537116
77.537000	0.039414	0.022628	0.039405	0.022501	7082.823587	46973.403489	4059.721192	23655.462753
78.040000	0.035584	0.022089	0.036000	0.027410	6999.173941	46423.939178	4036.836552	23421.806273
78.537500	0.038570	0.022547	0.041561	0.022504	7074.638632	46964.929124	4065.717367	23655.316805
79.035000	0.037981	0.021321	0.035453	0.021977	7074.043853	46894.059090	4050.230673	23680.556675
79.535500	0.037874	0.021401	0.031504	0.021283	7079.707297	46972.463254	4041.289445	23713.826933
80.035000	0.032604	0.021155	0.032748	0.026925	6975.595388	46378.980676	4029.317061	23444.770609
80.536000	0.039624	0.021425	0.036130	0.021830	7091.349855	46919.466255	4052.506281	23687.593225
81.035500	0.036536	0.020899	0.035052	0.021118	7068.384066	46938.270443	4051.494249	23721.731821
81.536500	0.037059	0.021278	0.038552	0.021469	7070.046759	46941.175066	4060.216174	23704.903872
82.036500	0.034919	0.020917	0.031612	0.026432	7002.136274	46404.464252	4027.575269	23468.111823
82.537000	0.039363	0.020320	0.035715	0.021219	7094.732309	46869.323487	4053.045055	23716.881558
83.037500	0.038183	0.020705	0.036270	0.021387	7081.688033	46891.385456	4054.116973	23708.822596
83.535000	0.038553	0.020306	0.036590	0.021058	7088.448295	46884.337621	4055.913919	23724.633761
84.035000	0.035449	0.021020	0.042270	0.026981	7001.962011	46359.857791	4055.241256	23442.110246
84.535000	0.038470	0.021299	0.040287	0.021971	7078.822837	46892.376869	4063.650699	23680.841597
85.035500	0.038705	0.020052	0.038242	0.021222	7088.329517	46841.904968	4060.041178	23716.731608
85.535500	0.040796	0.020237	0.042377	0.021605	7104.901260	46821.873690	4070.514810	23698.363897
86.036500	0.037386	0.020637	0.037375	0.027983	7010.836066	46221.390189	4039.024199	23394.693008
86.537000	0.039387	0.021378	0.045142	0.022300	7084.507378	46867.079001	4076.334201	23665.077753
87.034000	0.040312	0.021838	0.043973	0.022074	7095.646760	46936.555409	4073.681266	23675.901095
87.537000	0.040337	0.020791	0.039009	0.021587	7100.613496	46879.816495	4061.158920	23699.223238
88.034500	0.038306	0.020690	0.037478	0.026914	7029.771608	46333.415396	4042.228748	23445.257042
88.538000	0.040850	0.020092	0.039688	0.020863	7112.635857	46882.362174	4065.068597	23733.980833
89.035000	0.040345	0.020253	0.041261	0.021074	7105.669413	46877.216269	4068.876455	23723.839150
89.535000	0.042413	0.021108	0.040439	0.021425	7122.406872	46928.377989	4065.596853	23707.021100
90.035500	0.037900	0.020125	0.035312	0.025591	7038.538298	46409.431628	4039.923756	23508.068851
90.536000	0.040498	0.019905	0.041937	0.021024	7107.650741	46847.116077	4070.911364	23726.259737
91.037000	0.043683	0.021131	0.042681	0.021640	7132.707694	46908.920293	4071.270495	23696.703506
91.537000	0.042780	0.020773	0.042614	0.021393	7126.296256	46897.674423	4071.774635	23708.538850
92.038000	0.040208	0.019993	0.036113	0.026351	7053.373087	46320.123106	4040.036162	23471.973418
92.534500	0.043893	0.020815	0.038622	0.021407	7137.046349	46900.551086	4060.585444	23707.881288
93.037500	0.041769	0.020068	0.043119	0.021625	7114.173003	46802.821063	4072.544968	23697.436421
93.535000	0.042738	0.020000	0.042203	0.021627	7123.606658	46795.792435	4069.967017	23697.343289
94.035500	0.044333	0.020251	0.039856	0.021431	7141.117902	46840.905919	4063.952801	23706.707933
94.536000	0.042570	0.019404	0.044998	0.021419	7123.994761	46756.545584	4078.410938	23707.289089
95.036000	0.044147	0.020802	0.042905	0.022349	7130.319883	46803.850526	4069.911795	23662.740912
95.536500	0.044091	0.019987	0.042015	0.021974	7133.435283	46759.457659	4068.469780	23680.706174
96.036500	0.042319	0.019124	0.039319	0.027737	7060.347929	46095.213703	4045.020374	23406.334455
