sample name	sample
index	1011
start time	 04-19-2021  11:32:15 AM
880	0.084282
Peak Time (s)	100.038
Peak Height 	0.08428
calc peak height	100,103
Baseline Time (s)	11.536
Baseline Value 	-0.005645
subtract baseline	10,4
Abs	0.043398
Peak Time (s)	101.535
Peak Height 	0.0434
calc peak height	100,103
Baseline Time (s)	9.037
Baseline Value 	0.001249
subtract baseline	10,3
PK_550	0.031550
Peak Time (s)	102.035
Peak Height 	0.03155
calc peak height	100,103
Baseline Time (s)	8.54
Baseline Value 	4.4806E-4
subtract baseline	10,2
PK_880	0.045790
Peak Time (s)	101.535
Peak Height 	0.04579
calc peak height	100,103
Baseline Time (s)	11.536
Baseline Value 	0.001246
subtract baseline	10,1


Time (s)	A880-A510	A880-A775	A880-A975	A880	I510	I775	I975	I880	
0.037000	0.000515	0.000036	0.001313	0.002367	6555.452741	45971.882604	3945.115528	24266.340473
0.537500	-0.003089	-0.000931	-0.002019	0.006511	6488.732605	45466.919046	3924.858140	24062.265374
1.035000	-0.002890	-0.000385	-0.001620	0.004064	6511.393693	45761.976329	3932.528716	24182.555367
1.538000	0.000196	-0.000743	-0.003812	0.001183	6562.974684	46012.135866	3934.391556	24324.987711
2.035500	0.000645	-0.000328	0.001454	0.001174	6566.965701	46054.346923	3948.768100	24325.447642
2.535500	-0.003625	-0.000689	-0.006947	0.006516	6484.125366	45490.271167	3911.679880	24062.029662
3.036500	0.002824	0.000351	0.001059	-0.000194	6597.992529	46258.539955	3951.436286	24393.402219
3.536500	0.000486	-0.000769	0.003424	0.000244	6573.684954	46103.044081	3956.742603	24371.614339
4.037000	-0.000770	-0.000042	-0.002059	0.000629	6559.394399	46137.163668	3940.660019	24352.513408
4.537000	0.000704	-0.000350	-0.001358	0.000531	6573.083900	46116.235936	3942.834359	24357.366229
5.037500	-0.000762	0.000271	0.002662	0.000824	6557.758238	46148.840608	3953.044500	24342.794208
5.535000	-0.000669	0.000045	-0.000626	0.000460	6561.737002	46162.685989	3945.027703	24360.881419
6.035000	-0.000417	0.000560	0.003483	0.000882	6560.255786	46171.998873	3955.149194	24339.945394
6.535500	-0.000545	-0.000019	0.001508	-0.000079	6567.512405	46210.168764	3952.357636	24387.716017
7.036000	0.002778	0.000091	-0.003783	0.000374	6592.604142	46175.908991	3936.665151	24365.178947
7.536000	0.000728	-0.000331	0.000417	-0.000012	6578.034676	46172.175479	3949.173674	24384.342323
8.036000	-0.001379	0.000391	0.002158	-0.000000	6559.561004	46243.288368	3953.927532	24383.788090
8.539500	0.000704	0.000000	0.002881	-0.000180	6579.293900	46222.103188	3956.415249	24392.722577
9.037000	-0.000624	0.000641	0.000000	0.000552	6561.329185	46212.986924	3946.489032	24356.334645
9.539500	0.000765	-0.000015	-0.004483	0.000171	6576.760136	46185.557290	3935.315471	24375.252075
10.034500	-0.000416	-0.000614	0.001966	-0.000540	6572.658296	46196.716915	3954.886529	24410.663145
10.534500	0.000946	-0.000861	-0.000137	-0.000633	6585.372820	46181.356710	3949.361201	24415.288343
11.035500	-0.000924	0.000200	0.007016	0.000214	6561.660617	46202.735123	3966.783464	24373.133471
11.536000	0.000000	0.000236	-0.000800	0.000000	6571.574027	46227.699865	3945.809157	24383.768867
12.036000	0.001292	0.000456	-0.003899	0.000268	6580.517105	46222.870680	3936.638332	24370.434875
12.536500	-0.001577	-0.000958	0.003433	-0.000913	6565.783752	46199.581402	3959.967293	24429.226051
13.036500	-0.000255	-0.000317	0.000811	-0.001999	6586.819549	46372.452224	3955.723049	24483.436153
13.537000	0.000250	0.000196	-0.002221	0.001577	6560.013734	46066.391962	3937.639244	24305.456628
14.045500	0.000424	0.000609	0.002879	-0.000251	6577.466529	46290.149734	3956.607354	24396.256235
14.537500	-0.001701	-0.000514	-0.002713	0.001741	6541.666103	45979.468810	3935.861457	24297.355346
15.035000	-0.001112	0.000873	0.003112	0.000563	6556.988899	46235.082017	3955.003203	24355.766810
15.546000	0.001329	0.000646	-0.000486	0.000599	6577.948212	46208.755088	3945.029803	24353.972288
16.036000	0.003060	0.000664	0.002738	-0.000338	6601.341236	46304.393996	3956.458679	24400.608272
16.536000	0.000481	-0.000040	-0.003161	0.002249	6556.180478	45976.039311	3933.269752	24272.181230
17.036000	0.000217	0.000019	0.002899	-0.001050	6582.641916	46311.046924	3958.868693	24436.044212
17.536500	-0.001051	0.000891	-0.000288	0.000335	6559.495686	46259.727531	3946.293982	24367.099268
18.036500	0.003474	0.000604	0.003893	-0.002960	6628.123977	46561.608417	3966.922999	24531.509601
18.537000	0.000635	0.000467	0.001265	0.000982	6568.548896	46152.635404	3948.774934	24334.960403
19.037500	-0.000275	0.000095	0.003613	0.000806	6562.154504	46133.202958	3955.715389	24343.728573
19.537500	-0.001351	0.000235	0.000407	0.000674	6553.947315	46160.259513	3947.267404	24350.249812
20.035000	-0.000591	0.000295	0.000465	0.001447	6553.834367	46089.197271	3945.311937	24311.899208
20.535000	-0.000034	-0.000030	0.004140	0.000637	6565.727920	46137.523070	3957.635774	24352.109247
21.036000	-0.000161	0.000043	-0.001311	0.000675	6564.289591	46141.057617	3942.572452	24350.236668
21.536000	-0.003402	-0.000023	0.000914	0.000979	6533.542711	46104.045895	3947.821205	24335.098049
22.036000	-0.000125	0.000062	0.005357	0.001192	6560.099557	46091.364322	3959.467353	24324.556414
22.536500	-0.000302	0.000516	0.000973	0.001277	6557.824594	46128.121782	3947.167633	24320.330450
23.037000	0.000052	0.000443	0.000673	0.001425	6559.615057	46106.178155	3945.941014	24313.009513
23.537000	0.001468	-0.000052	0.001688	0.001133	6574.498365	46085.908417	3949.522735	24327.495412
24.037000	-0.000206	0.000726	0.006192	0.001495	6556.764239	46127.345208	3960.938907	24309.511317
24.535000	0.003110	0.000651	0.001670	0.001262	6587.734050	46143.159848	3949.118142	24321.086675
25.035500	-0.000060	0.000241	0.000793	0.000952	6562.759806	46133.171903	3947.565082	24336.467171
25.535500	-0.001208	0.000368	0.001679	0.001293	6549.813409	46111.789352	3949.058342	24319.530814
26.035500	-0.000295	0.000898	0.001022	0.001552	6555.494985	46138.857168	3946.547111	24306.688311
26.536000	-0.000402	0.000099	-0.000369	0.001029	6559.109213	46111.284545	3944.176156	24332.622746
27.036500	-0.001199	0.000002	0.003738	0.000403	6557.624984	46164.072858	3957.173791	24363.750511
27.536500	-0.003410	-0.000272	-0.001059	0.000818	6534.871947	46095.382637	3942.868614	24343.128797
28.040000	0.000163	0.001570	0.002655	0.000264	6570.692531	46334.815631	3954.568108	24370.633590
28.537500	0.000971	0.000285	0.000810	-0.000765	6586.754873	46309.147722	3952.324500	24421.866131
29.034500	0.000489	0.000312	0.008819	-0.000190	6577.504079	46254.354427	3972.941260	24393.228563
29.535000	0.000304	0.000740	0.000585	0.002341	6553.840296	46044.456374	3943.198448	24267.626841
30.035500	0.003184	0.000796	0.005133	0.000441	6595.581396	46239.634436	3960.926806	24361.861656
30.536000	0.001416	0.000078	0.002406	0.001344	6572.196475	46077.819620	3950.913074	24316.993065
31.036000	-0.001521	-0.000182	0.003148	-0.000555	6563.151862	46241.365399	3958.187096	24411.386704
31.558000	0.001119	0.000015	0.004523	0.000429	6577.597757	46162.716495	3959.268551	24362.428437
32.036500	0.000362	0.000318	0.002111	0.002040	6556.959303	46032.379218	3948.195295	24282.513472
32.539000	-0.001198	-0.000406	-0.000551	-0.000562	6566.033413	46219.714249	3948.031283	24411.748185
33.070000	-0.001099	-0.000216	0.001015	-0.001462	6574.741405	46328.722002	3954.805383	24456.598369
33.536500	0.001393	0.000260	0.000431	0.000592	6578.567151	46170.951832	3947.557646	24354.316202
34.038000	0.000642	0.000036	0.007171	-0.001026	6586.156339	46310.337880	3970.670298	24434.863341
34.535000	-0.000665	-0.000574	0.003751	-0.000909	6573.702197	46237.529825	3960.833421	24429.013022
35.035500	0.000597	0.000530	0.004608	-0.000463	6580.832282	46303.459217	3961.975813	24406.828405
35.535500	-0.001427	-0.000057	0.000191	0.001755	6543.910729	46023.491855	3943.723038	24296.631184
36.036000	0.001124	0.000268	0.002794	0.001901	6564.802253	46041.364890	3950.449800	24289.426240
36.536500	0.000914	-0.000008	-0.002953	0.001790	6563.935233	46024.860633	3935.074512	24294.884733
37.039500	0.001009	-0.000043	0.003118	0.001024	6571.442601	46097.624285	3953.750144	24332.866340
37.536500	0.001552	0.000850	-0.000797	0.001723	6570.079026	46116.958475	3941.115926	24298.206293
38.037000	-0.001771	0.000656	0.001187	0.001242	6545.379000	46145.620015	3947.850434	24322.080988
38.534500	0.001269	-0.000052	0.003334	0.000886	6574.922636	46110.515351	3954.727026	24339.753269
39.035000	0.000382	0.000179	0.000513	0.000599	6569.680399	46162.220696	3947.764710	24353.995002
39.535000	0.000396	0.000492	-0.000361	0.001010	6566.219535	46152.372408	3944.248281	24333.567758
40.035500	0.002321	0.001667	0.001719	0.001620	6577.697019	46208.844737	3948.270571	24303.317144
40.536000	0.000357	0.000621	-0.001083	0.000900	6566.844453	46176.289029	3942.578907	24339.052150
41.036000	-0.000708	0.000265	0.000598	0.000829	6558.189920	46147.866077	3947.367038	24342.571823
41.539000	-0.001119	-0.000486	-0.001056	0.000508	6557.402448	46104.887014	3943.722572	24358.493169
42.036500	-0.000331	0.000179	0.002448	0.000646	6563.066238	46157.519063	3952.946829	24351.670038
42.537000	-0.002034	0.000872	0.001964	0.000795	6546.979587	46211.827913	3951.206982	24344.279109
43.037000	-0.000392	0.000181	-0.002298	0.000349	6565.117726	46187.378067	3940.770549	24366.434366
43.537000	-0.000549	0.000988	0.000724	0.001318	6555.318844	46171.128896	3946.372202	24318.282259
44.035000	-0.000186	0.000835	0.005762	0.000752	6563.396879	46212.422918	3961.805861	24346.396964
44.535500	-0.001447	0.000182	-0.001665	0.000354	6555.887140	46186.891918	3942.479962	24366.148177
45.038500	-0.000969	0.000879	0.001138	0.000766	6556.468529	46215.395492	3949.019732	24345.703574
45.536000	0.001455	0.000684	0.004145	-0.001698	6599.185644	46442.789673	3964.116104	24468.405438
46.035500	0.002806	0.001242	0.003713	-0.000332	6599.050314	46361.626200	3959.132942	24400.274798
46.539500	0.001927	0.000271	0.005156	-0.000778	6595.249520	46309.056810	3964.367580	24422.492738
47.037000	-0.000063	0.001033	0.008428	-0.000597	6576.239766	46367.343306	3972.986187	24413.499266
47.537000	-0.002627	-0.000217	-0.001502	0.003479	6518.672991	45836.424160	3934.431371	24211.377392
48.037500	0.003351	0.000957	0.006718	-0.000401	6604.456044	46340.010334	3967.664998	24403.740327
48.535000	-0.000400	-0.000002	-0.001009	-0.001759	6583.447224	46380.018141	3950.056551	24471.447309
49.043000	0.000329	0.001056	0.003325	-0.000516	6578.951203	46361.481582	3958.570275	24409.462204
49.535000	-0.001628	0.000801	-0.002739	0.002763	6533.459408	46008.586524	3933.021220	24246.766016
50.035500	0.001422	0.000639	0.000542	-0.000374	6587.272476	46305.429373	3950.512613	24402.379569
50.546500	0.000759	-0.000019	0.003599	-0.001242	6589.071289	46326.488777	3961.336579	24445.654796
51.039000	0.001981	0.001004	0.004187	-0.000723	6595.235735	46376.965421	3961.528014	24419.761177
51.536500	-0.003656	-0.000057	0.000549	0.004395	6501.977331	45761.576113	3937.508815	24166.212141
52.037000	0.001534	-0.000092	0.002809	-0.003499	6615.742762	46545.801925	3965.407722	24558.536110
52.534000	0.003107	-0.002692	0.005358	0.003942	6564.292803	45546.415479	3951.884757	24188.548961
53.034500	-0.002527	-0.003031	0.015440	0.071091	5980.780911	39396.346047	3804.894708	21121.471209
53.535000	0.009852	-0.000712	0.006365	0.214056	5150.226216	29276.402093	3495.710927	15976.434779
54.034500	-0.019003	-0.027471	-0.038368	-0.145507	7852.838106	59755.011883	4280.913381	32982.607602
54.535500	-0.020138	-0.033026	-0.024808	-0.153265	7930.742982	60044.411752	4357.525535	33526.954887
55.038500	-0.014854	-0.093430	-0.025932	-0.253179	9341.771344	65494.962292	4766.043216	41480.777362
55.539000	-0.010545	-0.035121	-0.009930	-0.168570	8234.518250	61812.079273	4472.638110	34629.923824
56.036500	-0.003161	-0.021013	-0.005220	-0.134904	7914.362894	59214.098585	4362.052119	32254.131834
56.536500	-0.007584	-0.016272	-0.010052	-0.120437	7695.929066	57965.019232	4292.337437	31288.396466
57.037000	-0.008515	-0.013760	-0.009206	-0.118512	7663.725774	58039.580626	4288.529338	31162.299680
57.537000	-0.003035	-0.014380	-0.005085	-0.126563	7818.201250	58992.592880	4332.026967	31693.381796
58.037500	-0.001511	-0.012347	-0.002429	-0.121801	7780.796828	58640.711446	4324.412732	31378.055086
58.535000	0.000190	-0.009942	-0.006100	-0.108641	7650.645479	57275.306569	4264.875122	30524.463816
59.035000	0.001070	-0.006823	-0.006257	-0.088651	7441.082642	55200.219164	4196.573896	29276.333259
59.536000	0.003350	-0.004736	-0.000679	-0.082915	7404.149429	54761.817870	4196.050977	28928.618590
60.038500	0.004150	-0.002907	-0.004452	-0.069552	7272.377285	53400.534946	4140.420119	28136.286971
60.536500	0.008290	0.000096	0.000133	-0.044666	7062.943306	50914.788206	4077.294178	26724.091074
61.037000	0.008662	0.001804	0.003509	-0.028994	6914.770323	49392.802584	4040.467487	25875.393472
61.536500	0.013587	0.003411	0.000968	-0.026158	6934.692206	49261.171841	4024.689346	25725.058738
62.036500	0.013240	0.006204	0.007592	-0.002948	6715.471944	47128.224633	3977.230811	24530.930851
62.534500	0.011656	0.004889	0.008323	-0.013149	6794.286577	48044.220075	4008.307294	25047.920009
63.035000	0.014625	0.008354	0.007933	0.033148	6413.365693	43796.391194	3880.883569	22796.079310
63.535000	0.016252	0.007951	0.010857	0.049239	6294.437128	42269.203343	3847.356034	22068.004487
64.036000	0.018222	0.009714	0.017894	0.029475	6474.661967	44274.139536	3916.689122	22966.116194
64.538500	0.017383	0.011556	0.014772	0.042147	6361.564192	43253.012382	3875.312866	22385.575959
65.036000	0.020030	0.013071	0.020382	0.060641	6233.316452	41702.559496	3842.657088	21568.156979
65.536500	0.025021	0.015178	0.024026	0.067993	6214.611993	41235.777804	3833.437565	21252.772514
66.036500	0.022938	0.015839	0.019711	0.074118	6150.357388	40755.452747	3807.896772	20994.056887
66.537000	0.026812	0.017126	0.025387	0.070652	6207.765267	41172.915816	3830.229039	21140.016938
67.038000	0.029728	0.020043	0.028520	0.065878	6268.947357	41858.226263	3849.925792	21342.965517
67.534500	0.027113	0.019255	0.018052	0.053928	6344.701483	42874.705728	3853.657858	21860.851652
68.035000	0.027065	0.019662	0.019987	0.034162	6510.156258	44779.336885	3909.789103	22749.403862
68.542000	0.030224	0.020703	0.024671	0.025115	6616.404490	45765.559527	3946.783026	23169.786322
69.038500	0.028993	0.021318	0.027107	0.024776	6608.547953	45860.054036	3954.403114	23185.721172
69.535500	0.030888	0.021489	0.020811	0.023901	6633.033448	45963.843960	3939.564965	23226.898151
70.046000	0.031953	0.022420	0.022550	0.028390	6602.786236	45611.748730	3932.107306	23016.605417
70.536500	0.034007	0.022765	0.024995	0.026714	6635.740339	45811.370501	3943.298684	23094.865674
71.037000	0.035653	0.024316	0.026945	0.030181	6619.616632	45622.048652	3939.167138	22933.305989
71.537000	0.035600	0.024797	0.028972	0.034042	6585.195345	45290.263535	3934.191480	22754.943482
72.037000	0.036510	0.024636	0.026737	0.039489	6545.672585	44745.293323	3913.570676	22505.954754
72.537000	0.037895	0.025627	0.026997	0.040016	6553.112608	44790.143133	3912.860366	22482.040893
73.035500	0.037366	0.025582	0.031922	0.042690	6525.412106	44528.140854	3918.862860	22361.097699
73.538500	0.038122	0.025839	0.033608	0.047211	6493.099077	44120.577837	3911.309561	22158.289684
74.035500	0.036438	0.025329	0.031046	0.051810	6439.803563	43637.473842	3892.449776	21954.133244
74.536000	0.036740	0.026599	0.033620	0.051162	6447.816725	43818.258832	3900.898363	21982.807603
75.036000	0.039896	0.026935	0.034420	0.054040	6450.157944	43578.863649	3895.441856	21855.933682
75.536000	0.038138	0.026895	0.033117	0.056468	6414.983376	43347.935946	3885.712117	21749.584857
76.036500	0.035938	0.025906	0.029552	0.060990	6359.186658	42836.807109	3864.911359	21553.069227
76.536500	0.040090	0.025515	0.032929	0.057814	6420.048829	43094.302764	3881.738577	21690.884797
77.037500	0.039109	0.027220	0.036249	0.060407	6390.241648	43012.020398	3883.620799	21578.303353
77.535000	0.037930	0.026733	0.034040	0.062171	6365.877847	42804.256674	3873.372185	21502.103378
78.038500	0.035515	0.025445	0.034744	0.066548	6310.266114	42285.957632	3863.977908	21314.332821
78.535500	0.037997	0.026891	0.034490	0.064040	6351.036832	42646.982778	3869.733522	21421.705111
79.038500	0.038397	0.026869	0.032954	0.064697	6348.926005	42584.695142	3864.134037	21393.493814
79.536500	0.037005	0.025743	0.028579	0.065254	6332.958922	42430.928638	3851.645275	21369.662859
80.036500	0.035830	0.027212	0.031517	0.071545	6272.441622	41993.486604	3843.235006	21102.292160
80.537000	0.041414	0.028394	0.037308	0.068324	6343.918260	42392.717603	3865.987254	21238.696465
81.037000	0.039810	0.027107	0.038165	0.068141	6332.286671	42292.227007	3868.643047	21246.484612
81.537500	0.039127	0.027865	0.036816	0.070598	6306.714289	42138.147427	3858.954844	21142.307243
82.035000	0.037988	0.026313	0.033433	0.073779	6271.829550	41711.863554	3842.440109	21008.268840
82.538000	0.039028	0.027648	0.037518	0.069991	6310.834114	42173.447833	3862.276379	21167.962262
83.035500	0.040093	0.028096	0.035557	0.070735	6313.446190	42146.618441	3855.418809	21136.488237
83.536000	0.040122	0.027919	0.034605	0.072782	6297.079394	41945.707526	3847.869263	21050.165918
84.039000	0.038146	0.028325	0.037586	0.077287	6245.022451	41578.176376	3844.052522	20861.638625
84.536500	0.039890	0.028286	0.036675	0.071816	6303.024416	42065.991269	3855.513622	21090.855234
85.036500	0.040274	0.028952	0.035829	0.072706	6298.926479	42045.787377	3851.136470	21053.371012
85.537000	0.040448	0.028539	0.035334	0.072226	6304.224152	42051.876739	3851.099357	21073.592590
86.037500	0.038935	0.028711	0.035405	0.077806	6247.172015	41566.316476	3837.323350	20840.028969
86.537500	0.041951	0.028859	0.037238	0.073576	6305.468158	41958.911465	3852.494499	21016.799769
87.040500	0.040041	0.029036	0.040201	0.073794	6288.246150	41955.150965	3859.432767	21007.631342
87.535500	0.044520	0.029565	0.034425	0.074318	6320.315250	41955.617356	3843.572878	20985.662014
88.036000	0.039386	0.028869	0.034431	0.080087	6232.601363	41377.292541	3829.262451	20745.395225
88.536000	0.042418	0.029087	0.038864	0.074506	6301.717562	41895.714997	3854.250046	20977.802639
89.036500	0.041370	0.029797	0.039226	0.075426	6285.802952	41876.744384	3852.841684	20939.271488
89.536500	0.041415	0.029455	0.038371	0.075159	6288.321449	41870.028027	3851.360972	20950.452096
90.037000	0.041804	0.030239	0.038764	0.075901	6285.475423	41873.834249	3850.483501	20919.436955
90.537500	0.043266	0.029672	0.043265	0.075623	6299.530448	41847.822374	3862.568651	20931.031835
91.037500	0.043703	0.030138	0.039660	0.076307	6297.537064	41828.242051	3851.715903	20902.474339
91.537500	0.042340	0.029966	0.037876	0.077507	6276.849103	41705.196746	3844.227276	20852.451943
92.035000	0.038907	0.030157	0.040084	0.082307	6211.230775	41294.623179	3837.764229	20653.790116
92.535500	0.044135	0.030670	0.037735	0.077221	6293.638540	41793.953548	3844.591227	20864.389799
93.038500	0.043292	0.029875	0.042881	0.076874	6289.624350	41753.696863	3858.419152	20878.814903
93.536000	0.042036	0.030762	0.040570	0.078055	6270.003759	41727.428931	3849.607302	20829.671790
94.039000	0.038364	0.030093	0.037395	0.083416	6198.208980	41190.796359	3828.361982	20608.202894
94.536500	0.043398	0.030118	0.037194	0.077300	6287.039942	41737.343120	3843.039733	20861.071935
95.037500	0.043865	0.030482	0.040755	0.077866	6286.239822	41719.186873	3850.547587	20837.515194
95.537000	0.042694	0.031477	0.039661	0.080038	6259.380597	41613.993711	3842.365125	20747.457584
96.040500	0.039238	0.029967	0.034198	0.084125	6199.509806	41117.127483	3818.781538	20579.123923
96.535000	0.042675	0.030191	0.040439	0.078443	6272.018636	41641.556866	3848.303600	20813.546136
97.035500	0.044025	0.030872	0.039568	0.078793	6280.061147	41671.161461	3845.243905	20799.032505
97.535500	0.041402	0.030352	0.040416	0.079574	6252.751415	41554.965320	3845.411377	20766.639100
98.041500	0.037560	0.030187	0.036991	0.084090	6186.605455	41139.593531	3825.710941	20580.556873
98.536000	0.043138	0.030656	0.041601	0.078894	6272.112957	41642.853647	3850.091010	20794.839536
99.037000	0.043050	0.031119	0.038062	0.079656	6265.294047	41616.104712	3839.330217	20763.255988
99.536500	0.041835	0.031355	0.040788	0.080579	6248.188940	41554.752038	3843.827125	20725.058525
100.037500	0.040817	0.029962	0.033721	0.084282	6210.718854	41102.828069	3817.234622	20572.705288
100.540000	0.041581	0.029779	0.039052	0.078821	6260.205767	41571.018200	3843.882123	20797.853644
101.034500	0.041811	0.030682	0.043392	0.080055	6252.176597	41541.459071	3851.674125	20746.723074
101.535000	0.045790	0.030814	0.043398	0.080312	6282.043364	41530.295142	3851.043086	20736.107620
102.035500	0.042944	0.031550	0.039078	0.080188	6260.181557	41607.079397	3840.534820	20741.246143
102.536000	0.044209	0.031452	0.042181	0.080260	6269.744661	41591.937381	3848.116453	20738.267558
103.039000	0.044383	0.031696	0.041468	0.081163	6263.896035	41533.075673	3844.067481	20700.965867
103.536500	0.043734	0.031990	0.046915	0.082225	6250.207818	41464.662950	3855.086944	20657.167691
104.036000	0.041221	0.031530	0.041495	0.085931	6200.909300	41095.729879	3832.277443	20505.277935
104.537000	0.044222	0.031391	0.038529	0.081074	6263.314794	41513.819669	3836.964598	20704.618557
105.040500	0.044164	0.031294	0.045134	0.081642	6258.304283	41454.674200	3852.065119	20681.211200
105.534500	0.042149	0.031615	0.042259	0.082639	6234.282190	41394.453364	3842.354832	20640.128218
106.035000	0.042338	0.031805	0.038396	0.087710	6195.701353	40963.405437	3820.280427	20432.807660
106.535500	0.043297	0.031140	0.040142	0.081277	6254.289945	41473.458997	3840.472764	20696.267723
107.035500	0.042618	0.032245	0.039308	0.082452	6239.500167	41467.177794	3835.478016	20647.845312
107.536000	0.043368	0.032028	0.044908	0.082576	6244.484936	41436.824493	3849.146662	20642.719063
108.039000	0.042823	0.031412	0.040866	0.086556	6208.606544	41030.293869	3829.181082	20479.774438
108.536500	0.044351	0.031807	0.048549	0.082531	6252.690643	41421.198930	3858.445523	20644.586410
109.037000	0.043185	0.032271	0.043220	0.082994	6239.702198	41421.329063	3843.869350	20625.556952
109.540000	0.043623	0.031711	0.043066	0.082607	6246.273522	41405.898270	3844.452381	20641.475534
110.134000	0.044397	0.032323	0.045203	0.083526	6245.115487	41378.598843	3847.503367	20603.692665
110.534500	0.045855	0.032459	0.042283	0.083371	6258.000371	41404.484100	3840.588010	20610.055561
111.035000	0.046219	0.032813	0.042623	0.084231	6254.040086	41359.547681	3839.294533	20574.805186
111.535500	0.043101	0.031867	0.038963	0.082788	6240.668282	41403.708954	3833.787986	20634.015026
112.035000	0.042397	0.031724	0.039746	0.087578	6197.195218	40967.831549	3823.909933	20438.162251
112.536000	0.044569	0.032692	0.046730	0.083866	6243.774591	41381.227066	3850.484017	20589.753032
113.036000	0.045291	0.033024	0.042769	0.084090	6247.749303	41390.808532	3840.007011	20580.553504
113.536500	0.044391	0.031857	0.043822	0.083168	6247.920899	41368.987440	3844.938790	20618.394396
