sample name	sample
index	670
start time	 03-22-2021  11:06:38 AM
880	0.041667
Peak Time (s)	182.537
Peak Height 	0.04167
calc peak height	180,183
Baseline Time (s)	10.036
Baseline Value 	-0.002921
subtract baseline	10,4
Abs	0.004150
Peak Time (s)	182.037
Peak Height 	0.00415
calc peak height	180,183
Baseline Time (s)	10.036
Baseline Value 	0.002923
subtract baseline	10,3
PK_550	0.007029
Peak Time (s)	180.036
Peak Height 	0.007029
calc peak height	180,183
Baseline Time (s)	9.539
Baseline Value 	6.5669E-4
subtract baseline	10,2
PK_880	0.004731
Peak Time (s)	181.035
Peak Height 	0.004731
calc peak height	180,183
Baseline Time (s)	10.036
Baseline Value 	0.001065
subtract baseline	10,1


Time (s)	A880-A510	A880-A775	A880-A975	A880	I510	I775	I975	I880	
0.036000	-0.003651	-0.000119	-0.002811	0.004826	7309.609321	45557.205358	3928.986226	23996.748171
0.536500	-0.003908	-0.000754	0.001590	0.004458	7310.763403	45531.015466	3941.644784	24014.712354
1.037000	-0.002759	-0.000102	-0.000652	0.003183	7335.930932	45720.795503	3939.068709	24077.085947
1.537500	-0.001181	-0.001277	-0.000411	-0.000209	7387.972509	45940.208152	3948.782526	24243.855688
2.037500	-0.001530	-0.000909	-0.005495	0.003810	7342.191527	45579.421832	3924.589760	24046.367009
2.535000	0.000127	-0.000357	-0.000619	0.000337	7395.999851	45977.320674	3946.758909	24216.892885
3.035500	0.001493	-0.000858	0.003975	-0.002570	7441.306512	46216.961733	3967.042668	24360.707945
3.538000	0.000675	0.000139	0.002979	-0.000036	7405.730203	46063.751727	3957.455081	24235.331588
4.036000	-0.001991	0.000305	-0.004449	0.004796	7327.136030	45601.930599	3924.749504	23998.220859
4.536500	0.000191	-0.000355	0.002090	-0.000176	7402.092950	46028.518888	3955.428228	24242.218998
5.039500	-0.000296	-0.000326	0.000563	-0.000684	7402.317265	46081.931539	3952.678536	24267.290571
5.536500	0.001003	-0.000436	0.000819	-0.000310	7412.096383	46033.728532	3952.361544	24248.814177
6.037000	0.000493	-0.000640	-0.005876	-0.000686	7410.677323	46050.836840	3935.463251	24267.382498
6.537500	-0.001502	0.000043	0.000031	0.000103	7381.311558	46040.340939	3949.130020	24228.442703
7.037500	0.000010	-0.000589	-0.001856	-0.000415	7402.703491	46029.013404	3945.459339	24254.024440
7.534500	0.000587	-0.000106	-0.000273	-0.000056	7405.011755	46041.368388	3948.743158	24236.290469
8.036000	-0.000178	-0.001567	-0.001764	-0.001180	7408.810573	46007.925069	3947.759597	24291.853509
8.538000	0.000871	-0.000095	-0.000473	-0.000219	7409.738069	46058.642956	3948.642784	24244.336341
9.036000	0.000206	0.000299	-0.002224	0.000090	7399.441742	46067.100677	3943.124222	24229.080323
9.539000	-0.000219	0.000000	0.001865	-0.000127	7397.243116	46058.939241	3954.688484	24239.791522
10.036000	0.000000	-0.000532	0.000000	0.000000	7398.219032	45993.422151	3949.325362	24233.534270
10.537000	-0.001002	-0.000309	0.002690	-0.000299	7390.810531	46045.351985	3957.382732	24248.297179
11.034500	-0.000066	0.000233	0.002224	0.000295	7394.401240	46040.139631	3954.517104	24218.965922
11.535000	0.002120	0.000513	-0.000258	0.000431	7416.084238	46054.487623	3947.475295	24212.272530
12.035000	0.000310	-0.000139	0.005057	0.000176	7399.634040	46015.021079	3962.512934	24224.840727
12.535000	0.000297	0.000155	-0.003833	0.000735	7393.603393	45988.683183	3937.117374	24197.317222
13.036000	0.001298	-0.000419	0.002219	-0.001634	7429.274862	46167.297057	3959.721842	24314.300036
13.535500	-0.002329	-0.000471	-0.000594	0.005338	7318.002532	45472.337286	3933.494701	23971.787114
14.039000	0.000598	-0.000672	-0.000929	0.001092	7393.009157	45871.248470	3943.907104	24179.717322
14.537000	-0.000183	-0.000260	-0.000566	0.003768	7356.701060	45647.553321	3937.737964	24048.433340
15.036500	-0.001132	-0.000409	-0.001326	0.000186	7384.320681	45987.132067	3945.267904	24224.339828
15.547500	-0.003354	-0.000427	-0.000744	0.005056	7310.300841	45504.391190	3933.844296	23985.528038
16.037500	0.001432	0.000578	0.003659	0.000430	7408.812648	46061.058098	3958.033222	24212.350709
16.538000	0.000385	0.000483	0.002431	0.000264	7399.492188	46068.067774	3955.161364	24220.505477
17.040000	0.001924	0.000064	0.001407	0.000352	7414.843790	46017.661021	3952.163723	24216.176063
17.535500	-0.001688	0.000342	-0.001779	0.004191	7336.590782	45665.162206	3933.395309	24027.776639
18.036500	-0.002247	-0.000719	0.002379	0.001396	7359.933855	45836.518350	3951.971531	24164.790922
18.539000	0.001163	0.000119	0.001237	0.002177	7387.533663	45842.106971	3946.802495	24126.419742
19.036500	0.001925	0.000543	-0.005279	0.002000	7397.425038	45901.587800	3929.932295	24135.075531
19.536000	0.000060	0.000616	-0.004197	0.004000	7356.821567	45711.036187	3927.509491	24037.096192
20.037500	-0.001104	-0.000018	0.000895	0.002130	7364.211491	45833.165848	3946.012314	24128.710291
20.536500	0.001917	-0.000018	0.000789	0.001871	7398.712671	45858.926300	3946.423069	24141.443964
21.034500	0.000487	-0.000033	0.002057	0.002348	7378.615635	45810.137808	3948.542858	24118.008387
21.542500	-0.000326	-0.000961	0.002337	0.002569	7367.769097	45696.648736	3948.704014	24107.184655
22.035500	0.001243	0.000568	0.001581	0.002736	7382.494347	45831.270730	3946.227503	24098.987445
22.535500	-0.000076	0.000410	0.006033	0.002723	7368.779252	45816.918509	3958.253370	24099.634146
23.039000	-0.002144	-0.000293	0.003406	0.001707	7357.755782	45847.812285	3953.899887	24149.488782
23.536500	-0.000824	0.000372	0.000550	0.003514	7352.657571	45734.845049	3941.386853	24060.845508
24.036500	-0.000968	0.000422	0.000214	0.002478	7361.992705	45842.287551	3943.257732	24111.624976
24.537000	0.000854	0.000727	0.001304	0.003220	7373.309761	45799.062210	3944.188326	24075.240443
25.037000	-0.000518	0.000269	0.002834	0.002511	7366.361104	45823.912455	3950.192919	24110.000803
25.537500	0.002184	0.000449	0.000634	0.003837	7380.812928	45710.656057	3940.753180	24045.085727
26.038000	0.000839	0.000276	0.001190	0.002649	7379.159178	45810.997586	3945.414566	24103.265061
26.535500	0.001258	-0.000430	-0.000408	0.002525	7384.866051	45753.488982	3941.471975	24109.347541
27.035500	0.002019	0.000390	-0.000699	0.002909	7388.838145	45796.530136	3939.672327	24090.499531
27.536000	0.001847	0.000724	0.000946	0.000246	7415.144835	46093.864352	3951.207137	24221.406061
28.035500	-0.002903	-0.000471	0.001018	0.005918	7306.045785	45415.477429	3936.232913	23943.529769
28.536500	0.001690	-0.000136	0.002266	0.001243	7402.939861	45909.389339	3952.077844	24172.311080
29.037000	0.001300	0.000880	0.001171	0.001547	7395.609771	45980.004892	3948.314380	24157.348974
29.537000	0.002065	-0.000106	0.007051	0.000669	7412.978967	45969.283257	3966.597968	24200.557961
30.037000	-0.000699	0.000906	0.002238	0.005975	7328.315756	45545.079074	3939.330927	23940.796880
30.535000	0.001990	0.000632	0.005116	0.001446	7403.967458	45965.387111	3959.225655	24162.307493
31.075000	0.000748	0.000403	0.001855	0.001348	7391.885313	45952.407806	3950.687212	24167.128336
31.537000	-0.000690	0.000590	0.001731	0.005010	7338.442166	45608.886533	3940.548526	23987.761916
32.069000	0.000712	0.000276	0.002067	0.005097	7352.162152	45569.394904	3941.210894	23983.518440
32.558000	0.003167	0.000641	0.003018	0.001612	7414.662065	45949.906751	3953.110239	24154.163707
33.036000	0.002695	0.000172	0.002208	0.001512	7410.715022	45913.179888	3951.196843	24159.053793
33.536500	-0.001752	0.000626	-0.004151	0.007565	7300.931517	45361.612522	3918.270001	23863.561982
34.037000	-0.004486	-0.000201	0.000303	0.006874	7279.872498	45348.304119	3931.804447	23897.073727
34.537000	0.002058	0.001211	0.006098	0.000568	7413.970495	46110.307158	3964.276296	24205.527401
35.037000	0.000661	0.000661	0.000061	0.003988	7363.235278	45716.645791	3938.821674	24037.667754
35.535000	0.001527	0.000495	-0.001659	0.004691	7364.937696	45630.935190	3932.387701	24003.322140
36.035000	-0.000459	0.000663	0.002937	0.004747	7343.599816	45642.019321	3944.472852	24000.628545
36.538500	0.000862	0.000579	0.002833	0.004267	7362.420631	45681.023264	3945.478653	24024.028776
37.035000	-0.000743	0.001208	0.000700	0.004923	7338.797018	45678.353842	3938.033921	23992.013298
37.535500	0.001827	0.000881	0.002273	0.004677	7368.232449	45670.395709	3942.885002	24004.034869
38.042000	0.000994	0.000593	-0.000560	0.004770	7358.536337	45632.817143	3935.093603	23999.499345
38.537000	-0.000700	-0.000157	0.002829	0.004064	7348.214417	45628.508220	3946.013003	24033.971988
39.037000	-0.000192	0.000592	-0.000684	0.004612	7347.790295	45648.372101	3935.182477	24007.206450
39.537000	0.002853	0.000421	0.004172	0.004406	7381.857472	45651.768110	3948.695751	24017.255067
40.037500	0.000673	0.000112	0.001806	0.004002	7363.216355	45661.111591	3943.439027	24036.996505
40.535000	0.001044	0.000780	-0.000067	0.004993	7356.724529	45629.272489	3935.809162	23988.592294
41.035000	0.000812	0.000949	0.003398	0.004961	7354.636874	45649.147467	3945.133413	23990.192791
41.535500	0.001131	0.001204	0.002254	0.005334	7354.074803	45637.528573	3941.079484	23972.006222
42.036000	0.001066	0.001000	0.003887	0.005210	7354.691569	45629.657270	3945.777294	23978.044969
42.536500	0.001230	0.000118	0.002343	0.004120	7367.816479	45650.124836	3944.562329	24031.250264
43.036000	0.000944	0.001405	0.000230	0.005565	7349.707689	45634.543712	3935.079022	23960.732214
43.537000	-0.001216	0.000642	0.002158	0.006111	7321.527331	45505.698920	3938.751649	23934.147831
44.037000	0.001304	0.000750	-0.000309	0.005237	7356.892024	45602.299908	3934.518611	23976.717572
44.537500	0.000422	0.000682	0.002641	0.004677	7353.531903	45650.806067	3943.868184	24004.032555
45.035000	0.003300	0.001225	0.001462	0.002791	7403.602873	45890.832474	3945.760924	24096.295707
45.540500	-0.003586	0.001685	0.004451	0.009195	7265.284949	45305.771197	3936.648316	23784.658508
46.068500	0.001052	0.001616	0.002075	0.003812	7369.185390	45828.523084	3944.670070	24046.305404
46.536000	0.000490	0.000285	0.001782	0.002271	7379.459285	45849.185513	3948.012795	24121.780797
47.039000	0.002852	0.000727	0.005205	0.002571	7401.195644	45863.378138	3956.424114	24107.088368
47.550500	-0.001403	0.000650	0.004094	0.008360	7296.318299	45286.238536	3937.920620	23825.041089
48.061000	0.002292	0.001384	0.004364	0.005163	7368.014163	45672.083697	3947.179201	23980.304746
48.677000	0.002852	0.001062	0.007525	0.002920	7397.503054	45861.873898	3961.764083	24089.959977
49.037500	0.002802	0.001715	0.002372	0.005267	7372.269021	45694.416298	3941.571677	23975.234237
49.535000	-0.002096	0.000961	-0.001880	0.008054	7292.328912	45346.592419	3922.940302	23839.860731
50.038000	0.001150	0.000640	0.004829	0.005858	7348.793287	45530.392995	3946.564394	23946.473756
50.537500	0.003088	0.001074	0.002983	0.002489	7404.548798	45905.858656	3950.653559	24111.108642
51.035000	0.002025	0.001399	0.009695	0.002736	7390.718038	45913.539106	3968.171014	24098.954626
51.535500	-0.000402	0.001282	0.004046	0.008950	7300.562979	45290.309586	3936.225322	23796.501221
52.036000	0.000091	0.001010	-0.001574	0.005871	7337.619170	45565.582877	3929.495771	23945.853130
52.539000	0.001966	0.002093	0.005680	0.011867	7294.901660	45085.032691	3932.819939	23655.997946
53.037000	-0.002961	-0.001323	0.004959	0.012673	7236.143251	44676.447974	3928.782467	23617.346929
53.537000	-0.064153	-0.018989	0.000137	0.465393	4168.525236	17009.357931	3182.223324	10144.915954
54.036500	-0.030330	-0.010208	-0.010861	0.047539	6645.791550	40668.011951	3802.514956	22011.989812
54.537500	-0.044092	-0.115140	-0.018721	-0.276854	10648.583990	65535.000000	4896.651144	43339.417817
55.035000	-0.129859	-0.288550	-0.102352	-0.450263	12400.379283	65535.000000	5382.147409	63231.152712
55.538000	-0.056827	-0.155115	-0.016152	-0.316829	11155.700928	65535.000000	5114.239218	47247.277874
56.038500	-0.049042	-0.154085	-0.009938	-0.315799	11286.462373	65535.000000	5142.238654	47142.038331
56.535500	-0.037701	-0.118197	-0.012182	-0.279911	10820.880897	65535.000000	4943.886245	43625.718074
57.036500	-0.019812	-0.117200	-0.015001	-0.278914	11138.419581	65535.000000	4924.979122	43532.101442
57.536500	-0.014555	-0.127185	-0.013725	-0.288898	11435.756631	65535.000000	4981.255600	44479.217471
58.037000	-0.009661	-0.102872	-0.013013	-0.264586	11058.752948	65535.000000	4864.959544	42210.477869
58.537000	-0.014765	-0.070152	-0.011701	-0.229572	10331.289877	65204.816299	4709.466220	39158.352318
59.040000	-0.010471	-0.045141	-0.010356	-0.194561	9817.980380	63785.286631	4565.735495	36342.887250
59.538000	-0.014599	-0.024347	-0.009664	-0.151351	9094.727206	60720.082249	4399.431855	33166.963503
60.036500	-0.016325	-0.016475	-0.011868	-0.114263	8557.772257	56954.936091	4259.566103	30681.883592
60.535000	-0.019545	-0.012490	-0.009790	-0.092536	8237.149793	54789.139709	4194.226162	29321.674512
61.035000	-0.019919	-0.010803	-0.015652	-0.071833	7980.267494	52563.949676	4110.463477	28087.409350
61.536000	-0.017356	-0.007500	-0.012184	-0.047852	7731.666941	50252.276037	4049.196761	26729.297311
62.036500	-0.018729	-0.005379	-0.007657	-0.021296	7425.394668	47658.840042	3986.548968	25310.361967
62.537000	-0.021674	-0.005757	-0.009831	-0.006669	7242.553899	46137.178079	3940.861076	24565.101358
63.036500	-0.021313	-0.004879	-0.013472	0.005330	7125.461105	45042.718379	3899.887829	23972.181292
63.540000	-0.024299	-0.005098	-0.015645	0.016640	6985.854905	43937.425954	3865.732404	23428.139749
64.037500	-0.013050	-0.002008	-0.012758	0.004863	7213.000727	45368.330856	3902.931223	23994.962676
64.576000	-0.013730	-0.002508	-0.009432	0.001548	7239.770276	45644.763671	3920.196909	24157.305027
65.035000	-0.012964	-0.002184	-0.015848	0.003860	7224.040651	45449.282457	3897.559925	24043.923952
65.538000	-0.017590	-0.003351	-0.020013	0.003327	7182.672387	45387.163444	3888.272699	24070.030807
66.038500	-0.012595	-0.002839	-0.013939	-0.002932	7297.352961	46055.497512	3920.122684	24378.659405
66.551500	-0.011743	-0.002412	-0.011965	-0.004210	7319.398914	46225.561233	3928.675173	24442.264290
67.036500	-0.012638	-0.002552	-0.014658	-0.005186	7320.230804	46309.123772	3924.152272	24490.905956
67.536500	-0.014722	-0.002527	-0.008982	-0.000299	7248.487113	45825.323494	3926.229079	24248.294085
68.040000	-0.011862	-0.002714	-0.009315	-0.004645	7322.672322	46238.774896	3936.843434	24463.907453
68.537500	-0.011540	-0.002332	-0.006417	-0.006060	7340.745588	46418.775036	3948.368328	24534.613802
69.035000	-0.009854	-0.001499	-0.013194	-0.004932	7346.554985	46389.152478	3927.336389	24478.228869
69.535500	-0.012682	-0.002476	-0.009792	-0.000819	7274.703237	45881.866082	3925.465890	24273.975569
70.035500	-0.011167	-0.002087	-0.012977	-0.003317	7316.107224	46168.897539	3923.658271	24397.821246
70.536000	-0.011141	-0.002705	-0.012936	-0.004901	7332.820967	46265.228095	3927.935721	24476.679025
71.036000	-0.011555	-0.002159	-0.012669	-0.004745	7326.903366	46304.390626	3928.231144	24468.935879
71.539000	-0.013737	-0.002409	-0.013194	0.001197	7243.266863	45689.098584	3911.294154	24174.547844
72.036500	-0.011841	-0.002581	-0.016273	-0.003729	7313.399097	46160.632355	3916.105644	24418.308621
72.539500	-0.011785	-0.001947	-0.009828	-0.003795	7314.661977	46230.572243	3933.230160	24421.588701
73.037500	-0.007643	-0.001302	-0.007956	-0.002886	7348.284478	46204.192562	3935.782411	24376.380191
73.543500	-0.010858	-0.002665	-0.015785	0.002196	7262.480772	45565.525711	3902.003108	24125.454002
74.035500	-0.006690	-0.000154	-0.013223	0.000070	7327.416868	46024.019349	3914.150693	24230.074125
74.535500	-0.006987	-0.000716	-0.009636	-0.001068	7336.167945	46081.319889	3926.532696	24286.291724
75.035500	-0.005995	0.000306	-0.010186	-0.000009	7335.467283	46077.599983	3922.301379	24233.966620
75.535000	-0.005962	0.000250	-0.008108	0.000215	7333.479680	46049.810434	3927.177179	24222.931632
76.036500	-0.006100	0.000441	-0.009966	0.001251	7321.283006	45965.816331	3919.575269	24171.904086
76.536500	-0.005016	0.000217	-0.008938	0.000552	7339.826838	46013.036550	3924.105158	24206.327214
77.039500	-0.004315	-0.000023	-0.012584	0.000288	7349.898801	46015.449165	3915.250257	24219.345718
77.537000	-0.009787	0.000296	-0.013278	0.004530	7249.568367	45627.295339	3902.449771	24011.217794
78.037000	-0.005471	0.000875	-0.007705	0.001773	7322.394548	45957.097445	3924.136108	24146.221006
78.535000	-0.004999	0.000515	-0.007964	0.001077	7334.540480	45990.485906	3925.286247	24180.477251
79.035000	-0.004376	-0.000089	-0.010861	0.000997	7341.860638	45938.460471	3917.897253	24184.408936
79.535500	-0.003922	0.001290	-0.011639	0.001673	7339.537255	46008.199070	3914.101032	24151.141626
80.036000	-0.004603	0.000628	-0.007096	0.002229	7326.671097	45887.391604	3924.539272	24123.858859
80.536000	-0.004067	0.001540	-0.009671	0.002252	7332.011706	45975.551442	3917.729109	24122.730292
81.036500	-0.005752	0.001346	-0.007970	0.001766	7319.556230	46004.545778	3923.458488	24146.591179
81.539000	-0.009940	0.000147	-0.014754	0.006957	7223.297893	45374.214993	3892.428362	23893.033718
82.037000	-0.005393	0.000181	-0.008839	0.002091	7319.909106	45856.787374	3920.327493	24130.632293
82.537000	-0.005088	0.000611	-0.011404	0.001913	7324.909340	45916.990688	3914.087880	24139.343073
83.037500	-0.004052	0.000851	-0.007374	0.002413	7330.487752	45891.258654	3923.324239	24114.808952
83.538000	-0.005419	0.000708	-0.011099	0.007030	7268.678865	45421.990299	3901.619706	23889.478515
84.035000	-0.003323	0.001464	-0.009537	0.003364	7328.181019	45857.783328	3915.174000	24068.219291
84.538000	-0.004955	0.001356	-0.010748	0.002955	7315.486753	45887.607432	3913.085316	24088.254708
85.035500	-0.003840	0.000772	-0.003172	0.002932	7327.292013	45832.039284	3933.040068	24089.361066
85.539000	-0.004677	0.001073	-0.011687	0.006708	7279.607570	45489.481116	3900.934873	23905.125197
86.039000	-0.005692	0.001074	-0.006149	0.004092	7296.101149	45747.201699	3922.134061	24032.606417
86.539000	-0.002576	0.001348	-0.003785	0.004575	7323.355740	45726.524274	3927.078458	24008.988759
87.034000	-0.004188	0.000168	-0.010323	0.003455	7318.256788	45720.633454	3912.888769	24063.752139
87.543000	-0.005784	0.001492	-0.007000	0.009912	7235.509044	45216.857856	3904.760547	23750.043377
88.037500	-0.005187	0.001861	-0.003488	0.005290	7288.962368	45706.590611	3925.977689	23974.129949
88.535000	-0.004969	0.001282	-0.005146	0.004769	7296.580312	45700.819414	3922.988311	23999.529971
89.035500	-0.004638	0.001364	-0.005863	0.004971	7297.915625	45689.095416	3920.580088	23989.708581
89.538500	-0.009183	0.000581	-0.007375	0.010319	7196.930085	45088.506007	3902.743094	23730.442808
90.035500	-0.006162	0.001308	-0.005641	0.005296	7278.863034	45651.439909	3920.307060	23973.834373
90.539000	-0.005738	0.000513	-0.004346	0.005360	7282.563430	45566.823444	3923.537379	23970.700515
91.036500	-0.005598	0.000419	-0.002183	0.005314	7284.487692	45562.218986	3929.356253	23972.986222
91.536000	-0.009166	0.000612	-0.004632	0.010680	7193.464823	45056.451882	3908.903437	23713.071846
92.037000	-0.006051	0.001452	-0.009482	0.006394	7268.727977	45557.551136	3907.441506	23920.387866
92.537500	-0.007818	0.001535	0.000001	0.007081	7243.631448	45498.206813	3930.457917	23887.031456
93.037500	-0.007171	0.000707	-0.008838	0.006978	7251.288127	45427.053001	3907.597256	23892.035342
93.536000	-0.009114	0.000908	-0.011278	0.012809	7172.569791	44878.721021	3886.373952	23610.833328
94.038000	-0.005093	0.000932	-0.006589	0.007869	7263.423239	45361.753587	3911.120003	23848.787640
94.535000	-0.006627	0.000595	-0.006402	0.007767	7248.787071	45338.791227	3911.873122	23853.760717
95.039500	-0.007440	0.000740	-0.002884	0.008115	7236.941099	45319.004965	3920.144769	23836.900346
95.541500	-0.007900	0.000602	-0.007279	0.014132	7171.475690	44721.285974	3893.195098	23547.536620
96.043500	-0.006045	0.001175	-0.000531	0.009313	7238.947230	45244.402262	3923.175993	23778.967043
96.542000	-0.007848	0.000995	-0.004086	0.009315	7220.602662	45226.686204	3913.871056	23778.889675
97.037000	-0.005451	0.001395	-0.006387	0.010174	7236.232779	45181.908338	3905.670261	23737.436404
97.543000	-0.010719	0.000703	-0.008041	0.014998	7134.659575	44647.595600	3889.039280	23506.227824
98.059500	-0.008062	0.000348	-0.004663	0.010344	7208.002272	45063.362845	3909.693377	23729.228393
98.541000	-0.007504	0.001044	-0.006307	0.010818	7208.859854	45085.011066	3904.210499	23706.414313
99.043500	-0.005662	0.001079	-0.001643	0.011042	7225.257334	45066.651314	3915.738251	23695.629808
99.546000	-0.007937	0.001011	-0.008036	0.015388	7158.520399	44639.650780	3888.059025	23487.627287
100.041500	-0.006680	0.000377	-0.005201	0.011155	7213.783209	44987.472371	3906.200462	23690.214361
100.537500	-0.005012	0.000440	-0.004664	0.011678	7225.393009	44942.875120	3906.234046	23665.059139
101.077500	-0.008440	0.000474	-0.004983	0.011872	7188.763658	44927.361874	3904.909017	23655.763829
101.628500	-0.007642	0.000804	-0.006639	0.013771	7177.691076	44775.562450	3895.757264	23564.780339
102.052000	-0.007856	0.000659	-0.007444	0.013114	7182.147867	44825.092451	3895.379198	23596.225065
102.556500	-0.008077	0.000886	-0.006722	0.013118	7179.888220	44846.712399	3897.221071	23596.044099
103.041000	-0.008255	0.001271	-0.007838	0.013618	7173.074301	44835.545120	3893.079989	23572.106057
103.606500	-0.008578	0.000893	-0.004491	0.015850	7147.505970	44583.946089	3895.934721	23465.660342
104.036000	-0.007548	0.001583	-0.002811	0.014586	7170.449823	44772.162559	3903.509209	23525.863075
104.539000	-0.008013	0.000264	-0.002298	0.014050	7171.154832	44696.575621	3906.217676	23551.438587
105.036000	-0.008701	0.001126	-0.005141	0.015215	7152.617719	44667.521464	3895.897987	23495.910230
105.542000	-0.011797	0.000382	-0.004238	0.018728	7087.091588	44259.565042	3889.226962	23329.218942
106.034000	-0.006710	0.001180	-0.002821	0.016013	7164.543734	44595.883370	3899.804428	23457.902723
106.534000	-0.007968	0.000679	-0.003397	0.016355	7148.550119	44514.988550	3897.448724	23441.676062
107.037500	-0.006578	0.002243	-0.000826	0.017540	7150.594097	44551.218534	3901.009254	23385.413224
107.540500	-0.009810	0.000242	-0.002302	0.020183	7092.337530	44107.717827	3890.452824	23260.584905
108.046000	-0.005955	0.001360	-0.003213	0.017698	7155.239678	44451.428889	3894.475355	23377.951304
108.535000	-0.007156	0.000258	-0.004263	0.016983	7150.386137	44414.401201	3893.617713	23411.857976
109.036000	-0.007984	0.000712	-0.000334	0.017530	7136.679590	44405.515339	3902.305141	23385.918431
109.536000	-0.009652	0.001502	-0.003772	0.022335	7072.729193	44023.054724	3881.249688	23159.477146
110.036000	-0.009675	0.000822	-0.002016	0.018654	7108.756552	44308.601020	3895.092106	23332.715664
110.542000	-0.009049	0.000682	-0.000806	0.018477	7116.699257	44312.092226	3898.651071	23341.091977
111.034000	-0.008050	0.001254	-0.002025	0.019224	7119.201993	44295.409385	3893.610948	23305.808485
111.537000	-0.012265	0.000675	-0.009091	0.022630	7044.314195	43916.834351	3867.139785	23145.667734
112.090000	-0.009985	0.001377	0.002480	0.019766	7094.720895	44255.497269	3903.796215	23280.239740
112.583500	-0.009808	0.000987	-0.007482	0.019989	7094.253739	44196.960429	3877.803733	23269.692988
113.063500	-0.008099	0.001760	0.002540	0.020690	7104.211370	44203.910174	3901.567342	23236.731419
113.539000	-0.012258	0.000329	-0.004164	0.025011	7021.255715	43659.771927	3873.516747	23034.473550
114.036500	-0.009162	0.001144	-0.003160	0.021367	7087.049344	44080.888581	3885.254627	23204.882440
114.541000	-0.009804	0.001296	-0.004745	0.021471	7079.722663	44085.502268	3880.973132	23199.993049
115.040500	-0.009502	0.001089	-0.004006	0.021613	7081.294544	44052.435160	3882.485241	23193.346882
115.547500	-0.012742	0.000643	-0.005250	0.027612	6991.475858	43445.418629	3864.292869	22913.691648
116.034500	-0.009256	0.001115	-0.001017	0.022626	7073.766672	43958.799386	3887.502142	23145.847287
116.543000	-0.008248	0.000165	-0.007912	0.022132	7088.522605	43915.704307	3871.335418	23169.010903
117.035500	-0.008535	0.001932	0.002065	0.023745	7069.870519	43930.313445	3892.508147	23093.531899
117.540500	-0.013185	0.000638	-0.006633	0.029039	6973.527397	43311.786217	3857.314562	22847.711626
118.035500	-0.009788	0.001913	0.003047	0.024323	7051.960103	43873.860397	3893.540854	23066.522566
118.535500	-0.009799	0.001608	-0.000436	0.024383	7051.265124	43839.410394	3884.514641	23063.733249
119.036500	-0.010689	0.000995	-0.005006	0.024119	7045.161846	43806.433338	3873.640789	23076.027171
119.536000	-0.016202	0.000769	-0.005644	0.029887	6936.678870	43245.048683	3857.665120	22808.638723
120.037000	-0.010827	0.001190	-0.001841	0.024897	7036.248018	43751.447176	3879.654247	23039.758295
120.543500	-0.010723	0.001624	-0.004201	0.025638	7030.054076	43722.556643	3871.847975	23005.256476
121.037500	-0.010429	0.000989	0.001153	0.025643	7032.869616	43662.389456	3885.350576	23005.057523
121.561000	-0.014513	0.000838	-0.005657	0.030995	6942.196955	43148.550456	3854.894460	22757.687706
122.038000	-0.009045	0.001798	-0.000807	0.026760	7035.462671	43633.442123	3877.561879	22953.157729
122.536000	-0.011224	0.001245	-0.003680	0.026852	7013.444881	43573.009212	3870.113688	22948.911793
123.035500	-0.010449	0.000841	-0.006592	0.026848	7020.975619	43535.389356	3862.854004	22949.064539
123.536000	-0.010401	0.001565	-0.004028	0.027162	7018.402822	43573.820650	3868.464298	22934.504584
124.036500	-0.009451	0.001953	-0.001618	0.028134	7018.193775	43519.217145	3872.069309	22889.537385
124.536500	-0.009060	0.001414	-0.002129	0.027935	7023.913544	43487.323459	3871.285085	22898.730176
125.037000	-0.010664	0.002206	-0.001161	0.028679	7001.208977	43491.844420	3871.846838	22864.334933
125.542500	-0.009821	0.002034	-0.005080	0.029053	7005.734742	43440.799412	3861.132110	22847.089228
126.035000	-0.011266	0.001368	-0.001394	0.028626	6995.924446	43418.390218	3871.395821	22866.791287
126.543500	-0.012611	0.000751	-0.005746	0.028397	6985.193672	43382.198064	3861.107547	22877.361380
127.035500	-0.008564	0.002366	-0.003932	0.029844	7010.236197	43397.838404	3862.018981	22810.590596
127.540500	-0.013213	0.000242	-0.004008	0.035234	6914.359047	42702.315378	3848.518256	22563.882343
128.035500	-0.010117	0.000731	-0.005273	0.029435	6999.195484	43283.545768	3859.703919	22829.450881
128.536000	-0.011669	0.000639	-0.002070	0.029368	6984.913921	43281.261731	3867.847460	22832.564766
129.036000	-0.008844	0.002283	-0.005221	0.030950	6996.876053	43287.080461	3856.082830	22759.759208
129.542500	-0.013364	0.001081	0.001032	0.036866	6897.554491	42629.649506	3856.916132	22489.777753
130.037500	-0.010250	0.000723	-0.001719	0.030194	6990.612494	43212.222379	3866.659022	22794.495356
130.537000	-0.011626	0.001693	-0.003792	0.030698	6972.570405	43255.556724	3860.247426	22771.327829
131.040500	-0.011258	0.000580	-0.003430	0.030852	6974.613791	43137.814851	3860.760654	22764.221066
131.534500	-0.015213	0.000931	-0.008333	0.037274	6876.395816	42578.596294	3833.009992	22471.318474
132.035500	-0.011386	0.001318	-0.003008	0.031630	6965.944534	43134.068834	3859.876796	22728.504352
132.536000	-0.012554	0.000616	-0.004751	0.031172	6959.166732	43111.445075	3856.694711	22749.529240
133.036000	-0.011734	0.000844	-0.000056	0.032063	6958.495617	43050.095202	3866.146465	22708.663052
133.536000	-0.014215	0.001249	-0.003600	0.038005	6878.894204	42540.813583	3842.734774	22438.254210
134.036500	-0.011033	0.000746	-0.002984	0.031906	6966.682943	43055.560958	3859.252677	22715.857105
134.542000	-0.011182	0.001204	-0.005535	0.032344	6961.082594	43057.388638	3851.867746	22695.788540
135.037500	-0.011081	0.000570	-0.003681	0.032283	6962.627004	43004.376423	3856.595387	22698.602794
135.540000	-0.013667	0.001261	-0.006293	0.035804	6904.703054	42743.624671	3841.532426	22537.989480
136.040500	-0.011626	0.002002	-0.004756	0.033211	6948.581861	43051.054333	3851.651438	22656.141974
136.547500	-0.010943	0.002311	-0.000978	0.033939	6948.158233	43012.297109	3859.188056	22622.901495
137.035000	-0.011033	0.001628	-0.002481	0.033837	6948.261002	42958.569697	3855.717984	22627.528556
137.535500	-0.013088	0.001265	-0.003692	0.035946	6908.812454	42730.843268	3847.545213	22531.507857
138.036000	-0.011616	0.001462	-0.003576	0.033812	6942.956560	42945.557817	3853.078803	22628.683863
138.536500	-0.011770	0.001423	-0.002615	0.034320	6936.671360	42895.068887	3854.195805	22605.519168
139.037000	-0.011187	0.001143	0.000992	0.034337	6942.040824	42867.702992	3863.089471	22604.722388
139.536500	-0.011582	0.001430	-0.003939	0.039348	6890.986774	42434.807957	3838.636364	22377.633592
140.040500	-0.012314	0.001447	-0.000646	0.035103	6924.086533	42825.138263	3857.124091	22569.826453
140.534500	-0.011074	0.001662	-0.003085	0.035903	6928.258385	42771.330852	3849.142531	22533.485355
141.035000	-0.009399	0.001394	-0.002436	0.035741	6945.700063	42761.606160	3851.135041	22540.846748
141.535000	-0.013536	0.001884	-0.006519	0.042163	6846.462841	42220.120727	3825.597037	22251.178182
142.035500	-0.011344	0.000839	0.001077	0.036306	6921.893786	42658.812886	3858.415020	22515.204667
142.536000	-0.010269	0.001589	0.001071	0.036702	6928.308683	42691.201950	3857.416432	22497.199606
143.036000	-0.010052	0.001953	0.001990	0.037295	6924.751423	42670.245854	3858.225531	22470.342026
143.536000	-0.011713	0.001460	-0.002819	0.040742	6876.691921	42310.618600	3837.968746	22314.892385
144.037500	-0.011425	0.002313	0.001182	0.038115	6904.052197	42628.084437	3854.199179	22433.247109
144.537000	-0.009268	0.001427	-0.006480	0.037637	6928.934886	42590.709632	3836.618085	22454.854084
145.037500	-0.006912	0.001980	-0.002483	0.038328	6944.744306	42578.166744	3844.674318	22423.647659
145.535000	-0.010113	0.001622	-0.001352	0.040554	6893.454775	42342.429174	3841.999677	22323.374640
146.035500	-0.009221	0.002133	-0.004149	0.038830	6918.095561	42546.180772	3839.384613	22400.967077
146.535500	-0.010362	0.002054	0.004509	0.039101	6904.776129	42514.273921	3859.992576	22388.764899
147.035000	-0.006764	0.003547	0.003524	0.040417	6926.329628	42530.439998	3854.298726	22329.516076
147.538500	-0.011932	0.001786	-0.002841	0.043603	6847.984819	42080.992310	3830.986892	22186.820500
148.115500	-0.010130	0.001431	-0.003568	0.038998	6907.931798	42466.752547	3840.388003	22393.384474
148.536500	-0.008117	0.002238	-0.002716	0.040004	6917.440850	42448.642535	3840.016410	22348.096043
149.039500	-0.005826	0.002960	0.001091	0.040657	6932.939985	42454.872597	3847.723049	22318.734970
149.537500	-0.007100	0.002580	-0.000495	0.040388	6923.417247	42444.761935	3844.496414	22330.816344
150.037500	-0.007317	0.002556	-0.003963	0.040487	6920.430456	42433.602620	3835.811378	22326.372143
150.535500	-0.007587	0.003151	-0.004396	0.041110	6911.996187	42431.009242	3833.252672	22298.389937
151.034500	-0.006939	0.003205	-0.001055	0.041522	6914.231425	42398.452141	3840.363818	22279.920554
151.536000	-0.005801	0.003335	0.000035	0.041835	6922.027140	42381.745808	3842.258434	22265.888635
152.035500	-0.007300	0.003486	-0.000981	0.041785	6908.343864	42400.035411	3839.902575	22268.126301
152.536000	-0.006045	0.003411	-0.000792	0.042020	6917.969619	42371.814591	3839.791908	22257.585598
153.036500	-0.004651	0.003533	-0.005466	0.042060	6930.777179	42379.268593	3828.377543	22255.798239
153.539500	-0.007518	0.004244	0.001088	0.046519	6861.924475	42039.610287	3833.435465	22057.154192
154.034500	-0.005185	0.003958	-0.001921	0.042687	6919.789975	42360.943467	3835.429112	22227.746881
154.537500	-0.003332	0.003959	0.003523	0.042453	6939.569808	42382.284215	3849.283701	22238.209399
155.035000	-0.004582	0.005214	-0.000324	0.043365	6919.088869	42413.546494	3837.658519	22197.461883
155.535000	-0.004279	0.004208	-0.004604	0.046592	6891.537481	42029.777563	3819.574783	22053.895619
156.059500	-0.002585	0.004260	-0.002982	0.042544	6945.792902	42401.327596	3833.203079	22234.110794
156.538500	-0.003088	0.004708	-0.006000	0.043424	6932.666805	42362.099512	3823.816015	22194.804889
157.035500	-0.002345	0.005358	-0.006000	0.043110	6942.702897	42449.892495	3824.568394	22208.833081
157.535500	-0.006915	0.004086	-0.006946	0.048369	6850.315564	41858.842015	3809.786809	21975.326100
158.039500	-0.001358	0.004011	-0.001608	0.042516	6957.758838	42381.326018	3836.603212	22235.395420
158.537000	-0.002978	0.004356	-0.006123	0.042791	6939.716255	42387.647743	3825.038571	22223.090065
159.037500	-0.000592	0.004853	-0.007139	0.042912	6961.293123	42421.875418	3822.313063	22217.673479
159.537500	-0.004715	0.004310	-0.002824	0.046482	6888.476232	42048.847292	3824.098441	22058.763747
160.034500	-0.001243	0.005650	-0.000731	0.043221	6952.132698	42466.380144	3837.018236	22203.865297
160.535500	-0.001649	0.005198	-0.002226	0.042571	6954.463443	42484.478821	3834.969522	22232.931604
161.035500	-0.002477	0.005958	0.002593	0.043201	6940.578581	42496.284265	3845.168698	22204.748253
161.536000	-0.002101	0.005358	-0.003574	0.045439	6922.934427	42238.100953	3824.802811	22105.073176
162.036500	-0.000359	0.005210	-0.000001	0.042398	6968.435461	42501.342187	3840.798758	22240.683083
162.538500	-0.000255	0.004989	-0.000560	0.042087	6972.407555	42509.609239	3840.193643	22254.602560
163.036500	0.000813	0.005930	-0.000862	0.043154	6972.409778	42498.034253	3836.862038	22206.852123
163.537000	-0.004886	0.004841	-0.000840	0.046065	6890.783162	42134.567305	3829.874332	22077.275274
164.034500	0.003462	0.005834	-0.000225	0.042301	7006.080107	42567.228403	3840.486810	22245.015835
164.537000	0.000839	0.005226	-0.000250	0.042023	6983.499950	42537.018933	3841.102375	22257.442744
165.035500	0.002130	0.005496	-0.003607	0.042224	6993.980520	42543.345821	3832.466932	22248.443825
165.535500	-0.001126	0.005387	-0.003602	0.043490	6950.684783	42417.912291	3829.424140	22191.872359
166.035500	0.001638	0.006043	-0.000114	0.042462	6986.962247	42571.618022	3840.364713	22237.799793
166.536000	0.001048	0.005651	-0.001103	0.041958	6986.127491	42581.843455	3839.184985	22260.345372
167.036500	0.000943	0.006010	-0.001008	0.041839	6986.259214	42625.540132	3839.704531	22265.671482
167.536500	0.000311	0.005578	-0.002574	0.042138	6977.332836	42558.755045	3835.175536	22252.298508
168.037000	0.000088	0.006555	-0.000090	0.041820	6978.247733	42677.299091	3841.988402	22266.538553
168.536500	0.001767	0.006176	0.001796	0.042124	6991.447645	42614.752212	3845.856456	22252.933027
169.037500	0.001088	0.005925	-0.001472	0.041980	6986.306992	42604.946954	3838.234785	22259.399039
169.535000	-0.000799	0.006183	-0.003482	0.046601	6924.251558	42207.494379	3822.237185	22053.495667
170.035500	0.002638	0.006668	-0.003206	0.041692	7004.006434	42699.473890	3834.724587	22272.298274
170.538500	0.002227	0.005523	-0.000490	0.040968	7007.020102	42660.790073	3843.093457	22304.761647
171.036000	0.001582	0.006409	-0.000728	0.041907	6991.762031	42655.971728	3840.223474	22262.668503
171.538500	0.001452	0.005790	-0.001023	0.043647	6973.806901	42440.321119	3835.277562	22184.850908
172.044000	0.001604	0.006708	0.002691	0.041987	6991.205050	42676.081284	3848.387070	22259.085781
172.536000	0.002540	0.007049	-0.000748	0.041636	7003.602520	42739.617965	3840.834976	22274.812682
173.037000	0.001505	0.006217	-0.002770	0.041343	6996.447287	42690.092487	3836.627621	22287.937463
173.587500	0.000975	0.005756	0.005387	0.042755	6977.786949	42518.634682	3853.127415	22224.701636
174.037500	0.002457	0.007026	-0.001385	0.042165	6997.693961	42688.828190	3837.995410	22251.072057
174.535000	0.003642	0.006700	-0.001391	0.041606	7014.535276	42710.258093	3839.341785	22276.157707
175.035500	0.002423	0.006654	-0.001372	0.041687	7001.967792	42698.589649	3839.188066	22272.493377
175.538500	0.000038	0.006388	-0.002670	0.043509	6961.602075	42507.440632	3831.625610	22190.999332
176.039000	0.001566	0.006046	-0.000738	0.041050	6999.855235	42701.206630	3842.284806	22301.061641
176.535500	0.002671	0.006376	-0.000159	0.041263	7008.457987	42711.920391	3843.180163	22291.499579
177.036500	0.002394	0.006537	-0.003975	0.041131	7007.052416	42738.866495	3834.219174	22297.427091
177.537000	0.000750	0.006639	-0.003232	0.042318	6979.821194	42639.366946	3833.147410	22244.254944
178.037500	0.003325	0.007176	-0.000909	0.041308	7014.339273	42781.282467	3841.239569	22289.479577
178.537500	0.002102	0.006132	-0.000371	0.040810	7007.337552	42731.144296	3843.766946	22311.836882
179.035000	0.001420	0.006410	0.001500	0.041328	6995.762584	42709.082730	3847.079770	22288.590901
179.535500	0.001601	0.007002	-0.003566	0.043015	6981.302114	42608.762918	3830.655717	22213.087806
180.035500	0.002037	0.007029	-0.004080	0.041491	7000.149561	42751.079479	3833.095717	22281.308686
180.538500	0.003297	0.006701	-0.002656	0.041343	7013.740887	42734.510604	3836.905313	22287.931987
181.035000	0.004731	0.006588	0.000240	0.041162	7029.380342	42740.732958	3844.401290	22296.055112
181.537000	0.000351	0.005842	0.001871	0.041434	6984.475767	42647.300487	3847.731019	22283.850650
182.036500	0.001153	0.006320	0.004150	0.040628	6999.949160	42765.207449	3855.323462	22320.045855
182.536500	0.004459	0.006983	-0.000681	0.041667	7021.840020	42730.619274	3840.919943	22273.382917
183.034000	0.002537	0.007435	-0.002374	0.041148	7008.267863	42819.897912	3838.063559	22296.661235
183.534500	0.001898	0.006664	-0.000356	0.044941	6965.697887	42402.003406	3833.758843	22127.202680
184.035000	0.002380	0.005635	0.000636	0.040634	7011.723688	42701.716820	3846.663231	22319.739906
184.535500	0.004049	0.007405	-0.000863	0.041582	7018.699964	42777.147312	3840.684184	22277.195760
185.038500	0.001408	0.006184	-0.002105	0.040632	7002.355697	42752.277254	3839.971998	22319.833940
185.536000	0.000695	0.005686	-0.005554	0.043513	6967.846512	42443.085665	3824.673054	22190.848596
186.112500	0.004005	0.006810	0.001318	0.041058	7023.351819	42770.760785	3847.296973	22300.736920
186.540000	0.002895	0.006322	-0.003131	0.040714	7015.929336	42757.405856	3837.278422	22316.149540
187.037000	0.003120	0.007403	0.003664	0.041993	7005.746402	42739.299158	3850.761641	22258.814027
187.536500	0.000778	0.005864	0.000582	0.044057	6963.434733	42409.703797	3838.176171	22166.559031
188.037000	0.003105	0.006411	-0.001207	0.040708	7018.020499	42766.166600	3841.977213	22316.443337
188.538000	0.003148	0.006459	0.000203	0.040992	7015.686691	42744.515010	3844.726613	22303.684550
189.035000	0.001269	0.006013	-0.000254	0.040343	7003.803810	42763.129554	3845.196051	22332.837253
