sample name	sample
index	1036
start time	 04-19-2021  01:55:00 PM


Wavelength (nm)	Absorbance
494.344910	0.497392
494.563924	0.497392
494.782919	0.497392
495.001897	0.254562
495.220856	0.136250
495.439797	0.186525
495.658719	0.063345
495.877624	0.008925
496.096510	0.074619
496.315378	-0.020442
496.534227	-0.013176
496.753059	-0.027348
496.971872	0.060167
497.190667	0.030302
497.409444	0.019970
497.628203	0.020846
497.846943	0.022571
498.065665	0.022190
498.284369	0.024493
498.503055	0.024473
498.721723	0.024343
498.940372	0.023223
499.159003	0.022846
499.377616	0.023892
499.596210	0.024346
499.814787	0.024100
500.033345	0.021841
500.251885	0.020798
500.470406	0.021143
500.688910	0.020893
500.907395	0.021262
501.125862	0.020524
501.344311	0.019818
501.562742	0.019070
501.781154	0.018407
501.999548	0.020613
502.217924	0.020243
502.436282	0.018673
502.654621	0.018516
502.872942	0.018011
503.091245	0.018342
503.309530	0.018185
503.527797	0.018071
503.746045	0.018341
503.964275	0.017239
504.182487	0.017742
504.400681	0.017900
504.618856	0.018050
504.837013	0.018091
505.055152	0.018196
505.273273	0.017570
505.491376	0.017825
505.709460	0.017316
505.927526	0.017740
506.145574	0.017565
506.363604	0.018145
506.581615	0.018401
506.799608	0.018155
507.017583	0.017003
507.235540	0.017203
507.453478	0.018683
507.671399	0.019068
507.889301	0.017977
508.107185	0.018176
508.325050	0.018010
508.542898	0.016996
508.760727	0.017245
508.978538	0.017654
509.196330	0.017205
509.414105	0.015696
509.631861	0.015127
509.849599	0.016032
510.067319	0.015424
510.285021	0.014909
510.502704	0.015207
510.720369	0.015019
510.938016	0.014955
511.155645	0.015537
511.373255	0.015375
511.590848	0.015825
511.808422	0.015465
512.025977	0.015513
512.243515	0.015922
512.461034	0.016372
512.678536	0.016037
512.896018	0.015447
513.113483	0.015410
513.330930	0.015683
513.548358	0.015447
513.765768	0.015994
513.983160	0.015611
514.200533	0.015542
514.417889	0.014963
514.635226	0.014712
514.852545	0.015029
515.069845	0.014716
515.287128	0.014231
515.504392	0.014239
515.721638	0.014014
515.938866	0.013880
516.156075	0.013158
516.373267	0.013490
516.590440	0.013809
516.807594	0.014467
517.024731	0.015597
517.241850	0.015495
517.458950	0.015422
517.676032	0.015051
517.893095	0.015465
518.110141	0.016017
518.327168	0.014888
518.544177	0.014839
518.761168	0.013988
518.978141	0.012837
519.195095	0.013078
519.412031	0.013306
519.628949	0.012958
519.845849	0.013387
520.062731	0.013356
520.279594	0.013665
520.496439	0.013785
520.713266	0.013645
520.930074	0.013562
521.146865	0.013147
521.363637	0.013353
521.580391	0.013417
521.797127	0.012781
522.013844	0.011919
522.230543	0.012312
522.447224	0.013070
522.663887	0.013034
522.880532	0.012739
523.097158	0.013247
523.313766	0.012401
523.530356	0.012479
523.746928	0.012810
523.963481	0.013222
524.180017	0.012798
524.396534	0.011400
524.613032	0.011775
524.829513	0.012120
525.045975	0.011464
525.262420	0.010999
525.478845	0.011217
525.695253	0.010969
525.911643	0.011350
526.128014	0.011123
526.344367	0.012073
526.560702	0.012501
526.777018	0.012510
526.993316	0.012649
527.209597	0.013197
527.425858	0.013288
527.642102	0.013697
527.858328	0.013149
528.074535	0.013683
528.290724	0.013372
528.506894	0.013195
528.723047	0.013234
528.939181	0.013449
529.155297	0.013645
529.371395	0.013510
529.587475	0.013066
529.803536	0.013813
530.019579	0.013598
530.235604	0.013159
530.451611	0.012879
530.667600	0.013338
530.883570	0.013202
531.099522	0.013414
531.315456	0.012975
531.531372	0.013162
531.747269	0.012922
531.963148	0.012750
532.179009	0.012951
532.394852	0.013027
532.610676	0.012458
532.826482	0.012354
533.042271	0.011656
533.258040	0.012050
533.473792	0.012070
533.689525	0.011845
533.905240	0.011887
534.120937	0.011849
534.336616	0.011758
534.552277	0.012257
534.767919	0.012462
534.983543	0.012691
535.199149	0.012510
535.414736	0.012598
535.630306	0.013225
535.845857	0.013580
536.061390	0.013435
536.276904	0.012972
536.492401	0.012685
536.707879	0.012671
536.923339	0.012815
537.138781	0.012776
537.354204	0.012508
537.569610	0.012034
537.784997	0.011768
538.000366	0.011726
538.215716	0.012207
538.431049	0.012223
538.646363	0.012281
538.861659	0.012453
539.076937	0.012506
539.292196	0.012065
539.507438	0.011819
539.722661	0.012431
539.937866	0.012649
540.153052	0.012409
540.368221	0.012221
540.583371	0.011817
540.798503	0.011627
541.013617	0.011684
541.228712	0.012219
541.443789	0.012491
541.658848	0.011839
541.873889	0.011952
542.088912	0.012076
542.303916	0.012249
542.518902	0.012583
542.733870	0.012751
542.948820	0.012360
543.163752	0.012001
543.378665	0.011916
543.593560	0.011677
543.808437	0.011535
544.023295	0.011548
544.238136	0.011378
544.452958	0.011336
544.667762	0.011298
544.882548	0.011540
545.097315	0.011609
545.312064	0.011759
545.526795	0.012091
545.741508	0.012498
545.956203	0.012779
546.170879	0.012885
546.385537	0.012857
546.600177	0.012459
546.814799	0.012422
547.029402	0.012540
547.243988	0.012548
547.458555	0.012794
547.673103	0.012434
547.887634	0.012162
548.102146	0.012194
548.316640	0.012072
548.531116	0.012127
548.745574	0.012023
548.960013	0.011810
549.174435	0.011709
549.388838	0.011417
549.603222	0.011650
549.817589	0.011484
550.031937	0.011310
550.246267	0.011406
550.460579	0.011361
550.674873	0.011897
550.889148	0.012039
551.103405	0.011796
551.317644	0.012047
551.531865	0.011759
551.746068	0.012037
551.960252	0.011934
552.174418	0.011999
552.388566	0.012328
552.602696	0.012008
552.816807	0.012044
553.030900	0.012142
553.244975	0.011743
553.459032	0.012053
553.673070	0.011947
553.887091	0.011724
554.101093	0.011530
554.315077	0.011610
554.529042	0.011775
554.742990	0.011706
554.956919	0.011831
555.170830	0.012180
555.384722	0.011772
555.598597	0.011823
555.812453	0.011821
556.026291	0.011824
556.240111	0.011354
556.453913	0.010864
556.667696	0.010605
556.881461	0.010618
557.095208	0.010236
557.308937	0.010384
557.522647	0.010560
557.736339	0.010569
557.950013	0.010655
558.163669	0.010584
558.377307	0.010797
558.590926	0.010919
558.804527	0.010804
559.018110	0.010599
559.231675	0.010570
559.445221	0.010409
559.658749	0.010811
559.872259	0.010550
560.085751	0.010765
560.299225	0.010487
560.512680	0.010617
560.726117	0.010457
560.939536	0.011012
561.152937	0.010840
561.366319	0.010871
561.579683	0.010850
561.793029	0.010908
562.006357	0.011018
562.219667	0.011020
562.432958	0.010942
562.646231	0.010751
562.859486	0.010380
563.072723	0.010418
563.285941	0.010463
563.499141	0.010258
563.712323	0.010310
563.925487	0.009874
564.138632	0.010171
564.351760	0.010265
564.564869	0.010584
564.777960	0.010850
564.991032	0.010927
565.204087	0.010507
565.417123	0.010387
565.630141	0.010432
565.843140	0.010728
566.056122	0.010608
566.269085	0.010386
566.482030	0.010611
566.694957	0.010488
566.907866	0.010230
567.120756	0.010490
567.333628	0.010526
567.546482	0.010710
567.759318	0.010572
567.972135	0.010547
568.184935	0.010468
568.397716	0.009974
568.610478	0.009899
568.823223	0.010170
569.035949	0.010255
569.248657	0.010174
569.461347	0.009841
569.674019	0.010100
569.886672	0.010220
570.099308	0.010437
570.311925	0.010709
570.524523	0.010935
570.737104	0.011023
570.949666	0.010939
571.162210	0.011117
571.374736	0.011116
571.587244	0.011098
571.799733	0.010969
572.012205	0.011006
572.224658	0.010712
572.437092	0.010174
572.649509	0.009846
572.861907	0.009523
573.074287	0.009416
573.286649	0.009615
573.498993	0.009265
573.711318	0.009320
573.923625	0.009261
574.135914	0.009788
574.348185	0.009955
574.560438	0.009789
574.772672	0.010007
574.984888	0.010074
575.197086	0.009864
575.409266	0.010233
575.621427	0.010413
575.833570	0.010493
576.045695	0.010218
576.257802	0.010336
576.469890	0.010894
576.681961	0.011022
576.894013	0.011042
577.106046	0.011384
577.318062	0.011364
577.530059	0.011325
577.742039	0.011445
577.954000	0.011689
578.165942	0.011783
578.377867	0.011375
578.589773	0.011248
578.801661	0.010981
579.013531	0.010601
579.225382	0.010517
579.437216	0.010144
579.649031	0.009942
579.860828	0.009772
580.072606	0.009578
580.284367	0.009516
580.496109	0.009445
580.707833	0.009751
580.919539	0.009960
581.131227	0.009834
581.342896	0.009975
581.554547	0.009874
581.766180	0.009658
581.977795	0.009995
582.189391	0.010294
582.400969	0.010373
582.612529	0.010146
582.824071	0.009942
583.035595	0.010172
583.247100	0.010441
583.458587	0.010693
583.670056	0.011106
583.881506	0.010796
584.092939	0.010954
584.304353	0.010955
584.515749	0.011213
584.727127	0.011209
584.938486	0.011178
585.149828	0.011130
585.361151	0.010788
585.572456	0.010421
585.783742	0.010679
585.995011	0.010753
586.206261	0.010762
586.417493	0.010991
586.628706	0.011424
586.839902	0.011696
587.051079	0.011438
587.262238	0.011816
587.473379	0.012186
587.684502	0.012360
587.895606	0.012124
588.106692	0.012412
588.317760	0.012277
588.528810	0.012017
588.739841	0.011653
588.950855	0.011915
589.161850	0.011863
589.372827	0.011729
589.583785	0.011468
589.794726	0.011596
590.005648	0.011456
590.216552	0.011100
590.427437	0.010993
590.638305	0.011368
590.849154	0.011155
591.059985	0.011028
591.270798	0.011206
591.481592	0.011445
591.692369	0.011284
591.903127	0.011273
592.113867	0.011634
592.324588	0.011796
592.535292	0.011608
592.745977	0.012125
592.956644	0.012309
593.167293	0.012321
593.377923	0.012080
593.588536	0.012278
593.799130	0.012377
594.009706	0.012349
594.220263	0.012457
594.430803	0.012483
594.641324	0.012269
594.851827	0.012550
595.062312	0.012476
595.272778	0.012796
595.483227	0.012967
595.693657	0.013054
595.904069	0.013037
596.114462	0.012967
596.324838	0.012943
596.535195	0.013057
596.745534	0.012917
596.955855	0.013009
597.166157	0.012814
597.376441	0.012713
597.586707	0.012660
597.796955	0.012674
598.007185	0.012948
598.217396	0.012957
598.427589	0.012957
598.637764	0.012691
598.847921	0.012538
599.058060	0.012624
599.268180	0.012789
599.478282	0.012950
599.688366	0.012875
599.898431	0.012856
600.108479	0.012846
600.318508	0.012873
600.528519	0.013172
600.738511	0.013234
600.948486	0.013054
601.158442	0.012897
601.368380	0.012704
601.578300	0.012858
601.788202	0.012954
601.998085	0.012802
602.207950	0.012585
602.417797	0.012454
602.627626	0.012388
602.837436	0.012617
603.047228	0.012726
603.257002	0.012809
603.466758	0.012719
603.676496	0.012521
603.886215	0.012789
604.095916	0.012770
604.305599	0.012890
604.515264	0.013258
604.724910	0.013343
604.934538	0.013311
605.144148	0.013308
605.353740	0.013519
605.563314	0.013419
605.772869	0.013363
605.982406	0.013668
606.191925	0.013649
606.401425	0.013396
606.610908	0.013148
606.820372	0.013077
607.029818	0.012954
607.239246	0.012723
607.448655	0.012666
607.658047	0.012573
607.867420	0.012099
608.076775	0.011977
608.286111	0.011917
608.495430	0.011980
608.704730	0.011917
608.914012	0.011895
609.123275	0.011887
609.332521	0.011951
609.541748	0.011877
609.750957	0.012188
609.960148	0.012343
610.169321	0.012402
610.378475	0.012666
610.587611	0.012596
610.796729	0.012517
611.005829	0.012510
611.214910	0.012627
611.423974	0.012776
611.633019	0.012716
611.842045	0.012517
612.051054	0.012507
612.260044	0.012175
612.469017	0.012267
612.677970	0.012431
612.886906	0.012438
613.095824	0.012404
613.304723	0.012274
613.513604	0.012503
613.722467	0.012650
613.931311	0.012767
614.140138	0.012963
614.348946	0.012886
614.557736	0.012890
614.766507	0.013152
614.975261	0.013354
615.183996	0.013670
615.392713	0.013472
615.601412	0.013468
615.810092	0.013480
616.018754	0.013363
616.227399	0.013485
616.436024	0.013519
616.644632	0.013329
616.853222	0.013315
617.061793	0.013024
617.270346	0.013068
617.478880	0.013091
617.687397	0.012890
617.895895	0.012845
618.104375	0.012782
618.312837	0.012616
618.521281	0.012711
618.729706	0.012759
618.938113	0.013015
619.146502	0.012890
619.354873	0.012961
619.563226	0.013014
619.771560	0.013203
619.979876	0.013361
620.188174	0.013470
620.396453	0.013461
620.604715	0.013138
620.812958	0.013061
621.021183	0.013561
621.229390	0.013579
621.437578	0.013754
621.645748	0.013687
621.853900	0.013571
622.062034	0.013706
622.270150	0.013886
622.478247	0.013887
622.686326	0.013881
622.894387	0.013535
623.102430	0.013623
623.310454	0.013390
623.518461	0.013365
623.726449	0.013723
623.934418	0.013715
624.142370	0.013619
624.350303	0.013733
624.558218	0.013683
624.766115	0.013653
624.973994	0.013645
625.181855	0.013788
625.389697	0.013889
625.597521	0.013648
625.805327	0.013547
626.013114	0.013616
626.220883	0.013621
626.428634	0.013747
626.636367	0.013837
626.844082	0.013695
627.051778	0.013736
627.259457	0.013834
627.467117	0.013710
627.674758	0.013972
627.882382	0.013850
628.089987	0.014013
628.297574	0.014182
628.505143	0.014356
628.712694	0.014604
628.920226	0.014810
629.127740	0.014765
629.335236	0.014993
629.542714	0.014890
629.750174	0.015068
629.957615	0.015059
630.165038	0.014777
630.372443	0.014731
630.579829	0.014776
630.787198	0.014548
630.994548	0.014646
631.201880	0.014485
631.409194	0.014324
631.616489	0.014377
631.823766	0.014421
632.031025	0.014590
632.238266	0.014546
632.445489	0.014377
632.652693	0.014482
632.859879	0.014286
633.067047	0.014491
633.274197	0.014596
633.481329	0.014357
633.688442	0.014315
633.895537	0.014401
634.102614	0.014328
634.309672	0.014278
634.516713	0.014133
634.723735	0.014374
634.930739	0.014339
635.137724	0.014614
635.344692	0.014859
635.551641	0.014863
635.758572	0.014912
635.965485	0.015118
636.172379	0.015294
636.379256	0.015412
636.586114	0.015354
636.792954	0.015345
636.999775	0.015445
637.206579	0.015423
637.413364	0.015748
637.620131	0.015792
637.826880	0.015698
638.033610	0.015622
638.240323	0.015798
638.447017	0.015792
638.653692	0.015748
638.860350	0.015585
639.066990	0.015556
639.273611	0.015378
639.480214	0.015284
639.686798	0.015368
639.893365	0.015466
640.099913	0.015321
640.306443	0.015340
640.512955	0.015309
640.719449	0.015299
640.925924	0.015473
641.132381	0.015630
641.338820	0.015774
641.545241	0.015628
641.751644	0.015590
641.958028	0.015817
642.164394	0.015841
642.370742	0.016037
642.577071	0.016042
642.783383	0.016009
642.989676	0.015875
643.195951	0.015829
643.402207	0.016030
643.608446	0.015895
643.814666	0.015793
644.020868	0.015867
644.227052	0.015873
644.433218	0.015880
644.639365	0.015800
644.845494	0.015777
645.051605	0.015706
645.257698	0.015750
645.463772	0.015969
645.669828	0.016071
645.875866	0.016171
646.081886	0.016210
646.287888	0.016153
646.493871	0.016232
646.699836	0.016362
646.905783	0.016441
647.111712	0.016352
647.317622	0.016389
647.523514	0.016162
647.729388	0.016227
647.935244	0.016421
648.141082	0.016528
648.346901	0.016687
648.552702	0.016820
648.758485	0.016931
648.964250	0.016995
649.169996	0.017050
649.375724	0.017216
649.581434	0.017057
649.787126	0.017000
649.992800	0.017120
650.198455	0.016988
650.404092	0.016968
650.609711	0.016857
650.815311	0.016806
651.020894	0.016851
651.226458	0.016965
651.432004	0.016961
651.637532	0.016864
651.843041	0.016895
652.048532	0.016863
652.254006	0.016723
652.459460	0.016855
652.664897	0.017059
652.870315	0.016975
653.075716	0.016959
653.281097	0.017112
653.486461	0.017072
653.691807	0.017058
653.897134	0.017134
654.102443	0.017256
654.307734	0.017075
654.513006	0.017102
654.718261	0.017145
654.923497	0.017288
655.128715	0.017287
655.333915	0.017531
655.539096	0.017499
655.744259	0.017528
655.949404	0.017459
656.154531	0.017652
656.359640	0.017567
656.564730	0.017767
656.769802	0.017586
656.974856	0.017560
657.179892	0.017455
657.384909	0.017490
657.589908	0.017541
657.794889	0.017484
657.999852	0.017507
658.204797	0.017385
658.409723	0.017251
658.614631	0.017252
658.819521	0.017389
659.024393	0.017519
659.229246	0.017603
659.434081	0.017609
659.638898	0.017803
659.843697	0.017785
660.048478	0.018027
660.253240	0.017988
660.457984	0.018196
660.662710	0.018127
660.867417	0.018126
661.072107	0.018284
661.276778	0.018329
661.481431	0.018279
661.686066	0.018317
661.890682	0.018247
662.095281	0.018531
662.299861	0.018241
662.504422	0.018347
662.708966	0.018324
662.913491	0.018187
663.117999	0.018101
663.322488	0.018131
663.526958	0.018262
663.731411	0.018405
663.935845	0.018210
664.140261	0.018448
664.344659	0.018358
664.549038	0.018154
664.753400	0.018171
664.957743	0.018308
665.162068	0.018332
665.366375	0.018195
665.570663	0.018263
665.774933	0.018434
665.979185	0.018446
666.183419	0.018573
666.387635	0.018906
666.591832	0.019039
666.796011	0.019101
667.000172	0.019178
667.204315	0.019259
667.408439	0.019212
667.612545	0.019014
667.816634	0.019149
668.020703	0.019163
668.224755	0.019043
668.428788	0.019041
668.632803	0.019062
668.836800	0.018952
669.040779	0.018965
669.244739	0.018935
669.448681	0.019220
669.652605	0.019353
669.856511	0.019359
670.060399	0.019527
670.264268	0.019454
670.468119	0.019364
670.671952	0.019603
670.875767	0.019691
671.079563	0.019692
671.283341	0.019601
671.487101	0.019483
671.690843	0.019506
671.894567	0.019505
672.098272	0.019623
672.301959	0.019798
672.505628	0.019837
672.709278	0.019995
672.912911	0.020165
673.116525	0.020130
673.320121	0.020135
673.523699	0.019961
673.727258	0.019903
673.930799	0.019842
674.134322	0.019869
674.337827	0.019780
674.541314	0.019704
674.744782	0.019667
674.948232	0.019783
675.151664	0.019772
675.355078	0.020005
675.558474	0.020192
675.761851	0.020260
675.965210	0.020161
676.168551	0.020126
676.371873	0.020176
676.575178	0.020118
676.778464	0.020225
676.981732	0.020325
677.184981	0.020355
677.388213	0.020363
677.591426	0.020457
677.794621	0.020498
677.997798	0.020697
678.200956	0.020870
678.404097	0.021049
678.607219	0.021013
678.810323	0.020965
679.013408	0.020904
679.216476	0.020691
679.419525	0.020482
679.622556	0.020417
679.825569	0.020310
680.028563	0.020013
680.231540	0.019808
680.434498	0.019732
680.637438	0.019806
680.840359	0.019964
681.043263	0.020063
681.246148	0.020181
681.449015	0.020281
681.651864	0.020138
681.854694	0.020277
682.057506	0.020443
682.260301	0.020505
682.463076	0.020516
682.665834	0.020490
682.868573	0.020442
683.071295	0.020405
683.273998	0.020413
683.476682	0.020519
683.679349	0.020485
683.881997	0.020469
684.084627	0.020485
684.287239	0.020558
684.489833	0.020615
684.692408	0.020629
684.894965	0.020730
685.097504	0.020651
685.300025	0.020723
685.502527	0.020843
685.705012	0.020847
685.907478	0.020847
686.109925	0.020853
686.312355	0.020924
686.514766	0.021077
686.717159	0.021318
686.919534	0.021475
687.121891	0.021521
687.324230	0.021548
687.526550	0.021512
687.728852	0.021552
687.931136	0.021627
688.133401	0.021630
688.335649	0.021610
688.537878	0.021464
688.740089	0.021627
688.942281	0.021722
689.144456	0.021735
689.346612	0.021790
689.548750	0.021825
689.750870	0.021911
689.952971	0.021922
690.155055	0.021929
690.357120	0.021844
690.559167	0.021747
690.761195	0.021691
690.963206	0.021699
691.165198	0.021822
691.367172	0.021741
691.569128	0.021521
691.771065	0.021502
691.972984	0.021611
692.174885	0.021641
692.376768	0.021637
692.578633	0.021819
692.780479	0.021699
692.982308	0.021778
693.184118	0.021941
693.385909	0.022088
693.587683	0.022076
693.789438	0.022143
693.991175	0.022293
694.192894	0.022291
694.394595	0.022162
694.596277	0.022232
694.797941	0.022163
694.999587	0.022055
695.201215	0.021966
695.402824	0.022008
695.604416	0.021792
695.805989	0.021753
696.007543	0.021818
696.209080	0.021827
696.410598	0.021875
696.612099	0.021776
696.813580	0.021789
697.015044	0.021855
697.216490	0.021759
697.417917	0.021942
697.619326	0.021980
697.820717	0.021923
698.022089	0.021919
698.223444	0.021979
698.424780	0.022179
698.626098	0.022299
698.827397	0.022235
699.028679	0.022316
699.229942	0.022247
699.431187	0.022205
699.632414	0.022201
699.833622	0.022239
700.034813	0.022160
700.235985	0.021989
700.437139	0.021928
700.638274	0.021974
700.839392	0.022054
701.040491	0.022171
701.241572	0.022159
701.442635	0.022429
701.643679	0.022512
701.844706	0.022629
702.045714	0.022739
702.246704	0.022714
702.447675	0.022779
702.648629	0.022832
702.849564	0.022799
703.050481	0.022762
703.251380	0.022541
703.452260	0.022490
703.653122	0.022312
703.853966	0.022465
704.054792	0.022576
704.255600	0.022585
704.456389	0.022458
704.657160	0.022433
704.857913	0.022569
705.058648	0.022659
705.259365	0.022769
705.460063	0.022888
705.660743	0.022815
705.861405	0.022777
706.062048	0.022849
706.262674	0.022911
706.463281	0.022931
706.663870	0.022802
706.864441	0.022734
707.064993	0.022764
707.265527	0.022859
707.466043	0.022872
707.666541	0.022975
707.867021	0.022966
708.067482	0.022929
708.267925	0.022933
708.468350	0.023068
708.668757	0.023060
708.869145	0.023010
709.069516	0.022841
709.269868	0.022913
709.470201	0.022831
709.670517	0.022796
709.870814	0.022772
710.071093	0.022560
710.271354	0.022412
710.471597	0.022595
710.671821	0.022596
710.872028	0.022623
711.072216	0.022447
711.272385	0.022419
711.472537	0.022488
711.672670	0.022554
711.872785	0.022737
712.072882	0.022927
712.272961	0.022779
712.473021	0.022590
712.673063	0.022696
712.873087	0.022716
713.073093	0.022772
713.273081	0.022755
713.473050	0.022698
713.673001	0.022795
713.872934	0.022826
714.072849	0.022893
714.272745	0.023041
714.472623	0.023105
714.672483	0.023213
714.872325	0.023366
715.072148	0.023417
715.271954	0.023556
715.471741	0.023487
715.671509	0.023405
715.871260	0.023355
716.070992	0.023400
716.270707	0.023294
716.470403	0.023287
716.670080	0.023191
716.869740	0.023096
717.069381	0.023027
717.269004	0.023004
717.468609	0.022967
717.668195	0.022816
717.867764	0.022591
718.067314	0.022590
718.266846	0.022317
718.466360	0.022063
718.665855	0.022188
718.865332	0.022195
719.064791	0.022210
719.264232	0.022175
719.463655	0.022424
719.663059	0.022459
719.862445	0.022463
720.061813	0.022725
720.261163	0.023064
720.460494	0.022927
720.659807	0.022887
720.859102	0.022860
721.058379	0.022766
721.257638	0.022572
721.456878	0.022672
721.656100	0.022418
721.855304	0.022112
722.054490	0.021814
722.253657	0.021576
722.452806	0.021222
722.651937	0.021011
722.851050	0.021049
723.050145	0.020781
723.249221	0.020603
723.448279	0.020613
723.647319	0.020559
723.846340	0.020392
724.045344	0.020412
724.244329	0.020275
724.443296	0.020192
724.642245	0.020026
724.841175	0.020153
725.040088	0.020111
725.238982	0.020143
725.437857	0.020133
725.636715	0.020203
725.835554	0.020151
726.034376	0.020398
726.233179	0.020393
726.431963	0.020268
726.630730	0.020307
726.829478	0.020214
727.028208	0.020078
727.226920	0.020035
727.425614	0.020029
727.624289	0.019968
727.822946	0.019905
728.021585	0.020016
728.220206	0.020109
728.418808	0.020004
728.617392	0.020062
728.815958	0.020150
729.014506	0.020335
729.213036	0.020403
729.411547	0.020321
729.610040	0.020253
729.808515	0.020143
730.006972	0.020006
730.205410	0.019899
730.403831	0.019690
730.602233	0.019617
730.800616	0.019347
730.998982	0.019041
731.197329	0.018952
731.395658	0.019063
731.593969	0.018980
731.792262	0.018960
731.990536	0.018858
732.188793	0.018851
732.387031	0.018903
732.585250	0.018976
732.783452	0.019192
732.981635	0.019220
733.179800	0.019007
733.377947	0.018978
733.576076	0.019153
733.774186	0.019304
733.972278	0.019361
734.170352	0.019127
734.368408	0.018952
734.566446	0.018908
734.764465	0.018839
734.962466	0.018811
735.160449	0.018731
735.358413	0.018478
735.556360	0.018343
735.754288	0.018328
735.952198	0.018390
736.150090	0.018494
736.347963	0.018219
736.545818	0.018348
736.743655	0.018298
736.941474	0.018291
737.139275	0.018282
737.337057	0.018258
737.534821	0.018403
737.732567	0.018375
737.930295	0.018255
738.128005	0.018294
738.325696	0.018275
738.523369	0.018269
738.721024	0.018300
738.918660	0.018328
739.116279	0.018372
739.313879	0.018184
739.511461	0.018253
739.709024	0.018224
739.906570	0.018156
740.104097	0.017965
740.301606	0.017994
740.499097	0.017910
740.696569	0.017930
740.894024	0.017943
741.091460	0.017915
741.288878	0.017919
741.486277	0.018055
741.683659	0.018171
741.881022	0.018417
742.078367	0.018494
742.275694	0.018655
742.473002	0.018675
742.670293	0.018651
742.867565	0.018614
743.064819	0.018478
743.262054	0.018473
743.459272	0.018368
743.656471	0.018281
743.853652	0.018425
744.050815	0.018357
744.247959	0.018355
744.445085	0.018294
744.642194	0.018348
744.839283	0.018415
745.036355	0.018331
745.233408	0.018389
745.430444	0.018289
745.627461	0.018081
745.824459	0.018125
746.021440	0.018050
746.218402	0.018152
746.415346	0.018225
746.612272	0.018238
746.809180	0.018183
747.006069	0.018173
747.202940	0.018164
747.399793	0.018158
747.596628	0.018106
747.793444	0.018044
747.990243	0.017871
748.187023	0.017739
748.383784	0.017777
748.580528	0.017909
748.777253	0.017929
748.973960	0.017853
749.170649	0.017750
749.367320	0.017500
749.563973	0.017503
749.760607	0.017728
749.957223	0.017808
750.153821	0.017645
750.350400	0.017617
750.546962	0.017508
750.743505	0.017551
750.940030	0.017525
751.136536	0.017606
751.333025	0.017690
751.529495	0.017458
751.725947	0.017532
751.922381	0.017540
752.118796	0.017578
752.315194	0.017600
752.511573	0.017603
752.707934	0.017659
752.904276	0.017700
753.100601	0.017799
753.296907	0.017888
753.493195	0.017700
753.689465	0.017679
753.885716	0.017524
754.081949	0.017491
754.278164	0.017536
754.474361	0.017417
754.670540	0.017348
754.866700	0.017173
755.062843	0.017032
755.258967	0.017039
755.455072	0.016814
755.651160	0.016750
755.847229	0.016773
756.043280	0.016610
756.239313	0.016608
756.435328	0.016680
756.631324	0.016690
756.827302	0.016794
757.023262	0.016648
757.219204	0.016739
757.415127	0.016803
757.611033	0.016803
757.806920	0.016714
758.002788	0.016682
758.198639	0.016556
758.394471	0.016410
758.590286	0.016204
758.786081	0.016062
758.981859	0.016177
759.177619	0.015959
759.373360	0.015940
759.569083	0.015933
759.764788	0.016001
759.960474	0.015951
760.156143	0.015784
760.351793	0.015905
760.547425	0.016070
760.743038	0.016091
760.938634	0.016185
761.134211	0.016030
761.329770	0.016271
761.525311	0.016348
761.720833	0.016358
761.916338	0.016776
762.111824	0.016810
762.307292	0.016913
762.502741	0.016845
762.698173	0.016837
762.893586	0.016931
763.088981	0.016764
763.284358	0.016757
763.479716	0.016728
763.675057	0.016472
763.870379	0.016574
764.065683	0.016469
764.260968	0.016449
764.456236	0.016438
764.651485	0.016339
764.846716	0.016256
765.041929	0.016148
765.237123	0.016215
765.432299	0.016205
765.627457	0.015849
765.822597	0.015654
766.017719	0.015586
766.212822	0.015558
766.407907	0.015649
766.602974	0.015563
766.798023	0.015564
766.993054	0.015665
767.188066	0.015653
767.383060	0.015847
767.578036	0.016110
767.772993	0.016256
767.967933	0.016205
768.162854	0.016156
768.357757	0.016282
768.552642	0.016347
768.747508	0.016296
768.942356	0.016448
769.137186	0.016599
769.331998	0.016376
769.526792	0.016321
769.721567	0.016149
769.916324	0.016169
770.111063	0.016190
770.305784	0.016044
770.500486	0.015878
770.695171	0.015870
770.889837	0.015618
771.084484	0.015852
771.279114	0.015913
771.473725	0.016388
771.668318	0.016446
771.862893	0.016426
772.057450	0.016586
772.251988	0.016658
772.446509	0.016427
772.641011	0.016549
772.835494	0.016621
773.029960	0.016550
773.224407	0.016301
773.418836	0.016185
773.613247	0.016275
773.807640	0.016164
774.002014	0.016222
774.196370	0.016149
774.390708	0.016043
774.585028	0.015734
774.779330	0.015658
774.973613	0.015599
775.167878	0.015637
775.362125	0.015604
775.556354	0.015627
775.750564	0.015710
775.944756	0.015848
776.138930	0.015806
776.333086	0.016046
776.527223	0.016141
776.721343	0.016120
776.915444	0.016166
777.109526	0.016236
777.303591	0.016263
777.497637	0.016061
777.691666	0.016099
777.885676	0.016282
778.079667	0.016174
778.273641	0.016096
778.467596	0.016274
778.661533	0.016246
778.855452	0.016341
779.049352	0.016401
779.243235	0.016771
779.437099	0.016899
779.630945	0.016904
779.824773	0.017081
780.018582	0.017062
780.212373	0.017090
780.406146	0.017216
780.599901	0.016927
780.793638	0.016918
780.987356	0.016808
781.181056	0.016837
781.374738	0.016854
781.568402	0.017094
781.762047	0.017412
781.955674	0.017345
782.149283	0.017464
782.342874	0.017863
782.536447	0.017944
782.730001	0.017918
782.923537	0.017901
783.117055	0.018238
783.310555	0.018065
783.504036	0.017964
783.697499	0.017982
783.890944	0.017999
784.084371	0.017777
784.277780	0.017964
784.471170	0.018000
784.664542	0.018121
784.857896	0.017805
785.051231	0.017593
785.244549	0.017566
785.437848	0.017793
785.631129	0.017566
785.824392	0.017600
786.017636	0.017335
786.210863	0.017374
786.404071	0.017289
786.597260	0.017367
786.790432	0.017520
786.983585	0.017652
787.176721	0.017433
787.369838	0.017522
787.562936	0.017654
787.756017	0.017759
787.949079	0.017744
788.142123	0.017795
788.335149	0.017809
788.528156	0.017923
788.721146	0.017993
788.914117	0.018156
789.107070	0.018236
789.300005	0.018200
789.492921	0.018128
789.685819	0.018110
789.878699	0.018169
790.071561	0.018220
790.264405	0.018015
790.457230	0.017831
790.650037	0.017765
790.842826	0.017940
791.035597	0.018156
791.228349	0.018274
791.421084	0.018312
791.613800	0.018114
791.806497	0.017913
791.999177	0.017969
792.191838	0.018128
792.384481	0.018154
792.577106	0.017895
792.769713	0.017580
792.962301	0.017706
793.154871	0.017703
793.347423	0.017844
793.539957	0.018072
793.732473	0.018174
793.924970	0.018063
794.117449	0.018046
794.309910	0.018198
794.502353	0.018408
794.694777	0.018326
794.887183	0.018315
795.079571	0.018401
795.271941	0.018504
795.464293	0.018384
795.656626	0.018470
795.848941	0.018628
796.041238	0.018667
796.233516	0.018700
796.425777	0.018715
796.618019	0.018807
796.810243	0.018858
797.002449	0.018945
797.194636	0.019119
797.386805	0.019158
797.578956	0.019294
797.771089	0.019352
797.963204	0.019496
798.155300	0.019638
798.347378	0.019868
798.539438	0.019950
798.731480	0.020050
798.923503	0.020239
799.115509	0.020413
799.307496	0.020410
799.499465	0.020456
799.691415	0.020370
799.883348	0.020462
800.075262	0.020413
800.267158	0.020341
800.459035	0.020289
800.650895	0.020197
800.842736	0.020218
801.034559	0.020258
801.226364	0.020253
801.418150	0.020315
801.609919	0.020141
801.801669	0.020134
801.993401	0.020108
802.185114	0.020202
802.376810	0.020303
802.568487	0.020251
802.760146	0.020120
802.951787	0.020031
803.143409	0.020064
803.335014	0.020271
803.526600	0.020219
803.718168	0.020305
803.909717	0.020160
804.101249	0.020330
804.292762	0.020410
804.484257	0.020497
804.675734	0.020639
804.867192	0.020688
805.058632	0.020721
805.250054	0.020850
805.441458	0.020894
805.632844	0.020807
805.824211	0.020842
806.015561	0.020806
806.206891	0.020835
806.398204	0.020883
806.589499	0.021012
806.780775	0.020909
806.972033	0.021007
807.163273	0.021128
807.354495	0.021176
807.545698	0.021065
807.736883	0.021245
807.928050	0.021397
808.119199	0.021518
808.310329	0.021549
808.501441	0.021678
808.692535	0.021778
808.883611	0.022057
809.074669	0.022219
809.265708	0.022384
809.456729	0.022466
809.647732	0.022470
809.838717	0.022503
810.029683	0.022401
810.220632	0.022482
810.411562	0.022404
810.602474	0.022364
810.793367	0.022630
810.984242	0.022645
811.175100	0.022556
811.365938	0.022503
811.556759	0.022498
811.747562	0.022520
811.938346	0.022424
812.129112	0.022394
812.319860	0.022275
812.510589	0.022138
812.701300	0.022171
812.891994	0.022090
813.082668	0.022201
813.273325	0.022315
813.463964	0.022352
813.654584	0.022846
813.845186	0.022896
814.035769	0.022909
814.226335	0.022959
814.416882	0.022887
814.607411	0.022911
814.797922	0.022841
814.988415	0.022998
815.178889	0.023047
815.369345	0.022837
815.559783	0.022835
815.750203	0.022851
815.940605	0.022793
816.130988	0.022928
816.321353	0.023128
816.511700	0.023288
816.702028	0.023134
816.892339	0.023256
817.082631	0.023106
817.272905	0.023059
817.463161	0.023215
817.653398	0.023407
817.843617	0.023379
818.033819	0.023330
818.224001	0.023445
818.414166	0.023493
818.604312	0.023659
818.794440	0.023837
818.984550	0.024049
819.174642	0.023948
819.364716	0.023757
819.554771	0.023786
819.744808	0.023866
819.934827	0.023984
820.124827	0.024101
820.314810	0.024131
820.504774	0.024040
820.694720	0.024210
820.884647	0.024331
821.074557	0.024501
821.264448	0.024663
821.454321	0.024674
821.644176	0.024730
821.834012	0.024538
822.023831	0.024496
822.213631	0.024708
822.403413	0.024819
822.593176	0.024818
822.782922	0.024963
822.972649	0.025085
823.162358	0.025292
823.352049	0.025074
823.541721	0.025341
823.731376	0.025320
823.921012	0.025321
824.110629	0.025236
824.300229	0.025379
824.489811	0.025413
824.679374	0.025280
824.868919	0.025221
825.058445	0.025481
825.247954	0.025545
825.437444	0.025584
825.626916	0.025801
825.816370	0.025847
826.005806	0.025888
826.195223	0.025888
826.384622	0.025960
826.574003	0.025943
826.763366	0.025969
826.952711	0.025850
827.142037	0.026102
827.331345	0.025952
827.520635	0.026122
827.709906	0.026227
827.899160	0.026332
828.088395	0.026342
828.277612	0.026522
828.466810	0.026651
828.655991	0.026680
828.845153	0.026657
829.034297	0.026898
829.223423	0.027008
829.412531	0.027080
829.601620	0.027010
829.790691	0.027233
829.979744	0.027281
830.168779	0.027440
830.357795	0.027636
830.546793	0.027717
830.735773	0.027538
830.924735	0.027557
831.113679	0.027608
831.302604	0.027917
831.491511	0.028118
831.680400	0.028285
831.869271	0.028422
832.058123	0.028728
832.246957	0.028856
832.435773	0.029254
832.624571	0.029056
832.813351	0.029060
833.002112	0.029092
833.190855	0.029273
833.379580	0.029254
833.568287	0.028934
833.756975	0.028774
833.945645	0.028787
834.134297	0.028670
834.322931	0.028868
834.511547	0.028951
834.700144	0.028818
834.888723	0.028497
835.077284	0.028608
835.265826	0.028714
835.454351	0.028867
835.642857	0.028950
835.831345	0.029063
836.019815	0.029131
836.208266	0.029388
836.396699	0.029467
836.585114	0.029587
836.773511	0.029781
836.961890	0.029895
837.150250	0.029806
837.338592	0.029920
837.526916	0.029907
837.715222	0.030040
837.903510	0.029959
838.091779	0.030213
838.280030	0.030265
838.468263	0.030169
838.656477	0.030297
838.844674	0.030347
839.032852	0.030226
839.221012	0.030534
839.409153	0.030592
839.597277	0.030828
839.785382	0.030869
839.973469	0.030964
840.161538	0.031243
840.349589	0.031233
840.537621	0.031655
840.725635	0.031782
840.913631	0.031603
841.101609	0.031960
841.289568	0.031834
841.477509	0.032204
841.665432	0.032595
841.853337	0.032701
842.041224	0.033304
842.229092	0.033547
842.416942	0.033841
842.604774	0.034199
842.792588	0.034234
842.980383	0.034651
843.168160	0.034626
843.355919	0.034557
843.543660	0.034435
843.731382	0.034372
843.919087	0.034320
844.106773	0.034413
844.294441	0.034401
844.482090	0.034533
844.669722	0.034624
844.857335	0.034722
845.044930	0.034871
845.232507	0.035060
845.420065	0.035055
845.607605	0.035257
845.795127	0.035443
845.982631	0.035573
846.170117	0.035604
846.357584	0.035674
846.545033	0.035942
846.732464	0.035957
846.919877	0.036303
847.107272	0.036483
847.294648	0.036329
847.482006	0.036443
847.669346	0.036386
847.856667	0.036543
848.043971	0.036465
848.231256	0.036275
848.418523	0.036293
848.605771	0.036256
848.793002	0.036468
848.980214	0.036674
849.167408	0.036466
849.354584	0.036778
849.541742	0.037049
849.728881	0.037026
849.916002	0.036912
850.103105	0.037147
850.290190	0.036911
850.477256	0.036725
850.664304	0.036622
850.851334	0.036803
851.038346	0.036864
851.225340	0.036616
851.412315	0.036989
851.599272	0.037344
851.786211	0.037310
851.973132	0.037803
852.160034	0.037812
852.346918	0.038307
852.533784	0.038406
852.720632	0.038439
852.907462	0.038912
853.094273	0.038848
853.281066	0.038875
853.467841	0.038901
853.654598	0.038816
853.841336	0.038935
854.028056	0.038435
854.214758	0.038514
854.401442	0.038410
854.588107	0.038124
854.774755	0.038177
854.961384	0.038073
855.147995	0.038187
855.334587	0.038205
855.521162	0.038350
855.707718	0.038869
855.894256	0.038945
856.080775	0.039260
856.267277	0.039325
856.453760	0.039421
856.640225	0.039895
856.826672	0.039991
857.013101	0.040140
857.199511	0.040407
857.385903	0.040223
857.572277	0.040441
857.758633	0.040505
857.944970	0.040605
858.131290	0.040866
858.317591	0.040888
858.503873	0.041175
858.690138	0.041165
858.876384	0.041137
859.062612	0.041584
859.248822	0.041622
859.435014	0.041837
859.621188	0.042043
859.807343	0.042107
859.993480	0.042290
860.179599	0.042462
860.365699	0.042748
860.551781	0.043051
860.737846	0.043023
860.923891	0.043475
861.109919	0.043616
861.295929	0.043834
861.481920	0.043735
861.667893	0.043810
861.853848	0.043995
862.039784	0.043955
862.225702	0.043921
862.411603	0.043897
862.597484	0.043811
862.783348	0.043757
862.969193	0.043602
863.155021	0.043846
863.340830	0.043986
863.526620	0.043797
863.712393	0.044125
863.898147	0.044370
864.083883	0.044584
864.269601	0.044596
864.455301	0.044779
864.640982	0.045091
864.826645	0.045282
865.012290	0.045435
865.197917	0.045770
865.383526	0.045595
865.569116	0.045506
865.754688	0.045792
865.940242	0.046010
866.125777	0.046178
866.311295	0.046066
866.496794	0.046061
866.682275	0.045982
866.867737	0.045882
867.053182	0.045844
867.238608	0.046047
867.424016	0.046023
867.609406	0.045795
867.794778	0.045717
867.980131	0.046068
868.165466	0.046063
868.350783	0.046018
868.536082	0.046146
868.721362	0.046384
868.906625	0.046275
869.091869	0.046135
869.277094	0.046259
869.462302	0.046300
869.647491	0.046225
869.832662	0.046348
870.017815	0.046250
870.202950	0.046368
870.388066	0.046482
870.573165	0.046507
870.758245	0.046694
870.943306	0.046994
871.128350	0.047166
871.313375	0.047133
871.498382	0.047324
871.683371	0.047603
871.868342	0.047334
872.053294	0.047354
872.238229	0.047547
872.423144	0.047514
872.608042	0.047467
872.792922	0.047317
872.977783	0.047481
873.162626	0.047392
873.347451	0.047680
873.532258	0.048054
873.717046	0.048052
873.901816	0.048170
874.086568	0.048308
874.271302	0.048200
874.456017	0.048296
874.640715	0.048243
874.825394	0.047974
875.010055	0.047380
875.194697	0.047418
875.379322	0.047403
875.563928	0.047479
875.748516	0.047355
875.933085	0.047342
876.117637	0.047362
876.302170	0.047536
876.486685	0.047955
876.671182	0.048273
876.855661	0.048530
877.040121	0.049056
877.224563	0.048980
877.408987	0.049517
877.593393	0.049506
877.777780	0.049638
877.962150	0.049903
878.146501	0.049821
878.330833	0.049892
878.515148	0.049661
878.699444	0.049527
878.883722	0.049404
879.067982	0.049094
879.252224	0.049285
879.436447	0.049331
879.620653	0.049013
879.804840	0.049250
879.989008	0.049333
880.173159	0.049344
880.357291	0.049291
880.541405	0.049377
880.725501	0.049263
880.909579	0.049403
881.093638	0.049274
881.277680	0.049673
881.461703	0.049564
881.645707	0.049595
881.829694	0.049707
882.013662	0.049850
882.197612	0.050079
882.381544	0.050585
882.565458	0.050625
882.749353	0.050993
882.933230	0.050867
883.117089	0.051253
883.300930	0.051255
883.484753	0.051086
883.668557	0.051042
883.852343	0.051057
884.036111	0.051011
884.219861	0.050915
884.403592	0.050597
884.587305	0.050381
884.771000	0.050258
884.954677	0.050284
885.138335	0.050506
885.321976	0.050604
885.505598	0.050682
885.689201	0.050655
885.872787	0.050884
886.056354	0.051294
886.239904	0.051456
886.423434	0.051467
886.606947	0.051606
886.790442	0.051550
886.973918	0.051538
887.157376	0.051659
887.340816	0.051709
887.524237	0.051884
887.707641	0.051588
887.891026	0.051595
888.074393	0.051577
888.257741	0.052124
888.441072	0.052611
888.624384	0.052619
888.807678	0.052319
888.990954	0.052336
889.174211	0.052112
889.357451	0.051981
889.540672	0.052073
889.723875	0.052002
889.907059	0.051689
890.090226	0.051280
890.273374	0.051171
890.456504	0.051522
890.639616	0.051335
890.822709	0.051432
891.005785	0.051622
891.188842	0.051825
891.371881	0.051529
891.554901	0.051476
891.737904	0.051299
891.920888	0.051328
892.103854	0.050753
892.286802	0.050881
892.469731	0.050497
892.652643	0.050509
892.835536	0.050154
893.018410	0.050521
893.201267	0.050093
893.384106	0.050319
893.566926	0.050454
893.749728	0.050524
893.932511	0.050387
894.115277	0.050538
894.298024	0.050324
894.480753	0.050411
894.663464	0.050381
894.846157	0.050482
895.028831	0.050299
895.211487	0.050264
895.394125	0.050573
895.576745	0.050555
895.759346	0.050732
895.941930	0.051110
896.124495	0.050899
896.307041	0.050627
896.489570	0.050821
896.672080	0.050751
896.854573	0.050490
897.037046	0.050659
897.219502	0.050634
897.401940	0.050468
897.584359	0.050189
897.766760	0.050222
897.949143	0.050604
898.131507	0.050510
898.313854	0.050688
898.496182	0.050832
898.678492	0.050438
898.860783	0.050560
899.043057	0.050489
899.225312	0.050706
899.407549	0.050803
899.589768	0.050725
899.771968	0.050659
899.954151	0.050810
900.136315	0.050727
900.318461	0.051074
900.500588	0.050899
900.682698	0.051035
900.864789	0.050948
901.046862	0.051075
901.228917	0.051118
901.410953	0.051346
901.592971	0.051013
901.774972	0.050699
901.956953	0.050374
902.138917	0.050436
902.320862	0.050158
902.502790	0.049907
902.684699	0.049718
902.866589	0.049562
903.048462	0.049205
903.230316	0.049381
903.412152	0.049762
903.593970	0.049835
903.775770	0.049896
903.957551	0.050081
904.139314	0.050149
904.321059	0.049978
904.502786	0.049783
904.684494	0.049769
904.866185	0.049634
905.047857	0.049758
905.229510	0.049574
905.411146	0.049323
905.592763	0.049314
905.774363	0.049353
905.955943	0.049281
906.137506	0.049131
906.319051	0.049137
906.500577	0.048953
906.682085	0.048755
906.863575	0.048326
907.045046	0.048234
907.226500	0.047948
907.407935	0.047273
907.589352	0.046985
907.770750	0.047049
907.952131	0.046793
908.133493	0.046679
908.314837	0.046229
908.496163	0.046417
908.677470	0.046379
908.858760	0.046225
909.040031	0.046574
909.221284	0.046623
909.402518	0.046118
909.583735	0.046277
909.764933	0.045886
909.946113	0.046080
910.127275	0.046198
910.308418	0.046033
910.489544	0.045786
910.670651	0.045640
910.851740	0.045478
911.032810	0.046052
911.213863	0.045470
911.394897	0.045484
911.575913	0.045537
911.756911	0.045028
911.937890	0.044515
912.118851	0.044697
912.299794	0.044529
912.480719	0.044636
912.661626	0.044238
912.842514	0.044374
913.023384	0.044677
913.204236	0.043867
913.385070	0.043989
913.565886	0.043851
913.746683	0.043760
913.927462	0.044017
914.108223	0.043538
914.288965	0.043239
914.469690	0.043318
914.650396	0.042773
914.831084	0.042858
915.011754	0.042544
915.192405	0.042538
915.373038	0.042537
915.553653	0.042446
915.734250	0.042935
915.914829	0.042655
916.095389	0.042455
916.275931	0.042613
916.456455	0.042665
916.636961	0.042631
916.817448	0.042389
916.997917	0.042021
917.178368	0.041458
917.358801	0.040610
917.539216	0.040257
917.719612	0.040246
917.899990	0.039506
918.080350	0.039343
918.260692	0.038800
918.441015	0.039216
918.621320	0.039238
918.801607	0.039238
918.981876	0.039852
919.162127	0.039979
919.342359	0.039691
919.522573	0.040101
919.702769	0.040089
919.882947	0.040209
920.063106	0.040063
920.243247	0.039948
920.423370	0.039641
920.603475	0.039037
920.783562	0.038869
920.963630	0.038857
921.143680	0.038522
921.323712	0.038175
921.503725	0.038277
921.683721	0.037713
921.863698	0.037208
922.043657	0.037106
922.223598	0.036976
922.403520	0.036743
922.583424	0.036308
922.763311	0.036333
922.943178	0.036100
923.123028	0.035863
923.302859	0.035643
923.482673	0.035875
923.662467	0.035643
923.842244	0.035439
924.022003	0.035436
924.201743	0.034958
924.381465	0.034878
924.561169	0.034632
924.740854	0.034548
924.920522	0.034307
925.100171	0.033723
925.279802	0.033312
925.459414	0.032958
925.639009	0.032948
925.818585	0.032846
925.998143	0.032781
926.177683	0.032714
926.357205	0.032227
926.536708	0.032194
926.716193	0.031903
926.895660	0.031712
927.075109	0.031335
927.254539	0.030860
927.433951	0.030710
927.613345	0.030351
927.792721	0.030095
927.972079	0.029712
928.151418	0.029429
928.330739	0.029833
928.510042	0.029337
928.689327	0.029271
928.868593	0.029281
929.047841	0.028846
929.227071	0.028449
929.406283	0.028521
929.585476	0.028692
929.764652	0.028613
929.943809	0.028064
930.122948	0.027937
930.302068	0.027249
930.481171	0.026972
930.660255	0.026399
930.839321	0.025437
931.018369	0.024655
931.197398	0.023993
931.376409	0.023743
931.555402	0.023265
931.734377	0.023489
931.913334	0.023481
932.092272	0.023106
932.271192	0.023279
932.450094	0.023761
932.628978	0.023419
932.807844	0.022915
932.986691	0.022405
933.165520	0.021832
933.344331	0.021636
933.523123	0.021461
933.701898	0.021034
933.880654	0.020871
934.059392	0.020393
934.238111	0.020695
934.416813	0.020958
934.595496	0.021522
934.774161	0.021329
934.952808	0.021155
935.131437	0.021204
935.310047	0.021280
935.488639	0.021187
935.667213	0.020853
935.845769	0.020412
936.024306	0.019586
936.202825	0.019029
936.381326	0.019646
936.559809	0.019556
936.738274	0.019540
936.916720	0.019417
937.095148	0.020089
937.273558	0.020195
937.451950	0.019943
937.630323	0.020633
937.808678	0.020290
937.987015	0.018946
938.165334	0.018610
938.343635	0.018184
938.521917	0.017378
938.700181	0.015931
938.878427	0.014955
939.056655	0.014357
939.234864	0.013901
939.413055	0.013332
939.591228	0.013380
939.769383	0.012798
939.947519	0.012691
940.125638	0.012760
940.303738	0.012635
940.481820	0.013119
940.659883	0.012777
940.837929	0.012569
941.015956	0.012103
941.193965	0.012411
941.371955	0.012318
941.549928	0.011808
941.727882	0.011906
941.905818	0.012568
942.083736	0.012063
942.261636	0.012579
942.439517	0.012761
942.617380	0.012713
942.795225	0.012675
942.973052	0.012014
943.150860	0.012452
943.328651	0.011634
943.506423	0.011012
943.684176	0.010903
943.861912	0.010411
944.039629	0.009338
944.217328	0.008847
944.395009	0.007924
944.572672	0.007895
944.750317	0.007534
944.927943	0.006779
945.105551	0.005643
945.283141	0.005243
945.460712	0.005088
945.638265	0.004832
945.815801	0.004830
945.993317	0.004688
946.170816	0.005105
946.348297	0.004375
946.525759	0.004913
946.703203	0.005410
946.880629	0.005620
947.058036	0.004807
947.235425	0.004853
947.412797	0.005342
947.590149	0.005181
947.767484	0.005364
947.944800	0.005953
948.122099	0.006573
948.299379	0.006751
948.476640	0.006555
948.653884	0.006954
948.831109	0.007311
949.008316	0.007055
949.185505	0.007523
949.362676	0.007194
949.539828	0.006250
949.716962	0.006148
949.894078	0.005335
950.071176	0.005246
950.248256	0.005150
950.425317	0.005033
950.602360	0.006436
950.779385	0.006143
950.956391	0.004992
951.133380	0.005241
951.310350	0.004295
951.487302	0.004756
951.664235	0.005452
951.841151	0.005394
952.018048	0.004407
952.194927	0.002795
952.371788	0.002576
952.548631	0.003498
952.725455	0.004322
952.902261	0.005212
953.079049	0.005856
953.255819	0.005052
953.432570	0.005701
953.609303	0.006588
953.786018	0.006423
953.962715	0.007872
954.139394	0.008624
954.316054	0.006721
954.492696	0.006840
954.669320	0.007110
954.845926	0.006761
955.022513	0.007191
955.199083	0.007706
955.375634	0.007677
955.552166	0.006918
955.728681	0.005064
955.905177	0.005470
956.081655	0.005139
956.258115	0.004590
956.434557	0.004806
956.610980	0.005394
956.787385	0.006458
956.963772	0.006514
957.140141	0.006148
957.316492	0.007550
957.492824	0.008194
957.669138	0.009639
957.845434	0.010279
958.021712	0.010672
958.197971	0.008770
958.374212	0.006165
958.550435	0.006156
958.726640	0.006324
958.902826	0.005572
959.078995	0.006367
959.255145	0.006444
959.431277	0.007116
959.607390	0.007869
959.783486	0.008184
959.959563	0.009194
960.135622	0.010381
960.311662	0.009591
960.487685	0.012472
960.663689	0.015189
960.839675	0.013176
961.015643	0.012622
961.191593	0.012731
961.367524	0.013586
961.543437	0.014012
961.719332	0.014146
961.895209	0.016712
962.071067	0.015751
962.246907	0.014923
962.422730	0.017569
962.598533	0.016833
962.774319	0.018497
962.950086	0.017858
963.125835	0.019005
963.301566	0.018953
963.477279	0.018347
963.652973	0.017838
963.828650	0.015751
964.004308	0.014392
964.179947	0.015038
964.355569	0.014875
964.531172	0.015239
964.706757	0.015011
964.882324	0.015136
965.057873	0.013017
965.233403	0.012008
965.408916	0.012031
965.584410	0.011862
965.759885	0.011822
965.935343	0.010433
966.110782	0.011794
966.286203	0.011046
966.461606	0.011652
966.636991	0.013676
966.812357	0.014246
966.987705	0.014136
967.163035	0.013555
967.338347	0.013688
967.513641	0.016013
967.688916	0.013597
967.864173	0.014983
968.039412	0.013981
968.214632	0.014485
968.389835	0.015900
968.565019	0.017572
968.740185	0.018435
968.915333	0.018457
969.090462	0.016915
969.265573	0.019635
969.440667	0.018726
969.615741	0.017716
969.790798	0.016830
969.965836	0.016055
970.140856	0.016428
970.315858	0.015423
970.490842	0.015424
970.665808	0.014921
970.840755	0.015336
971.015684	0.016136
971.190595	0.018597
971.365487	0.019553
971.540362	0.020055
971.715218	0.019235
971.890056	0.017928
972.064875	0.016810
972.239677	0.016216
972.414460	0.016010
972.589225	0.015902
972.763972	0.015073
972.938700	0.014544
973.113411	0.013974
973.288103	0.013476
973.462777	0.015266
973.637432	0.016236
973.812070	0.017056
973.986689	0.016443
974.161290	0.016464
974.335873	0.015648
974.510437	0.013517
974.684984	0.015381
974.859512	0.014908
975.034022	0.014893
975.208513	0.015197
975.382987	0.014451
975.557442	0.013842
975.731879	0.012680
975.906298	0.013436
976.080698	0.014788
976.255080	0.012913
976.429445	0.013880
976.603790	0.015477
976.778118	0.015650
976.952427	0.015606
977.126719	0.015978
977.300992	0.017343
977.475246	0.016604
977.649483	0.017300
977.823701	0.017662
977.997901	0.016666
978.172083	0.017314
978.346247	0.017772
978.520392	0.017577
978.694519	0.018133
978.868628	0.016955
979.042719	0.018028
979.216791	0.018463
979.390845	0.017736
979.564882	0.018327
979.738899	0.016151
979.912899	0.015719
980.086880	0.016925
980.260843	0.016192
980.434788	0.014756
980.608715	0.015571
980.782623	0.016123
980.956514	0.015900
981.130386	0.015321
981.304240	0.017341
981.478075	0.016700
981.651892	0.015558
981.825692	0.013828
981.999472	0.015835
982.173235	0.013725
982.346980	0.013407
982.520706	0.015375
982.694414	0.015770
982.868104	0.013908
983.041775	0.013999
983.215428	0.014310
983.389064	0.016867
983.562680	0.017193
983.736279	0.018234
983.909860	0.016073
984.083422	0.015077
984.256966	0.014065
984.430491	0.014557
984.603999	0.014572
984.777488	0.015455
984.950959	0.014827
985.124412	0.013691
985.297847	0.013124
985.471263	0.013387
985.644661	0.013045
985.818041	0.014025
985.991403	0.014280
986.164747	0.013767
986.338072	0.012536
986.511379	0.012487
986.684668	0.015097
986.857938	0.016915
987.031191	0.017726
987.204425	0.018297
987.377641	0.019066
987.550839	0.019586
987.724018	0.019759
987.897179	0.019447
988.070322	0.020309
988.243447	0.016930
988.416554	0.015610
988.589642	0.016295
988.762712	0.015896
988.935764	0.014019
989.108798	0.012763
989.281813	0.016420
989.454811	0.018728
989.627790	0.017361
989.800751	0.018224
989.973693	0.016917
990.146617	0.015484
990.319524	0.015293
990.492412	0.015269
990.665281	0.014480
990.838133	0.010703
991.010966	0.009460
991.183781	0.009837
991.356578	0.010033
991.529356	0.010866
991.702117	0.011196
991.874859	0.010684
992.047583	0.010612
992.220288	0.011361
992.392976	0.011830
992.565645	0.011704
992.738296	0.011431
992.910929	0.012051
993.083543	0.012610
993.256139	0.013596
993.428718	0.012875
993.601277	0.013157
993.773819	0.015042
993.946342	0.015094
994.118848	0.013564
994.291335	0.014403
994.463803	0.014379
994.636254	0.013918
994.808686	0.013311
994.981100	0.013754
995.153496	0.014001
995.325874	0.012897
995.498233	0.013594
995.670574	0.014403
995.842897	0.014012
996.015202	0.013632
996.187488	0.013432
996.359757	0.012854
996.532007	0.012743
996.704239	0.013017
996.876452	0.012331
997.048648	0.011688
997.220825	0.012746
997.392984	0.011623
997.565124	0.010596
997.737247	0.010669
997.909351	0.012104
998.081437	0.012534
998.253505	0.013738
998.425554	0.014497
998.597586	0.013425
998.769599	0.010508
998.941594	0.010852
999.113571	0.012146
999.285529	0.011812
999.457469	0.010582
999.629391	0.009585
999.801295	0.008708
999.973181	0.007923
1000.145048	0.008972
1000.316897	0.010780
1000.488728	0.010858
1000.660541	0.009792
1000.832335	0.009694
1001.004111	0.009811
1001.175869	0.010882
1001.347609	0.011840
1001.519331	0.011806
1001.691034	0.011226
1001.862719	0.011002
1002.034386	0.010882
1002.206035	0.011095
1002.377665	0.010882
1002.549277	0.010301
1002.720871	0.009818
1002.892447	0.007350
1003.064004	0.007037
1003.235544	0.007241
1003.407065	0.007687
1003.578568	0.008168
1003.750052	0.007124
1003.921519	0.007269
1004.092967	0.008754
1004.264397	0.009178
1004.435809	0.009316
1004.607202	0.008277
1004.778577	0.008371
1004.949934	0.009354
1005.121273	0.008591
1005.292594	0.010664
1005.463896	0.010741
1005.635180	0.008777
1005.806446	0.009046
1005.977694	0.009086
1006.148923	0.010471
1006.320135	0.009999
1006.491328	0.009169
1006.662503	0.009144
1006.833659	0.009483
1007.004798	0.009904
1007.175918	0.010394
1007.347020	0.010449
1007.518103	0.012907
1007.689169	0.012570
1007.860216	0.012310
1008.031245	0.013253
1008.202256	0.012889
1008.373248	0.011558
1008.544223	0.010350
1008.715179	0.010732
1008.886117	0.009611
1009.057036	0.008956
1009.227938	0.008950
1009.398821	0.009233
1009.569686	0.007018
1009.740533	0.008862
1009.911361	0.008478
1010.082172	0.008746
1010.252964	0.010050
1010.423738	0.011248
1010.594493	0.010836
1010.765231	0.011115
1010.935950	0.010584
1011.106651	0.012653
1011.277334	0.011657
1011.447998	0.012597
1011.618645	0.013334
1011.789273	0.012662
1011.959882	0.012103
1012.130474	0.012528
1012.301048	0.011943
1012.471603	0.013209
1012.642140	0.011237
1012.812658	0.011746
1012.983159	0.010497
1013.153641	0.011194
1013.324105	0.010478
1013.494551	0.010859
1013.664979	0.010697
1013.835388	0.011512
1014.005779	0.010622
1014.176152	0.011949
1014.346507	0.010377
1014.516843	0.010911
1014.687162	0.010430
1014.857462	0.011030
1015.027744	0.011184
1015.198007	0.010519
1015.368252	0.008926
1015.538480	0.008714
1015.708689	0.007901
1015.878879	0.008707
1016.049052	0.008957
1016.219206	0.009898
1016.389342	0.010066
1016.559460	0.009317
1016.729559	0.009002
1016.899641	0.010968
1017.069704	0.011649
1017.239749	0.010263
1017.409775	0.008782
1017.579784	0.008744
1017.749774	0.006534
1017.919746	0.005312
1018.089700	0.005412
1018.259635	0.005548
1018.429553	0.006581
1018.599452	0.007225
1018.769333	0.008954
1018.939195	0.010992
1019.109040	0.010805
1019.278866	0.012102
1019.448674	0.011918
1019.618464	0.011413
1019.788235	0.012477
1019.957989	0.011466
1020.127724	0.010076
1020.297441	0.010797
1020.467139	0.009910
1020.636820	0.009181
1020.806482	0.008636
1020.976126	0.009726
1021.145752	0.010429
1021.315359	0.009175
1021.484948	0.008952
1021.654519	0.010593
1021.824072	0.011110
1021.993607	0.010304
1022.163123	0.010900
1022.332621	0.010482
1022.502101	0.009862
1022.671563	0.008600
1022.841007	0.008494
1023.010432	0.007665
1023.179839	0.007663
1023.349228	0.005084
1023.518598	0.006806
1023.687951	0.007458
1023.857285	0.008056
1024.026601	0.008729
1024.195899	0.008635
1024.365178	0.008867
1024.534439	0.008284
1024.703682	0.007264
1024.872907	0.007720
1025.042114	0.006938
1025.211302	0.006286
1025.380472	0.006397
1025.549624	0.004628
1025.718758	0.005471
1025.887873	0.004427
1026.056970	0.005835
1026.226049	0.006493
1026.395110	0.006477
1026.564153	0.006321
1026.733177	0.006611
1026.902183	0.005443
1027.071171	0.006870
1027.240141	0.008062
1027.409092	0.008167
1027.578026	0.006615
1027.746940	0.006665
1027.915837	0.005383
1028.084716	0.005716
1028.253576	0.005249
1028.422418	0.006562
1028.591242	0.007048
1028.760048	0.005583
1028.928835	0.006414
1029.097604	0.006059
1029.266355	0.006423
1029.435088	0.008732
1029.603803	0.008575
1029.772499	0.008375
1029.941177	0.008498
1030.109837	0.007208
1030.278478	0.008010
1030.447102	0.007641
1030.615707	0.007391
1030.784294	0.005609
1030.952863	0.005884
1031.121413	0.006353
1031.289945	0.008046
1031.458460	0.006726
1031.626955	0.007412
1031.795433	0.007015
1031.963892	0.006792
1032.132334	0.007765
1032.300756	0.008156
1032.469161	0.007477
1032.637548	0.006105
1032.805916	0.004770
1032.974266	0.006435
1033.142598	0.007330
1033.310911	0.008720
1033.479207	0.008636
1033.647484	0.008243
1033.815743	0.008182
1033.983983	0.008810
1034.152206	0.010248
1034.320410	0.011671
1034.488596	0.011570
1034.656764	0.010310
1034.824914	0.009405
1034.993045	0.009726
1035.161158	0.012251
1035.329253	0.012576
1035.497330	0.012733
1035.665388	0.011199
1035.833428	0.010277
1036.001450	0.009497
1036.169454	0.010611
1036.337440	0.010165
1036.505407	0.010678
1036.673356	0.009954
1036.841287	0.009552
1037.009200	0.009193
1037.177094	0.010341
1037.344970	0.009571
1037.512828	0.009460
1037.680668	0.008520
1037.848489	0.008281
1038.016293	0.008545
1038.184078	0.008203
1038.351845	0.008791
1038.519593	0.008712
1038.687324	0.008465
1038.855036	0.008905
1039.022730	0.009443
1039.190406	0.010128
1039.358063	0.010635
1039.525702	0.009521
1039.693323	0.008004
1039.860926	0.007106
1040.028511	0.006188
1040.196077	0.005378
1040.363625	0.004706
1040.531155	0.003221
1040.698667	0.001892
1040.866161	0.000354
1041.033636	-0.000276
1041.201093	0.000957
1041.368532	0.002056
1041.535952	0.001839
1041.703355	0.001670
1041.870739	0.001651
1042.038105	0.002356
1042.205452	0.002926
1042.372782	0.004467
1042.540093	0.005562
1042.707386	0.006257
1042.874661	0.005597
1043.041918	0.006655
1043.209156	0.008282
1043.376376	0.008621
1043.543578	0.008781
1043.710762	0.007102
1043.877927	0.006890
1044.045074	0.007812
1044.212203	0.005844
1044.379314	0.005573
1044.546407	0.004961
1044.713481	0.004489
1044.880537	0.004788
1045.047575	0.005423
1045.214595	0.006048
1045.381596	0.005936
1045.548579	0.005703
1045.715544	0.006862
1045.882491	0.006701
1046.049420	0.006634
1046.216330	0.006588
1046.383222	0.006894
1046.550096	0.006361
1046.716951	0.007687
1046.883789	0.007651
1047.050608	0.007747
1047.217409	0.007469
1047.384192	0.009475
1047.550956	0.009270
1047.717703	0.008680
1047.884431	0.008405
1048.051140	0.007945
1048.217832	0.007088
1048.384505	0.006488
1048.551161	0.006116
1048.717798	0.006989
1048.884416	0.005568
1049.051017	0.005963
1049.217599	0.006402
1049.384163	0.007094
1049.550709	0.007707
1049.717237	0.007971
1049.883746	0.008093
1050.050237	0.008724
1050.216710	0.007788
1050.383165	0.006990
1050.549601	0.005804
1050.716019	0.005830
1050.882420	0.004153
1051.048801	0.003743
1051.215165	0.003593
1051.381510	0.004002
1051.547837	0.002523
1051.714146	0.002297
1051.880437	0.002037
1052.046709	0.002828
1052.212964	0.001965
1052.379200	0.002784
1052.545417	0.003555
1052.711617	0.003787
1052.877798	0.003775
1053.043961	0.003943
1053.210106	0.003893
1053.376233	0.003871
1053.542341	0.003406
1053.708432	0.004310
1053.874504	0.005110
1054.040557	0.005307
1054.206593	0.006641
1054.372610	0.005986
1054.538609	0.005974
1054.704590	0.007959
1054.870553	0.008864
1055.036497	0.009398
1055.202424	0.009294
1055.368331	0.008212
1055.534221	0.007255
1055.700093	0.006874
1055.865946	0.006779
1056.031781	0.007456
1056.197598	0.004661
1056.363397	0.005465
1056.529177	0.006944
1056.694939	0.006839
1056.860683	0.006631
1057.026409	0.007324
1057.192116	0.006235
1057.357806	0.006430
1057.523477	0.004215
1057.689130	0.006263
1057.854764	0.003965
1058.020381	0.001727
1058.185979	0.002390
1058.351559	0.003049
1058.517120	0.002120
1058.682664	0.002238
1058.848189	0.001843
1059.013696	0.003282
1059.179185	0.001499
1059.344656	0.002741
1059.510108	0.005263
1059.675542	0.004969
1059.840958	0.004331
1060.006356	0.003876
1060.171735	0.002266
1060.337096	0.002644
1060.502439	0.003206
1060.667764	0.004135
1060.833071	0.003324
1060.998359	0.001689
1061.163629	-0.000466
1061.328881	-0.000033
1061.494115	0.001141
1061.659330	0.002478
1061.824527	0.003131
1061.989706	0.003261
1062.154867	0.003425
1062.320010	0.003384
1062.485134	0.002242
1062.650240	0.004301
1062.815328	0.004142
1062.980398	0.003780
1063.145449	0.005168
1063.310482	0.004744
1063.475497	0.004096
1063.640494	0.004628
1063.805473	0.006189
1063.970433	0.007045
1064.135375	0.006873
1064.300299	0.007438
1064.465204	0.006223
1064.630092	0.005420
1064.794961	0.006931
1064.959812	0.006191
1065.124645	0.004560
1065.289459	0.003968
1065.454256	0.005027
1065.619034	0.004710
1065.783793	0.004566
1065.948535	0.005364
1066.113258	0.004778
1066.277964	0.003452
1066.442651	0.003697
1066.607319	0.004522
1066.771970	0.003545
1066.936602	0.002809
1067.101216	0.004058
1067.265812	0.002736
1067.430389	0.002624
1067.594949	0.001610
1067.759490	0.000688
1067.924013	0.002711
1068.088518	0.001156
1068.253004	0.000874
1068.417472	0.001163
1068.581922	-0.000111
1068.746354	0.000711
1068.910768	0.000155
1069.075163	0.001334
1069.239540	0.003218
1069.403899	0.001350
1069.568240	0.001337
1069.732562	0.002406
1069.896866	0.003761
1070.061152	0.003712
1070.225420	0.002773
1070.389670	0.003391
1070.553901	0.003008
1070.718114	0.001878
1070.882309	0.000735
1071.046486	0.002647
1071.210644	0.002861
1071.374784	0.001634
1071.538906	0.002399
1071.703010	0.002591
1071.867096	0.002475
1072.031163	0.002482
1072.195212	0.002560
1072.359243	0.005185
1072.523256	0.004252
1072.687250	0.002125
1072.851226	0.002414
1073.015184	0.002961
1073.179124	0.002308
1073.343045	0.001374
1073.506949	0.000120
1073.670834	0.000268
1073.834701	-0.001392
1073.998549	-0.001199
1074.162380	0.002208
1074.326192	0.002217
1074.489986	0.001164
1074.653761	0.002088
1074.817519	0.002957
1074.981258	0.004369
1075.144979	0.003444
1075.308682	0.004576
1075.472367	0.004437
1075.636033	0.002168
1075.799681	0.001332
1075.963311	0.000919
1076.126923	0.001421
1076.290516	0.001662
1076.454092	-0.000322
1076.617649	0.001049
1076.781187	0.000950
1076.944708	0.002388
1077.108210	0.003308
1077.271695	0.003357
1077.435160	0.003600
1077.598608	0.002094
1077.762038	0.002114
1077.925449	0.003948
1078.088842	0.001823
1078.252217	0.002109
1078.415573	0.001006
1078.578912	0.000979
1078.742232	0.000823
1078.905534	0.001029
1079.068817	0.002834
1079.232083	0.001816
1079.395330	0.003507
1079.558559	0.004009
1079.721770	0.003848
1079.884962	0.004154
1080.048136	0.002696
1080.211293	0.001452
1080.374430	-0.000125
1080.537550	-0.003034
1080.700651	-0.002819
1080.863735	-0.004404
1081.026800	-0.002050
1081.189846	-0.003873
1081.352875	-0.003219
1081.515885	-0.001503
1081.678877	-0.000341
1081.841851	0.000941
1082.004807	0.004869
1082.167744	0.005170
1082.330663	0.006181
1082.493564	0.005373
1082.656447	0.006649
1082.819312	0.005514
1082.982158	0.005924
1083.144986	0.006023
1083.307796	0.005843
1083.470587	0.004113
1083.633361	0.003954
1083.796116	0.005161
1083.958853	0.003545
1084.121571	0.002191
1084.284272	0.000572
1084.446954	0.001921
1084.609618	0.001243
1084.772264	0.001353
1084.934892	0.002778
1085.097501	0.003276
1085.260092	-0.000526
1085.422665	-0.000755
1085.585220	0.001264
1085.747756	0.002816
1085.910274	-0.002571
1086.072774	-0.001670
1086.235256	-0.002694
1086.397720	-0.004307
1086.560165	-0.004202
1086.722592	-0.000065
1086.885001	0.003134
1087.047392	0.000961
1087.209764	0.000451
1087.372119	0.003630
1087.534455	0.001551
1087.696772	0.002827
1087.859072	0.004672
1088.021353	0.004965
1088.183616	0.002454
1088.345861	-0.000685
1088.508088	-0.000144
1088.670296	0.001325
1088.832486	0.000223
1088.994658	0.001840
1089.156812	-0.001743
1089.318948	-0.004168
1089.481065	-0.004406
1089.643164	-0.005006
1089.805245	-0.004298
1089.967308	-0.005646
1090.129352	-0.006570
1090.291378	-0.007014
1090.453386	-0.006629
1090.615376	-0.001068
1090.777347	0.001654
1090.939301	0.005263
1091.101236	0.006527
1091.263153	0.006228
1091.425051	0.005929
1091.586932	0.006012
1091.748794	0.006420
1091.910638	0.003807
1092.072463	-0.001252
1092.234271	-0.002682
1092.396060	-0.005027
1092.557831	-0.005597
1092.719584	-0.005877
1092.881319	-0.003869
1093.043035	-0.004683
1093.204733	-0.004258
1093.366413	-0.001570
1093.528075	0.001364
1093.689718	0.002118
1093.851343	0.000973
1094.012950	0.001631
1094.174539	0.000832
1094.336110	-0.001394
1094.497662	-0.002819
1094.659196	-0.003172
1094.820712	-0.007939
1094.982210	-0.008536
1095.143689	-0.008234
1095.305151	-0.008745
1095.466594	-0.007300
1095.628018	-0.005309
1095.789425	-0.003090
1095.950813	-0.001760
1096.112183	-0.001343
1096.273535	0.002031
1096.434869	-0.000107
1096.596184	-0.003997
1096.757482	-0.003669
1096.918761	-0.007524
1097.080021	-0.007248
1097.241264	-0.004617
1097.402488	-0.004993
1097.563694	-0.006582
1097.724882	-0.004899
1097.886052	-0.002015
1098.047203	0.000232
1098.208336	-0.000886
1098.369451	0.001411
1098.530548	0.001274
1098.691627	-0.001674
1098.852687	-0.001700
1099.013729	0.000928
1099.174753	0.000778
1099.335758	0.002702
1099.496746	0.002326
1099.657715	0.003992
1099.818666	0.004011
1099.979599	0.002115
1100.140513	0.004779
1100.301409	0.005967
1100.462287	0.004778
1100.623147	0.005027
1100.783989	0.001791
1100.944812	0.005391
1101.105617	0.005301
1101.266404	0.005512
1101.427173	0.006564
1101.587923	0.003556
1101.748656	0.002568
1101.909370	0.003820
1102.070066	0.005275
1102.230743	0.003649
1102.391403	0.001292
1102.552044	0.000517
1102.712667	-0.004746
1102.873271	-0.004592
1103.033858	-0.001029
1103.194426	-0.001583
1103.354976	-0.000696
1103.515508	-0.005119
1103.676021	-0.003409
1103.836517	-0.004105
1103.996994	-0.003779
1104.157453	-0.004669
1104.317893	-0.004282
1104.478316	-0.004747
1104.638720	-0.001443
1104.799106	-0.003412
1104.959474	-0.000503
1105.119823	-0.001063
1105.280155	0.000142
1105.440468	0.003130
1105.600763	0.010606
1105.761039	0.009972
1105.921298	0.007731
1106.081538	0.003390
1106.241760	0.004679
1106.401964	0.006256
1106.562149	0.008530
1106.722316	0.005110
1106.882465	0.000791
1107.042596	-0.000963
1107.202709	-0.000630
1107.362803	-0.000700
1107.522879	0.000749
1107.682937	-0.001279
1107.842977	-0.002347
1108.002999	-0.003499
1108.163002	0.001851
1108.322987	0.001242
1108.482954	0.002584
1108.642902	0.001748
1108.802833	0.004048
1108.962745	0.003446
1109.122639	0.005203
1109.282515	0.004170
1109.442372	0.004117
1109.602211	-0.001066
1109.762032	-0.000664
1109.921835	-0.004937
1110.081620	-0.005489
1110.241386	-0.009396
1110.401134	-0.009018
1110.560864	-0.012608
1110.720576	-0.014370
1110.880269	-0.011546
1111.039945	-0.009957
1111.199602	-0.006573
1111.359240	-0.001680
1111.518861	-0.000872
1111.678463	0.001861
1111.838047	0.000887
1111.997613	0.006356
1112.157161	0.006849
1112.316690	0.011007
1112.476202	0.008201
1112.635695	0.005845
1112.795169	0.003445
1112.954626	0.005152
1113.114064	0.002746
1113.273484	0.002907
1113.432886	0.000876
1113.592270	0.007224
1113.751635	0.001884
1113.910983	0.011160
1114.070312	0.010929
1114.229622	0.013123
1114.388915	0.012582
1114.548189	0.013432
1114.707445	0.016899
1114.866683	0.016427
1115.025903	0.010835
1115.185104	0.008213
1115.344287	0.002658
1115.503452	0.006111
1115.662599	0.003740
1115.821727	0.004146
1115.980838	0.003984
1116.139930	0.004753
1116.299004	0.002170
1116.458059	0.002888
1116.617097	0.007396
1116.776116	0.001472
1116.935117	-0.001805
1117.094099	-0.001216
1117.253064	-0.000005
1117.412010	0.002044
1117.570938	-0.001762
1117.729848	0.002322
1117.888740	0.001751
1118.047613	-0.002286
1118.206468	0.002858
1118.365305	0.001216
1118.524124	0.002969
1118.682924	0.001096
1118.841707	-0.000219
1119.000471	0.004496
1119.159216	0.005373
1119.317944	0.007382
1119.476653	0.008201
1119.635344	0.009395
1119.794017	0.009658
1119.952672	0.008984
1120.111308	0.007927
1120.269927	0.008585
1120.428527	0.008326
1120.587108	0.007053
1120.745672	0.003263
1120.904217	0.002737
1121.062744	0.002395
1121.221253	0.002717
1121.379744	0.002550
1121.538216	0.002571
1121.696671	0.004589
1121.855107	0.001611
1122.013524	0.000861
1122.171924	0.007394
1122.330305	0.011169
1122.488668	0.011566
1122.647013	0.014187
1122.805340	0.010504
1122.963648	0.009313
1123.121938	0.006217
1123.280210	0.006876
1123.438464	0.010660
1123.596700	0.007126
1123.754917	0.004583
1123.913116	0.004584
1124.071297	0.004851
1124.229459	0.011134
1124.387604	0.012492
1124.545730	0.014724
1124.703838	0.014338
1124.861928	0.008801
1125.019999	0.009267
1125.178052	0.009814
1125.336088	0.006931
1125.494104	0.006733
1125.652103	0.000832
1125.810083	-0.004104
1125.968045	-0.005121
1126.125989	-0.009805
1126.283915	-0.008685
1126.441823	-0.009628
1126.599712	-0.012418
1126.757583	-0.011267
1126.915436	-0.012863
1127.073270	-0.012326
1127.231087	-0.007854
1127.388885	-0.007118
1127.546665	-0.006911
1127.704426	-0.006236
1127.862170	-0.009556
1128.019895	-0.007950
1128.177602	-0.003484
1128.335291	-0.005097
1128.492961	-0.000287
1128.650614	0.001675
1128.808248	0.001517
1128.965864	0.006049
1129.123461	0.004245
1129.281041	0.008396
1129.438602	0.005095
1129.596145	0.002896
1129.753670	0.006997
1129.911176	0.004420
1130.068665	0.003299
1130.226135	0.003901
1130.383587	0.000773
1130.541020	0.002352
1130.698436	0.006864
1130.855833	0.009025
1131.013212	0.005187
1131.170573	0.005508
1131.327915	0.005127
1131.485239	0.003924
1131.642545	0.000377
1131.799833	0.003495
1131.957103	0.000007
1132.114354	-0.006974
1132.271588	-0.009475
1132.428803	-0.007032
1132.585999	-0.007920
1132.743178	-0.003231
1132.900338	-0.004843
1133.057480	-0.000371
1133.214604	0.005340
1133.371710	0.009029
1133.528797	0.008159
1133.685866	0.007686
1133.842917	0.004699
1133.999950	0.008134
1134.156964	0.003323
1134.313960	0.008378
1134.470938	0.008415
1134.627898	0.003334
1134.784840	0.007752
1134.941763	0.011074
1135.098668	0.020029
1135.255555	0.025638
1135.412424	0.023533
1135.569274	0.022360
1135.726107	0.017363
1135.882921	0.013080
1136.039716	0.010036
1136.196494	-0.001066
1136.353253	-0.004008
1136.509995	-0.010314
1136.666717	-0.015465
1136.823422	-0.017632
1136.980109	-0.014640
1137.136777	-0.012451
1137.293427	-0.009761
1137.450059	-0.006374
1137.606672	0.002647
1137.763267	0.005748
1137.919844	0.010724
1138.076403	0.013065
1138.232944	0.011855
1138.389466	0.004447
1138.545971	0.005793
1138.702457	0.002530
1138.858924	-0.000561
1139.015374	-0.005070
1139.171805	-0.006709
1139.328218	-0.004904
1139.484613	-0.009000
1139.640990	-0.008701
1139.797348	-0.003957
1139.953688	-0.001453
1140.110010	0.002612
1140.266314	0.005686
1140.422600	0.004164
1140.578867	0.005040
1140.735116	-0.006043
1140.891347	-0.002533
1141.047559	-0.000392
1141.203754	0.003969
1141.359930	-0.001587
1141.516088	-0.002948
1141.672228	-0.003646
1141.828349	-0.001884
1141.984452	-0.011124
1142.140537	-0.007302
1142.296604	-0.008619
1142.452653	-0.010961
1142.608683	-0.023608
1142.764695	-0.021604
1142.920689	-0.022394
1143.076665	-0.021376
1143.232622	-0.020331
1143.388562	-0.002502
1143.544483	-0.003318
1143.700385	-0.001767
1143.856270	-0.005825
1144.012136	0.002447
1144.167985	0.002717
1144.323814	0.004534
1144.479626	0.002443
1144.635420	0.000662
1144.791195	-0.002088
1144.946952	0.000344
1145.102691	-0.003254
1145.258411	-0.006193
1145.414113	-0.005517
1145.569798	-0.007021
1145.725463	-0.009476
1145.881111	-0.012425
1146.036741	-0.011948
1146.192352	-0.014211
1146.347945	-0.016936
1146.503519	-0.011114
1146.659076	-0.006260
1146.814614	-0.002861
1146.970134	-0.005933
1147.125636	-0.000354
1147.281120	0.003994
1147.436585	0.013421
1147.592032	0.004541
1147.747461	0.011438
1147.902872	0.004021
1148.058265	0.008185
1148.213639	0.006633
1148.368995	0.015284
1148.524333	0.007615
1148.679653	0.005250
1148.834954	-0.006658
1148.990237	-0.002839
1149.145502	-0.009660
1149.300749	-0.004832
1149.455977	-0.003519
1149.611188	-0.013081
1149.766380	-0.026221
1149.921553	-0.023817
1150.076709	-0.028190
1150.231846	-0.028565
1150.386966	-0.031626
1150.542066	-0.026737
1150.697149	-0.023716
1150.852214	-0.026907
1151.007260	-0.017086
1151.162288	-0.006070
1151.317298	-0.009281
1151.472289	-0.009423
1151.627263	0.001753
1151.782218	0.001273
1151.937155	0.000267
1152.092073	-0.005300
1152.246974	-0.007378
1152.401856	-0.008215
1152.556720	-0.004408
1152.711566	0.000800
1152.866393	0.003972
1153.021203	-0.006090
1153.175994	-0.007092
1153.330767	-0.003740
1153.485521	0.000692
1153.640258	0.004055
1153.794976	0.004883
1153.949676	-0.000211
1154.104358	0.003613
1154.259021	0.006438
1154.413667	0.014444
1154.568294	0.027321
1154.722903	0.017462
1154.877493	0.011685
1155.032066	0.009505
1155.186620	0.002234
1155.341156	0.000324
1155.495674	0.000989
1155.650173	0.003134
1155.804654	-0.007271
1155.959118	-0.019284
1156.113562	-0.014674
1156.267989	-0.009937
1156.422397	-0.019651
1156.576788	-0.017443
1156.731160	-0.014123
1156.885513	-0.025032
1157.039849	-0.022403
1157.194166	-0.015918
1157.348465	-0.010640
1157.502746	-0.002237
1157.657009	-0.002097
1157.811253	0.002571
1157.965479	-0.004812
1158.119687	-0.005059
1158.273877	0.001151
1158.428048	0.005663
1158.582201	0.019555
1158.736337	0.026380
1158.890453	0.015198
1159.044552	0.012652
1159.198632	0.013759
1159.352694	0.015306
1159.506738	0.016878
1159.660764	0.019629
1159.814771	0.019038
1159.968761	0.012169
1160.122732	0.002492
1160.276685	-0.002511
1160.430619	-0.006639
1160.584535	-0.000206
1160.738434	0.012552
1160.892313	0.025450
1161.046175	0.014289
1161.200019	0.009349
1161.353844	0.001147
1161.507651	-0.001982
1161.661440	0.010238
1161.815210	0.025877
1161.968962	0.014409
1162.122697	0.005333
1162.276412	-0.007107
1162.430110	0.003912
1162.583789	-0.001061
1162.737451	0.001166
1162.891094	-0.001533
1163.044718	-0.007320
1163.198325	-0.017533
1163.351913	-0.001833
1163.505483	0.011334
1163.659035	0.008654
1163.812569	0.002063
1163.966084	-0.005211
1164.119581	-0.009912
1164.273060	-0.003106
1164.426521	0.003292
1164.579964	0.002868
1164.733388	-0.007227
1164.886794	-0.027735
1165.040182	-0.034784
1165.193551	-0.034588
1165.346903	-0.033681
1165.500236	-0.030826
1165.653551	-0.026594
1165.806848	-0.037047
1165.960126	-0.031110
1166.113386	-0.026936
1166.266628	-0.016477
1166.419852	-0.015224
1166.573058	0.001767
1166.726245	0.000877
1166.879414	-0.000102
1167.032565	0.003079
1167.185698	0.004608
1167.338812	-0.001101
1167.491909	-0.006900
1167.644987	0.003246
1167.798046	0.010729
1167.951088	0.000378
1168.104111	0.007427
1168.257117	0.020232
1168.410103	0.009731
1168.563072	0.020595
1168.716023	0.018647
1168.868955	0.034498
1169.021869	0.013076
1169.174765	0.011538
1169.327642	0.002860
1169.480501	0.009711
1169.633343	-0.007573
1169.786165	-0.004964
1169.938970	-0.008990
1170.091757	-0.008506
1170.244525	-0.029462
1170.397275	-0.007447
1170.550007	-0.008193
1170.702720	0.009659
1170.855415	0.010466
1171.008092	0.013374
1171.160751	0.010427
1171.313392	0.002562
1171.466014	0.064484
1171.618619	-0.037693
1171.771205	-0.037693
1171.923772	-0.037693
