sample name	sample
index	1247
start time	 04-29-2021  12:34:02 PM
880	0.031333
Peak Time (s)	100.535
Peak Height 	0.03133
calc peak height	100,103
Baseline Time (s)	10.536
Baseline Value 	-0.00384
subtract baseline	10,4
Abs	-0.011897
Peak Time (s)	100.535
Peak Height 	-0.0119
calc peak height	100,103
Baseline Time (s)	9.534
Baseline Value 	0.001146
subtract baseline	10,3
PK_550	0.000014
Peak Time (s)	100.535
Peak Height 	1.41E-5
calc peak height	100,103
Baseline Time (s)	9.035
Baseline Value 	4.7257E-4
subtract baseline	10,2
PK_880	-0.014850
Peak Time (s)	101.035
Peak Height 	-0.01485
calc peak height	100,103
Baseline Time (s)	10.536
Baseline Value 	7.0614E-4
subtract baseline	10,1


Time (s)	A880-A510	A880-A775	A880-A975	A880	I510	I775	I975	I880	
0.035500	-0.004386	-0.000992	-0.002796	0.007425	6138.223562	43470.511820	3886.914912	22528.749793
0.535000	-0.002684	-0.001347	0.000735	0.003341	6181.062814	43819.676005	3904.069931	22713.814719
1.036500	-0.001901	0.000019	0.002231	0.004128	6181.036134	43874.235290	3905.684910	22678.024004
1.539500	0.000596	-0.000349	0.002065	0.001499	6219.469190	44087.695356	3911.306927	22797.885289
2.036000	-0.002265	0.000375	-0.003395	0.004708	6174.008177	43853.175739	3891.657202	22651.687601
2.536500	0.001043	-0.000031	-0.002091	0.001071	6226.075051	44158.381020	3902.808299	22817.473883
3.039500	0.002186	-0.000735	-0.006680	-0.001340	6253.048557	44320.643697	3897.875849	22928.153237
3.537000	0.000206	-0.000157	-0.002161	0.000534	6223.804782	44197.434017	3903.869029	22842.065065
4.037000	0.000790	-0.000065	-0.003764	0.001254	6222.780989	44137.843360	3898.605162	22809.094805
4.534500	0.000928	-0.000871	-0.005492	-0.000617	6237.986588	44238.937916	3898.927782	22894.890952
5.035500	0.001441	-0.000202	-0.006403	-0.000071	6237.729319	44250.584899	3895.638403	22869.805784
5.535500	0.000628	-0.000192	0.003000	0.000191	6229.591796	44226.639549	3916.457717	22857.812518
6.036000	0.000268	-0.000962	0.000538	-0.000347	6230.942425	44204.656609	3912.039837	22882.517798
6.536000	0.000482	-0.000091	0.003314	0.000797	6223.909182	44178.729768	3915.785278	22830.027705
7.036500	0.000745	-0.000117	-0.000058	0.000778	6226.040811	44178.051889	3908.103272	22830.892973
7.537000	0.000241	-0.000009	-0.000633	0.000447	6224.728176	44219.733566	3907.544582	22846.045760
8.036500	0.001784	0.000346	0.001345	0.000486	6236.115095	44249.788037	3911.979366	22844.295428
8.537000	-0.000107	0.000057	0.003318	0.000086	6224.833565	44260.351614	3917.431586	22862.622110
9.035000	0.001888	0.000000	-0.002891	-0.000039	6240.881232	44266.749859	3903.513048	22868.347294
9.534500	0.000316	-0.000218	0.000000	-0.000020	6228.828880	44244.203041	3910.058068	22867.468974
10.035000	0.000097	0.000356	-0.001050	0.000461	6223.537235	44253.037889	3906.563208	22845.423240
10.535500	0.000000	0.000370	0.001203	0.000000	6226.288446	44298.212658	3912.768771	22866.567397
11.035500	-0.002348	-0.000260	-0.003752	0.003258	6184.190369	43929.938223	3894.112764	22717.633604
11.536500	-0.000079	-0.000817	0.005051	-0.000271	6227.747378	44211.246677	3922.259756	22879.029890
12.036500	-0.001394	-0.001281	-0.002009	-0.000901	6222.566211	44226.917871	3907.481477	22907.947751
12.537000	0.000339	-0.000462	0.005873	-0.000385	6231.760926	44255.681072	3924.425747	22884.234378
13.037000	-0.004728	-0.000721	-0.001266	0.004786	6155.160532	43742.791188	3896.270871	22648.141876
13.537000	0.001472	-0.000281	0.002389	-0.000339	6240.005813	44268.569098	3916.272291	22882.148319
14.035000	-0.000109	0.000437	0.000964	0.002036	6210.116417	44111.331933	3907.565325	22773.344760
14.536000	-0.001371	-0.000617	-0.001166	0.001530	6204.428664	44059.409368	3903.865345	22796.456189
15.035000	-0.003250	-0.000657	-0.003582	0.004963	6164.793698	43732.118772	3890.665224	22640.108966
15.538000	0.000239	-0.000349	0.001836	-0.000366	6230.864212	44264.696976	3915.061147	22883.388030
16.039000	0.000332	-0.000597	0.004482	-0.000681	6233.955748	44271.129169	3921.891003	22897.864153
16.536500	0.000798	-0.000410	0.001697	-0.000808	6238.445939	44300.845898	3915.757323	22903.661742
17.036500	-0.000198	-0.000805	-0.006844	0.001908	6210.409310	44005.907195	3890.200831	22779.208651
17.537000	-0.000529	-0.000125	-0.001550	0.000551	6218.134569	44198.787945	3905.220964	22841.295275
18.037500	0.000274	-0.000274	-0.004364	0.001111	6219.973304	44131.664001	3897.574195	22815.670852
18.534500	0.001711	0.000459	0.001821	0.001416	6228.522646	44172.207120	3910.941186	22801.715577
19.038000	-0.001873	-0.001211	-0.000708	0.000329	6209.683698	44116.840316	3907.643389	22851.455969
19.535000	-0.001516	0.000251	0.003734	0.000944	6207.743230	44197.185449	3916.412858	22823.277551
20.038000	-0.000439	0.000088	0.003371	0.000795	6216.973866	44195.865945	3915.920596	22830.121106
20.536000	-0.000885	0.000028	-0.003587	0.000718	6214.193257	44197.455880	3900.216680	22833.638312
21.036000	-0.001059	-0.000571	-0.000576	0.000654	6213.368037	44146.743119	3907.204542	22836.589913
21.536000	-0.001068	-0.000169	0.001472	0.000421	6215.049456	44207.015335	3912.419935	22847.246999
22.037000	-0.000545	-0.000421	0.008304	0.001043	6214.304920	44124.099109	3926.756733	22818.763023
22.536500	-0.000643	-0.000502	0.001794	0.000465	6217.929573	44171.239456	3913.057361	22845.255333
23.037000	-0.001450	0.000275	0.001256	0.002098	6199.579027	44090.061297	3908.089673	22770.518057
23.537000	-0.000808	0.000620	-0.000269	0.001370	6209.871005	44191.843693	3906.273190	22803.813489
24.035000	-0.001804	-0.000297	0.000401	0.001138	6204.126235	44126.858748	3908.329272	22814.412308
24.535500	-0.001397	-0.000828	-0.001183	-0.000036	6216.014798	44187.851416	3907.393497	22868.215812
25.035500	-0.000375	0.000177	-0.002278	0.001154	6214.750584	44170.221401	3902.194698	22813.668021
25.535500	-0.000678	-0.000128	0.001367	0.001976	6206.290869	44063.477158	3908.620787	22776.091306
26.036000	0.000531	-0.000468	0.001417	0.000930	6223.278384	44130.359676	3911.128937	22823.950396
26.536500	-0.001255	-0.000399	0.003216	0.000609	6212.225417	44167.329266	3915.991672	22838.628206
27.037000	0.000239	-0.000016	0.004105	-0.001605	6240.259871	44414.465214	3923.156077	22940.372020
27.539000	-0.002539	-0.000191	-0.002592	0.002371	6189.383840	44020.165830	3898.727328	22758.038174
28.037500	0.001508	-0.000135	-0.000369	-0.000154	6238.875051	44264.923644	3909.523580	22873.657037
28.537500	-0.001592	-0.000320	0.003110	-0.000545	6218.380376	44284.461980	3918.406953	22891.585545
29.035500	-0.001332	-0.000417	-0.000266	-0.000541	6220.319411	44274.917722	3910.642303	22891.427531
29.535500	-0.003330	-0.000926	-0.001779	0.002842	6179.969109	43906.311643	3899.501948	22736.567675
30.036000	-0.000438	-0.000473	0.000030	-0.000264	6224.975811	44243.190663	3910.685958	22878.695392
30.537000	0.000958	-0.000777	0.001148	0.001287	6223.801471	44067.197980	3909.694961	22807.571372
31.036000	0.000158	0.000294	0.002988	0.001219	6218.280472	44175.256508	3914.067671	22810.722858
31.536500	-0.003167	0.000141	-0.000928	0.003340	6177.478182	43960.072198	3900.302336	22713.888537
32.037000	-0.000549	0.000150	0.003716	0.000172	6220.847834	44261.002449	3918.150450	22858.686538
32.537000	-0.001554	0.000208	-0.000304	-0.000210	6216.142124	44302.774361	3909.798192	22876.191783
33.037500	-0.003008	0.000060	0.001153	0.005329	6163.874948	43765.122964	3900.509401	22623.509817
33.535000	-0.001878	0.000113	0.004849	0.002564	6192.892729	44030.756562	3915.254010	22749.269432
34.038000	0.000986	0.000314	0.003931	0.001396	6223.197601	44160.319810	3915.827659	22802.629518
34.535500	-0.001961	-0.000447	-0.000799	0.000790	6205.568122	44145.611922	3906.387920	22830.363013
35.036000	-0.000027	-0.000398	0.002721	0.001618	6213.879760	44071.902726	3912.539553	22792.473905
35.536000	-0.002123	-0.000475	-0.002051	0.002805	6189.248560	43952.391967	3898.971884	22738.258174
36.036000	0.000530	-0.000329	0.002864	0.001119	6221.838375	44125.642571	3914.011623	22815.273939
36.536500	-0.001630	-0.000227	0.005144	0.001038	6206.190718	44143.030885	3919.448437	22819.011063
37.037000	-0.000909	0.000021	-0.000168	0.001484	6208.252681	44124.191468	3906.242843	22798.602050
37.537000	-0.001174	-0.000261	0.001628	0.001148	6208.791480	44129.344807	3911.112412	22813.972891
38.034500	-0.000073	0.000176	0.000093	0.001582	6213.809057	44129.605038	3906.615038	22794.123136
38.537500	0.000511	0.000343	0.003344	0.001131	6221.600671	44188.175753	3915.085195	22814.724847
39.035000	-0.000094	-0.000674	-0.004573	0.001482	6214.395436	44058.532634	3896.263125	22798.656766
39.536000	0.001802	0.000651	0.002643	0.001611	6227.730036	44171.884779	3912.375541	22792.780548
40.036500	-0.001334	-0.000833	-0.000523	0.000444	6212.877411	44141.822399	3907.804700	22846.204615
40.536000	0.000027	0.000011	0.002161	0.001201	6217.427287	44150.130210	3912.212044	22811.543009
41.037000	-0.002295	0.000207	-0.003718	0.001693	6196.281458	44121.984317	3897.715520	22789.009490
41.537000	0.000536	0.000092	0.001425	0.001218	6221.142407	44156.185790	3910.485951	22810.760129
42.034000	0.000092	0.000702	-0.003372	0.001811	6213.326484	44157.810752	3898.233482	22783.648247
42.535000	-0.000400	0.000098	0.000682	0.001250	6213.846261	44153.669243	3908.715532	22809.304137
43.037500	-0.004082	0.000201	0.005751	0.002173	6179.351256	44075.980843	3918.228962	22767.111032
43.535500	-0.002226	-0.000229	0.003599	0.003594	6182.596206	43901.163596	3910.025620	22702.327109
44.036000	0.000963	-0.000737	0.002958	-0.001019	6241.300512	44289.917115	3919.150020	22913.389664
44.535500	-0.000353	-0.000381	0.004592	-0.000967	6230.934421	44318.784193	3922.806792	22910.999880
45.036000	-0.000165	-0.000638	0.000918	0.004675	6189.908558	43760.966751	3901.460272	22653.190068
45.536500	0.000620	0.000354	0.002858	-0.000650	6235.902194	44358.631635	3918.067205	22896.426330
46.037000	0.000063	-0.000174	0.002649	-0.000728	6232.275762	44315.816270	3917.766445	22900.007517
46.537000	0.002766	0.000141	0.001320	-0.000619	6251.966908	44335.351713	3914.457081	22894.973706
47.037000	-0.005909	-0.000243	-0.001244	0.003842	6153.413301	43876.554832	3898.451822	22691.050031
47.537500	-0.003756	-0.000119	-0.003375	0.004169	6166.933924	43857.395746	3892.910709	22676.155396
48.038000	0.001088	0.000379	0.001498	-0.000117	6235.410234	44310.236072	3913.713653	22871.931192
48.535500	-0.000185	0.000002	0.003828	-0.000700	6230.182771	44329.870741	3920.421412	22898.732100
49.035000	-0.001410	-0.000055	0.002295	0.004329	6183.198495	43848.350143	3905.374683	22668.913638
49.536000	-0.002263	0.000049	-0.007265	0.004546	6175.226243	43837.705230	3883.367378	22659.025800
50.036500	-0.000459	-0.000865	0.004750	0.007368	6167.661908	43487.628313	3904.043336	22531.287969
50.536500	-0.000208	-0.000422	0.007735	0.008329	6162.393683	43439.368872	3908.655421	22488.001522
51.034000	0.009404	-0.016872	0.013086	0.385127	4325.738483	19334.257097	3338.567009	11147.363464
51.537000	0.005331	-0.019696	-0.014429	0.091783	5633.799335	34914.896586	3694.558610	19069.931870
52.034500	-0.014036	-0.043014	-0.019886	-0.153506	7469.352578	56225.836902	4267.779825	31316.578519
52.534500	-0.013871	-0.060790	-0.010211	-0.227372	8310.432261	63567.585408	4554.309098	36578.291625
53.035000	-0.001833	-0.049006	-0.001260	-0.213415	8286.770356	63265.054421	4535.539703	35514.275359
53.536500	0.002226	-0.025396	0.003602	-0.158664	7698.151211	59093.129015	4359.885078	31655.636138
54.036000	0.001541	-0.018965	0.004989	-0.095565	7048.746677	52227.816707	4168.746375	27771.977173
54.536500	-0.008254	-0.019881	-0.003121	-0.080364	6819.158792	50433.312854	4103.326183	26917.753254
55.036500	-0.010464	-0.016438	-0.011149	-0.077201	6771.512987	50464.049342	4073.144523	26743.752883
55.537000	-0.018155	-0.012832	-0.014115	-0.096318	6873.549741	53015.053490	4116.953051	27815.089214
56.037000	-0.013122	-0.010075	-0.015457	-0.096226	6918.521857	53323.063747	4112.998153	27809.842490
56.537500	-0.008767	-0.010425	-0.014262	-0.113329	7119.840103	55303.389363	4164.467944	28808.924943
57.040000	-0.005080	-0.006664	-0.005186	-0.094183	6973.799836	53481.936880	4135.872189	27693.089736
57.535000	-0.012608	-0.008579	-0.017157	-0.080721	6783.658869	51724.828139	4066.538567	26937.491110
58.040500	-0.011568	-0.008563	-0.016695	-0.066571	6669.478950	50163.683848	4030.869984	26168.100151
58.536000	-0.010130	-0.009580	-0.008127	-0.033403	6406.983505	46591.422669	3969.526030	24459.929798
59.036000	-0.008732	-0.008709	-0.013852	-0.019127	6305.804778	45265.572995	3922.149157	23763.912859
59.536500	-0.011304	-0.006961	-0.010308	-0.017039	6269.927176	45232.482853	3925.525243	23664.053356
60.036500	-0.007984	-0.004020	-0.011378	-0.014317	6274.499978	45253.700717	3916.755843	23534.505117
60.536500	-0.009372	-0.001941	-0.008135	-0.012684	6251.415460	45297.200023	3920.469644	23457.200794
61.037000	-0.010539	-0.005086	-0.012306	-0.008567	6211.417490	44595.277909	3901.499192	23263.588396
61.540000	-0.015450	-0.005542	-0.018760	0.000521	6107.770267	43690.651055	3866.887345	22842.675976
62.034500	-0.013629	-0.008877	-0.014957	-0.005295	6163.902073	43923.868435	3888.163237	23111.039757
62.535000	-0.014009	-0.011779	-0.011815	0.008593	6059.829444	42370.881625	3864.425552	22476.116031
63.035500	-0.013985	-0.009941	-0.016053	0.039522	5845.797860	39818.118260	3790.726433	21132.966396
63.535500	-0.015984	-0.017267	-0.006598	0.092608	5500.107623	35033.079856	3707.204843	19039.325252
64.036000	-0.015534	-0.008833	-0.012285	0.094147	5493.704485	35546.182218	3694.163485	18982.341475
64.536500	-0.014190	-0.004803	-0.006751	0.099426	5470.702727	35452.589785	3694.621044	18788.481755
65.036500	-0.013859	-0.003539	-0.013242	0.101911	5458.198930	35361.400208	3678.711872	18698.037788
65.537000	-0.019991	-0.004558	-0.017883	0.103157	5415.850649	35192.937462	3668.457095	18652.905897
66.037500	-0.011623	-0.003934	-0.009404	0.093426	5521.048902	35970.523566	3700.639460	19009.031623
66.537500	-0.016613	-0.004239	-0.014705	0.086948	5529.895188	36442.900617	3702.765636	19250.560477
67.034500	-0.015179	-0.002602	-0.020918	0.086647	5540.241318	36592.528907	3692.139714	19261.851723
67.535500	-0.015469	-0.002017	-0.011198	0.074382	5612.827473	37602.192624	3732.394029	19729.467172
68.035500	-0.014652	-0.000227	-0.015563	0.069724	5646.688468	38120.154878	3732.943544	19910.539105
68.536000	-0.017231	-0.000472	-0.022740	0.064525	5663.048743	38523.480566	3729.236128	20114.989700
69.036000	-0.022308	-0.001106	-0.021450	0.063763	5636.160021	38533.953065	3733.082458	20145.134433
69.536500	-0.024071	-0.002395	-0.021906	0.059513	5651.626843	38777.294896	3740.244471	20314.387566
70.036500	-0.018943	-0.001462	-0.018777	0.050690	5740.017823	39590.668708	3763.217314	20671.003697
70.537000	-0.020263	-0.001059	-0.016706	0.047998	5748.870137	39852.617464	3772.549604	20781.287789
71.037500	-0.022866	-0.002056	-0.019423	0.047284	5736.689867	39828.579663	3768.611834	20810.644196
71.535000	-0.023816	-0.003370	-0.022997	0.046713	5734.252548	39765.546142	3762.743075	20834.147993
72.037500	-0.020543	-0.002481	-0.018778	0.040738	5794.315142	40351.722795	3782.833523	21082.106221
72.535500	-0.020842	-0.002978	-0.024276	0.039097	5803.134353	40450.300365	3775.177665	21150.799877
73.035500	-0.023037	-0.002783	-0.029172	0.044330	5754.651519	40018.103956	3755.391951	20932.648668
73.536000	-0.024463	-0.002998	-0.029561	0.043224	5752.582145	40094.176035	3756.777023	20978.544727
74.036000	-0.022267	-0.003050	-0.019533	0.038165	5799.886340	40524.591860	3786.463632	21189.899459
74.536500	-0.025690	-0.003137	-0.024521	0.038839	5773.080773	40458.894738	3775.201937	21161.632483
75.037000	-0.020529	-0.003054	-0.023258	0.039381	5803.322007	40419.259078	3776.627581	21138.872881
75.540000	-0.025950	-0.003923	-0.026511	0.043626	5740.388683	39980.885030	3761.912115	20961.825675
76.037500	-0.022821	-0.003260	-0.018977	0.041050	5777.364041	40257.931582	3781.813298	21069.063925
76.535000	-0.021597	-0.003265	-0.024786	0.041875	5779.969793	40186.804576	3768.704771	21034.673226
77.035500	-0.023409	-0.002930	-0.017774	0.048315	5726.587963	39667.269234	3769.825525	20768.267603
77.535500	-0.022327	-0.003203	-0.013741	0.043939	5761.785556	40015.582008	3786.500969	20948.857373
78.036000	-0.021096	-0.002252	-0.019294	0.044878	5763.673848	40016.526784	3773.597252	20909.925728
78.536000	-0.022188	-0.003000	-0.018181	0.045293	5753.911825	39917.563811	3774.976229	20892.777098
79.036000	-0.019741	-0.002129	-0.022444	0.045751	5766.809852	39952.717988	3765.700366	20873.862639
79.536500	-0.019868	-0.002174	-0.017137	0.045953	5764.674518	39931.697751	3775.735598	20865.522544
80.039500	-0.020042	-0.001513	-0.019521	0.046486	5760.083485	39942.539778	3769.987662	20843.532580
80.537000	-0.018495	-0.002198	-0.021396	0.046058	5772.921480	39920.673587	3767.150127	20861.179114
81.034500	-0.020020	-0.001360	-0.022235	0.046417	5760.673372	39961.461575	3764.805835	20846.358205
81.535000	-0.019068	-0.001344	-0.016762	0.045992	5769.614671	39998.978709	3776.399395	20863.881736
82.035000	-0.019121	-0.000650	-0.017091	0.045088	5775.159634	40135.542513	3777.540066	20901.259231
82.535500	-0.017532	-0.000228	-0.015919	0.044749	5787.760321	40200.757587	3780.539203	20915.302193
83.035500	-0.019230	-0.001168	-0.015507	0.047898	5756.194792	39851.845138	3775.113423	20785.396536
83.536000	-0.020024	-0.000157	-0.017275	0.046560	5759.719196	40051.892083	3774.263975	20840.476480
84.036000	-0.016603	-0.000512	-0.020294	0.042614	5807.892832	40359.710316	3776.096846	21003.889972
84.540000	-0.017203	0.000121	-0.021993	0.041594	5810.668006	40502.299835	3774.754069	21046.379883
85.037000	-0.019368	-0.000887	-0.019086	0.040156	5805.867826	40539.432994	3783.377186	21106.411457
85.537500	-0.020380	-0.000458	-0.018590	0.042322	5785.003971	40389.540096	3780.052570	21016.028139
86.038000	-0.018242	0.000111	-0.020447	0.039916	5814.891094	40646.807362	3781.146350	21116.492680
86.535000	-0.018290	-0.000117	-0.020884	0.039212	5819.231133	40688.051964	3781.677309	21145.986947
87.035500	-0.019148	-0.000044	-0.017065	0.038788	5816.349237	40731.233414	3790.166469	21163.736200
87.536000	-0.019671	-0.001289	-0.021130	0.039867	5805.774840	40529.701619	3779.884271	21118.526582
88.036000	-0.017119	-0.000032	-0.018564	0.038037	5834.801910	40797.604221	3788.663586	21195.305130
88.536500	-0.018154	-0.001536	-0.018194	0.036525	5837.977391	40798.371347	3792.449669	21258.978869
89.036500	-0.017199	-0.000354	-0.015965	0.037046	5840.868922	40855.949514	3795.899687	21236.992005
89.537000	-0.018599	-0.000276	-0.016063	0.039371	5816.125318	40660.411372	3791.008325	21139.283871
90.037000	-0.017436	-0.000859	-0.013935	0.036407	5843.551011	40867.607868	3801.318392	21263.958116
90.537500	-0.018089	-0.001259	-0.014027	0.036258	5840.192916	40845.774581	3801.434396	21270.250081
91.035000	-0.019550	-0.001235	-0.014555	0.036088	5831.590262	40862.634284	3800.704635	21277.411225
91.535500	-0.016083	-0.001826	-0.022462	0.037251	5846.953474	40709.944796	3782.439225	21228.360403
92.035500	-0.016141	-0.001574	-0.008144	0.035596	5857.647044	40875.983977	3814.865543	21298.207046
92.535000	-0.015362	-0.000341	-0.018269	0.036284	5858.254916	40923.557556	3792.783565	21269.139081
93.036000	-0.017995	-0.000800	-0.018520	0.038757	5824.198066	40668.274472	3787.308949	21165.071846
93.536000	-0.018817	-0.000854	-0.014726	0.037518	5826.966026	40771.255192	3797.453729	21217.152959
94.037000	-0.015871	-0.000335	-0.015510	0.035418	5860.658934	40999.925774	3800.126270	21305.748229
94.537000	-0.015462	-0.000580	-0.012805	0.035604	5862.149636	40962.123433	3805.262859	21297.860457
95.037500	-0.016154	-0.000263	-0.011892	0.035451	5858.533778	41003.304570	3807.446357	21304.339102
95.535000	-0.015927	-0.000523	-0.014544	0.036751	5851.340253	40866.941981	3799.378469	21249.436121
96.035500	-0.016026	0.000175	-0.016793	0.034625	5864.938694	41114.137111	3799.129335	21339.294267
96.535500	-0.013991	0.000471	-0.014519	0.034774	5877.653366	41127.038851	3803.456738	21332.989425
97.035500	-0.019809	0.000120	-0.015502	0.038703	5812.542266	40752.912451	3793.487177	21167.316638
97.536000	-0.014633	-0.000443	-0.019887	0.035187	5870.538698	41010.713070	3791.734936	21315.521908
98.036500	-0.014571	-0.000139	-0.008847	0.033423	5882.869417	41192.263850	3817.909695	21390.327679
98.539500	-0.014302	0.000438	-0.012490	0.033495	5884.203791	41236.714523	3810.237225	21387.271603
99.036500	-0.018335	-0.000501	-0.016669	0.036510	5836.870741	40889.868306	3795.560387	21259.617963
99.537500	-0.014998	-0.000225	-0.016384	0.032982	5882.962305	41223.511681	3803.307306	21409.056986
100.035000	-0.016091	-0.000111	-0.018409	0.031329	5886.757368	41379.379995	3802.548695	21479.495169
100.535000	-0.016935	0.000014	-0.011897	0.031333	5881.013833	41390.159839	3815.919887	21479.339683
101.035500	-0.014850	-0.000492	-0.015507	0.030623	5899.980848	41408.185659	3809.937378	21509.686103
101.535500	-0.015850	-0.000407	-0.014162	0.030694	5892.697005	41409.395006	3812.560482	21506.620105
102.036000	-0.017826	-0.001333	-0.015891	0.029444	5887.772959	41438.093515	3811.573530	21560.171866
102.535500	-0.017646	-0.001150	-0.014759	0.029349	5889.633681	41462.744357	3814.104901	21564.227547
103.039500	-0.017221	-0.000405	-0.014825	0.033768	5862.672971	41138.470189	3804.887719	21375.662044
103.536500	-0.017458	-0.001926	-0.014924	0.028358	5897.648177	41481.780780	3815.813195	21606.795034
104.037000	-0.016635	-0.001465	-0.014920	0.028282	5903.767512	41529.518659	3815.980289	21610.075657
104.537500	-0.013712	-0.001611	-0.019489	0.028109	5924.946840	41531.884124	3806.923437	21617.507073
105.034500	-0.015589	-0.001566	-0.016681	0.031824	5886.810284	41207.380725	3805.068636	21458.402183
105.538000	-0.019104	-0.001283	-0.011348	0.029419	5879.291454	41444.809597	3821.032806	21561.237652
106.036000	-0.014746	-0.001319	-0.015498	0.027769	5920.181642	41588.029846	3815.845127	21632.132970
106.535500	-0.014456	-0.001410	-0.010338	0.027758	5922.246421	41580.910801	3826.611169	21632.621687
107.036500	-0.017392	-0.001147	-0.011660	0.032119	5872.621807	41218.334759	3814.784999	21445.816505
107.537000	-0.014032	-0.000299	-0.017616	0.029725	5911.686353	41504.907898	3807.452296	21548.134469
108.037000	-0.015161	-0.000334	-0.013845	0.028621	5911.513077	41599.779607	3817.503605	21595.471780
