sample name	sample
index	690
start time	 03-22-2021  12:23:58 PM
880	0.000185
Peak Time (s)	91.537
Peak Height 	1.8519E-4
calc peak height	90,93
Baseline Time (s)	9.036
Baseline Value 	-0.004251
subtract baseline	10,4
Abs	-0.013418
Peak Time (s)	91.036
Peak Height 	-0.01342
calc peak height	90,93
Baseline Time (s)	10.536
Baseline Value 	0.003465
subtract baseline	10,3
PK_550	-0.003213
Peak Time (s)	90.036
Peak Height 	-0.003213
calc peak height	90,93
Baseline Time (s)	9.036
Baseline Value 	5.3975E-4
subtract baseline	10,2
PK_880	-0.013076
Peak Time (s)	90.535
Peak Height 	-0.01308
calc peak height	90,93
Baseline Time (s)	9.036
Baseline Value 	0.001738
subtract baseline	10,1


Time (s)	A880-A510	A880-A775	A880-A975	A880	I510	I775	I975	I880	
0.036000	-0.003395	-0.001021	-0.003974	0.004961	7317.637305	45418.609617	3963.811524	24070.350716
0.536500	-0.001601	0.000108	-0.005730	0.006583	7319.395505	45370.350341	3955.147231	23991.326139
1.037000	0.000003	0.000080	-0.001938	0.004267	7359.719521	45594.641173	3970.865348	24104.257839
1.537000	0.000191	-0.000590	-0.003147	0.000735	7398.332226	45876.965668	3976.903904	24277.700511
2.037000	-0.002556	-0.000891	-0.001964	0.004172	7334.340721	45508.660783	3971.046936	24108.935316
2.540500	-0.003024	-0.001177	-0.006879	0.000431	7368.088078	45848.895215	3968.005349	24292.674050
3.035500	0.000760	-0.000163	0.001521	-0.001920	7432.062388	46183.018148	3996.148141	24409.014395
3.536000	-0.000601	0.000744	-0.000005	0.000925	7388.116634	45990.282163	3984.622799	24268.341166
4.038500	-0.000030	0.000546	-0.003628	0.000832	7395.023342	45979.912257	3975.400350	24272.934300
4.536500	-0.000247	-0.000994	-0.001701	-0.000676	7408.484033	45976.687161	3984.371633	24347.371761
5.036500	0.000944	0.000059	-0.002646	0.000105	7412.773180	46003.647694	3979.852932	24308.774523
5.536500	0.002215	0.000082	-0.001791	0.000478	7422.171360	45968.961135	3981.113583	24290.353600
6.036500	0.001826	-0.000167	-0.002866	0.000519	7417.661850	45940.215513	3978.198965	24288.342948
6.537000	0.001826	0.000624	-0.001318	0.000633	7416.474812	46007.347788	3981.945301	24282.720039
7.037000	-0.000201	-0.000048	0.000594	0.000051	7401.380085	45998.478535	3988.493849	24311.464092
7.535000	0.000438	0.000576	-0.000885	0.000422	7404.172898	46023.552537	3983.632853	24293.131185
8.035000	0.002361	0.000328	-0.003271	-0.000159	7430.390110	46056.664085	3978.912045	24321.838478
8.538000	-0.000021	0.000167	0.000336	-0.000208	7405.952788	46045.446414	3988.494159	24324.219364
9.035500	0.000000	0.000000	0.002308	0.000000	7404.007924	46008.261290	3993.147867	24313.967944
9.536000	0.000478	0.000621	-0.001557	0.000028	7408.701924	46067.134533	3982.903608	24312.570487
10.036500	0.002307	0.000641	0.004439	0.000232	7425.715823	46048.896329	3998.178212	24302.501689
10.536000	-0.001313	-0.000809	0.000000	-0.000572	7396.276390	45984.729321	3988.568074	24342.211907
11.037000	0.000136	-0.000111	-0.002514	-0.000143	7406.921787	46011.476022	3980.847992	24321.055483
11.534500	-0.001470	-0.000727	-0.004344	0.003782	7349.535698	45563.149278	3965.900966	24128.032214
12.035000	0.000878	0.000168	-0.002761	0.000440	7408.583986	45981.312146	3978.681690	24292.268859
12.534500	0.001149	0.000361	0.001376	0.000304	7412.839091	46013.885122	3989.885841	24298.965985
13.038500	0.002210	-0.000256	0.005831	-0.001410	7441.947043	46122.943394	4006.261059	24383.707865
13.536000	0.000847	-0.000279	-0.000980	0.004833	7362.593710	45503.844671	3971.881511	24076.606403
14.036000	0.000807	-0.000088	-0.003137	0.000537	7406.831913	45946.336717	3977.446361	24287.484776
14.536000	-0.000492	-0.000598	-0.004393	0.002674	7371.088653	45684.773455	3968.636010	24182.339810
15.036500	0.000645	0.000147	0.003536	0.000456	7405.982483	45977.578214	3995.189213	24291.453289
15.588000	-0.002306	-0.000774	-0.006930	0.003994	7338.737036	45537.714391	3958.702288	24117.652321
16.037500	0.000322	0.000038	-0.001594	-0.000091	7408.318317	46021.067924	3983.119022	24318.444635
16.537500	0.002686	0.000464	0.003830	0.000476	7427.128806	46007.060786	3995.917924	24290.489260
17.035000	0.001983	0.000121	-0.005323	0.000074	7423.973978	46012.937086	3972.961624	24310.306830
17.538000	-0.001942	-0.000718	-0.000742	0.004332	7339.010808	45509.949983	3973.802362	24101.118986
18.036000	-0.000453	-0.000671	-0.001985	0.000140	7397.822183	45927.783423	3981.491873	24307.046241
18.536000	-0.001152	0.000387	-0.002700	0.001216	7379.365754	45926.074212	3976.816458	24254.006124
19.036000	0.000061	-0.000202	0.000665	0.001769	7386.223302	45813.147150	3984.168166	24226.809686
19.536000	-0.000976	0.000397	-0.003377	0.002481	7368.075330	45801.984264	3971.767091	24191.816080
20.036500	0.000027	0.000042	0.002300	0.001653	7387.067445	45848.653569	3988.766429	24232.494170
20.536500	0.000258	-0.000533	0.001530	0.001092	7395.312974	45847.237586	3988.215864	24260.090621
21.037000	0.000212	0.000214	0.000483	0.001951	7385.890091	45836.134412	3983.211356	24217.819216
21.537500	-0.000234	0.000983	0.002077	0.002500	7375.562885	45857.912602	3985.952115	24190.861322
22.038000	-0.001241	0.000215	-0.001733	0.001990	7370.424702	45832.531511	3977.319083	24215.943329
22.535500	-0.001534	-0.000876	0.001102	0.001057	7377.050474	45816.781819	3987.181884	24261.825195
23.035500	0.000371	0.000480	0.000215	0.002208	7384.876378	45837.111140	3981.836131	24205.195401
23.536000	0.000858	-0.000078	-0.004040	0.002610	7385.763161	45742.360173	3969.715967	24185.479985
24.036500	0.000024	-0.000243	-0.005001	0.001617	7387.414539	45823.999816	3969.796889	24234.256476
24.536500	-0.001858	-0.001367	0.000889	0.001076	7373.488026	45766.420331	3986.571364	24260.880597
25.036500	-0.001243	-0.000102	0.000583	0.002070	7369.562524	45793.265012	3983.161918	24211.995727
25.537500	0.000868	0.000461	-0.003175	0.002839	7383.486567	45772.899638	3971.361672	24174.212896
26.037000	0.000413	0.000609	0.000461	0.002816	7379.004776	45789.796750	3980.889907	24175.363659
26.538000	0.002167	-0.000009	-0.002801	0.001962	7406.147161	45813.163812	3974.610634	24217.312390
27.035500	0.000284	0.000750	-0.001592	0.002463	7381.329098	45838.579785	3976.453333	24192.682761
27.536000	-0.001096	0.000496	-0.002592	0.002140	7370.354987	45845.390680	3974.691401	24208.530259
28.039000	0.001840	0.001054	-0.003409	-0.000129	7424.600922	46125.808667	3978.472526	24320.332253
28.536000	0.002153	0.000333	-0.001935	0.000554	7420.731746	45986.346337	3980.539194	24286.641619
29.036500	0.001952	0.000654	0.000528	0.000874	7415.262724	45986.357525	3986.155048	24270.827330
29.537000	-0.000243	-0.000145	-0.002767	0.003831	7361.691807	45615.437545	3969.849856	24125.614453
30.037000	-0.000668	-0.000108	-0.003979	0.005272	7342.444449	45477.646961	3962.999723	24055.200037
30.534000	0.000303	0.000239	-0.001416	0.000566	7401.263185	45975.904068	3981.866100	24286.052704
31.037500	0.000254	0.000428	0.004164	0.001235	7393.777459	45928.242123	3994.790715	24253.063695
31.535000	0.000763	0.000548	-0.000226	0.004158	7368.713934	45651.483269	3975.597568	24109.616523
32.035500	-0.002966	-0.000161	-0.001571	0.005587	7315.617537	45441.470242	3968.397771	24039.809339
32.536000	0.003232	0.001124	0.000356	0.001698	7420.050107	45951.384532	3983.543289	24230.292087
33.035500	0.002125	0.000406	0.006330	0.001129	7414.418334	45936.578188	4000.821232	24258.282870
33.536000	-0.002579	0.000196	-0.004125	0.005248	7323.060130	45509.695702	3962.685365	24056.349417
34.036500	-0.002842	-0.000198	-0.004251	0.006300	7309.597710	45368.187044	3959.658427	24005.101892
34.536500	0.000584	-0.000093	0.005307	0.000063	7409.444039	45992.803689	4000.934154	24310.853997
35.037000	-0.001509	-0.000312	0.003123	0.002501	7362.350027	45729.977229	3988.699795	24190.818002
35.540000	-0.000187	-0.000325	-0.003289	0.002523	7375.816893	45726.517188	3971.884971	24189.730891
36.037000	0.000919	0.000275	-0.001636	0.002836	7384.046859	45754.794167	3975.366990	24174.354514
36.538000	0.000173	-0.000592	-0.001365	0.002782	7376.860597	45674.701484	3976.211411	24177.004710
37.035500	-0.000001	-0.000170	0.000998	0.002636	7376.567210	45730.630901	3982.767327	24184.186521
37.535000	0.000047	-0.000361	-0.002886	0.003284	7370.353900	45648.038425	3970.957838	24152.419662
38.036000	-0.000821	-0.000404	0.001792	0.002442	7370.080918	45726.682899	3985.355038	24193.687758
38.536000	-0.000936	-0.000308	-0.003341	0.002539	7367.896916	45726.691872	3971.710062	24188.968740
39.036000	-0.000781	0.000434	-0.002809	0.003715	7357.324644	45683.847191	3970.040017	24131.275748
39.537000	-0.003018	-0.000109	-0.004920	0.003466	7336.838121	45654.834910	3965.228595	24143.468479
40.040000	-0.001923	-0.000335	0.001047	0.002544	7357.625196	45723.491513	3983.134497	24188.705471
40.537500	0.000256	0.000046	-0.000493	0.002546	7380.173286	45760.812191	3979.100932	24188.590143
41.035000	-0.000857	0.000358	-0.003331	0.003646	7357.250778	45683.154700	3968.867724	24134.650222
41.580000	-0.000181	-0.000206	0.000350	0.002955	7371.397900	45695.726684	3980.236782	24168.553197
42.035500	0.000534	0.000206	0.002496	0.003347	7374.753327	45697.671076	3984.831292	24149.336579
42.535500	0.000257	-0.000214	0.000985	0.003062	7374.830997	45684.353848	3981.617120	24163.284666
43.035500	0.001518	0.000211	0.001007	0.003200	7386.487143	45712.603105	3981.313366	24156.514990
43.536000	-0.000149	-0.000076	-0.004268	0.003061	7370.628858	45697.960440	3967.957340	24163.316005
44.036500	0.000885	0.000629	-0.001273	0.003358	7378.269430	45738.281579	3974.954066	24148.762580
44.539500	0.003760	0.000252	0.002777	0.000309	7440.169920	46002.640845	3993.570706	24298.711530
45.040000	0.002583	0.001406	0.002064	-0.000152	7432.643580	46163.142511	3992.904292	24321.476401
45.535000	-0.000502	0.000188	0.003700	0.003959	7357.687648	45635.535675	3986.382166	24119.323359
46.035500	0.000282	-0.000527	0.005006	0.002340	7382.574586	45724.618352	3994.094159	24198.706950
46.535000	0.001961	0.000821	-0.002783	0.001637	7407.390525	45927.406552	3975.502978	24233.283342
47.038000	0.000845	-0.000520	0.000679	0.000489	7407.715484	45908.232580	3987.561534	24289.809381
47.536500	0.001363	0.000915	-0.002274	0.005094	7365.241311	45595.500786	3967.858085	24063.882628
48.036000	0.000902	0.000190	-0.004885	0.004530	7366.302555	45579.651539	3962.576350	24091.414313
48.536500	0.000619	0.000305	-0.001067	0.003774	7371.193596	45665.279669	3974.405825	24128.385119
49.039000	0.000484	0.000266	0.000977	0.001338	7395.112129	45902.041703	3986.115904	24248.017251
49.537500	-0.000706	0.000609	-0.000985	0.005578	7338.905815	45517.903940	3969.939264	24040.273753
50.037500	-0.001729	0.000107	-0.000101	0.005899	7325.091706	45437.179098	3971.398338	24024.613422
50.535000	0.001034	-0.000305	-0.002076	-0.001718	7432.815916	46148.712415	3986.121843	24398.966264
51.035000	0.001338	0.000089	0.000021	-0.000629	7424.577206	46079.623331	3988.775001	24345.054436
51.535500	-0.002687	0.000657	-0.000254	0.008313	7290.651594	45255.034046	3964.760295	23907.326828
52.035500	0.005407	0.002255	0.001458	0.040157	7055.492314	42406.014836	3889.723132	22419.797369
52.536500	-0.055180	-0.013790	-0.024834	0.152580	5680.763749	32291.058950	3604.149396	17960.307745
53.036500	-0.065059	-0.038027	-0.042316	-0.163793	8560.915227	60485.358908	4355.573218	34139.259240
53.539500	-0.065970	-0.160133	-0.033617	-0.322406	11051.709427	65535.000000	5065.394854	47925.167626
54.036500	-0.059117	-0.146530	-0.020863	-0.308803	10925.562781	65535.000000	5061.062785	46535.736087
54.536500	-0.069909	-0.132103	-0.014422	-0.294376	10471.198506	65535.000000	5020.684204	45108.877991
55.034500	-0.052188	-0.106955	-0.011678	-0.269229	10342.357371	65535.000000	4911.312060	42732.384882
55.535000	-0.043976	-0.110549	-0.022216	-0.272823	10548.215364	65535.000000	4878.539384	43063.638980
56.035500	-0.025350	-0.106995	-0.015033	-0.269269	10819.299826	65535.000000	4895.602361	42736.031195
56.535500	-0.019440	-0.096662	-0.013162	-0.258935	10738.755106	65535.000000	4856.033034	41798.586325
57.036000	-0.020189	-0.060302	-0.012270	-0.216169	9988.713361	64617.909763	4671.212679	38147.593346
57.536000	-0.016957	-0.036470	-0.014615	-0.178505	9446.253322	62683.408085	4510.516803	35216.817233
58.039000	-0.019459	-0.020098	-0.016331	-0.131022	8731.483826	58551.002873	4332.160477	31866.396631
58.536500	-0.020799	-0.014823	-0.015788	-0.093949	8235.443423	54622.262576	4212.209284	29493.562376
59.037000	-0.021593	-0.011313	-0.011101	-0.073283	7976.855445	52619.144359	4162.830880	28256.237082
59.537500	-0.020623	-0.009814	-0.014843	-0.053950	7765.501206	50619.031034	4094.650254	27150.777139
60.035000	-0.025141	-0.009128	-0.019289	-0.035245	7510.693321	48679.906532	4029.794605	26127.089939
60.535000	-0.024859	-0.008306	-0.017556	-0.020093	7354.545468	47194.135476	3993.754256	25329.546882
61.035000	-0.015337	-0.005013	-0.017759	-0.004654	7293.877620	45972.644493	3953.125870	24545.029729
61.536000	-0.016142	-0.003615	-0.019375	-0.004029	7279.343482	46049.361274	3947.421881	24513.842169
62.038000	-0.029891	-0.008066	-0.024615	0.012715	6980.491717	43994.399153	3893.021239	23695.178417
62.538500	-0.017721	-0.004454	-0.022339	0.015472	7070.518709	44075.368150	3891.860962	23563.356928
63.036500	-0.014825	-0.003525	-0.019621	0.008611	7165.911706	44820.411106	3915.199390	23892.896486
63.540000	-0.017204	-0.004256	-0.017051	0.009350	7135.195558	44678.837097	3919.722601	23857.178480
64.037000	-0.015731	-0.004507	-0.022952	0.004700	7195.734796	45104.109708	3916.631421	24083.128002
64.537000	-0.015393	-0.004320	-0.018764	0.003155	7214.521124	45272.738971	3930.866864	24158.729315
65.035000	-0.016516	-0.004164	-0.018958	0.001486	7219.983970	45451.137841	3934.561060	24240.708320
65.535500	-0.016421	-0.004403	-0.022465	0.002101	7214.779827	45367.536997	3924.271202	24210.468415
66.036000	-0.013741	-0.004160	-0.020260	-0.000204	7264.915868	45617.468858	3935.533724	24324.049977
66.536000	-0.013377	-0.004557	-0.024060	-0.000807	7274.713268	45637.713931	3927.537894	24353.860724
67.039000	-0.015108	-0.004459	-0.018334	-0.000578	7254.889411	45624.804519	3941.323816	24342.541861
67.536500	-0.017581	-0.003971	-0.019809	0.004429	7180.040794	45182.574389	3925.087513	24096.357824
68.037000	-0.012526	-0.003087	-0.020182	0.002575	7249.123543	45449.946292	3928.774944	24187.169284
68.537000	-0.013984	-0.003528	-0.019883	0.001815	7242.100428	45481.284524	3931.420442	24224.531739
69.037500	-0.012884	-0.003692	-0.024803	0.001899	7252.332326	45456.975560	3918.978484	24220.406394
69.538000	-0.014845	-0.003617	-0.020145	0.006639	7185.258573	45002.343663	3918.774949	23988.621348
70.035500	-0.013358	-0.003215	-0.021541	0.004081	7225.627107	45290.230978	3921.649975	24113.383732
70.535500	-0.010269	-0.002068	-0.020807	0.004579	7251.679344	45353.638478	3922.237137	24089.032380
71.035500	-0.011739	-0.003179	-0.024254	0.003078	7251.992692	45391.768726	3917.420914	24162.511715
71.539000	-0.014254	-0.002628	-0.023949	0.008167	7175.959853	44950.117048	3905.675598	23914.419088
72.036500	-0.010676	-0.003531	-0.023133	0.003989	7253.525787	45268.326738	3917.939100	24117.885987
72.536500	-0.010755	-0.002705	-0.019061	0.003513	7257.532862	45395.531570	3929.232434	24141.187883
73.037000	-0.010970	-0.002314	-0.018826	0.003857	7251.883549	45400.083001	3928.959097	24124.327543
73.537000	-0.012918	-0.002926	-0.025485	0.007481	7196.047699	44987.728244	3903.603059	23947.713680
74.034500	-0.012094	-0.001792	-0.019600	0.005488	7224.196436	45291.786013	3922.975315	24044.678581
74.537500	-0.012279	-0.001528	-0.018437	0.004259	7234.659614	45437.685590	3928.927923	24104.672081
75.034500	-0.011992	-0.002366	-0.017400	0.003744	7242.727965	45406.141254	3932.807459	24129.893963
75.536000	-0.014091	-0.002266	-0.021233	0.007442	7184.770121	45055.467976	3914.109673	23949.573626
76.038500	-0.010543	-0.002230	-0.020532	0.003396	7260.849355	45453.542967	3925.857020	24146.917703
76.536500	-0.009364	-0.001819	-0.017031	0.003052	7276.268794	45527.566082	3935.466177	24163.779371
77.036500	-0.009181	-0.001477	-0.022229	0.002913	7279.531184	45574.761727	3922.839482	24170.588420
77.536500	-0.009801	-0.002383	-0.020820	0.002170	7280.783096	45558.801591	3928.193652	24207.083141
78.037000	-0.009580	-0.001969	-0.021164	0.002582	7278.845346	45558.981420	3926.312032	24186.850611
78.537500	-0.008505	-0.001811	-0.023572	0.002197	7293.688188	45612.236106	3921.285663	24205.735832
79.034500	-0.007992	-0.001908	-0.027156	0.001543	7305.587176	45667.162025	3914.051972	24237.916055
79.535500	-0.012100	-0.001414	-0.022105	0.004611	7232.923895	45414.398545	3918.942577	24087.476280
80.035500	-0.009415	-0.001543	-0.022455	0.001689	7289.599688	45688.649258	3925.319073	24230.719657
80.538500	-0.009184	-0.001945	-0.018437	0.001470	7294.171551	45670.602565	3935.909088	24241.482447
81.036000	-0.010211	-0.002078	-0.022411	0.001398	7284.464668	45664.639088	3926.153803	24245.042729
81.536000	-0.008928	-0.002323	-0.021359	0.003516	7275.980298	45432.579108	3923.501850	24141.021420
82.036000	-0.008892	-0.002318	-0.015335	0.001186	7300.038459	45661.850225	3944.444828	24255.460911
82.536000	-0.009261	-0.001784	-0.017417	0.001445	7293.643720	45688.909636	3938.535874	24242.706997
83.037000	-0.008502	-0.000977	-0.017119	0.001828	7297.476730	45730.805787	3938.324076	24223.907776
83.535000	-0.011267	-0.002328	-0.020901	0.003567	7251.812944	45427.134501	3924.515690	24138.540129
84.035000	-0.007537	-0.002070	-0.016643	0.001321	7312.499567	45673.019373	3940.800070	24248.833821
84.535500	-0.010631	-0.003188	-0.021020	-0.000075	7295.175531	45700.397957	3933.306193	24317.688227
85.035500	-0.011213	-0.002431	-0.019239	0.000745	7280.914819	45694.234876	3935.715398	24277.202889
85.536000	-0.011443	-0.002409	-0.017065	0.003245	7253.293863	45450.767398	3934.897951	24154.337875
86.036000	-0.012853	-0.002196	-0.021405	0.000882	7262.916110	45703.792482	3929.947770	24270.447350
86.536000	-0.010874	-0.002446	-0.016419	0.000495	7286.895712	45717.324843	3943.449390	24289.527912
87.037000	-0.010535	-0.002341	-0.017554	0.000591	7289.377251	45718.268758	3940.343785	24284.807030
87.536500	-0.014887	-0.003276	-0.022556	0.003819	7212.934965	45309.806485	3919.785707	24126.204185
88.037000	-0.010888	-0.001712	-0.022046	0.001164	7279.966078	45723.803527	3927.646082	24256.565923
88.534500	-0.010307	-0.002552	-0.020594	0.000066	7297.039415	45749.157426	3934.020100	24310.705040
89.038000	-0.011962	-0.003442	-0.020888	-0.000519	7286.145197	45719.060219	3934.748518	24339.592818
89.538500	-0.012642	-0.003692	-0.017400	-0.000279	7276.808828	45670.863657	3942.928501	24327.774292
90.036000	-0.014534	-0.003213	-0.017864	-0.000616	7261.065912	45751.337001	3942.607378	24344.413149
90.535500	-0.013076	-0.004306	-0.015569	-0.001593	7285.738418	45739.788859	3950.904346	24392.760750
91.036000	-0.013230	-0.003442	-0.013418	-0.000756	7275.684539	45742.509148	3954.256539	24351.334402
91.536500	-0.014344	-0.003215	-0.018143	0.000185	7254.887434	45672.081866	3939.881802	24304.824728
92.037000	-0.014127	-0.004179	-0.016193	-0.001225	7271.344550	45716.121099	3948.384474	24374.560288
92.537000	-0.013300	-0.004142	-0.021036	-0.001579	7283.325902	45754.660224	3937.041030	24392.100928
93.037500	-0.013256	-0.003871	-0.018665	-0.001677	7284.762551	45791.062805	3943.262466	24396.926796
93.535000	-0.014228	-0.004317	-0.018486	-0.000292	7260.889820	45610.647105	3940.220792	24328.410103
94.038000	-0.014957	-0.004249	-0.016552	-0.001742	7268.175393	45760.198216	3948.784109	24400.175867
94.535500	-0.015988	-0.003987	-0.016958	-0.001498	7255.280528	45761.904148	3947.132465	24388.055869
95.036000	-0.012921	-0.003954	-0.018921	-0.001536	7286.737753	45768.970166	3942.262449	24389.974801
95.536500	-0.017599	-0.004557	-0.016839	-0.000025	7224.271783	45560.836969	3943.706271	24315.225976
96.036500	-0.015980	-0.004708	-0.015397	-0.002134	7261.797602	45753.579455	3952.721432	24419.618933
96.536500	-0.013102	-0.004790	-0.016264	-0.001898	7288.578020	45722.185797	3949.914331	24407.914651
97.037000	-0.013028	-0.004144	-0.015293	-0.001466	7284.937803	45743.230864	3951.283394	24386.475582
