sample name	sample
index	736
start time	 03-25-2021  03:31:48 PM
880	-0.028977
Peak Time (s)	90.535
Peak Height 	-0.02898
calc peak height	90,93
Baseline Time (s)	8.537
Baseline Value 	-0.004469
subtract baseline	10,4
Abs	-0.001936
Peak Time (s)	92.036
Peak Height 	-0.001936
calc peak height	90,93
Baseline Time (s)	10.536
Baseline Value 	0.001091
subtract baseline	10,3
PK_550	0.002394
Peak Time (s)	91.538
Peak Height 	0.002394
calc peak height	90,93
Baseline Time (s)	8.537
Baseline Value 	-1.1061E-4
subtract baseline	10,2
PK_880	0.006039
Peak Time (s)	90.037
Peak Height 	0.006039
calc peak height	90,93
Baseline Time (s)	9.535
Baseline Value 	0.001382
subtract baseline	10,1


Time (s)	A880-A510	A880-A775	A880-A975	A880	I510	I775	I975	I880	
0.040500	-0.000320	-0.000244	-0.001624	0.003884	7171.744670	43965.041661	3955.040781	23466.336548
0.535000	-0.002401	0.000236	-0.003968	0.005875	7131.841317	43822.444341	3944.249555	23372.224401
1.035000	-0.002744	0.000181	0.000925	0.004919	7137.826756	43907.456573	3958.834437	23417.386918
1.551000	-0.001220	0.000284	-0.005010	0.002816	7173.394566	44116.078208	3949.255870	23516.996297
2.036500	-0.002338	-0.000028	0.000908	0.002739	7163.160742	44093.901101	3964.278619	23520.685021
2.536500	0.000471	0.000348	0.000662	0.003588	7182.459980	44049.040488	3961.518477	23480.386278
3.036500	0.000278	0.000287	0.001846	-0.000657	7222.624407	44447.140089	3975.268716	23682.613107
3.537000	-0.000589	0.000195	0.002106	0.000808	7199.460539	44298.560579	3972.202479	23612.603815
4.037000	-0.000691	-0.000785	-0.000779	0.001467	7191.924515	44142.660204	3963.231282	23581.154819
4.537000	-0.000300	0.000196	-0.001607	0.001121	7199.229554	44268.888308	3962.018554	23597.687100
5.035000	0.000290	0.000925	0.002057	0.001094	7205.339848	44340.800604	3971.349726	23598.951571
5.535000	-0.000108	-0.000317	0.000019	-0.000043	7212.680314	44330.828114	3969.065545	23653.258892
6.036000	0.001229	-0.000164	-0.002919	0.000269	7222.871202	44315.620345	3960.857761	23638.313337
6.536000	0.000863	0.000843	-0.002781	0.001029	7211.674555	44339.169214	3959.296283	23602.047286
7.036500	-0.000011	-0.000642	0.002315	-0.000120	7214.412277	44307.285050	3975.095838	23656.946631
7.536500	0.002024	0.000654	-0.000045	0.000478	7228.724523	44373.753692	3967.585884	23628.370301
8.037000	0.000520	0.000129	-0.001068	0.000369	7214.830816	44334.069123	3965.272629	23633.555329
8.537500	0.001225	0.000000	0.000901	0.000000	7225.517519	44356.958698	3971.194131	23651.185710
9.037500	0.001542	0.000527	-0.000965	0.000123	7227.453589	44395.466311	3966.154679	23645.289786
9.535000	0.000000	-0.000396	-0.003340	-0.000280	7216.106049	44345.870227	3961.179711	23664.558562
10.035500	-0.000458	0.000464	-0.001541	0.000332	7205.480909	44369.568548	3964.173065	23635.316010
10.535500	0.000808	-0.000109	0.000000	0.000167	7219.702144	44330.670441	3968.485975	23643.227305
11.035500	-0.000138	-0.000196	0.000104	-0.000296	7214.889415	44366.498195	3969.920329	23665.323364
11.536000	-0.000206	0.000152	0.003662	-0.000220	7213.462845	44392.487731	3978.789500	23661.719402
12.036000	0.001189	0.000271	-0.000237	0.000060	7224.562750	44377.082884	3968.155539	23648.313670
12.537000	0.001355	0.000784	0.000251	0.000454	7222.287145	44388.497944	3968.392814	23629.495591
13.037500	-0.002023	0.000696	-0.000565	0.000798	7185.369051	44347.177609	3965.459553	23613.050960
13.537000	-0.000112	0.000375	0.001659	0.000951	7202.772140	44301.974550	3970.702609	23605.753401
14.035000	-0.000861	-0.000268	0.004749	0.002590	7179.154011	44085.143488	3974.389816	23527.728010
14.534500	-0.004094	-0.000536	-0.001661	0.004853	7125.312188	43846.065904	3952.526762	23420.495778
15.046000	-0.001842	0.000122	-0.000023	0.001148	7183.711595	44259.252844	3965.945067	23596.390054
15.535500	0.000257	-0.000017	0.000641	0.000823	7207.695495	44276.846696	3968.445694	23611.859948
16.035500	-0.003308	0.000099	-0.003652	0.004199	7139.349327	43967.678783	3949.195759	23451.436352
16.536000	-0.000815	0.000063	-0.003915	0.004548	7160.343620	43931.288489	3947.671549	23434.895014
17.041000	0.000445	0.000227	0.001803	-0.002235	7240.052349	44592.509096	3979.188085	23758.319035
17.536500	0.000003	0.000874	0.000889	0.000770	7205.711597	44366.916594	3969.210330	23614.430851
18.037000	-0.001226	0.000129	0.001285	0.003564	7165.976579	44030.609362	3963.149826	23481.523475
18.537500	-0.002914	0.000390	-0.001332	0.003372	7151.299156	44073.458638	3957.054775	23490.632673
19.035000	-0.001539	0.000311	0.000159	0.001953	7178.758101	44200.623975	3964.373072	23558.045827
19.535000	-0.003032	-0.000548	0.002434	0.001178	7171.683255	44192.559714	3972.094067	23594.930571
20.035500	-0.004347	-0.000379	0.000076	0.001274	7157.810943	44199.550475	3965.875489	23590.370317
20.536000	-0.002774	-0.000129	-0.002723	0.002807	7158.207100	44077.884091	3954.986523	23517.450514
21.036000	0.000358	0.000535	0.001791	0.002291	7194.152935	44189.737196	3967.642311	23541.955246
21.536500	-0.001672	-0.000033	-0.000450	0.001806	7178.890862	44181.942029	3963.207992	23565.035933
22.036500	-0.001167	-0.000162	-0.001409	0.001361	7188.275108	44211.909066	3961.913516	23586.240641
22.537000	-0.002932	0.000715	-0.003412	0.004168	7143.336737	44028.907238	3949.870522	23452.914876
23.037500	-0.002023	0.000196	0.004473	0.001797	7175.524071	44204.504300	3975.709216	23565.468375
23.537000	-0.000329	0.000054	0.004098	0.001753	7192.683972	44195.266252	3974.865708	23567.565745
24.035000	-0.002377	0.000001	0.000093	0.001596	7174.021066	44205.159493	3965.107634	23575.046134
24.535500	-0.001905	-0.000533	0.000119	0.001524	7179.376942	44161.124399	3965.353706	23578.439167
25.036000	-0.001224	0.000569	0.003978	0.002233	7179.104059	44198.499551	3973.338640	23544.710995
25.536000	-0.000868	-0.000027	0.001288	0.001789	7186.998344	44184.123362	3967.639900	23565.863149
26.036500	-0.001534	-0.000128	-0.000871	0.001791	7180.403007	44174.338062	3962.184151	23565.764669
26.536500	-0.001452	0.000757	-0.000207	0.002395	7175.262008	44200.986288	3962.335994	23537.021633
27.037000	-0.000862	0.000402	0.001761	0.001487	7190.039187	44253.589058	3969.603200	23580.238891
27.537000	-0.000176	0.000465	0.001507	-0.001892	7230.419529	44582.444100	3977.555600	23741.838613
28.034500	-0.003547	0.000599	-0.003065	0.006224	7117.293443	43823.826578	3945.622301	23355.772224
28.535000	0.000057	0.000309	0.001952	0.000851	7205.435651	44305.213050	3971.698787	23610.522086
29.035000	-0.000242	0.000632	0.002600	0.001055	7200.452265	44316.612912	3972.829232	23600.806072
29.535500	0.001075	0.000322	0.000941	0.000988	7214.182874	44293.465340	3968.786423	23603.987672
30.035500	-0.003260	-0.000238	0.001056	0.005889	7123.332539	43776.555547	3956.727954	23371.548249
30.536000	-0.000273	0.001543	0.003528	0.001719	7193.572138	44340.191445	3973.501826	23569.182097
31.036000	-0.002282	-0.000083	0.000250	0.002723	7163.859970	44090.120898	3962.657564	23521.403951
31.542000	-0.000663	0.000152	0.002177	0.001198	7194.866491	44257.242845	3971.390368	23593.971812
32.037000	-0.002417	0.000422	-0.001657	0.005048	7139.760701	43917.997518	3952.049665	23411.267671
32.537000	-0.001567	-0.000020	-0.004263	0.000809	7189.768774	44277.904925	3956.131325	23612.536191
33.037500	0.000104	0.000090	-0.000072	0.000489	7209.500583	44318.902791	3967.486715	23627.829786
33.535000	0.001444	0.000626	0.002475	-0.001294	7240.626722	44540.489521	3978.497985	23713.131496
34.035500	-0.003786	0.000564	-0.001318	0.004700	7129.793979	43964.228301	3953.764190	23427.718137
34.535500	-0.000869	0.000259	0.002611	0.004694	7158.386453	43936.003891	3963.642106	23428.004235
35.036000	-0.003676	-0.001073	0.001577	0.001578	7161.420132	44104.851253	3968.905440	23575.888755
35.536000	0.000096	0.000948	0.002718	0.002835	7186.191306	44177.350114	3968.612943	23516.123147
36.036500	-0.003564	-0.000004	-0.002487	0.003666	7142.056762	44008.307340	3953.427679	23476.670149
36.536500	-0.001252	0.000020	0.000186	0.003616	7165.209463	44015.339996	3960.250838	23479.027176
37.037000	-0.001011	-0.000505	0.003563	0.001976	7183.731358	44120.962874	3972.935855	23556.922736
37.537500	-0.001745	0.000525	0.005580	0.002491	7171.427369	44169.779069	3976.762269	23532.430126
38.035000	-0.001865	0.000184	-0.002081	0.003940	7156.002347	44000.181977	3953.756617	23463.673213
38.535000	-0.004576	0.000688	0.000468	0.004614	7122.942904	43984.105842	3958.454048	23431.797885
39.035500	-0.001530	0.000718	0.005738	0.002902	7169.498512	44149.093386	3976.117114	23512.919138
39.535500	-0.000381	-0.000023	0.001407	0.002536	7184.425596	44113.557486	3966.049796	23530.296416
40.036000	-0.000782	-0.000000	0.000343	0.001931	7186.447686	44173.151127	3964.891997	23559.086645
40.536000	-0.001323	0.000586	0.004279	0.004636	7154.498996	43972.328029	3968.003025	23430.724034
41.036500	-0.001859	0.000474	0.000880	0.002533	7169.892890	44161.002743	3964.725506	23530.436322
41.536500	-0.000726	0.000692	-0.000233	0.002968	7176.759183	44140.428297	3960.826053	23509.783958
42.037000	-0.000285	-0.000082	-0.000272	0.002770	7183.066864	44085.799816	3961.226962	23519.207345
42.537500	-0.001792	-0.000159	-0.001167	0.004261	7153.577923	43937.441316	3955.241149	23448.501928
43.035000	-0.001642	0.000095	0.002528	0.002606	7171.310666	44118.132135	3968.710545	23526.975367
43.535500	-0.000794	0.000374	0.000831	0.002289	7182.794821	44174.735166	3965.220333	23542.069642
44.036000	-0.000035	-0.000027	0.003798	-0.002411	7237.002711	44585.059854	3984.752849	23766.763872
44.536000	-0.002687	-0.000393	-0.000800	0.004352	7143.925093	43906.829561	3955.931026	23444.189087
45.036000	-0.001173	0.000288	0.005164	0.000906	7192.706749	44298.013987	3979.747515	23607.900408
45.536500	0.001199	0.000362	-0.002164	0.001119	7214.128920	44284.867542	3960.622518	23597.777461
46.037000	-0.003853	0.000097	-0.000559	0.006240	7114.163072	43775.000348	3951.814421	23355.003305
46.537000	-0.002622	-0.000130	0.000456	0.004344	7144.637563	43932.350856	3959.101836	23444.563079
47.037000	-0.001076	0.000237	0.000217	0.001047	7192.273832	44279.794221	3966.808338	23601.202022
47.535000	-0.000694	0.000143	0.001673	0.003302	7173.783411	44056.632389	3964.787579	23493.922590
48.035000	-0.002183	-0.000001	0.001403	0.006405	7128.804377	43750.340387	3956.307060	23347.238621
48.535500	-0.003529	-0.001049	-0.003418	0.003491	7144.116896	43926.173328	3951.540188	23484.985430
49.035500	-0.001238	-0.000288	0.001025	0.000672	7194.385451	44265.472982	3969.803344	23619.100446
49.536000	0.002816	0.001403	0.005055	-0.000050	7241.912923	44495.797531	3981.919600	23653.593092
50.036500	-0.000007	-0.000045	0.004271	0.003874	7174.924301	43984.768597	3969.914098	23466.807882
50.536500	-0.004104	0.000486	0.002523	0.006961	7104.732332	43743.819918	3957.719777	23321.075241
51.036500	-0.029150	-0.005914	0.011154	0.170620	5621.726775	30518.889730	3630.737922	16906.337533
51.536500	-0.067368	-0.014283	-0.006755	0.091094	5893.650835	35431.044086	3746.928044	19722.904361
52.034500	-0.066662	-0.018671	-0.010802	-0.053263	7082.186910	47791.883014	4081.930156	26360.101429
52.537500	-0.048264	-0.075570	-0.008687	-0.251539	9789.906498	65054.383876	4793.376462	39940.085057
53.035000	-0.029225	-0.038829	0.005842	-0.196147	9236.395764	62442.794729	4620.523516	35503.481163
53.535500	-0.024600	-0.025983	0.002506	-0.165762	8871.290921	60087.106725	4489.636862	33299.732800
54.036000	-0.023635	-0.021199	-0.007530	-0.153761	8721.383207	59145.127551	4409.431402	32470.946832
54.536000	-0.014498	-0.019994	-0.001643	-0.154908	8860.951758	59450.366231	4434.588724	32549.117538
55.036500	-0.010613	-0.030388	-0.001524	-0.185043	9346.956168	62079.018404	4547.577068	34680.233433
55.536500	0.010819	-0.017929	-0.002230	-0.167730	9408.412031	61421.566390	4479.337761	33437.873779
56.037000	0.009847	-0.019900	-0.007525	-0.170469	9434.969222	61525.085957	4469.884957	33631.111856
56.537000	0.013504	-0.014132	-0.005977	-0.155715	9270.015103	60324.991606	4421.921146	32604.294312
57.035000	0.009868	-0.008639	-0.002417	-0.130033	8853.960461	57717.873340	4344.778171	30898.112981
57.534500	0.007653	-0.006195	-0.002206	-0.110552	8563.660262	55609.979865	4280.706162	29669.511460
58.035500	-0.004254	-0.006772	-0.008364	-0.100120	8279.531672	54291.307116	4227.776385	29033.920547
58.535500	0.000489	-0.004635	-0.003378	-0.090183	8215.543280	53377.181964	4212.371283	28442.561904
59.036000	0.002246	-0.005222	-0.002988	-0.098597	8341.589824	54294.684631	4239.893691	28942.449150
59.536000	-0.000534	-0.005846	-0.004718	-0.096959	8286.481119	54027.812956	4229.297824	28844.377037
60.036500	-0.004589	-0.006351	-0.009804	-0.082446	8060.896406	52290.891903	4169.251565	27991.369457
60.537000	0.018727	0.004272	-0.011723	-0.080382	8319.885877	53273.357396	4157.376938	27872.338093
61.037000	-0.007209	-0.008982	-0.004098	-0.105985	8315.727859	54725.454272	4259.859426	29389.388681
61.537500	-0.007112	-0.006070	-0.006255	-0.088278	8100.394214	52990.639643	4197.655438	28330.728663
62.038000	0.010586	0.000596	-0.011721	-0.082933	8250.518880	53143.035391	4164.976060	28019.499864
62.535000	0.007250	-0.000950	-0.009827	-0.089097	8285.516765	53679.997482	4189.255910	28378.758913
63.035500	0.008313	0.000485	-0.008785	-0.087901	8283.852293	53707.817921	4188.786491	28308.623852
63.535500	0.014423	0.002869	-0.002673	-0.079744	8258.523445	53037.362635	4182.586917	27835.686655
64.041000	0.016296	0.002986	-0.008991	-0.071619	8181.888465	52121.784072	4139.604168	27373.330167
64.536500	0.012499	0.003867	-0.011265	-0.058634	7981.554189	50769.671521	4095.720521	26652.154907
65.036500	0.013846	0.004153	-0.012570	-0.057529	7984.379809	50679.447173	4088.926262	26591.741306
65.537000	0.013032	0.004201	-0.004643	-0.052863	7920.595671	50174.476583	4098.125060	26338.474450
66.037000	0.013041	0.005444	-0.008869	-0.048293	7868.096721	49813.902942	4073.471809	26093.013338
66.534500	0.010202	0.004130	-0.008442	-0.040732	7750.472489	48865.407767	4053.841915	25692.570482
67.035000	0.014617	0.004916	-0.004950	-0.042613	7821.343331	49148.423234	4068.595923	25791.549045
67.535500	0.014094	0.004889	-0.007954	-0.040359	7789.954536	48906.299101	4054.153415	25672.981803
68.036000	0.010751	0.005032	-0.007620	-0.034100	7682.954160	48263.281139	4038.087890	25346.979716
68.536000	0.008050	0.004542	-0.009677	-0.030308	7611.929164	47818.476729	4022.443035	25151.763331
69.036500	0.010154	0.003928	-0.008222	-0.034370	7679.361473	48176.400925	4037.195769	25360.993892
69.536000	0.008970	0.004402	-0.008626	-0.032352	7644.217488	48015.774930	4030.695746	25256.778113
70.036500	0.007696	0.003361	-0.007308	-0.029250	7596.621339	47587.639628	4025.929942	25097.594800
70.537000	0.004657	0.003084	-0.013041	-0.024583	7513.954872	47082.064823	3998.542990	24860.223690
71.034000	0.006039	0.003447	-0.009221	-0.028131	7566.686339	47481.594945	4017.879854	25040.487447
71.534500	0.005318	0.002946	-0.004110	-0.027473	7551.863457	47362.835089	4029.722927	25006.910851
72.035500	0.005002	0.002638	-0.006005	-0.026845	7541.761158	47267.130502	4022.996836	24974.962490
72.538000	0.000418	0.002059	-0.008449	-0.021094	7432.526729	46625.604164	4001.418756	24684.447423
73.035500	0.006092	0.003762	-0.006136	-0.024456	7527.890378	47138.227976	4016.319804	24853.827166
73.536500	0.004341	0.002711	-0.007322	-0.024250	7507.063924	47010.398256	4012.645973	24843.399384
74.036000	0.002925	0.003105	-0.002027	-0.021616	7464.274031	46783.661226	4019.677557	24710.663442
74.536500	0.003963	0.003739	-0.005035	-0.023305	7493.047784	47018.917280	4016.187052	24795.702938
75.037000	0.005786	0.003225	-0.006024	-0.023589	7515.393794	46995.448868	4014.324660	24810.009467
75.537000	0.004466	0.002076	-0.009288	-0.024400	7509.988608	46961.266713	4007.872198	24850.994566
76.037500	0.001725	0.002254	-0.001126	-0.022693	7462.983087	46806.510445	4024.934883	24764.859078
76.537000	0.003840	0.002270	-0.009175	-0.024861	7508.228531	47027.694009	4009.376131	24874.288519
77.035000	0.003849	0.001950	-0.005081	-0.025522	7515.359554	47062.353359	4021.937398	24907.801860
77.535500	0.003361	0.002573	-0.005632	-0.025667	7511.711777	47140.452486	4020.860143	24915.133712
78.035500	0.001889	0.002065	-0.004210	-0.025076	7489.845079	47028.757970	4023.067309	24885.217505
78.536500	0.003382	0.001822	-0.003883	-0.026986	7525.976838	47198.350980	4029.028782	24982.140536
79.036000	0.004579	0.001742	-0.006823	-0.027521	7544.470273	47244.695507	4022.621249	25009.361546
79.536500	0.004710	0.001898	-0.005724	-0.027770	7548.530659	47286.003922	4026.208530	25022.040351
80.037000	0.004572	0.001948	-0.002894	-0.026903	7537.785803	47202.699930	4031.452860	24977.919927
80.537500	0.002872	0.001902	-0.000911	-0.029035	7542.405592	47415.843350	4042.525221	25086.609954
81.035000	0.007054	0.002405	-0.005125	-0.028939	7586.321850	47457.579630	4030.932419	25081.721549
81.535000	0.004977	0.002204	-0.003290	-0.029796	7573.163787	47524.847001	4038.159258	25125.533747
82.035500	0.006195	0.002471	-0.001630	-0.029326	7581.224479	47504.054622	4041.367130	25101.484914
82.535500	0.002692	0.002939	-0.006568	-0.024980	7497.318404	47107.772905	4016.561279	24880.320706
83.036000	0.006640	0.002053	-0.005164	-0.031299	7607.378646	47663.937038	4037.157675	25202.607925
83.536500	0.006466	0.002124	-0.010717	-0.031929	7612.333721	47736.301975	4023.989864	25235.041970
84.036500	0.005745	0.002405	-0.003781	-0.030673	7590.910759	47635.724312	4039.199555	25170.489904
84.536500	0.003282	0.001985	-0.008332	-0.027876	7534.404042	47305.796008	4019.559746	25027.488648
85.036500	0.007272	0.003048	0.000751	-0.032535	7627.684334	47894.281748	4056.561639	25266.211849
85.537500	0.008375	0.002779	0.000460	-0.032723	7641.773697	47886.005687	4056.281243	25275.915797
86.035000	0.008557	0.002274	-0.002182	-0.033585	7653.192979	47922.932228	4051.420987	25320.368502
86.538000	0.007464	0.003567	-0.009171	-0.027277	7572.824943	47406.326796	4015.753454	24996.957199
87.036000	0.006891	0.002940	-0.001864	-0.033501	7634.059012	47983.240736	4052.059171	25316.039172
87.536000	0.007834	0.002469	-0.005811	-0.033944	7649.210608	47980.366253	4042.549561	25338.939076
88.036000	0.009163	0.002788	-0.006468	-0.033996	7664.343429	48018.858046	4040.914305	25341.629425
88.536500	0.004951	0.002624	-0.008447	-0.028826	7562.454208	47468.490450	4021.774280	25075.948958
89.036500	0.006132	0.002547	-0.004093	-0.034297	7634.470584	48025.073129	4048.160992	25357.196423
89.537000	0.005413	0.002349	-0.005137	-0.034549	7629.369261	48030.651752	4046.010923	25370.211888
90.037000	0.006039	0.002394	-0.006435	-0.034303	7633.522189	48009.834067	4041.832418	25357.512842
90.534500	0.002096	0.002206	-0.010408	-0.028977	7533.492703	47441.005316	4016.975115	25083.639525
91.035500	0.004526	0.002325	-0.004654	-0.033908	7612.748751	47961.695129	4045.583351	25337.069171
91.538500	0.004760	0.002394	-0.006026	-0.033501	7610.880914	47926.726915	4040.771843	25316.073886
92.036000	0.004340	0.002379	-0.001936	-0.033091	7601.876372	47882.702367	4050.748548	25294.897397
92.536000	0.003305	0.001217	-0.007697	-0.033907	7599.499480	47846.799119	4037.360608	25337.001767
93.036500	0.002233	0.002115	-0.007018	-0.032935	7577.420078	47839.162431	4036.573216	25286.833623
93.591500	0.002647	0.001243	-0.004264	-0.033306	7585.891948	47787.443535	4045.007601	25305.968511
94.037000	0.003819	0.001204	-0.007860	-0.032840	7593.515820	47735.298220	4034.056201	25281.941880
94.537000	0.000883	0.000461	-0.009232	-0.033449	7568.423145	47721.446979	4032.011171	25313.364045
95.034000	0.003100	0.000871	-0.007582	-0.032241	7579.287075	47639.193379	4033.195633	25251.078103
95.535000	0.002332	0.000654	-0.007362	-0.032079	7569.269709	47600.137709	4033.349731	25242.720051
96.035000	0.002127	0.000750	-0.009649	-0.030749	7552.783492	47473.506075	4023.691739	25174.416150
