sample name	sample
index	460
start time	 03-11-2021  11:50:13 AM


Wavelength (nm)	Absorbance
494.344910	0.130954
494.563924	0.130954
494.782919	0.130954
495.001897	0.004063
495.220856	0.247315
495.439797	0.174395
495.658719	-0.058950
495.877624	-0.145143
496.096510	-0.104526
496.315378	-0.129166
496.534227	-0.218011
496.753059	-0.331968
496.971872	-0.078476
497.190667	0.004904
497.409444	0.012758
497.628203	0.014826
497.846943	0.015830
498.065665	0.015683
498.284369	0.016063
498.503055	0.014851
498.721723	0.014398
498.940372	0.013846
499.159003	0.013915
499.377616	0.012903
499.596210	0.012514
499.814787	0.011671
500.033345	0.010486
500.251885	0.010325
500.470406	0.010405
500.688910	0.010984
500.907395	0.009613
501.125862	0.009854
501.344311	0.010790
501.562742	0.010849
501.781154	0.011636
501.999548	0.012429
502.217924	0.011587
502.436282	0.012440
502.654621	0.012146
502.872942	0.012872
503.091245	0.012773
503.309530	0.012622
503.527797	0.012944
503.746045	0.012524
503.964275	0.011968
504.182487	0.012403
504.400681	0.011840
504.618856	0.012083
504.837013	0.012949
505.055152	0.012981
505.273273	0.012518
505.491376	0.011567
505.709460	0.012075
505.927526	0.012686
506.145574	0.012756
506.363604	0.012643
506.581615	0.012016
506.799608	0.011395
507.017583	0.010504
507.235540	0.009863
507.453478	0.010913
507.671399	0.009855
507.889301	0.009539
508.107185	0.009778
508.325050	0.009449
508.542898	0.009569
508.760727	0.009524
508.978538	0.010505
509.196330	0.010673
509.414105	0.010216
509.631861	0.011308
509.849599	0.011550
510.067319	0.011426
510.285021	0.011569
510.502704	0.011305
510.720369	0.011054
510.938016	0.010652
511.155645	0.011029
511.373255	0.011524
511.590848	0.010227
511.808422	0.010355
512.025977	0.010422
512.243515	0.010257
512.461034	0.009740
512.678536	0.009872
512.896018	0.009882
513.113483	0.010210
513.330930	0.009517
513.548358	0.010615
513.765768	0.009442
513.983160	0.009223
514.200533	0.009933
514.417889	0.010072
514.635226	0.010277
514.852545	0.009533
515.069845	0.009513
515.287128	0.009663
515.504392	0.009585
515.721638	0.010667
515.938866	0.010364
516.156075	0.010163
516.373267	0.011073
516.590440	0.011344
516.807594	0.012498
517.024731	0.012050
517.241850	0.012235
517.458950	0.011462
517.676032	0.011479
517.893095	0.011595
518.110141	0.011392
518.327168	0.010708
518.544177	0.010092
518.761168	0.009652
518.978141	0.010161
519.195095	0.010293
519.412031	0.010765
519.628949	0.010534
519.845849	0.010751
520.062731	0.010947
520.279594	0.010830
520.496439	0.011192
520.713266	0.010857
520.930074	0.010942
521.146865	0.010957
521.363637	0.010634
521.580391	0.010675
521.797127	0.010424
522.013844	0.010432
522.230543	0.010547
522.447224	0.009595
522.663887	0.009603
522.880532	0.008419
523.097158	0.008141
523.313766	0.007797
523.530356	0.007610
523.746928	0.007519
523.963481	0.006718
524.180017	0.006373
524.396534	0.006724
524.613032	0.006486
524.829513	0.007184
525.045975	0.006906
525.262420	0.007111
525.478845	0.006563
525.695253	0.006637
525.911643	0.006979
526.128014	0.007131
526.344367	0.007527
526.560702	0.008141
526.777018	0.007865
526.993316	0.008175
527.209597	0.008171
527.425858	0.008390
527.642102	0.007782
527.858328	0.008024
528.074535	0.008376
528.290724	0.007751
528.506894	0.007766
528.723047	0.008039
528.939181	0.007926
529.155297	0.007720
529.371395	0.007444
529.587475	0.007618
529.803536	0.007483
530.019579	0.007749
530.235604	0.007471
530.451611	0.007421
530.667600	0.007382
530.883570	0.007292
531.099522	0.007905
531.315456	0.008231
531.531372	0.008215
531.747269	0.008099
531.963148	0.007796
532.179009	0.008341
532.394852	0.008118
532.610676	0.008028
532.826482	0.007654
533.042271	0.007300
533.258040	0.007414
533.473792	0.007205
533.689525	0.006917
533.905240	0.007042
534.120937	0.007236
534.336616	0.007305
534.552277	0.006994
534.767919	0.007124
534.983543	0.006885
535.199149	0.006991
535.414736	0.007423
535.630306	0.007654
535.845857	0.007438
536.061390	0.006902
536.276904	0.006693
536.492401	0.006712
536.707879	0.006862
536.923339	0.007398
537.138781	0.007175
537.354204	0.006624
537.569610	0.006627
537.784997	0.006993
538.000366	0.006877
538.215716	0.006793
538.431049	0.006933
538.646363	0.007527
538.861659	0.007121
539.076937	0.007310
539.292196	0.007635
539.507438	0.007921
539.722661	0.007472
539.937866	0.007819
540.153052	0.008009
540.368221	0.007740
540.583371	0.007153
540.798503	0.007120
541.013617	0.007064
541.228712	0.007273
541.443789	0.006689
541.658848	0.006704
541.873889	0.006721
542.088912	0.006611
542.303916	0.006975
542.518902	0.006810
542.733870	0.006590
542.948820	0.006491
543.163752	0.006242
543.378665	0.006824
543.593560	0.006833
543.808437	0.006577
544.023295	0.006565
544.238136	0.006612
544.452958	0.006619
544.667762	0.007074
544.882548	0.006748
545.097315	0.006880
545.312064	0.006861
545.526795	0.006665
545.741508	0.006634
545.956203	0.006738
546.170879	0.006468
546.385537	0.006704
546.600177	0.006417
546.814799	0.006841
547.029402	0.007092
547.243988	0.006747
547.458555	0.007135
547.673103	0.007510
547.887634	0.007342
548.102146	0.007366
548.316640	0.007460
548.531116	0.007611
548.745574	0.007388
548.960013	0.007160
549.174435	0.007291
549.388838	0.006729
549.603222	0.006811
549.817589	0.006658
550.031937	0.006593
550.246267	0.006358
550.460579	0.006128
550.674873	0.005785
550.889148	0.005446
551.103405	0.005345
551.317644	0.005380
551.531865	0.005392
551.746068	0.005641
551.960252	0.005803
552.174418	0.005947
552.388566	0.006209
552.602696	0.006709
552.816807	0.006797
553.030900	0.006489
553.244975	0.006795
553.459032	0.006454
553.673070	0.006333
553.887091	0.006278
554.101093	0.005930
554.315077	0.005892
554.529042	0.005738
554.742990	0.005873
554.956919	0.006282
555.170830	0.006251
555.384722	0.006241
555.598597	0.006177
555.812453	0.006156
556.026291	0.006164
556.240111	0.005943
556.453913	0.005936
556.667696	0.005993
556.881461	0.005841
557.095208	0.005546
557.308937	0.005684
557.522647	0.005453
557.736339	0.005329
557.950013	0.005250
558.163669	0.005261
558.377307	0.005088
558.590926	0.005182
558.804527	0.005027
559.018110	0.005080
559.231675	0.005059
559.445221	0.005682
559.658749	0.005559
559.872259	0.005755
560.085751	0.005526
560.299225	0.005733
560.512680	0.005444
560.726117	0.005508
560.939536	0.005643
561.152937	0.005557
561.366319	0.005196
561.579683	0.005197
561.793029	0.005259
562.006357	0.005576
562.219667	0.005375
562.432958	0.005237
562.646231	0.005426
562.859486	0.005168
563.072723	0.005244
563.285941	0.005278
563.499141	0.005084
563.712323	0.004785
563.925487	0.004562
564.138632	0.004543
564.351760	0.004437
564.564869	0.004393
564.777960	0.004446
564.991032	0.004405
565.204087	0.004562
565.417123	0.004500
565.630141	0.004526
565.843140	0.004260
566.056122	0.004079
566.269085	0.003884
566.482030	0.003700
566.694957	0.003462
566.907866	0.003250
567.120756	0.002813
567.333628	0.002933
567.546482	0.003044
567.759318	0.002994
567.972135	0.003022
568.184935	0.003331
568.397716	0.003051
568.610478	0.003265
568.823223	0.003260
569.035949	0.003136
569.248657	0.003109
569.461347	0.003040
569.674019	0.003251
569.886672	0.003550
570.099308	0.003467
570.311925	0.003758
570.524523	0.003689
570.737104	0.003467
570.949666	0.003720
571.162210	0.003918
571.374736	0.003904
571.587244	0.004072
571.799733	0.003769
572.012205	0.003864
572.224658	0.003659
572.437092	0.003654
572.649509	0.004044
572.861907	0.004107
573.074287	0.003987
573.286649	0.004008
573.498993	0.003819
573.711318	0.003648
573.923625	0.003438
574.135914	0.003132
574.348185	0.002951
574.560438	0.002384
574.772672	0.002067
574.984888	0.002122
575.197086	0.001907
575.409266	0.001621
575.621427	0.001569
575.833570	0.001613
576.045695	0.002019
576.257802	0.002088
576.469890	0.002438
576.681961	0.002496
576.894013	0.002427
577.106046	0.002394
577.318062	0.002580
577.530059	0.002544
577.742039	0.002625
577.954000	0.002312
578.165942	0.002425
578.377867	0.002370
578.589773	0.002404
578.801661	0.002338
579.013531	0.002638
579.225382	0.002593
579.437216	0.002707
579.649031	0.002439
579.860828	0.002702
580.072606	0.002660
580.284367	0.002788
580.496109	0.002760
580.707833	0.002925
580.919539	0.002710
581.131227	0.002978
581.342896	0.002826
581.554547	0.002976
581.766180	0.002909
581.977795	0.003018
582.189391	0.002925
582.400969	0.002750
582.612529	0.002972
582.824071	0.002751
583.035595	0.002479
583.247100	0.002744
583.458587	0.002796
583.670056	0.002797
583.881506	0.002713
584.092939	0.002571
584.304353	0.002334
584.515749	0.001802
584.727127	0.001855
584.938486	0.002032
585.149828	0.002083
585.361151	0.001784
585.572456	0.001864
585.783742	0.001880
585.995011	0.001901
586.206261	0.002157
586.417493	0.002184
586.628706	0.002235
586.839902	0.002035
587.051079	0.002170
587.262238	0.002634
587.473379	0.002231
587.684502	0.002146
587.895606	0.001832
588.106692	0.001793
588.317760	0.001766
588.528810	0.001637
588.739841	0.001549
588.950855	0.001407
589.161850	0.000915
589.372827	0.000917
589.583785	0.000786
589.794726	0.001045
590.005648	0.001305
590.216552	0.001285
590.427437	0.001484
590.638305	0.001701
590.849154	0.001713
591.059985	0.001936
591.270798	0.002022
591.481592	0.002256
591.692369	0.001997
591.903127	0.001847
592.113867	0.001847
592.324588	0.001642
592.535292	0.001435
592.745977	0.001196
592.956644	0.001027
593.167293	0.000963
593.377923	0.000657
593.588536	0.000987
593.799130	0.000785
594.009706	0.000876
594.220263	0.001148
594.430803	0.001187
594.641324	0.001257
594.851827	0.001268
595.062312	0.001319
595.272778	0.001276
595.483227	0.001371
595.693657	0.001441
595.904069	0.001431
596.114462	0.001277
596.324838	0.001303
596.535195	0.001417
596.745534	0.001540
596.955855	0.001649
597.166157	0.001747
597.376441	0.001682
597.586707	0.001536
597.796955	0.001585
598.007185	0.001558
598.217396	0.001429
598.427589	0.001251
598.637764	0.001356
598.847921	0.001374
599.058060	0.001694
599.268180	0.001490
599.478282	0.001688
599.688366	0.001689
599.898431	0.001631
600.108479	0.001723
600.318508	0.001815
600.528519	0.001839
600.738511	0.001675
600.948486	0.001349
601.158442	0.001206
601.368380	0.001099
601.578300	0.001124
601.788202	0.001057
601.998085	0.001195
602.207950	0.001140
602.417797	0.001058
602.627626	0.001160
602.837436	0.001514
603.047228	0.001678
603.257002	0.001681
603.466758	0.001591
603.676496	0.001605
603.886215	0.001452
604.095916	0.001478
604.305599	0.001242
604.515264	0.001206
604.724910	0.001055
604.934538	0.001014
605.144148	0.000944
605.353740	0.000756
605.563314	0.000699
605.772869	0.000595
605.982406	0.000231
606.191925	0.000455
606.401425	0.000483
606.610908	0.000120
606.820372	0.000289
607.029818	0.000376
607.239246	0.000460
607.448655	0.000525
607.658047	0.000630
607.867420	0.000880
608.076775	0.000669
608.286111	0.000321
608.495430	0.000702
608.704730	0.000614
608.914012	0.000620
609.123275	0.000588
609.332521	0.000412
609.541748	0.000152
609.750957	0.000016
609.960148	-0.000030
610.169321	0.000160
610.378475	-0.000061
610.587611	-0.000215
610.796729	-0.000177
611.005829	-0.000328
611.214910	-0.000062
611.423974	0.000334
611.633019	0.000398
611.842045	0.000743
612.051054	0.000926
612.260044	0.000950
612.469017	0.001027
612.677970	0.000872
612.886906	0.001000
613.095824	0.000850
613.304723	0.000617
613.513604	0.000624
613.722467	0.000437
613.931311	0.000501
614.140138	0.000372
614.348946	0.000521
614.557736	0.000642
614.766507	0.000539
614.975261	0.000534
615.183996	0.000503
615.392713	0.000524
615.601412	0.000429
615.810092	0.000088
616.018754	0.000441
616.227399	0.000165
616.436024	0.000217
616.644632	0.000240
616.853222	0.000424
617.061793	0.000595
617.270346	0.000644
617.478880	0.000817
617.687397	0.000880
617.895895	0.000474
618.104375	0.000693
618.312837	0.000606
618.521281	0.000758
618.729706	0.000490
618.938113	0.000631
619.146502	0.000447
619.354873	0.000284
619.563226	0.000478
619.771560	0.000662
619.979876	0.000546
620.188174	0.000606
620.396453	0.000486
620.604715	0.000643
620.812958	0.000424
621.021183	0.000669
621.229390	0.000830
621.437578	0.000810
621.645748	0.000735
621.853900	0.000985
622.062034	0.001051
622.270150	0.000952
622.478247	0.000862
622.686326	0.000861
622.894387	0.000792
623.102430	0.000760
623.310454	0.000460
623.518461	0.000403
623.726449	0.000193
623.934418	0.000144
624.142370	0.000409
624.350303	0.000536
624.558218	0.000701
624.766115	0.000751
624.973994	0.000737
625.181855	0.000695
625.389697	0.000833
625.597521	0.000866
625.805327	0.000961
626.013114	0.000920
626.220883	0.000890
626.428634	0.000676
626.636367	0.000764
626.844082	0.000779
627.051778	0.000980
627.259457	0.000814
627.467117	0.000815
627.674758	0.000585
627.882382	0.000452
628.089987	0.000336
628.297574	0.000467
628.505143	0.000341
628.712694	0.000349
628.920226	0.000463
629.127740	0.000553
629.335236	0.000660
629.542714	0.000708
629.750174	0.000645
629.957615	0.000761
630.165038	0.000598
630.372443	0.000657
630.579829	0.000644
630.787198	0.000551
630.994548	0.000544
631.201880	0.000522
631.409194	0.000461
631.616489	0.000576
631.823766	0.000520
632.031025	0.000750
632.238266	0.000814
632.445489	0.000821
632.652693	0.000733
632.859879	0.000764
633.067047	0.000457
633.274197	0.000451
633.481329	0.000381
633.688442	0.000369
633.895537	0.000098
634.102614	-0.000022
634.309672	-0.000021
634.516713	0.000068
634.723735	0.000189
634.930739	0.000277
635.137724	0.000269
635.344692	0.000382
635.551641	0.000349
635.758572	0.000620
635.965485	0.000607
636.172379	0.000576
636.379256	0.000708
636.586114	0.000679
636.792954	0.000856
636.999775	0.000918
637.206579	0.000897
637.413364	0.000911
637.620131	0.000869
637.826880	0.000790
638.033610	0.000723
638.240323	0.000606
638.447017	0.000587
638.653692	0.000503
638.860350	0.000436
639.066990	0.000528
639.273611	0.000498
639.480214	0.000500
639.686798	0.000784
639.893365	0.000690
640.099913	0.000594
640.306443	0.000415
640.512955	0.000613
640.719449	0.000707
640.925924	0.000559
641.132381	0.000572
641.338820	0.000396
641.545241	0.000084
641.751644	0.000127
641.958028	0.000200
642.164394	0.000233
642.370742	-0.000022
642.577071	0.000074
642.783383	0.000078
642.989676	0.000021
643.195951	0.000084
643.402207	0.000318
643.608446	0.000445
643.814666	0.000515
644.020868	0.000666
644.227052	0.000867
644.433218	0.000602
644.639365	0.000575
644.845494	0.000711
645.051605	0.000594
645.257698	0.000312
645.463772	0.000233
645.669828	0.000177
645.875866	0.000089
646.081886	-0.000004
646.287888	0.000110
646.493871	0.000110
646.699836	-0.000030
646.905783	0.000081
647.111712	0.000315
647.317622	0.000277
647.523514	0.000180
647.729388	0.000231
647.935244	0.000213
648.141082	0.000369
648.346901	0.000523
648.552702	0.000664
648.758485	0.000792
648.964250	0.000771
649.169996	0.001008
649.375724	0.001240
649.581434	0.001130
649.787126	0.001171
649.992800	0.001112
650.198455	0.000883
650.404092	0.000859
650.609711	0.000728
650.815311	0.000670
651.020894	0.000388
651.226458	0.000167
651.432004	0.000181
651.637532	0.000108
651.843041	-0.000158
652.048532	-0.000226
652.254006	-0.000215
652.459460	-0.000280
652.664897	-0.000332
652.870315	-0.000201
653.075716	-0.000219
653.281097	-0.000249
653.486461	-0.000195
653.691807	0.000174
653.897134	0.000317
654.102443	0.000320
654.307734	0.000352
654.513006	0.000255
654.718261	0.000238
654.923497	0.000252
655.128715	0.000375
655.333915	0.000195
655.539096	-0.000029
655.744259	-0.000064
655.949404	0.000023
656.154531	-0.000021
656.359640	-0.000028
656.564730	-0.000046
656.769802	0.000018
656.974856	-0.000216
657.179892	-0.000097
657.384909	-0.000024
657.589908	0.000056
657.794889	-0.000063
657.999852	-0.000051
658.204797	0.000086
658.409723	-0.000079
658.614631	-0.000020
658.819521	0.000077
659.024393	0.000149
659.229246	0.000267
659.434081	0.000443
659.638898	0.000444
659.843697	0.000587
660.048478	0.000587
660.253240	0.000898
660.457984	0.000931
660.662710	0.001021
660.867417	0.001131
661.072107	0.001081
661.276778	0.001040
661.481431	0.000951
661.686066	0.000893
661.890682	0.000855
662.095281	0.000807
662.299861	0.000831
662.504422	0.000867
662.708966	0.000672
662.913491	0.000617
663.117999	0.000414
663.322488	0.000525
663.526958	0.000398
663.731411	0.000344
663.935845	0.000296
664.140261	0.000263
664.344659	0.000283
664.549038	0.000400
664.753400	0.000427
664.957743	0.000458
665.162068	0.000390
665.366375	0.000699
665.570663	0.000825
665.774933	0.000859
665.979185	0.000933
666.183419	0.000771
666.387635	0.000790
666.591832	0.000722
666.796011	0.000769
667.000172	0.000696
667.204315	0.000395
667.408439	0.000319
667.612545	0.000213
667.816634	0.000089
668.020703	0.000262
668.224755	0.000237
668.428788	0.000404
668.632803	0.000219
668.836800	0.000385
669.040779	0.000427
669.244739	0.000628
669.448681	0.000717
669.652605	0.000694
669.856511	0.000435
670.060399	0.000223
670.264268	0.000194
670.468119	0.000413
670.671952	0.000321
670.875767	0.000188
671.079563	-0.000018
671.283341	-0.000040
671.487101	-0.000039
671.690843	0.000098
671.894567	0.000190
672.098272	0.000034
672.301959	-0.000063
672.505628	0.000023
672.709278	0.000113
672.912911	0.000203
673.116525	0.000205
673.320121	0.000205
673.523699	0.000288
673.727258	0.000497
673.930799	0.000517
674.134322	0.000595
674.337827	0.000428
674.541314	0.000510
674.744782	0.000459
674.948232	0.000547
675.151664	0.000595
675.355078	0.000506
675.558474	0.000314
675.761851	0.000303
675.965210	0.000202
676.168551	0.000290
676.371873	0.000378
676.575178	0.000378
676.778464	0.000213
676.981732	0.000424
677.184981	0.000546
677.388213	0.000539
677.591426	0.000549
677.794621	0.000716
677.997798	0.000748
678.200956	0.000685
678.404097	0.000566
678.607219	0.000679
678.810323	0.000336
679.013408	0.000217
679.216476	0.000020
679.419525	0.000019
679.622556	-0.000081
679.825569	-0.000045
680.028563	-0.000095
680.231540	0.000098
680.434498	0.000143
680.637438	0.000307
680.840359	0.000287
681.043263	0.000413
681.246148	0.000527
681.449015	0.000542
681.651864	0.000463
681.854694	0.000476
682.057506	0.000369
682.260301	0.000244
682.463076	0.000145
682.665834	0.000162
682.868573	0.000285
683.071295	0.000245
683.273998	0.000221
683.476682	0.000278
683.679349	0.000336
683.881997	0.000401
684.084627	0.000484
684.287239	0.000536
684.489833	0.000652
684.692408	0.000606
684.894965	0.000636
685.097504	0.000701
685.300025	0.000803
685.502527	0.000760
685.705012	0.000802
685.907478	0.000650
686.109925	0.000708
686.312355	0.000654
686.514766	0.000696
686.717159	0.000629
686.919534	0.000548
687.121891	0.000496
687.324230	0.000732
687.526550	0.000678
687.728852	0.000797
687.931136	0.000772
688.133401	0.000788
688.335649	0.000755
688.537878	0.000692
688.740089	0.000567
688.942281	0.000618
689.144456	0.000396
689.346612	0.000433
689.548750	0.000352
689.750870	0.000221
689.952971	0.000202
690.155055	0.000251
690.357120	0.000277
690.559167	0.000502
690.761195	0.000403
690.963206	0.000481
691.165198	0.000435
691.367172	0.000409
691.569128	0.000499
691.771065	0.000439
691.972984	0.000394
692.174885	0.000409
692.376768	0.000440
692.578633	0.000442
692.780479	0.000315
692.982308	0.000307
693.184118	0.000287
693.385909	0.000256
693.587683	0.000174
693.789438	0.000115
693.991175	0.000064
694.192894	0.000046
694.394595	0.000037
694.596277	0.000039
694.797941	0.000028
694.999587	0.000179
695.201215	0.000356
695.402824	0.000402
695.604416	0.000337
695.805989	0.000336
696.007543	0.000399
696.209080	0.000525
696.410598	0.000484
696.612099	0.000439
696.813580	0.000383
697.015044	0.000147
697.216490	0.000275
697.417917	0.000456
697.619326	0.000635
697.820717	0.000645
698.022089	0.000805
698.223444	0.000976
698.424780	0.001185
698.626098	0.001236
698.827397	0.001280
699.028679	0.001229
699.229942	0.001253
699.431187	0.001127
699.632414	0.001016
699.833622	0.000766
700.034813	0.000852
700.235985	0.000731
700.437139	0.000733
700.638274	0.000819
700.839392	0.000825
701.040491	0.000825
701.241572	0.000813
701.442635	0.000735
701.643679	0.000808
701.844706	0.000613
702.045714	0.000742
702.246704	0.000759
702.447675	0.000794
702.648629	0.000989
702.849564	0.000969
703.050481	0.001209
703.251380	0.001303
703.452260	0.001349
703.653122	0.001412
703.853966	0.001362
704.054792	0.001294
704.255600	0.001185
704.456389	0.001049
704.657160	0.001075
704.857913	0.001001
705.058648	0.000965
705.259365	0.000852
705.460063	0.000923
705.660743	0.000805
705.861405	0.000735
706.062048	0.000805
706.262674	0.000661
706.463281	0.000550
706.663870	0.000403
706.864441	0.000373
707.064993	0.000352
707.265527	0.000223
707.466043	0.000110
707.666541	0.000158
707.867021	0.000147
708.067482	0.000240
708.267925	0.000292
708.468350	0.000230
708.668757	0.000225
708.869145	0.000242
709.069516	0.000273
709.269868	0.000432
709.470201	0.000373
709.670517	0.000378
709.870814	0.000394
710.071093	0.000343
710.271354	0.000486
710.471597	0.000454
710.671821	0.000404
710.872028	0.000310
711.072216	0.000273
711.272385	0.000334
711.472537	0.000397
711.672670	0.000441
711.872785	0.000404
712.072882	0.000259
712.272961	0.000348
712.473021	0.000488
712.673063	0.000553
712.873087	0.000502
713.073093	0.000525
713.273081	0.000315
713.473050	0.000302
713.673001	0.000386
713.872934	0.000520
714.072849	0.000471
714.272745	0.000449
714.472623	0.000416
714.672483	0.000452
714.872325	0.000477
715.072148	0.000586
715.271954	0.000708
715.471741	0.000832
715.671509	0.000751
715.871260	0.000709
716.070992	0.000719
716.270707	0.000772
716.470403	0.000819
716.670080	0.000726
716.869740	0.000707
717.069381	0.000428
717.269004	0.000356
717.468609	0.000213
717.668195	0.000235
717.867764	0.000103
718.067314	0.000248
718.266846	0.000333
718.466360	0.000286
718.665855	0.000277
718.865332	0.000362
719.064791	0.000317
719.264232	0.000462
719.463655	0.000454
719.663059	0.000436
719.862445	0.000199
720.061813	0.000044
720.261163	0.000200
720.460494	0.000305
720.659807	0.000226
720.859102	0.000176
721.058379	0.000292
721.257638	0.000186
721.456878	0.000090
721.656100	0.000122
721.855304	0.000037
722.054490	-0.000268
722.253657	-0.000425
722.452806	-0.000387
722.651937	-0.000473
722.851050	-0.000606
723.050145	-0.000690
723.249221	-0.000755
723.448279	-0.000870
723.647319	-0.000885
723.846340	-0.000833
724.045344	-0.000976
724.244329	-0.001045
724.443296	-0.001103
724.642245	-0.001394
724.841175	-0.001329
725.040088	-0.001267
725.238982	-0.001327
725.437857	-0.001563
725.636715	-0.001468
725.835554	-0.001428
726.034376	-0.001580
726.233179	-0.001643
726.431963	-0.001571
726.630730	-0.001634
726.829478	-0.001653
727.028208	-0.001612
727.226920	-0.001434
727.425614	-0.001564
727.624289	-0.001708
727.822946	-0.001651
728.021585	-0.001663
728.220206	-0.001565
728.418808	-0.001441
728.617392	-0.001417
728.815958	-0.001288
729.014506	-0.001263
729.213036	-0.001207
729.411547	-0.000938
729.610040	-0.000822
729.808515	-0.000657
730.006972	-0.000709
730.205410	-0.000782
730.403831	-0.000931
730.602233	-0.001062
730.800616	-0.001071
730.998982	-0.001096
731.197329	-0.001358
731.395658	-0.001377
731.593969	-0.001422
731.792262	-0.001252
731.990536	-0.001324
732.188793	-0.001144
732.387031	-0.001054
732.585250	-0.000982
732.783452	-0.000905
732.981635	-0.000688
733.179800	-0.000585
733.377947	-0.000666
733.576076	-0.000946
733.774186	-0.000873
733.972278	-0.000872
734.170352	-0.000812
734.368408	-0.000908
734.566446	-0.000949
734.764465	-0.001109
734.962466	-0.001232
735.160449	-0.001216
735.358413	-0.001143
735.556360	-0.001224
735.754288	-0.001395
735.952198	-0.001571
736.150090	-0.001710
736.347963	-0.001828
736.545818	-0.001800
736.743655	-0.001864
736.941474	-0.001980
737.139275	-0.002122
737.337057	-0.002154
737.534821	-0.002033
737.732567	-0.001975
737.930295	-0.001842
738.128005	-0.001706
738.325696	-0.001922
738.523369	-0.002017
738.721024	-0.001962
738.918660	-0.001834
739.116279	-0.001917
739.313879	-0.001928
739.511461	-0.002030
739.709024	-0.002055
739.906570	-0.002027
740.104097	-0.001661
740.301606	-0.001617
740.499097	-0.001689
740.696569	-0.001613
740.894024	-0.001513
741.091460	-0.001707
741.288878	-0.001551
741.486277	-0.001526
741.683659	-0.001644
741.881022	-0.001946
742.078367	-0.002042
742.275694	-0.001863
742.473002	-0.001889
742.670293	-0.001868
742.867565	-0.001699
743.064819	-0.001851
743.262054	-0.001863
743.459272	-0.001829
743.656471	-0.001607
743.853652	-0.001405
744.050815	-0.001394
744.247959	-0.001331
744.445085	-0.001277
744.642194	-0.001258
744.839283	-0.001093
745.036355	-0.001123
745.233408	-0.001074
745.430444	-0.001034
745.627461	-0.001026
745.824459	-0.001093
746.021440	-0.001167
746.218402	-0.000960
746.415346	-0.000802
746.612272	-0.000962
746.809180	-0.000742
747.006069	-0.000738
747.202940	-0.000816
747.399793	-0.000834
747.596628	-0.000837
747.793444	-0.000742
747.990243	-0.000749
748.187023	-0.000900
748.383784	-0.000715
748.580528	-0.000857
748.777253	-0.000706
748.973960	-0.000636
749.170649	-0.000525
749.367320	-0.000504
749.563973	-0.000561
749.760607	-0.000680
749.957223	-0.000646
750.153821	-0.000736
750.350400	-0.000752
750.546962	-0.001011
750.743505	-0.000912
750.940030	-0.000997
751.136536	-0.000898
751.333025	-0.000743
751.529495	-0.000518
751.725947	-0.000468
751.922381	-0.000517
752.118796	-0.000322
752.315194	-0.000210
752.511573	-0.000241
752.707934	-0.000121
752.904276	-0.000021
753.100601	-0.000064
753.296907	-0.000211
753.493195	-0.000080
753.689465	0.000100
753.885716	0.000067
754.081949	0.000283
754.278164	0.000307
754.474361	0.000173
754.670540	0.000181
754.866700	0.000248
755.062843	0.000458
755.258967	0.000226
755.455072	0.000150
755.651160	0.000208
755.847229	0.000105
756.043280	0.000203
756.239313	0.000283
756.435328	0.000130
756.631324	0.000087
756.827302	-0.000102
757.023262	-0.000053
757.219204	-0.000011
757.415127	0.000074
757.611033	0.000156
757.806920	0.000070
758.002788	0.000186
758.198639	0.000322
758.394471	0.000307
758.590286	0.000277
758.786081	0.000301
758.981859	0.000189
759.177619	-0.000086
759.373360	-0.000304
759.569083	-0.000409
759.764788	-0.000474
759.960474	-0.000629
760.156143	-0.000632
760.351793	-0.000706
760.547425	-0.000673
760.743038	-0.000525
760.938634	-0.000319
761.134211	-0.000133
761.329770	-0.000020
761.525311	0.000058
761.720833	0.000299
761.916338	0.000471
762.111824	0.000786
762.307292	0.001028
762.502741	0.001131
762.698173	0.001194
762.893586	0.001231
763.088981	0.001416
763.284358	0.001452
763.479716	0.001419
763.675057	0.001292
763.870379	0.001054
764.065683	0.000929
764.260968	0.000834
764.456236	0.000723
764.651485	0.000781
764.846716	0.000660
765.041929	0.000552
765.237123	0.000514
765.432299	0.000547
765.627457	0.000738
765.822597	0.000756
766.017719	0.000772
766.212822	0.000664
766.407907	0.000626
766.602974	0.000527
766.798023	0.000526
766.993054	0.000601
767.188066	0.000587
767.383060	0.000468
767.578036	0.000390
767.772993	0.000357
767.967933	0.000628
768.162854	0.000728
768.357757	0.000903
768.552642	0.001138
768.747508	0.001148
768.942356	0.001109
769.137186	0.001329
769.331998	0.001453
769.526792	0.001617
769.721567	0.001567
769.916324	0.001412
770.111063	0.001400
770.305784	0.001329
770.500486	0.001255
770.695171	0.001343
770.889837	0.001248
771.084484	0.001326
771.279114	0.001400
771.473725	0.001520
771.668318	0.001565
771.862893	0.001626
772.057450	0.001613
772.251988	0.001596
772.446509	0.001638
772.641011	0.001444
772.835494	0.001347
773.029960	0.001288
773.224407	0.001234
773.418836	0.001321
773.613247	0.001396
773.807640	0.001329
774.002014	0.001401
774.196370	0.001454
774.390708	0.001457
774.585028	0.001542
774.779330	0.001459
774.973613	0.001345
775.167878	0.001393
775.362125	0.001214
775.556354	0.001309
775.750564	0.001363
775.944756	0.001246
776.138930	0.001263
776.333086	0.001071
776.527223	0.001104
776.721343	0.001082
776.915444	0.000919
777.109526	0.000859
777.303591	0.000756
777.497637	0.000733
777.691666	0.000777
777.885676	0.000764
778.079667	0.000889
778.273641	0.000806
778.467596	0.000927
778.661533	0.001055
778.855452	0.001150
779.049352	0.001007
779.243235	0.000941
779.437099	0.000881
779.630945	0.001140
779.824773	0.001114
780.018582	0.001167
780.212373	0.001140
780.406146	0.001096
780.599901	0.001094
780.793638	0.001375
780.987356	0.001524
781.181056	0.001615
781.374738	0.001529
781.568402	0.001566
781.762047	0.001623
781.955674	0.001689
782.149283	0.001594
782.342874	0.001527
782.536447	0.001623
782.730001	0.001540
782.923537	0.001557
783.117055	0.001654
783.310555	0.001525
783.504036	0.001467
783.697499	0.001385
783.890944	0.001393
784.084371	0.001430
784.277780	0.001272
784.471170	0.001396
784.664542	0.001400
784.857896	0.001196
785.051231	0.001361
785.244549	0.001403
785.437848	0.001401
785.631129	0.001451
785.824392	0.001590
786.017636	0.001586
786.210863	0.001469
786.404071	0.001335
786.597260	0.001427
786.790432	0.001437
786.983585	0.001386
787.176721	0.001176
787.369838	0.001135
787.562936	0.001051
787.756017	0.000924
787.949079	0.000648
788.142123	0.000514
788.335149	0.000378
788.528156	0.000276
788.721146	0.000164
788.914117	0.000250
789.107070	0.000426
789.300005	0.000548
789.492921	0.000734
789.685819	0.000856
789.878699	0.001193
790.071561	0.001363
790.264405	0.001222
790.457230	0.001353
790.650037	0.001362
790.842826	0.001307
791.035597	0.001256
791.228349	0.001053
791.421084	0.001056
791.613800	0.000907
791.806497	0.000744
791.999177	0.000894
792.191838	0.000765
792.384481	0.000989
792.577106	0.000849
792.769713	0.000689
792.962301	0.000827
793.154871	0.000839
793.347423	0.000719
793.539957	0.000832
793.732473	0.000716
793.924970	0.000648
794.117449	0.000543
794.309910	0.000546
794.502353	0.000449
794.694777	0.000342
794.887183	0.000373
795.079571	0.000328
795.271941	0.000245
795.464293	0.000165
795.656626	0.000039
795.848941	0.000056
796.041238	-0.000044
796.233516	-0.000044
796.425777	-0.000267
796.618019	-0.000313
796.810243	-0.000060
797.002449	-0.000043
797.194636	0.000093
797.386805	0.000455
797.578956	0.000348
797.771089	0.000365
797.963204	0.000234
798.155300	0.000476
798.347378	0.000457
798.539438	0.000107
798.731480	0.000230
798.923503	0.000312
799.115509	-0.000027
799.307496	-0.000061
799.499465	-0.000117
799.691415	0.000131
799.883348	0.000227
800.075262	0.000369
800.267158	0.000523
800.459035	0.000150
800.650895	0.000003
800.842736	0.000135
801.034559	0.000093
801.226364	0.000365
801.418150	0.000301
801.609919	0.000224
801.801669	0.000219
801.993401	0.000163
802.185114	0.000372
802.376810	0.000305
802.568487	0.000367
802.760146	0.000400
802.951787	0.000152
803.143409	0.000120
803.335014	0.000094
803.526600	-0.000003
803.718168	0.000216
803.909717	0.000072
804.101249	-0.000029
804.292762	0.000001
804.484257	0.000058
804.675734	-0.000058
804.867192	-0.000229
805.058632	-0.000292
805.250054	-0.000402
805.441458	-0.000610
805.632844	-0.000495
805.824211	-0.000303
806.015561	-0.000274
806.206891	-0.000311
806.398204	-0.000231
806.589499	0.000013
806.780775	-0.000065
806.972033	0.000109
807.163273	0.000365
807.354495	0.000556
807.545698	0.000561
807.736883	0.000454
807.928050	0.000529
808.119199	0.000689
808.310329	0.000775
808.501441	0.000826
808.692535	0.000801
808.883611	0.000819
809.074669	0.000786
809.265708	0.000874
809.456729	0.001032
809.647732	0.001029
809.838717	0.001055
810.029683	0.001086
810.220632	0.001263
810.411562	0.001442
810.602474	0.001591
810.793367	0.001464
810.984242	0.001514
811.175100	0.001460
811.365938	0.001414
811.556759	0.001422
811.747562	0.001281
811.938346	0.001215
812.129112	0.000958
812.319860	0.000725
812.510589	0.000685
812.701300	0.000649
812.891994	0.000776
813.082668	0.000626
813.273325	0.000546
813.463964	0.000480
813.654584	0.000384
813.845186	0.000364
814.035769	0.000259
814.226335	0.000320
814.416882	0.000199
814.607411	-0.000029
814.797922	0.000112
814.988415	-0.000136
815.178889	-0.000070
815.369345	-0.000114
815.559783	-0.000094
815.750203	-0.000105
815.940605	-0.000112
816.130988	-0.000386
816.321353	-0.000227
816.511700	-0.000423
816.702028	-0.000052
816.892339	-0.000107
817.082631	-0.000083
817.272905	-0.000111
817.463161	-0.000333
817.653398	-0.000432
817.843617	-0.000140
818.033819	-0.000400
818.224001	-0.000242
818.414166	-0.000523
818.604312	-0.000633
818.794440	-0.000778
818.984550	-0.000885
819.174642	-0.000676
819.364716	-0.000900
819.554771	-0.001220
819.744808	-0.001328
819.934827	-0.001455
820.124827	-0.001628
820.314810	-0.001686
820.504774	-0.001547
820.694720	-0.001766
820.884647	-0.001975
821.074557	-0.001795
821.264448	-0.001653
821.454321	-0.001540
821.644176	-0.001634
821.834012	-0.001533
822.023831	-0.001430
822.213631	-0.001701
822.403413	-0.001676
822.593176	-0.001669
822.782922	-0.001795
822.972649	-0.002062
823.162358	-0.002123
823.352049	-0.002232
823.541721	-0.002266
823.731376	-0.002357
823.921012	-0.002302
824.110629	-0.002157
824.300229	-0.002213
824.489811	-0.002413
824.679374	-0.002322
824.868919	-0.002321
825.058445	-0.002237
825.247954	-0.002263
825.437444	-0.002101
825.626916	-0.002016
825.816370	-0.001988
826.005806	-0.001893
826.195223	-0.001534
826.384622	-0.001353
826.574003	-0.001459
826.763366	-0.001425
826.952711	-0.001591
827.142037	-0.001774
827.331345	-0.001705
827.520635	-0.001975
827.709906	-0.001907
827.899160	-0.002056
828.088395	-0.002162
828.277612	-0.002123
828.466810	-0.002164
828.655991	-0.002045
828.845153	-0.002065
829.034297	-0.002338
829.223423	-0.002172
829.412531	-0.002280
829.601620	-0.002592
829.790691	-0.002622
829.979744	-0.002659
830.168779	-0.002810
830.357795	-0.002784
830.546793	-0.002972
830.735773	-0.002994
830.924735	-0.002962
831.113679	-0.003006
831.302604	-0.002852
831.491511	-0.003006
831.680400	-0.003216
831.869271	-0.003265
832.058123	-0.003469
832.246957	-0.003354
832.435773	-0.003215
832.624571	-0.003369
832.813351	-0.003484
833.002112	-0.003311
833.190855	-0.003049
833.379580	-0.002895
833.568287	-0.002828
833.756975	-0.002856
833.945645	-0.002996
834.134297	-0.003019
834.322931	-0.003239
834.511547	-0.003335
834.700144	-0.003599
834.888723	-0.003904
835.077284	-0.003820
835.265826	-0.004021
835.454351	-0.003983
835.642857	-0.003873
835.831345	-0.003918
836.019815	-0.003630
836.208266	-0.003518
836.396699	-0.003441
836.585114	-0.003356
836.773511	-0.003469
836.961890	-0.003335
837.150250	-0.003339
837.338592	-0.003259
837.526916	-0.003470
837.715222	-0.003756
837.903510	-0.003722
838.091779	-0.003627
838.280030	-0.003620
838.468263	-0.003637
838.656477	-0.003520
838.844674	-0.003317
839.032852	-0.003473
839.221012	-0.003316
839.409153	-0.003105
839.597277	-0.003241
839.785382	-0.003347
839.973469	-0.003308
840.161538	-0.003289
840.349589	-0.003443
840.537621	-0.003648
840.725635	-0.003624
840.913631	-0.003694
841.101609	-0.003609
841.289568	-0.003712
841.477509	-0.003935
841.665432	-0.004007
841.853337	-0.004241
842.041224	-0.004180
842.229092	-0.004080
842.416942	-0.004251
842.604774	-0.004122
842.792588	-0.004336
842.980383	-0.004163
843.168160	-0.003848
843.355919	-0.003889
843.543660	-0.003711
843.731382	-0.003729
843.919087	-0.003636
844.106773	-0.003557
844.294441	-0.003680
844.482090	-0.003537
844.669722	-0.003588
844.857335	-0.003876
845.044930	-0.003914
845.232507	-0.003857
845.420065	-0.003872
845.607605	-0.003870
845.795127	-0.003777
845.982631	-0.003867
846.170117	-0.003916
846.357584	-0.003818
846.545033	-0.003503
846.732464	-0.003238
846.919877	-0.003179
847.107272	-0.003005
847.294648	-0.003218
847.482006	-0.003311
847.669346	-0.003328
847.856667	-0.003318
848.043971	-0.003292
848.231256	-0.003604
848.418523	-0.003766
848.605771	-0.003937
848.793002	-0.004087
848.980214	-0.004011
849.167408	-0.003938
849.354584	-0.003931
849.541742	-0.003988
849.728881	-0.004000
849.916002	-0.003793
850.103105	-0.003593
850.290190	-0.003354
850.477256	-0.003232
850.664304	-0.003187
850.851334	-0.003164
851.038346	-0.003039
851.225340	-0.002897
851.412315	-0.002983
851.599272	-0.002945
851.786211	-0.003043
851.973132	-0.003264
852.160034	-0.003266
852.346918	-0.003264
852.533784	-0.003183
852.720632	-0.003090
852.907462	-0.003027
853.094273	-0.003081
853.281066	-0.003198
853.467841	-0.003296
853.654598	-0.003038
853.841336	-0.003055
854.028056	-0.003003
854.214758	-0.003233
854.401442	-0.003161
854.588107	-0.003163
854.774755	-0.003041
854.961384	-0.002897
855.147995	-0.002924
855.334587	-0.003058
855.521162	-0.003105
855.707718	-0.003385
855.894256	-0.003144
856.080775	-0.003495
856.267277	-0.003779
856.453760	-0.003787
856.640225	-0.003852
856.826672	-0.003749
857.013101	-0.003866
857.199511	-0.004017
857.385903	-0.003953
857.572277	-0.003988
857.758633	-0.003624
857.944970	-0.003363
858.131290	-0.003645
858.317591	-0.003537
858.503873	-0.003681
858.690138	-0.003718
858.876384	-0.003591
859.062612	-0.003481
859.248822	-0.003682
859.435014	-0.003574
859.621188	-0.003697
859.807343	-0.003219
859.993480	-0.003457
860.179599	-0.003368
860.365699	-0.003390
860.551781	-0.003227
860.737846	-0.002960
860.923891	-0.002904
861.109919	-0.003052
861.295929	-0.003071
861.481920	-0.003411
861.667893	-0.003334
861.853848	-0.003376
862.039784	-0.003176
862.225702	-0.003256
862.411603	-0.003520
862.597484	-0.003500
862.783348	-0.003537
862.969193	-0.003401
863.155021	-0.003371
863.340830	-0.003329
863.526620	-0.003185
863.712393	-0.003108
863.898147	-0.003226
864.083883	-0.003147
864.269601	-0.002963
864.455301	-0.003056
864.640982	-0.003124
864.826645	-0.002980
865.012290	-0.002778
865.197917	-0.002939
865.383526	-0.002988
865.569116	-0.002806
865.754688	-0.002776
865.940242	-0.002832
866.125777	-0.002947
866.311295	-0.002978
866.496794	-0.003023
866.682275	-0.003076
866.867737	-0.002965
867.053182	-0.002944
867.238608	-0.003089
867.424016	-0.003052
867.609406	-0.003110
867.794778	-0.002918
867.980131	-0.002935
868.165466	-0.002902
868.350783	-0.003192
868.536082	-0.003170
868.721362	-0.003548
868.906625	-0.003626
869.091869	-0.003761
869.277094	-0.003789
869.462302	-0.003894
869.647491	-0.003754
869.832662	-0.003886
870.017815	-0.003866
870.202950	-0.003937
870.388066	-0.003606
870.573165	-0.003497
870.758245	-0.003538
870.943306	-0.003670
871.128350	-0.003804
871.313375	-0.003953
871.498382	-0.004103
871.683371	-0.003915
871.868342	-0.003903
872.053294	-0.003969
872.238229	-0.004115
872.423144	-0.003953
872.608042	-0.003981
872.792922	-0.003793
872.977783	-0.003833
873.162626	-0.003650
873.347451	-0.003955
873.532258	-0.004210
873.717046	-0.004326
873.901816	-0.004262
874.086568	-0.004696
874.271302	-0.004373
874.456017	-0.004307
874.640715	-0.004331
874.825394	-0.004252
875.010055	-0.004066
875.194697	-0.003891
875.379322	-0.003797
875.563928	-0.003980
875.748516	-0.003823
875.933085	-0.004057
876.117637	-0.004147
876.302170	-0.004160
876.486685	-0.004367
876.671182	-0.004533
876.855661	-0.004580
877.040121	-0.004457
877.224563	-0.004432
877.408987	-0.004350
877.593393	-0.004208
877.777780	-0.004172
877.962150	-0.004240
878.146501	-0.003839
878.330833	-0.003619
878.515148	-0.003724
878.699444	-0.003837
878.883722	-0.003681
879.067982	-0.003641
879.252224	-0.003710
879.436447	-0.003593
879.620653	-0.003452
879.804840	-0.003443
879.989008	-0.003337
880.173159	-0.003109
880.357291	-0.003065
880.541405	-0.002877
880.725501	-0.002756
880.909579	-0.002691
881.093638	-0.002685
881.277680	-0.002512
881.461703	-0.002634
881.645707	-0.002736
881.829694	-0.002764
882.013662	-0.002575
882.197612	-0.002825
882.381544	-0.002936
882.565458	-0.003176
882.749353	-0.003153
882.933230	-0.003228
883.117089	-0.003603
883.300930	-0.003873
883.484753	-0.004136
883.668557	-0.004373
883.852343	-0.004451
884.036111	-0.004581
884.219861	-0.004589
884.403592	-0.004929
884.587305	-0.004988
884.771000	-0.004951
884.954677	-0.004913
885.138335	-0.004682
885.321976	-0.004763
885.505598	-0.004725
885.689201	-0.004797
885.872787	-0.004597
886.056354	-0.004466
886.239904	-0.004631
886.423434	-0.004473
886.606947	-0.004090
886.790442	-0.004062
886.973918	-0.003989
887.157376	-0.004196
887.340816	-0.003954
887.524237	-0.003759
887.707641	-0.003591
887.891026	-0.003474
888.074393	-0.003510
888.257741	-0.003845
888.441072	-0.003863
888.624384	-0.003970
888.807678	-0.003864
888.990954	-0.003751
889.174211	-0.003978
889.357451	-0.004199
889.540672	-0.004295
889.723875	-0.004142
889.907059	-0.004175
890.090226	-0.004119
890.273374	-0.004188
890.456504	-0.003891
890.639616	-0.004164
890.822709	-0.004342
891.005785	-0.004463
891.188842	-0.004752
891.371881	-0.004948
891.554901	-0.004867
891.737904	-0.005114
891.920888	-0.005204
892.103854	-0.005076
892.286802	-0.005069
892.469731	-0.004854
892.652643	-0.004640
892.835536	-0.004384
893.018410	-0.004407
893.201267	-0.004544
893.384106	-0.004561
893.566926	-0.004511
893.749728	-0.004703
893.932511	-0.004869
894.115277	-0.004980
894.298024	-0.005042
894.480753	-0.004860
894.663464	-0.004767
894.846157	-0.004342
895.028831	-0.004295
895.211487	-0.004273
895.394125	-0.004589
895.576745	-0.004395
895.759346	-0.004160
895.941930	-0.004204
896.124495	-0.004529
896.307041	-0.004498
896.489570	-0.004784
896.672080	-0.004568
896.854573	-0.004377
897.037046	-0.004193
897.219502	-0.004339
897.401940	-0.004795
897.584359	-0.005067
897.766760	-0.004876
897.949143	-0.004937
898.131507	-0.005044
898.313854	-0.004992
898.496182	-0.004985
898.678492	-0.004921
898.860783	-0.004469
899.043057	-0.004435
899.225312	-0.004355
899.407549	-0.004631
899.589768	-0.004657
899.771968	-0.004390
899.954151	-0.004796
900.136315	-0.005010
900.318461	-0.005087
900.500588	-0.005320
900.682698	-0.005299
900.864789	-0.005203
901.046862	-0.004904
901.228917	-0.005018
901.410953	-0.005111
901.592971	-0.004819
901.774972	-0.004921
901.956953	-0.005250
902.138917	-0.005392
902.320862	-0.005378
902.502790	-0.005389
902.684699	-0.005719
902.866589	-0.005415
903.048462	-0.005754
903.230316	-0.005841
903.412152	-0.006058
903.593970	-0.005845
903.775770	-0.005705
903.957551	-0.005993
904.139314	-0.006114
904.321059	-0.005904
904.502786	-0.006155
904.684494	-0.005918
904.866185	-0.006334
905.047857	-0.005983
905.229510	-0.005965
905.411146	-0.005906
905.592763	-0.005617
905.774363	-0.005506
905.955943	-0.005547
906.137506	-0.005612
906.319051	-0.005863
906.500577	-0.005793
906.682085	-0.005644
906.863575	-0.005652
907.045046	-0.005917
907.226500	-0.005788
907.407935	-0.005711
907.589352	-0.005810
907.770750	-0.005990
907.952131	-0.005857
908.133493	-0.005766
908.314837	-0.006053
908.496163	-0.006338
908.677470	-0.006252
908.858760	-0.006187
909.040031	-0.006164
909.221284	-0.006045
909.402518	-0.006041
909.583735	-0.006043
909.764933	-0.005748
909.946113	-0.006023
910.127275	-0.005685
910.308418	-0.005862
910.489544	-0.006139
910.670651	-0.006448
910.851740	-0.006603
911.032810	-0.006595
911.213863	-0.006829
911.394897	-0.007049
911.575913	-0.006798
911.756911	-0.006676
911.937890	-0.006481
912.118851	-0.006586
912.299794	-0.006567
912.480719	-0.006750
912.661626	-0.006762
912.842514	-0.006866
913.023384	-0.006925
913.204236	-0.007292
913.385070	-0.007830
913.565886	-0.008289
913.746683	-0.008579
913.927462	-0.008908
914.108223	-0.008804
914.288965	-0.008943
914.469690	-0.008828
914.650396	-0.008811
914.831084	-0.008487
915.011754	-0.008687
915.192405	-0.008560
915.373038	-0.008598
915.553653	-0.008126
915.734250	-0.008254
915.914829	-0.008380
916.095389	-0.008819
916.275931	-0.008913
916.456455	-0.009231
916.636961	-0.008905
916.817448	-0.009470
916.997917	-0.008726
917.178368	-0.008845
917.358801	-0.008790
917.539216	-0.008980
917.719612	-0.008607
917.899990	-0.008742
918.080350	-0.008541
918.260692	-0.008519
918.441015	-0.008040
918.621320	-0.008728
918.801607	-0.009147
918.981876	-0.009299
919.162127	-0.009085
919.342359	-0.009172
919.522573	-0.009333
919.702769	-0.009500
919.882947	-0.009608
920.063106	-0.009598
920.243247	-0.009622
920.423370	-0.009612
920.603475	-0.009722
920.783562	-0.009660
920.963630	-0.009453
921.143680	-0.009271
921.323712	-0.009342
921.503725	-0.009415
921.683721	-0.009650
921.863698	-0.009460
922.043657	-0.009293
922.223598	-0.009261
922.403520	-0.009467
922.583424	-0.009924
922.763311	-0.010540
922.943178	-0.010417
923.123028	-0.010414
923.302859	-0.010771
923.482673	-0.011056
923.662467	-0.011452
923.842244	-0.011585
924.022003	-0.011425
924.201743	-0.011595
924.381465	-0.011464
924.561169	-0.011731
924.740854	-0.012247
924.920522	-0.012190
925.100171	-0.012496
925.279802	-0.012366
925.459414	-0.012836
925.639009	-0.013307
925.818585	-0.013253
925.998143	-0.013387
926.177683	-0.013718
926.357205	-0.013353
926.536708	-0.013380
926.716193	-0.013751
926.895660	-0.013901
927.075109	-0.013561
927.254539	-0.013822
927.433951	-0.013761
927.613345	-0.013331
927.792721	-0.012808
927.972079	-0.012970
928.151418	-0.013192
928.330739	-0.013388
928.510042	-0.013489
928.689327	-0.013734
928.868593	-0.013714
929.047841	-0.014036
929.227071	-0.014731
929.406283	-0.015322
929.585476	-0.015511
929.764652	-0.015863
929.943809	-0.015686
930.122948	-0.016025
930.302068	-0.016249
930.481171	-0.016366
930.660255	-0.016186
930.839321	-0.016125
931.018369	-0.016509
931.197398	-0.016998
931.376409	-0.016496
931.555402	-0.016632
931.734377	-0.016332
931.913334	-0.016116
932.092272	-0.016040
932.271192	-0.016951
932.450094	-0.017090
932.628978	-0.017328
932.807844	-0.016741
932.986691	-0.017665
933.165520	-0.017521
933.344331	-0.017893
933.523123	-0.018100
933.701898	-0.018235
933.880654	-0.018232
934.059392	-0.018362
934.238111	-0.018424
934.416813	-0.018822
934.595496	-0.017868
934.774161	-0.018425
934.952808	-0.018169
935.131437	-0.018442
935.310047	-0.017911
935.488639	-0.017248
935.667213	-0.017100
935.845769	-0.017233
936.024306	-0.017717
936.202825	-0.018264
936.381326	-0.017781
936.559809	-0.018387
936.738274	-0.018604
936.916720	-0.019189
937.095148	-0.019407
937.273558	-0.019872
937.451950	-0.019767
937.630323	-0.019248
937.808678	-0.019466
937.987015	-0.020024
938.165334	-0.019614
938.343635	-0.019662
938.521917	-0.020488
938.700181	-0.020668
938.878427	-0.020868
939.056655	-0.021079
939.234864	-0.021582
939.413055	-0.021706
939.591228	-0.022576
939.769383	-0.023622
939.947519	-0.023701
940.125638	-0.023452
940.303738	-0.023793
940.481820	-0.023414
940.659883	-0.022994
940.837929	-0.023158
941.015956	-0.024403
941.193965	-0.023078
941.371955	-0.023042
941.549928	-0.023100
941.727882	-0.023273
941.905818	-0.023149
942.083736	-0.023726
942.261636	-0.023872
942.439517	-0.023140
942.617380	-0.022158
942.795225	-0.022463
942.973052	-0.022635
943.150860	-0.022682
943.328651	-0.022730
943.506423	-0.023088
943.684176	-0.023416
943.861912	-0.024397
944.039629	-0.025442
944.217328	-0.025766
944.395009	-0.026193
944.572672	-0.026248
944.750317	-0.026070
944.927943	-0.026521
945.105551	-0.026352
945.283141	-0.025069
945.460712	-0.024453
945.638265	-0.024428
945.815801	-0.023082
945.993317	-0.022534
946.170816	-0.021652
946.348297	-0.020869
946.525759	-0.019923
946.703203	-0.020464
946.880629	-0.021162
947.058036	-0.020360
947.235425	-0.020509
947.412797	-0.020761
947.590149	-0.020872
947.767484	-0.021211
947.944800	-0.021925
948.122099	-0.022830
948.299379	-0.022230
948.476640	-0.022976
948.653884	-0.023222
948.831109	-0.022257
949.008316	-0.022152
949.185505	-0.021126
949.362676	-0.020798
949.539828	-0.020194
949.716962	-0.018686
949.894078	-0.019044
950.071176	-0.018361
950.248256	-0.018814
950.425317	-0.018897
950.602360	-0.019852
950.779385	-0.020822
950.956391	-0.021124
951.133380	-0.021278
951.310350	-0.022526
951.487302	-0.022398
951.664235	-0.021082
951.841151	-0.019408
952.018048	-0.019171
952.194927	-0.017690
952.371788	-0.016500
952.548631	-0.016352
952.725455	-0.017255
952.902261	-0.016840
953.079049	-0.016148
953.255819	-0.017245
953.432570	-0.018878
953.609303	-0.019423
953.786018	-0.020702
953.962715	-0.021621
954.139394	-0.022162
954.316054	-0.021253
954.492696	-0.018858
954.669320	-0.018155
954.845926	-0.018826
955.022513	-0.017133
955.199083	-0.017309
955.375634	-0.015280
955.552166	-0.013993
955.728681	-0.012638
955.905177	-0.013498
956.081655	-0.015424
956.258115	-0.016695
956.434557	-0.014938
956.610980	-0.016647
956.787385	-0.017162
956.963772	-0.016873
957.140141	-0.017952
957.316492	-0.016416
957.492824	-0.014896
957.669138	-0.014417
957.845434	-0.013131
958.021712	-0.011993
958.197971	-0.010199
958.374212	-0.010466
958.550435	-0.011593
958.726640	-0.010743
958.902826	-0.010284
959.078995	-0.009048
959.255145	-0.007600
959.431277	-0.007827
959.607390	-0.008192
959.783486	-0.007845
959.959563	-0.005097
960.135622	-0.003967
960.311662	-0.004121
960.487685	-0.005117
960.663689	-0.006950
960.839675	-0.008308
961.015643	-0.006896
961.191593	-0.008055
961.367524	-0.008988
961.543437	-0.009177
961.719332	-0.009217
961.895209	-0.008623
962.071067	-0.006942
962.246907	-0.004129
962.422730	-0.003097
962.598533	-0.003480
962.774319	-0.003103
962.950086	-0.003733
963.125835	-0.003284
963.301566	-0.002094
963.477279	-0.001861
963.652973	-0.002788
963.828650	-0.004842
964.004308	-0.004501
964.179947	-0.003490
964.355569	-0.001022
964.531172	0.001041
964.706757	-0.000265
964.882324	-0.000750
965.057873	-0.000476
965.233403	0.000015
965.408916	0.001706
965.584410	0.003340
965.759885	0.005444
965.935343	0.005983
966.110782	0.007341
966.286203	0.009735
966.461606	0.010633
966.636991	0.011617
966.812357	0.010767
966.987705	0.011668
967.163035	0.009985
967.338347	0.007805
967.513641	0.007158
967.688916	0.006734
967.864173	0.006470
968.039412	0.005753
968.214632	0.004387
968.389835	0.005351
968.565019	0.002881
968.740185	0.003527
968.915333	0.004719
969.090462	0.006073
969.265573	0.005554
969.440667	0.005972
969.615741	0.004940
969.790798	0.004539
969.965836	0.003726
970.140856	0.006092
970.315858	0.005424
970.490842	0.004155
970.665808	0.003124
970.840755	0.004039
971.015684	0.003205
971.190595	0.005423
971.365487	0.006473
971.540362	0.009070
971.715218	0.009429
971.890056	0.010934
972.064875	0.013130
972.239677	0.013091
972.414460	0.013273
972.589225	0.012909
972.763972	0.012945
972.938700	0.014557
973.113411	0.011443
973.288103	0.009777
973.462777	0.010277
973.637432	0.008902
973.812070	0.009252
973.986689	0.008527
974.161290	0.009947
974.335873	0.010129
974.510437	0.008927
974.684984	0.009118
974.859512	0.009204
975.034022	0.010144
975.208513	0.009594
975.382987	0.008837
975.557442	0.009607
975.731879	0.007499
975.906298	0.006960
976.080698	0.007335
976.255080	0.009818
976.429445	0.009261
976.603790	0.006958
976.778118	0.006680
976.952427	0.007431
977.126719	0.006708
977.300992	0.008425
977.475246	0.008294
977.649483	0.007408
977.823701	0.006661
977.997901	0.007869
978.172083	0.009388
978.346247	0.009646
978.520392	0.009173
978.694519	0.010054
978.868628	0.009925
979.042719	0.010116
979.216791	0.011681
979.390845	0.011951
979.564882	0.012944
979.738899	0.014255
979.912899	0.015458
980.086880	0.014018
980.260843	0.012040
980.434788	0.011876
980.608715	0.011630
980.782623	0.011466
980.956514	0.009657
981.130386	0.008714
981.304240	0.007389
981.478075	0.005842
981.651892	0.007979
981.825692	0.008919
981.999472	0.009572
982.173235	0.010075
982.346980	0.009839
982.520706	0.010329
982.694414	0.010800
982.868104	0.010978
983.041775	0.012365
983.215428	0.013602
983.389064	0.014328
983.562680	0.013754
983.736279	0.013947
983.909860	0.014733
984.083422	0.015079
984.256966	0.013697
984.430491	0.012974
984.603999	0.013308
984.777488	0.011662
984.950959	0.010929
985.124412	0.010697
985.297847	0.009953
985.471263	0.009551
985.644661	0.011353
985.818041	0.011869
985.991403	0.011037
986.164747	0.008764
986.338072	0.009503
986.511379	0.010383
986.684668	0.012019
986.857938	0.012341
987.031191	0.012282
987.204425	0.011132
987.377641	0.010287
987.550839	0.010563
987.724018	0.011142
987.897179	0.010610
988.070322	0.010148
988.243447	0.007908
988.416554	0.007195
988.589642	0.006860
988.762712	0.006052
988.935764	0.007625
989.108798	0.008476
989.281813	0.009656
989.454811	0.009063
989.627790	0.007163
989.800751	0.007977
989.973693	0.008505
990.146617	0.008577
990.319524	0.007454
990.492412	0.005273
990.665281	0.004519
990.838133	0.005063
991.010966	0.005157
991.183781	0.008136
991.356578	0.009060
991.529356	0.009121
991.702117	0.008027
991.874859	0.009841
992.047583	0.013370
992.220288	0.014045
992.392976	0.012427
992.565645	0.013198
992.738296	0.011855
992.910929	0.010896
993.083543	0.010748
993.256139	0.011075
993.428718	0.010817
993.601277	0.010196
993.773819	0.010019
993.946342	0.010384
994.118848	0.010426
994.291335	0.009935
994.463803	0.010230
994.636254	0.010651
994.808686	0.012122
994.981100	0.013858
995.153496	0.013233
995.325874	0.013880
995.498233	0.014985
995.670574	0.013701
995.842897	0.013832
996.015202	0.012310
996.187488	0.010766
996.359757	0.009911
996.532007	0.008226
996.704239	0.007409
996.876452	0.006603
997.048648	0.005727
997.220825	0.006984
997.392984	0.006811
997.565124	0.007507
997.737247	0.008775
997.909351	0.009861
998.081437	0.008805
998.253505	0.010558
998.425554	0.010447
998.597586	0.010806
998.769599	0.010520
998.941594	0.011727
999.113571	0.011046
999.285529	0.010457
999.457469	0.008907
999.629391	0.010045
999.801295	0.008267
999.973181	0.008073
1000.145048	0.008481
1000.316897	0.008861
1000.488728	0.007277
1000.660541	0.007794
1000.832335	0.007775
1001.004111	0.008680
1001.175869	0.007697
1001.347609	0.008252
1001.519331	0.008690
1001.691034	0.006684
1001.862719	0.007217
1002.034386	0.006989
1002.206035	0.007685
1002.377665	0.009267
1002.549277	0.008715
1002.720871	0.010329
1002.892447	0.011044
1003.064004	0.010240
1003.235544	0.011017
1003.407065	0.009505
1003.578568	0.011325
1003.750052	0.010359
1003.921519	0.009538
1004.092967	0.008711
1004.264397	0.008105
1004.435809	0.007048
1004.607202	0.007654
1004.778577	0.007468
1004.949934	0.007046
1005.121273	0.006664
1005.292594	0.007765
1005.463896	0.006511
1005.635180	0.006538
1005.806446	0.005505
1005.977694	0.006287
1006.148923	0.006591
1006.320135	0.007215
1006.491328	0.008021
1006.662503	0.007071
1006.833659	0.008263
1007.004798	0.008284
1007.175918	0.008923
1007.347020	0.010411
1007.518103	0.008371
1007.689169	0.008519
1007.860216	0.007770
1008.031245	0.008346
1008.202256	0.008576
1008.373248	0.006900
1008.544223	0.007492
1008.715179	0.007287
1008.886117	0.006070
1009.057036	0.006740
1009.227938	0.008427
1009.398821	0.008996
1009.569686	0.008306
1009.740533	0.008639
1009.911361	0.008771
1010.082172	0.008319
1010.252964	0.008445
1010.423738	0.008499
1010.594493	0.009736
1010.765231	0.007783
1010.935950	0.007974
1011.106651	0.007164
1011.277334	0.007899
1011.447998	0.008990
1011.618645	0.010323
1011.789273	0.009561
1011.959882	0.009154
1012.130474	0.008759
1012.301048	0.008486
1012.471603	0.008930
1012.642140	0.009965
1012.812658	0.009851
1012.983159	0.009212
1013.153641	0.008194
1013.324105	0.009292
1013.494551	0.008912
1013.664979	0.007773
1013.835388	0.008464
1014.005779	0.008038
1014.176152	0.007890
1014.346507	0.007995
1014.516843	0.006381
1014.687162	0.005618
1014.857462	0.004720
1015.027744	0.006025
1015.198007	0.007944
1015.368252	0.007480
1015.538480	0.006204
1015.708689	0.006135
1015.878879	0.004806
1016.049052	0.004644
1016.219206	0.004960
1016.389342	0.006243
1016.559460	0.007124
1016.729559	0.005966
1016.899641	0.005543
1017.069704	0.005844
1017.239749	0.005964
1017.409775	0.007138
1017.579784	0.008157
1017.749774	0.008816
1017.919746	0.006332
1018.089700	0.004580
1018.259635	0.005070
1018.429553	0.004780
1018.599452	0.006080
1018.769333	0.006903
1018.939195	0.005726
1019.109040	0.006754
1019.278866	0.007019
1019.448674	0.008211
1019.618464	0.007957
1019.788235	0.007650
1019.957989	0.008302
1020.127724	0.008283
1020.297441	0.008127
1020.467139	0.009934
1020.636820	0.008258
1020.806482	0.006075
1020.976126	0.006873
1021.145752	0.008078
1021.315359	0.008419
1021.484948	0.008147
1021.654519	0.007678
1021.824072	0.006846
1021.993607	0.005867
1022.163123	0.006542
1022.332621	0.008941
1022.502101	0.006764
1022.671563	0.006557
1022.841007	0.006396
1023.010432	0.004471
1023.179839	0.003378
1023.349228	0.004084
1023.518598	0.003675
1023.687951	0.004009
1023.857285	0.003255
1024.026601	0.004753
1024.195899	0.004803
1024.365178	0.004756
1024.534439	0.005061
1024.703682	0.005837
1024.872907	0.003902
1025.042114	0.002549
1025.211302	0.002076
1025.380472	0.002828
1025.549624	0.003560
1025.718758	0.002686
1025.887873	0.002353
1026.056970	0.003086
1026.226049	0.004142
1026.395110	0.004639
1026.564153	0.004806
1026.733177	0.005019
1026.902183	0.003932
1027.071171	0.003865
1027.240141	0.004596
1027.409092	0.004033
1027.578026	0.004648
1027.746940	0.003183
1027.915837	0.003901
1028.084716	0.004287
1028.253576	0.003687
1028.422418	0.004726
1028.591242	0.003398
1028.760048	0.004585
1028.928835	0.005105
1029.097604	0.004404
1029.266355	0.005275
1029.435088	0.004371
1029.603803	0.004906
1029.772499	0.005266
1029.941177	0.005104
1030.109837	0.005263
1030.278478	0.004331
1030.447102	0.004221
1030.615707	0.006235
1030.784294	0.007107
1030.952863	0.006322
1031.121413	0.005080
1031.289945	0.004516
1031.458460	0.004030
1031.626955	0.004373
1031.795433	0.004536
1031.963892	0.004257
1032.132334	0.002017
1032.300756	0.001417
1032.469161	0.002209
1032.637548	0.003888
1032.805916	0.003957
1032.974266	0.003616
1033.142598	0.004221
1033.310911	0.004208
1033.479207	0.005310
1033.647484	0.006533
1033.815743	0.006438
1033.983983	0.005862
1034.152206	0.005415
1034.320410	0.005372
1034.488596	0.004951
1034.656764	0.004105
1034.824914	0.003260
1034.993045	0.003097
1035.161158	0.002578
1035.329253	0.001025
1035.497330	0.001993
1035.665388	0.003167
1035.833428	0.005546
1036.001450	0.005524
1036.169454	0.006219
1036.337440	0.006349
1036.505407	0.005340
1036.673356	0.006057
1036.841287	0.007150
1037.009200	0.006925
1037.177094	0.005423
1037.344970	0.002910
1037.512828	0.003204
1037.680668	0.002415
1037.848489	0.002696
1038.016293	0.002355
1038.184078	0.002121
1038.351845	0.002362
1038.519593	0.002048
1038.687324	0.002846
1038.855036	0.004440
1039.022730	0.005391
1039.190406	0.005872
1039.358063	0.004863
1039.525702	0.005543
1039.693323	0.003658
1039.860926	0.001943
1040.028511	0.001740
1040.196077	0.000537
1040.363625	-0.000893
1040.531155	-0.002793
1040.698667	-0.002994
1040.866161	-0.002288
1041.033636	-0.002007
1041.201093	0.000056
1041.368532	0.001434
1041.535952	0.001622
1041.703355	0.001867
1041.870739	0.002787
1042.038105	0.005025
1042.205452	0.005327
1042.372782	0.005426
1042.540093	0.005638
1042.707386	0.005593
1042.874661	0.005853
1043.041918	0.006197
1043.209156	0.007165
1043.376376	0.006115
1043.543578	0.004249
1043.710762	0.003612
1043.877927	0.003680
1044.045074	0.002685
1044.212203	0.002363
1044.379314	0.002053
1044.546407	0.000976
1044.713481	0.000324
1044.880537	-0.000190
1045.047575	0.000213
1045.214595	0.001012
1045.381596	0.000101
1045.548579	0.000366
1045.715544	-0.000631
1045.882491	-0.002277
1046.049420	-0.000683
1046.216330	-0.000508
1046.383222	0.001357
1046.550096	0.002454
1046.716951	0.001976
1046.883789	0.001625
1047.050608	0.002177
1047.217409	0.002796
1047.384192	0.005474
1047.550956	0.005207
1047.717703	0.005257
1047.884431	0.004062
1048.051140	0.001789
1048.217832	0.000930
1048.384505	0.001541
1048.551161	0.002270
1048.717798	0.001802
1048.884416	-0.000202
1049.051017	-0.000797
1049.217599	-0.001584
1049.384163	-0.002348
1049.550709	-0.000908
1049.717237	-0.000020
1049.883746	-0.000673
1050.050237	-0.001059
1050.216710	-0.000581
1050.383165	-0.000620
1050.549601	0.000435
1050.716019	0.000590
1050.882420	0.001226
1051.048801	0.000573
1051.215165	0.001458
1051.381510	0.002999
1051.547837	0.003210
1051.714146	0.002432
1051.880437	0.003280
1052.046709	0.003445
1052.212964	0.004273
1052.379200	0.004810
1052.545417	0.007463
1052.711617	0.007396
1052.877798	0.006304
1053.043961	0.004903
1053.210106	0.006214
1053.376233	0.007206
1053.542341	0.005861
1053.708432	0.004193
1053.874504	0.003671
1054.040557	0.001385
1054.206593	0.001327
1054.372610	0.002245
1054.538609	0.002916
1054.704590	0.002553
1054.870553	0.000933
1055.036497	0.001030
1055.202424	0.001640
1055.368331	0.002598
1055.534221	0.002324
1055.700093	0.002036
1055.865946	0.000766
1056.031781	0.001393
1056.197598	-0.000376
1056.363397	-0.000801
1056.529177	-0.000546
1056.694939	-0.001103
1056.860683	-0.000892
1057.026409	0.000077
1057.192116	0.000673
1057.357806	0.001187
1057.523477	0.001140
1057.689130	0.000768
1057.854764	0.001446
1058.020381	0.001785
1058.185979	0.004756
1058.351559	0.002540
1058.517120	0.001913
1058.682664	0.000130
1058.848189	0.001049
1059.013696	0.000610
1059.179185	0.002039
1059.344656	0.001333
1059.510108	0.002209
1059.675542	0.000949
1059.840958	0.001396
1060.006356	0.001624
1060.171735	0.000039
1060.337096	-0.001199
1060.502439	-0.001620
1060.667764	-0.001810
1060.833071	-0.001273
1060.998359	-0.001783
1061.163629	-0.002773
1061.328881	-0.001099
1061.494115	-0.001093
1061.659330	0.000146
1061.824527	0.001092
1061.989706	0.000092
1062.154867	0.001070
1062.320010	0.001410
1062.485134	0.002978
1062.650240	0.002498
1062.815328	0.002370
1062.980398	0.002220
1063.145449	0.003219
1063.310482	0.000808
1063.475497	0.002048
1063.640494	0.003394
1063.805473	0.004719
1063.970433	0.003370
1064.135375	0.004312
1064.300299	0.003223
1064.465204	0.003029
1064.630092	0.003955
1064.794961	0.006119
1064.959812	0.004855
1065.124645	0.004019
1065.289459	0.003343
1065.454256	0.001550
1065.619034	-0.000047
1065.783793	0.000670
1065.948535	0.003502
1066.113258	0.002857
1066.277964	0.002085
1066.442651	0.001911
1066.607319	0.002272
1066.771970	0.001575
1066.936602	0.003666
1067.101216	0.004586
1067.265812	0.004077
1067.430389	0.000841
1067.594949	0.001914
1067.759490	0.002293
1067.924013	0.003104
1068.088518	0.002230
1068.253004	0.002822
1068.417472	0.002181
1068.581922	0.000827
1068.746354	0.000225
1068.910768	-0.000149
1069.075163	-0.001053
1069.239540	-0.000654
1069.403899	0.000145
1069.568240	-0.001259
1069.732562	-0.001202
1069.896866	-0.001619
1070.061152	-0.000271
1070.225420	0.001236
1070.389670	0.002030
1070.553901	-0.000728
1070.718114	-0.000216
1070.882309	-0.001087
1071.046486	0.000485
1071.210644	0.000853
1071.374784	0.000849
1071.538906	-0.000216
1071.703010	-0.002369
1071.867096	-0.001231
1072.031163	0.003136
1072.195212	0.001705
1072.359243	0.000815
1072.523256	0.000793
1072.687250	-0.000424
1072.851226	-0.001849
1073.015184	0.000348
1073.179124	0.001941
1073.343045	0.000741
1073.506949	-0.000757
1073.670834	0.000797
1073.834701	0.001546
1073.998549	0.001785
1074.162380	0.002693
1074.326192	0.004972
1074.489986	0.002523
1074.653761	0.003458
1074.817519	0.001947
1074.981258	0.001209
1075.144979	0.000785
1075.308682	-0.000682
1075.472367	-0.001922
1075.636033	-0.000382
1075.799681	-0.002301
1075.963311	-0.000503
1076.126923	-0.001779
1076.290516	-0.000323
1076.454092	-0.000117
1076.617649	-0.002418
1076.781187	-0.002333
1076.944708	-0.003005
1077.108210	-0.005945
1077.271695	-0.006719
1077.435160	-0.006461
1077.598608	-0.007211
1077.762038	-0.007080
1077.925449	-0.006788
1078.088842	-0.004193
1078.252217	-0.002066
1078.415573	-0.000140
1078.578912	0.000102
1078.742232	0.001387
1078.905534	-0.000152
1079.068817	0.000158
1079.232083	-0.000307
1079.395330	-0.002348
1079.558559	-0.002803
1079.721770	-0.003546
1079.884962	-0.004035
1080.048136	-0.003373
1080.211293	-0.002308
1080.374430	-0.004237
1080.537550	-0.003629
1080.700651	-0.002550
1080.863735	-0.000611
1081.026800	-0.001481
1081.189846	-0.001977
1081.352875	-0.002431
1081.515885	-0.004599
1081.678877	-0.005878
1081.841851	-0.003177
1082.004807	-0.003292
1082.167744	-0.006355
1082.330663	-0.007505
1082.493564	-0.005571
1082.656447	-0.004729
1082.819312	-0.005080
1082.982158	-0.002887
1083.144986	-0.002699
1083.307796	-0.002621
1083.470587	-0.002236
1083.633361	0.000576
1083.796116	-0.000411
1083.958853	-0.000133
1084.121571	0.000269
1084.284272	-0.000374
1084.446954	-0.000511
1084.609618	0.000583
1084.772264	-0.000776
1084.934892	-0.002878
1085.097501	-0.003674
1085.260092	-0.000801
1085.422665	-0.001856
1085.585220	-0.002379
1085.747756	-0.002052
1085.910274	-0.001855
1086.072774	-0.001969
1086.235256	0.000668
1086.397720	0.002789
1086.560165	0.002207
1086.722592	0.001928
1086.885001	0.000960
1087.047392	0.000276
1087.209764	-0.000521
1087.372119	0.000257
1087.534455	0.000574
1087.696772	-0.000810
1087.859072	-0.000805
1088.021353	0.000363
1088.183616	-0.000003
1088.345861	-0.000856
1088.508088	0.001065
1088.670296	0.003905
1088.832486	0.001521
1088.994658	-0.000143
1089.156812	0.000009
1089.318948	0.000165
1089.481065	0.002293
1089.643164	0.001902
1089.805245	0.002042
1089.967308	0.002550
1090.129352	0.000283
1090.291378	0.002628
1090.453386	0.006724
1090.615376	0.006271
1090.777347	0.007899
1090.939301	0.006359
1091.101236	0.004993
1091.263153	0.004783
1091.425051	0.001480
1091.586932	0.001054
1091.748794	-0.000089
1091.910638	-0.003176
1092.072463	-0.003761
1092.234271	-0.006493
1092.396060	-0.007885
1092.557831	-0.005204
1092.719584	-0.006221
1092.881319	-0.005849
1093.043035	-0.004616
1093.204733	-0.006818
1093.366413	-0.007164
1093.528075	-0.005974
1093.689718	-0.004157
1093.851343	-0.002104
1094.012950	-0.004727
1094.174539	-0.002619
1094.336110	0.001243
1094.497662	0.002847
1094.659196	0.004886
1094.820712	0.003411
1094.982210	0.002173
1095.143689	0.001159
1095.305151	-0.003239
1095.466594	-0.003898
1095.628018	-0.004301
1095.789425	-0.008340
1095.950813	-0.006848
1096.112183	-0.008059
1096.273535	-0.007891
1096.434869	-0.004649
1096.596184	-0.006034
1096.757482	-0.001238
1096.918761	0.002026
1097.080021	0.003297
1097.241264	0.002876
1097.402488	-0.000313
1097.563694	0.001379
1097.724882	0.001877
1097.886052	-0.000652
1098.047203	-0.000309
1098.208336	-0.000701
1098.369451	-0.003416
1098.530548	-0.006149
1098.691627	-0.004793
1098.852687	-0.003221
1099.013729	-0.002803
1099.174753	-0.000533
1099.335758	0.001155
1099.496746	0.000727
1099.657715	-0.001568
1099.818666	-0.000978
1099.979599	-0.000466
1100.140513	0.001305
1100.301409	-0.000528
1100.462287	-0.003991
1100.623147	-0.006246
1100.783989	-0.006712
1100.944812	-0.008145
1101.105617	-0.004749
1101.266404	-0.007130
1101.427173	-0.008947
1101.587923	-0.012494
1101.748656	-0.011540
1101.909370	-0.013074
1102.070066	-0.013547
1102.230743	-0.013761
1102.391403	-0.008897
1102.552044	-0.010376
1102.712667	-0.006454
1102.873271	-0.003119
1103.033858	-0.000383
1103.194426	-0.002097
1103.354976	0.001292
1103.515508	0.001015
1103.676021	0.003023
1103.836517	-0.001015
1103.996994	-0.003346
1104.157453	-0.002842
1104.317893	-0.002962
1104.478316	-0.004623
1104.638720	-0.007027
1104.799106	-0.005948
1104.959474	-0.002000
1105.119823	-0.004971
1105.280155	-0.004341
1105.440468	-0.005960
1105.600763	-0.009306
1105.761039	-0.009938
1105.921298	-0.010412
1106.081538	-0.006309
1106.241760	-0.006392
1106.401964	-0.007792
1106.562149	-0.009290
1106.722316	-0.010025
1106.882465	-0.010049
1107.042596	-0.007973
1107.202709	-0.007654
1107.362803	-0.004173
1107.522879	-0.003616
1107.682937	-0.002114
1107.842977	-0.003966
1108.002999	-0.001914
1108.163002	0.000679
1108.322987	0.004424
1108.482954	0.004361
1108.642902	0.004059
1108.802833	0.002080
1108.962745	0.001337
1109.122639	-0.002405
1109.282515	0.000012
1109.442372	0.000544
1109.602211	0.001275
1109.762032	-0.000444
1109.921835	0.000843
1110.081620	0.000049
1110.241386	-0.001206
1110.401134	-0.003979
1110.560864	-0.000984
1110.720576	-0.000186
1110.880269	-0.000275
1111.039945	-0.002561
1111.199602	-0.000854
1111.359240	0.001100
1111.518861	0.004675
1111.678463	0.008941
1111.838047	0.013505
1111.997613	0.013330
1112.157161	0.012076
1112.316690	0.015212
1112.476202	0.014579
1112.635695	0.012588
1112.795169	0.011865
1112.954626	0.010854
1113.114064	0.007664
1113.273484	0.005593
1113.432886	0.005385
1113.592270	0.003294
1113.751635	-0.000860
1113.910983	-0.000924
1114.070312	-0.000002
1114.229622	-0.004203
1114.388915	-0.007838
1114.548189	-0.007436
1114.707445	-0.007583
1114.866683	-0.011274
1115.025903	-0.010413
1115.185104	-0.008367
1115.344287	-0.005641
1115.503452	-0.007360
1115.662599	-0.009102
1115.821727	-0.007508
1115.980838	-0.007562
1116.139930	-0.008290
1116.299004	-0.006880
1116.458059	-0.007310
1116.617097	-0.011409
1116.776116	-0.015925
1116.935117	-0.013021
1117.094099	-0.009566
1117.253064	-0.008653
1117.412010	-0.011446
1117.570938	-0.009802
1117.729848	-0.007931
1117.888740	-0.009695
1118.047613	-0.007487
1118.206468	-0.003032
1118.365305	-0.002851
1118.524124	-0.006319
1118.682924	-0.007190
1118.841707	-0.006956
1119.000471	-0.005645
1119.159216	-0.007038
1119.317944	-0.005329
1119.476653	-0.005209
1119.635344	-0.005818
1119.794017	-0.009196
1119.952672	-0.003923
1120.111308	-0.001547
1120.269927	0.000562
1120.428527	0.001507
1120.587108	0.003219
1120.745672	0.004782
1120.904217	0.005961
1121.062744	0.007134
1121.221253	0.005883
1121.379744	0.003506
1121.538216	-0.000368
1121.696671	-0.002234
1121.855107	-0.003376
1122.013524	-0.007826
1122.171924	-0.010096
1122.330305	-0.008081
1122.488668	-0.012546
1122.647013	-0.008017
1122.805340	-0.010404
1122.963648	-0.009908
1123.121938	-0.009179
1123.280210	-0.009547
1123.438464	-0.004460
1123.596700	-0.008243
1123.754917	-0.009963
1123.913116	-0.009031
1124.071297	-0.008131
1124.229459	-0.005704
1124.387604	-0.001592
1124.545730	0.000020
1124.703838	-0.004363
1124.861928	-0.010893
1125.019999	-0.006375
1125.178052	-0.010147
1125.336088	-0.007380
1125.494104	-0.011497
1125.652103	-0.010757
1125.810083	-0.012655
1125.968045	-0.015649
1126.125989	-0.009680
1126.283915	-0.004611
1126.441823	-0.001151
1126.599712	-0.002055
1126.757583	-0.007334
1126.915436	-0.008846
1127.073270	-0.011753
1127.231087	-0.014688
1127.388885	-0.011428
1127.546665	-0.013670
1127.704426	-0.014389
1127.862170	-0.017057
1128.019895	-0.010819
1128.177602	-0.008009
1128.335291	-0.006471
1128.492961	-0.004619
1128.650614	0.000400
1128.808248	0.001870
1128.965864	-0.000231
1129.123461	0.002105
1129.281041	0.002328
1129.438602	0.001736
1129.596145	0.003837
1129.753670	0.002309
1129.911176	0.006743
1130.068665	0.004856
1130.226135	0.001786
1130.383587	0.004397
1130.541020	0.003454
1130.698436	0.002815
1130.855833	-0.001464
1131.013212	0.001352
1131.170573	0.003683
1131.327915	-0.000427
1131.485239	-0.002117
1131.642545	0.001940
1131.799833	-0.002283
1131.957103	-0.006828
1132.114354	-0.006626
1132.271588	-0.002241
1132.428803	-0.001036
1132.585999	-0.002149
1132.743178	-0.002194
1132.900338	-0.000573
1133.057480	-0.004549
1133.214604	-0.004904
1133.371710	-0.000524
1133.528797	-0.002720
1133.685866	-0.009919
1133.842917	-0.011231
1133.999950	-0.012515
1134.156964	-0.017076
1134.313960	-0.017667
1134.470938	-0.017564
1134.627898	-0.012618
1134.784840	-0.013525
1134.941763	-0.012064
1135.098668	-0.006529
1135.255555	-0.014178
1135.412424	-0.009302
1135.569274	-0.006538
1135.726107	-0.007955
1135.882921	-0.008415
1136.039716	-0.007341
1136.196494	-0.007442
1136.353253	-0.008720
1136.509995	-0.005854
1136.666717	0.000380
1136.823422	-0.001511
1136.980109	0.003713
1137.136777	0.006204
1137.293427	0.002963
1137.450059	0.000205
1137.606672	-0.002365
1137.763267	-0.001374
1137.919844	-0.001548
1138.076403	-0.000520
1138.232944	0.002038
1138.389466	-0.003767
1138.545971	-0.010771
1138.702457	-0.006168
1138.858924	-0.003245
1139.015374	0.001816
1139.171805	-0.000943
1139.328218	-0.004910
1139.484613	-0.005685
1139.640990	-0.010084
1139.797348	-0.013353
1139.953688	-0.010331
1140.110010	-0.006220
1140.266314	-0.007184
1140.422600	-0.010165
1140.578867	-0.006643
1140.735116	-0.007273
1140.891347	-0.009462
1141.047559	-0.002744
1141.203754	0.009509
1141.359930	0.009894
1141.516088	0.004858
1141.672228	0.001826
1141.828349	0.001843
1141.984452	0.003583
1142.140537	0.002161
1142.296604	0.002713
1142.452653	-0.000476
1142.608683	-0.005304
1142.764695	-0.005918
1142.920689	-0.002004
1143.076665	-0.001727
1143.232622	-0.005061
1143.388562	-0.008990
1143.544483	-0.004155
1143.700385	-0.005212
1143.856270	-0.003088
1144.012136	-0.010301
1144.167985	-0.006159
1144.323814	-0.013743
1144.479626	-0.015411
1144.635420	-0.008966
1144.791195	-0.003177
1144.946952	-0.005556
1145.102691	-0.002169
1145.258411	-0.003796
1145.414113	0.001230
1145.569798	0.001554
1145.725463	0.016513
1145.881111	0.015579
1146.036741	0.015168
1146.192352	0.012879
1146.347945	0.010198
1146.503519	0.006328
1146.659076	0.005543
1146.814614	0.006253
1146.970134	0.003843
1147.125636	-0.002850
1147.281120	-0.000532
1147.436585	-0.004392
1147.592032	-0.003436
1147.747461	0.001360
1147.902872	0.001599
1148.058265	0.001400
1148.213639	-0.000012
1148.368995	0.001723
1148.524333	-0.003713
1148.679653	-0.000965
1148.834954	0.000124
1148.990237	0.002134
1149.145502	-0.001889
1149.300749	-0.001962
1149.455977	-0.000751
1149.611188	0.007216
1149.766380	0.001631
1149.921553	0.002359
1150.076709	0.003168
1150.231846	0.004470
1150.386966	0.000693
1150.542066	-0.000475
1150.697149	-0.003658
1150.852214	-0.009244
1151.007260	-0.014987
1151.162288	-0.009085
1151.317298	-0.011239
1151.472289	-0.016074
1151.627263	-0.015100
1151.782218	-0.014591
1151.937155	-0.012850
1152.092073	-0.011095
1152.246974	-0.014680
1152.401856	-0.016983
1152.556720	-0.022209
1152.711566	-0.018108
1152.866393	-0.019420
1153.021203	-0.017921
1153.175994	-0.017037
1153.330767	-0.012940
1153.485521	-0.010909
1153.640258	-0.006792
1153.794976	-0.010626
1153.949676	-0.011920
1154.104358	-0.019601
1154.259021	-0.014673
1154.413667	-0.015807
1154.568294	-0.019485
1154.722903	-0.014627
1154.877493	-0.007703
1155.032066	-0.005590
1155.186620	-0.000851
1155.341156	0.008320
1155.495674	0.009843
1155.650173	0.001925
1155.804654	-0.003119
1155.959118	-0.005906
1156.113562	-0.009714
1156.267989	-0.014443
1156.422397	-0.011152
1156.576788	-0.014015
1156.731160	-0.011729
1156.885513	-0.001617
1157.039849	-0.000084
1157.194166	0.003036
1157.348465	0.010297
1157.502746	0.005757
1157.657009	0.015359
1157.811253	0.010529
1157.965479	0.021969
1158.119687	0.007619
1158.273877	-0.000413
1158.428048	0.006290
1158.582201	0.004666
1158.736337	0.002840
1158.890453	0.008394
1159.044552	-0.001498
1159.198632	0.005834
1159.352694	0.001799
1159.506738	0.009521
1159.660764	0.012651
1159.814771	0.013623
1159.968761	0.017869
1160.122732	0.002330
1160.276685	-0.007167
1160.430619	-0.019205
1160.584535	-0.034868
1160.738434	-0.027415
1160.892313	-0.022938
1161.046175	-0.020816
1161.200019	-0.016549
1161.353844	-0.010624
1161.507651	-0.001796
1161.661440	-0.004764
1161.815210	0.004947
1161.968962	0.010225
1162.122697	0.001109
1162.276412	-0.004279
1162.430110	-0.011508
1162.583789	-0.019937
1162.737451	-0.027610
1162.891094	-0.023920
1163.044718	-0.019078
1163.198325	-0.020029
1163.351913	-0.017552
1163.505483	-0.020044
1163.659035	-0.020977
1163.812569	-0.013793
1163.966084	-0.013366
1164.119581	-0.011370
1164.273060	-0.014269
1164.426521	-0.007223
1164.579964	-0.003329
1164.733388	0.000092
1164.886794	-0.002969
1165.040182	0.000809
1165.193551	0.004493
1165.346903	0.008255
1165.500236	-0.000487
1165.653551	0.003862
1165.806848	-0.000437
1165.960126	-0.001694
1166.113386	0.011548
1166.266628	0.012932
1166.419852	0.013424
1166.573058	0.008946
1166.726245	0.007028
1166.879414	0.016973
1167.032565	0.016014
1167.185698	0.006809
1167.338812	0.002590
1167.491909	-0.010767
1167.644987	-0.004504
1167.798046	-0.009435
1167.951088	-0.010219
1168.104111	-0.021177
1168.257117	-0.020686
1168.410103	-0.027427
1168.563072	-0.014643
1168.716023	-0.005876
1168.868955	-0.010011
1169.021869	-0.014124
1169.174765	-0.013472
1169.327642	-0.016300
1169.480501	-0.009017
1169.633343	-0.016484
1169.786165	-0.007447
1169.938970	-0.010473
1170.091757	-0.013779
1170.244525	-0.002261
1170.397275	-0.000555
1170.550007	-0.000557
1170.702720	-0.009792
1170.855415	-0.006787
1171.008092	-0.001694
1171.160751	-0.000400
1171.313392	-0.001646
1171.466014	0.008148
1171.618619	0.010232
1171.771205	0.010232
1171.923772	0.010232
