sample name	sample
index	508
start time	 03-11-2021  03:10:16 PM
880	-0.029192
Peak Time (s)	92.537
Peak Height 	-0.02919
calc peak height	90,93
Baseline Time (s)	10.537
Baseline Value 	-0.001766
subtract baseline	10,4
Abs	-0.013870
Peak Time (s)	91.037
Peak Height 	-0.01387
calc peak height	90,93
Baseline Time (s)	10.037
Baseline Value 	0.001736
subtract baseline	10,3
PK_550	-0.002482
Peak Time (s)	90.539
Peak Height 	-0.002482
calc peak height	90,93
Baseline Time (s)	9.539
Baseline Value 	4.45E-4
subtract baseline	10,2
PK_880	-0.012795
Peak Time (s)	91.037
Peak Height 	-0.0128
calc peak height	90,93
Baseline Time (s)	9.539
Baseline Value 	3.1434E-4
subtract baseline	10,1


Time (s)	A880-A510	A880-A775	A880-A975	A880	I510	I775	I975	I880	
0.036500	-0.000939	0.000485	-0.004579	0.005804	6983.721300	44793.962960	3959.168625	23787.436964
0.539000	-0.002390	-0.000983	-0.007384	0.003672	6990.106305	44857.979766	3957.497014	23890.148954
1.036500	-0.004548	-0.000713	-0.001349	0.002898	6977.141477	44958.660023	3974.546392	23927.542602
1.537000	-0.000676	-0.000081	0.000256	0.000356	7037.586444	45266.493217	3985.061802	24050.845503
2.037000	-0.002790	-0.000032	-0.003777	0.004117	6982.188650	44906.728925	3965.379991	23868.657971
2.535000	0.000228	0.000243	0.000239	0.000418	7045.589230	45292.078673	3984.861709	24047.848115
3.035500	0.001320	0.000132	-0.001198	-0.001537	7074.677764	45472.124168	3986.184209	24143.190805
3.535500	0.001083	0.000137	-0.001251	0.000617	7051.835841	45262.386827	3980.568113	24038.157525
4.035500	-0.001691	-0.000986	-0.002374	0.003989	6993.692815	44827.063266	3969.218214	23874.810420
4.535500	0.001037	0.000576	0.001379	0.001130	7046.510302	45255.139461	3985.952494	24013.225705
5.039000	-0.000184	0.000027	-0.002084	0.000189	7043.850200	45293.376241	3979.540227	24059.003731
5.537000	-0.000347	0.000171	-0.003848	0.000269	7041.545098	45299.585446	3974.875846	24055.110693
6.037000	-0.000776	-0.001071	-0.001079	-0.000774	7047.378606	45280.153166	3984.540672	24105.922621
6.537000	-0.001268	-0.000402	-0.001830	-0.000756	7042.529562	45343.616128	3982.584982	24105.044507
7.035000	-0.001283	0.000325	0.002106	0.000050	7034.734044	45335.995919	3990.572618	24065.777951
7.535000	-0.001529	-0.000481	-0.000696	-0.000650	7039.040633	45325.571577	3985.200114	24099.858998
8.035000	-0.000611	-0.000254	0.000025	-0.000104	7042.569632	45294.490152	3985.645504	24073.235206
8.535500	-0.001544	0.000063	-0.000101	-0.000431	7036.817204	45357.269998	3986.161366	24089.190157
9.035500	-0.000670	-0.000310	-0.000570	0.000410	7037.130552	45238.994844	3982.824425	24048.228941
9.538500	0.000000	0.000000	0.003160	0.000306	7044.482480	45279.269767	3992.616685	24053.276652
10.036500	0.000167	-0.000043	0.000000	0.000041	7048.601811	45300.984254	3985.214763	24066.205209
10.537000	0.001493	0.000002	0.000850	0.000000	7061.634130	45309.314807	3987.486774	24068.193422
11.036500	-0.000583	-0.001067	-0.003708	-0.001138	7052.682603	45316.049255	3978.786797	24123.684301
11.537500	0.001441	0.000401	0.001651	-0.000254	7063.561159	45373.045911	3990.185308	24080.590490
12.034500	-0.000255	-0.000901	-0.000302	-0.001199	7056.387397	45338.179468	3987.605791	24126.648565
12.534500	0.000514	0.001042	-0.000787	0.000207	7050.319199	45390.595506	3982.788810	24058.114489
13.035000	0.000227	-0.000186	-0.001686	-0.001999	7068.639458	45486.237013	3986.118538	24165.788634
13.535500	0.000891	0.001289	-0.003295	0.000056	7055.353377	45429.436977	3976.811414	24065.471728
14.038500	-0.000276	-0.000709	0.003674	-0.001991	7063.746687	45434.248273	3999.851270	24165.372803
14.536000	-0.001738	-0.000242	0.001810	0.001666	7015.131043	45123.575588	3985.685629	23987.226206
15.036500	-0.000175	-0.000668	0.000315	-0.000363	7049.188042	45279.361339	3987.048529	24085.868651
15.568500	-0.000148	-0.000714	0.001899	-0.001645	7061.669853	45399.896268	3994.388153	24148.435514
16.037500	-0.002141	0.000619	-0.001647	0.003457	6994.457213	45033.412599	3972.384601	23900.489559
16.537500	0.000817	0.000180	0.005534	-0.001525	7069.741958	45475.526365	4003.456729	24142.574242
17.036500	-0.001023	-0.000840	-0.007027	-0.001404	7051.023319	45364.060989	3971.078128	24136.668512
17.535000	0.001113	-0.000146	-0.001388	-0.001287	7070.301015	45420.490636	3985.063299	24130.979905
18.035500	-0.001112	-0.000287	-0.004078	0.001611	7021.559775	45124.516812	3970.911481	23989.871079
18.538500	-0.000410	-0.000739	-0.002758	-0.000329	7046.630957	45269.259191	3979.147512	24084.243966
19.036000	-0.000859	0.000449	0.000035	0.000163	7037.685508	45337.030582	3984.992224	24060.261069
19.536500	-0.001337	0.000163	-0.000654	-0.000310	7037.636544	45355.255292	3984.442709	24083.316368
20.036500	0.000333	-0.000332	-0.006446	-0.000772	7057.932400	45352.039406	3970.952501	24105.833283
20.537000	-0.000580	0.000170	-0.001242	0.000280	7039.222506	45298.403382	3981.445137	24054.556338
21.037500	-0.001173	-0.000493	-0.004292	-0.000422	7040.254154	45302.172214	3975.498623	24088.742280
21.534500	0.000566	-0.000019	-0.004705	0.000100	7051.832136	45297.515223	3973.137738	24063.302282
22.035000	-0.001090	0.000521	-0.002296	0.000027	7036.779011	45357.275363	3979.412656	24066.880253
22.535500	-0.000765	-0.000014	-0.002449	-0.000154	7041.587343	45322.796685	3979.484403	24075.710302
23.038500	-0.000902	0.000138	0.003682	0.000176	7037.147746	45305.420364	3994.289811	24059.623059
23.536000	-0.000689	0.000223	-0.001048	-0.000035	7041.181551	45334.290042	3982.739216	24069.890724
24.035500	-0.002428	0.000143	0.004819	0.000041	7023.966658	45319.060721	3997.564008	24066.180096
24.536500	-0.003119	-0.000678	-0.004229	-0.000856	7025.923134	45326.529976	3976.755298	24109.939710
25.036500	-0.000438	-0.000507	-0.000469	-0.000128	7044.451056	45272.258499	3984.451642	24074.439789
25.537000	0.000827	-0.000820	0.001083	-0.000512	7060.159041	45279.137033	3989.392287	24093.150537
26.037000	-0.001234	-0.000590	-0.001937	-0.000443	7039.873561	45294.813903	3981.517418	24089.773505
26.534500	-0.001010	-0.001179	0.001408	-0.000372	7041.331258	45230.494661	3989.863893	24086.301446
27.035000	-0.002528	-0.000115	-0.001214	0.000341	7020.186071	45264.797648	3981.364749	24051.616140
27.538000	-0.001665	0.000185	0.000979	-0.000024	7031.807878	45329.522307	3987.878973	24069.370747
28.035500	0.000359	0.000314	-0.000914	-0.000783	7058.280680	45416.131761	3984.983135	24106.335809
28.536000	0.001037	-0.000235	-0.000811	-0.001565	7072.229476	45438.895999	3987.242821	24144.531798
29.036500	-0.002185	-0.000396	0.002145	-0.002178	7047.328555	45483.075455	3996.390579	24174.499895
29.545000	-0.000971	0.000092	0.002049	-0.001871	7055.974244	45500.934427	3995.355791	24159.527983
30.037000	-0.003260	-0.000477	-0.007175	0.003475	6983.792794	44925.780216	3958.503486	23899.643668
30.537000	0.002364	-0.000247	0.001034	-0.001423	7083.600140	45423.926105	3991.598627	24137.620742
31.035000	0.002076	-0.000048	-0.005053	-0.001776	7084.216856	45477.853451	3976.996170	24154.848703
31.546000	0.001844	0.000131	-0.001518	-0.001447	7078.835139	45463.224153	3985.138506	24138.782968
32.040500	-0.000570	-0.000008	0.003036	0.002017	7022.853535	45112.253748	3987.918565	23970.194554
32.536000	0.000005	-0.000382	-0.000139	0.000138	7046.127782	45258.496467	3984.612350	24061.475124
33.087500	0.001631	0.000377	-0.000346	-0.001336	7075.732437	45476.453856	3987.844563	24133.364999
33.536500	0.000403	-0.000054	-0.001082	-0.001715	7067.608452	45471.351860	3986.934557	24151.892138
34.036500	-0.002136	0.000388	-0.003923	0.003516	6993.949294	45005.337093	3966.519525	23897.642006
34.537000	0.001111	-0.000727	0.001394	-0.001680	7074.048794	45402.135280	3993.181898	24150.162260
35.037000	-0.001579	-0.000416	0.002538	0.000119	7031.268190	45257.027054	3991.502764	24062.411475
35.537500	-0.000997	0.000054	-0.000599	0.000988	7028.548007	45218.160368	3981.280453	24020.125091
36.037500	-0.000441	0.000726	0.000866	0.001882	7025.340164	45196.612160	3982.730128	23976.721841
36.538000	-0.000557	-0.000538	-0.003871	0.000921	7033.350657	45167.116917	3973.171769	24023.366700
37.037500	-0.001018	-0.000025	-0.003255	0.001493	7023.567240	45161.427606	3973.284244	23995.615754
37.535500	-0.001818	-0.000390	0.000186	0.000675	7023.743184	45205.537225	3984.075005	24035.365802
38.036000	-0.000726	-0.001021	0.000203	0.000377	7036.917108	45173.126244	3984.876375	24049.856184
38.536500	-0.000336	0.000248	0.000243	0.001332	7031.562565	45203.610026	3982.547937	24003.448810
39.036500	-0.000190	0.000309	0.003033	0.002185	7024.852008	45126.692634	3987.481146	23962.034736
39.537000	-0.001642	-0.001122	0.001491	0.000643	7025.704946	45137.423716	3987.481369	24036.884393
40.037000	0.000294	0.000785	0.002495	0.001934	7031.819884	45197.276197	3986.748820	23974.222923
40.537500	-0.000929	-0.000033	-0.000684	0.001047	7028.632051	45203.951117	3980.914179	24017.255762
41.038000	-0.001325	0.000133	0.001832	0.001046	7024.889262	45220.189191	3987.322383	24017.292369
41.535000	-0.000406	-0.000594	-0.001887	0.000728	7036.624313	45180.477999	3978.675373	24032.787200
42.036000	-0.000933	0.000386	-0.004633	0.000732	7031.584700	45275.404401	3971.728326	24032.577960
42.536000	-0.002284	-0.000847	0.000755	0.000605	7020.002124	45167.917771	3985.701775	24038.771170
43.036500	-0.001420	-0.000181	-0.003258	0.001320	7021.399741	45163.091937	3973.710543	24003.986652
43.536500	-0.001903	-0.000468	-0.001618	0.000519	7024.410988	45213.005839	3979.884864	24042.930059
44.036500	-0.000419	0.000069	0.000972	0.001269	7031.370762	45192.390322	3984.561862	24006.504825
44.537000	-0.001137	-0.000196	0.000628	0.001097	7026.189643	45183.254099	3984.123393	24014.826927
45.037000	-0.000103	0.000268	0.008058	-0.001191	7057.767079	45451.528134	4009.145174	24126.266241
45.537500	-0.000045	-0.000110	-0.001209	-0.001761	7063.763091	45470.290848	3986.726288	24154.117713
46.035000	0.000833	0.000595	0.000496	0.001446	7041.562737	45226.197419	3982.899253	23997.880136
46.535500	-0.001247	0.000509	0.000869	-0.000662	7041.835620	45423.460226	3989.227982	24100.480136
47.035500	-0.000806	0.000076	-0.000541	0.000232	7037.524485	45293.890679	3983.350134	24056.887168
47.535500	-0.000774	-0.000956	-0.001348	-0.001341	7052.800393	45346.657934	3985.300351	24133.607059
48.036000	-0.000451	0.000298	-0.000646	0.000816	7035.354664	45258.678072	3981.596825	24028.477697
48.548000	0.001937	0.000393	0.001723	-0.000744	7072.993035	45420.064437	3991.624552	24104.451048
49.037000	-0.001540	-0.000181	0.001842	0.002200	7011.958527	45077.773440	3984.406336	23961.342942
49.537000	-0.000176	0.000326	0.001047	0.001015	7036.084031	45242.032109	3985.401774	24018.846062
50.042500	-0.000384	0.000047	0.000650	0.000475	7039.224532	45267.433983	3985.763831	24045.059073
50.538000	0.001270	0.000272	-0.000019	-0.001032	7069.370901	45436.417374	3987.905792	24118.528510
51.035000	0.000245	-0.000075	-0.002163	-0.000059	7050.289900	45307.525085	3979.968712	24071.064109
51.535500	0.001525	0.001161	0.001431	-0.002667	7087.491994	45683.832012	3995.815450	24198.491783
52.036000	0.000216	0.000047	-0.000668	0.000116	7048.342367	45302.372753	3983.320526	24062.523946
52.536000	0.002130	0.000622	0.001496	-0.000409	7071.635982	45409.786507	3990.186737	24088.138112
53.036500	-0.000586	-0.000213	0.003153	0.001602	7026.620040	45132.615021	3989.277489	23990.304331
53.536500	-0.036871	-0.012068	-0.003437	0.215583	5225.381659	28042.926423	3546.890115	15792.886519
54.037000	-0.049947	-0.014994	-0.024421	0.093483	5884.892643	35954.679556	3722.146465	19972.385838
54.540000	-0.062728	-0.033896	-0.027701	-0.147271	7935.649340	57934.013230	4336.161887	32605.936417
55.034500	-0.025640	-0.075957	-0.003611	-0.243192	9735.026702	65189.130676	4800.153333	39943.271317
55.535000	-0.028168	-0.025138	-0.005968	-0.147495	8354.376336	59082.262323	4411.757206	32621.246646
56.035500	-0.037097	-0.022062	-0.016816	-0.131548	8051.524215	57444.312355	4320.012134	31550.412871
56.535500	-0.025419	-0.024625	-0.013319	-0.155961	8496.681472	60254.203347	4415.696113	33205.930908
57.035500	-0.018366	-0.018037	-0.018031	-0.138042	8358.743351	58779.373233	4337.641169	31981.733398
57.535500	-0.015030	-0.014355	-0.014461	-0.130284	8303.590920	58258.049761	4323.636167	31467.151195
58.036000	-0.010324	-0.010837	-0.013152	-0.119412	8227.608972	57330.086754	4292.161857	30761.374240
58.536500	-0.003217	-0.005377	-0.013453	-0.104223	8129.651182	56126.199803	4242.623932	29804.428701
59.040000	-0.011012	-0.005238	-0.017970	-0.077712	7733.525489	52995.383921	4148.560355	28212.350981
59.534500	-0.018072	-0.007455	-0.021940	-0.069367	7565.569559	51793.893637	4113.046610	27730.974307
60.034500	-0.009383	-0.010979	-0.016563	-0.116520	8203.801163	56951.835013	4271.791305	30576.609940
60.535000	-0.012213	-0.012729	-0.021143	-0.125444	8278.548740	57850.680893	4285.798717	31150.805991
61.035000	-0.014871	-0.008368	-0.017664	-0.087653	7801.484740	53785.846369	4178.883409	28797.954271
61.535500	-0.018850	-0.007378	-0.024232	-0.069256	7556.056258	51789.989580	4106.234570	27724.609639
62.036000	-0.020494	-0.007812	-0.020916	-0.068975	7535.524230	51709.652413	4114.846034	27708.567397
62.536000	-0.020216	-0.008468	-0.022995	-0.073784	7589.978422	52177.835824	4122.642615	27984.593379
63.036500	-0.021910	-0.009191	-0.016993	-0.074834	7583.044489	52214.932160	4143.009482	28045.253699
63.539500	-0.018477	-0.006088	-0.026188	-0.058907	7450.646241	50782.558869	4071.935342	27140.508579
64.098500	-0.010953	-0.002538	-0.025425	-0.052503	7462.357032	50469.463206	4056.530757	26785.951317
64.534500	-0.013040	-0.003648	-0.024360	-0.063839	7560.263191	51600.771406	4090.656952	27417.152921
65.038000	-0.012118	-0.002685	-0.021331	-0.058466	7512.882807	51109.615894	4084.131987	27115.907225
65.562500	-0.009704	-0.002267	-0.022793	-0.055410	7506.091813	50818.221497	4071.652313	26946.234289
66.036500	-0.012873	-0.002102	-0.022695	-0.050371	7420.130000	50284.448211	4058.155272	26669.079051
66.536000	-0.010468	-0.001307	-0.022282	-0.046093	7400.729129	49906.546204	4047.701401	26436.250482
67.036000	-0.012118	-0.000926	-0.018465	-0.041483	7336.520029	49451.894165	4045.567565	26187.939167
67.536500	-0.010833	-0.001549	-0.022285	-0.037672	7310.880205	48979.957137	4025.241047	25984.681509
68.039500	-0.012912	-0.001355	-0.020260	-0.033876	7251.811215	48600.019935	4020.572156	25783.937570
68.537000	-0.013131	-0.002098	-0.025626	-0.032605	7236.949301	48388.958916	4003.249217	25717.103044
69.037000	-0.014650	-0.001358	-0.022091	-0.027702	7173.497188	47955.825897	3999.711219	25461.173420
69.538000	-0.011630	-0.001248	-0.019791	-0.028805	7214.132527	48081.648456	4008.533741	25518.519342
70.035000	-0.011804	-0.001436	-0.023574	-0.027428	7198.796193	47919.397828	3995.184790	25446.961107
70.535000	-0.011336	-0.001687	-0.016292	-0.027077	7199.948941	47857.147033	4013.149286	25428.738535
71.035500	-0.013657	-0.001487	-0.026461	-0.024734	7154.170923	47636.324462	3980.925143	25307.628390
71.536000	-0.012784	-0.001841	-0.024692	-0.025898	7174.105999	47719.665589	3988.396109	25367.727265
72.036000	-0.012362	-0.000871	-0.022205	-0.024172	7161.335198	47641.928592	3990.344897	25278.719647
72.539500	-0.010663	-0.001385	-0.016786	-0.024339	7179.625565	47606.225296	4004.740067	25287.320720
73.036500	-0.012621	-0.001332	-0.023905	-0.021568	7133.432319	47327.838439	3979.378917	25145.046087
73.539000	-0.010963	-0.000858	-0.025262	-0.023582	7169.254583	47582.538309	3981.044383	25248.336284
74.037500	-0.012196	-0.001807	-0.017640	-0.023307	7154.506506	47457.060485	3999.855625	25234.195201
74.535000	-0.012342	-0.001207	-0.023756	-0.023794	7157.842219	47568.530366	3985.415889	25259.265452
75.035000	-0.011909	-0.000847	-0.017463	-0.022238	7146.878533	47445.893279	3997.556572	25179.335205
75.535500	-0.013122	-0.000604	-0.019974	-0.024010	7152.328137	47652.634773	3995.653761	25270.337109
76.036000	-0.011888	-0.001665	-0.016077	-0.025723	7181.187267	47719.750825	4010.181099	25358.701029
76.536500	-0.011593	-0.001785	-0.015861	-0.026464	7191.370498	47783.808994	4012.674754	25397.008137
77.039000	-0.013707	-0.001907	-0.016848	-0.027175	7177.582328	47844.621888	4011.956028	25433.863797
77.536500	-0.010857	-0.001753	-0.017567	-0.027985	7213.664085	47944.211507	4012.193147	25475.864473
78.037000	-0.010961	-0.001805	-0.018802	-0.028913	7221.822063	48034.943171	4011.390814	25524.099930
78.537500	-0.012875	-0.001912	-0.015044	-0.029972	7213.348118	48133.878275	4024.027803	25579.292499
79.037500	-0.012245	-0.000893	-0.018770	-0.030274	7222.590562	48271.483902	4015.032403	25595.089009
79.535000	-0.013117	-0.002257	-0.018730	-0.031846	7229.539120	48293.149775	4019.258092	25677.312692
80.035500	-0.012821	-0.001963	-0.018989	-0.032253	7236.534023	48366.341950	4019.646383	25698.639466
80.535500	-0.011899	-0.001288	-0.019818	-0.032572	7248.899822	48470.325236	4018.309097	25715.385738
81.036000	-0.011467	-0.000703	-0.017414	-0.032833	7255.828567	48558.986584	4025.326256	25729.108225
81.539000	-0.012887	-0.002283	-0.011630	-0.034858	7261.868305	48605.718951	4046.132108	25835.675256
82.036500	-0.012401	-0.002020	-0.014381	-0.034745	7265.608031	48621.507114	4038.458296	25829.732103
82.536500	-0.012539	-0.001396	-0.019192	-0.035252	7269.307884	48740.450479	4027.019436	25856.505668
83.034500	-0.014025	-0.001864	-0.018037	-0.033362	7235.585429	48492.710058	4025.075605	25756.892014
83.535000	-0.013664	-0.002302	-0.017678	-0.035968	7265.205303	48720.446429	4032.929440	25894.316957
84.035000	-0.013702	-0.002542	-0.022485	-0.036233	7267.484317	48723.093513	4020.920701	25908.361814
84.535000	-0.012995	-0.002981	-0.015747	-0.037085	7283.137310	48766.621255	4041.064495	25953.513799
85.035500	-0.016336	-0.002295	-0.020024	-0.034260	7221.547500	48541.687497	4022.205157	25804.163059
85.536000	-0.011539	-0.001975	-0.015177	-0.035847	7285.342063	48742.222001	4039.276191	25887.960347
86.039000	-0.011313	-0.002454	-0.022262	-0.036269	7291.860866	48736.177426	4021.603123	25910.293982
86.536000	-0.012116	-0.002909	-0.016175	-0.036634	7287.448642	48726.707088	4038.713593	25929.620422
87.036500	-0.013249	-0.003294	-0.016804	-0.036879	7278.515347	48711.968072	4037.687360	25942.594200
87.537000	-0.011892	-0.002180	-0.019998	-0.034998	7273.252111	48631.295398	4024.219840	25843.102013
88.037500	-0.014113	-0.002998	-0.020268	-0.035865	7259.676102	48636.381390	4025.794625	25888.871280
88.534500	-0.012847	-0.001783	-0.015220	-0.034706	7260.751971	48642.319910	4036.114451	25827.673325
89.035500	-0.014150	-0.003077	-0.017488	-0.034632	7246.989987	48498.648156	4029.887921	25823.771206
89.535500	-0.013563	-0.002873	-0.016113	-0.033736	7243.904479	48426.139188	4031.157505	25776.537943
90.036000	-0.012843	-0.003176	-0.018984	-0.033411	7247.846631	48360.556618	4022.707129	25759.459548
90.539000	-0.013479	-0.002482	-0.018417	-0.032696	7234.389202	48358.358092	4022.315911	25721.872234
91.036500	-0.012795	-0.002794	-0.013870	-0.031278	7227.099380	48178.016183	4030.591310	25647.580185
91.536500	-0.015850	-0.003080	-0.019359	-0.029941	7183.705764	48009.488691	4012.621633	25577.706407
92.037000	-0.016112	-0.003871	-0.020723	-0.030402	7185.663673	47975.266308	4010.267649	25601.787212
92.537000	-0.016298	-0.003015	-0.017265	-0.029192	7171.954014	47938.645390	4016.140540	25538.668492
93.037500	-0.014327	-0.004136	-0.018004	-0.028693	7186.398130	47771.128721	4012.899996	25512.661713
93.534500	-0.015239	-0.003599	-0.022225	-0.025491	7146.125894	47497.286208	3993.674918	25346.727101
94.035500	-0.015349	-0.003256	-0.020683	-0.025551	7145.639319	47538.511492	3997.796170	25349.799056
94.535500	-0.017650	-0.003794	-0.019111	-0.024959	7117.555061	47422.809611	4000.326405	25319.277085
95.038500	-0.019017	-0.003397	-0.015003	-0.020767	7064.084789	47036.143967	4000.107015	25104.075522
95.536000	-0.018155	-0.002617	-0.023414	-0.020342	7068.267462	47072.283094	3977.517127	25082.398067
96.036000	-0.018530	-0.003425	-0.018824	-0.021770	7078.346539	47135.164582	3992.853426	25155.356706
96.561500	-0.016596	-0.003477	-0.017643	-0.021082	7090.312871	47060.015708	3994.117071	25120.150309
97.037000	-0.019998	-0.003978	-0.019790	-0.020466	7051.851553	46946.830978	3987.043124	25088.707148
97.534000	-0.018502	-0.003048	-0.020817	-0.016398	7027.416653	46630.282580	3974.112725	24882.000052
98.034000	-0.015975	-0.002675	-0.022608	-0.017390	7060.886432	46767.727274	3972.099851	24932.242160
98.594500	-0.017476	-0.003720	-0.025485	-0.017923	7051.653030	46716.142779	3966.210882	24959.265545
99.035500	-0.021065	-0.003376	-0.017999	-0.014289	6983.415066	46386.068740	3975.902235	24775.620303
