sample name	sample
index	1258
start time	 04-29-2021  01:08:37 PM
880	0.079840
Peak Time (s)	101.037
Peak Height 	0.07984
calc peak height	100,103
Baseline Time (s)	8.537
Baseline Value 	-0.002126
subtract baseline	10,4
Abs	0.026282
Peak Time (s)	101.537
Peak Height 	0.02628
calc peak height	100,103
Baseline Time (s)	10.54
Baseline Value 	0.002328
subtract baseline	10,3
PK_550	0.027030
Peak Time (s)	102.035
Peak Height 	0.02703
calc peak height	100,103
Baseline Time (s)	8.537
Baseline Value 	2.0546E-4
subtract baseline	10,2
PK_880	0.023240
Peak Time (s)	101.537
Peak Height 	0.02324
calc peak height	100,103
Baseline Time (s)	8.537
Baseline Value 	8.9324E-4
subtract baseline	10,1


Time (s)	A880-A510	A880-A775	A880-A975	A880	I510	I775	I975	I880	
0.034000	-0.003429	-0.000383	-0.006924	0.006304	6161.291380	43550.878963	3891.975244	22570.173553
0.537000	-0.003781	-0.000739	-0.004276	0.003345	6180.665472	43794.912314	3904.647178	22704.426404
1.040000	-0.004445	-0.000879	-0.001230	0.002586	6181.374285	43853.174805	3913.338737	22739.009319
1.537500	-0.001191	-0.000184	-0.003545	0.000904	6218.377559	44077.507551	3911.888081	22815.837138
2.035000	-0.003792	-0.000401	-0.001571	0.004269	6173.705748	43739.846995	3908.706512	22662.399104
2.541000	-0.001214	0.000107	0.001427	0.000876	6218.419458	44107.741447	3923.408534	22817.123299
3.035500	-0.003020	-0.000303	-0.005949	0.004570	6177.208313	43720.834835	3898.078111	22648.740002
3.536500	-0.001925	-0.000161	-0.000641	-0.000050	6220.038622	44170.105787	3920.765136	22859.552019
4.036000	-0.001537	0.000569	0.000121	0.000265	6220.582017	44209.362178	3921.798444	22845.080470
4.537000	-0.002466	-0.000041	-0.000557	-0.000070	6216.114554	44183.364805	3921.005871	22860.475073
5.036500	-0.001752	0.000476	-0.005747	0.005482	6179.856507	43708.309598	3896.474631	22607.363527
5.540000	-0.001724	-0.000214	0.001525	0.000088	6220.513339	44151.868425	3925.462585	22853.202183
6.034500	0.001475	0.000672	0.001522	0.000727	6239.883082	44175.285805	3923.972922	22823.913216
6.535000	-0.000765	-0.000577	-0.002693	-0.000247	6230.290827	44149.283414	3916.487996	22868.590079
7.035000	-0.001546	-0.000003	-0.003897	0.004648	6187.616796	43741.557286	3902.547666	22645.179147
7.538000	-0.001243	0.000079	-0.006328	-0.000153	6225.964129	44202.580983	3907.940086	22864.254859
8.035500	-0.001438	0.000050	-0.002843	-0.000154	6224.496055	44199.959481	3915.928032	22864.307407
8.536500	0.000000	0.000000	0.006054	0.000000	6234.212820	44180.592367	3936.243276	22857.253168
9.036500	-0.002149	-0.000432	-0.004060	0.004400	6184.963365	43724.560545	3902.740013	22656.427317
9.535500	-0.002807	-0.000175	-0.000054	-0.000519	6216.922728	44213.213079	3923.207925	22881.060392
10.036500	-0.002210	0.000122	-0.001131	-0.000541	6221.597410	44243.585679	3920.769801	22882.104610
10.540000	0.000738	-0.000698	0.000000	-0.000690	6245.045969	44179.786588	3923.730397	22888.920913
11.034000	0.000995	0.000653	0.002038	0.000020	6241.609068	44240.656666	3926.813917	22856.335834
11.535500	0.000064	0.000719	0.001164	0.000299	6232.430707	44220.490530	3924.135661	22843.541968
12.035500	-0.002683	0.000092	-0.005695	-0.000446	6217.312610	44231.639682	3910.055589	22877.727520
12.535500	-0.001586	0.000477	-0.002944	-0.000443	6225.564760	44268.025710	3916.359891	22877.597841
13.035000	0.000896	0.000363	0.003276	-0.002257	6258.190050	44429.930029	3935.020788	22961.043577
13.535500	-0.000775	0.000137	-0.000749	-0.001011	6235.999825	44289.691985	3922.738729	22903.676269
14.038500	-0.001019	0.000654	0.000783	0.000440	6223.175565	44200.863589	3922.924603	22837.060857
14.540000	-0.002264	0.000354	-0.003518	0.001989	6202.153702	44025.775453	3909.468582	22766.251088
15.036500	-0.002648	-0.000237	0.002639	0.004956	6177.103271	43690.772583	3916.783711	22631.238192
15.543000	-0.002568	0.000496	-0.000250	-0.000650	6219.707635	44289.482603	3923.058785	22887.074080
16.037500	-0.001655	0.000437	0.003258	-0.000470	6225.242320	44266.668358	3930.796615	22878.803442
16.535500	-0.000109	-0.000085	0.003864	-0.001076	6241.547999	44274.741151	3933.632274	22906.687825
17.041000	-0.003460	0.000070	-0.001989	0.005062	6170.276060	43709.704378	3905.944270	22626.431937
17.536000	0.000868	0.001431	0.000447	0.000784	6234.851820	44242.070250	3921.354105	22821.346315
18.036000	0.000041	0.000450	0.003081	-0.001925	6249.140448	44406.568972	3933.784564	22945.726855
18.536500	-0.001373	0.000694	0.004577	0.001159	6215.088291	44136.493387	3930.074515	22804.168410
19.045000	-0.001645	0.000347	0.002141	0.002785	6200.820464	43949.944269	3920.643348	22729.930444
19.537000	-0.000964	-0.000113	0.000440	0.000749	6221.259555	44098.862178	3921.417297	22822.939746
20.037000	0.000915	0.000910	0.003179	0.001465	6230.045415	44127.928860	3926.107068	22790.162567
20.534000	-0.001771	0.001069	-0.001289	0.001119	6212.387526	44175.838366	3916.573945	22805.983806
21.035000	-0.003739	-0.000117	-0.000444	0.002406	6187.987063	43941.925913	3915.556576	22747.197449
21.535500	-0.003080	0.000350	-0.003850	0.000802	6204.932334	44137.726044	3911.422931	22820.502402
22.035500	-0.000198	0.000381	0.007490	0.000713	6227.317772	44149.050320	3937.941276	22824.557122
22.535500	-0.001651	0.000150	-0.000949	0.000692	6216.510414	44129.227124	3918.340835	22825.549419
23.036000	-0.001744	0.000509	-0.003788	0.002768	6200.209825	43966.795733	3907.071926	22730.713263
23.539000	-0.000863	0.001055	0.000971	0.001249	6218.250926	44162.167980	3921.489423	22800.048900
24.036500	-0.000085	0.000296	-0.003240	0.000593	6229.080913	44152.383376	3913.298835	22830.069606
24.537000	-0.000462	0.000083	-0.003901	0.000691	6225.488968	44122.959782	3911.560727	22825.600858
25.034500	-0.002092	0.000171	0.000027	0.000844	6212.042062	44116.768923	3920.243197	22818.565300
25.535000	-0.000650	0.001113	-0.001015	0.001774	6215.900319	44117.999785	3915.699020	22776.064742
26.035000	-0.000591	0.000874	0.003849	0.001151	6221.038551	44154.257949	3928.395673	22804.518580
26.535500	0.000628	0.000837	-0.003218	0.001214	6229.770951	44144.816012	3911.926020	22801.634931
27.035500	-0.001775	-0.000130	-0.001107	0.000657	6215.840880	44106.058458	3918.057892	22827.156811
27.535500	0.000378	0.000477	-0.000209	0.001138	6228.459700	44117.969041	3919.019883	22805.135265
28.039000	0.000692	0.000657	0.002489	-0.001069	6247.581858	44344.680893	3930.401490	22906.327726
28.536500	0.000042	0.000717	0.001544	-0.000119	6235.431826	44259.914721	3925.988362	22862.692827
29.037000	-0.001390	0.000483	0.005650	-0.000456	6227.144694	44269.742922	3936.365442	22878.174368
29.537500	0.000975	0.000641	-0.000378	-0.000308	6243.953301	44270.730527	3921.971098	22871.402133
30.037500	0.000420	0.001524	0.001899	0.000308	6235.067339	44296.155838	3925.823747	22843.150288
30.537500	0.001328	0.001833	0.000759	0.000584	6239.852993	44299.318000	3922.538499	22830.482703
31.040000	0.000753	-0.000548	0.002317	-0.001217	6249.168117	44244.083290	3930.344771	22913.140387
31.556500	-0.000832	0.001116	-0.000478	0.001432	6217.104847	44150.538666	3917.719263	22791.657098
32.041000	-0.002737	-0.000378	0.000832	0.001765	6200.284580	43977.772307	3919.975643	22776.476816
32.539000	0.001569	0.001004	-0.000089	0.000893	6239.338107	44191.152355	3919.862876	22816.341077
33.044000	-0.005349	0.000153	-0.002687	0.004937	6157.197692	43729.098004	3904.640344	22632.073138
33.537000	0.000330	0.000005	-0.002024	-0.000020	6236.865610	44182.987605	3917.505364	22858.176642
34.042500	-0.000935	0.000447	-0.006393	0.000271	6225.087129	44197.265467	3906.825649	22844.827612
34.537500	0.000567	0.001375	0.004905	0.000342	6235.918993	44278.671374	3932.749913	22841.562814
35.036500	-0.001526	0.000371	-0.000133	0.004821	6186.473929	43760.491388	3910.730507	22637.340347
35.535000	-0.000339	0.001177	-0.000815	0.002812	6210.425516	44025.734254	3913.771267	22728.673587
36.035500	-0.001948	0.000619	-0.000506	0.001391	6209.010606	44107.394405	3917.751797	22793.545380
36.535500	-0.003309	0.000360	0.001667	0.001895	6195.023271	44035.206313	3921.606476	22770.538419
37.038500	-0.003115	0.000912	0.000497	0.004300	6178.510324	43860.386887	3913.368569	22660.990671
37.536500	-0.000209	0.001233	0.003568	0.001882	6218.410021	44119.036554	3926.041621	22771.115335
38.035500	-0.000265	0.000851	0.001555	0.002015	6216.983303	44070.304899	3921.068374	22765.054813
38.536500	-0.001430	0.000624	0.000552	0.001805	6209.797486	44068.694621	3919.236260	22774.649688
39.037000	-0.001312	0.000507	0.001445	0.001574	6212.422458	44079.484225	3921.834352	22785.189880
39.537500	-0.001398	0.000965	0.001611	0.001563	6211.857571	44123.902873	3922.243076	22785.678963
40.035000	-0.000974	-0.000332	0.001111	0.001157	6218.103491	44039.535635	3922.025563	22804.247253
40.535000	-0.000814	0.000990	-0.000347	0.002219	6211.313139	44064.108804	3916.210304	22755.727019
41.035500	-0.000360	0.000596	0.006764	0.003426	6205.655624	43912.942673	3929.887814	22700.731899
41.538500	0.000223	0.000978	-0.000083	0.001895	6221.567221	44093.600293	3917.562910	22770.508128
42.036000	-0.003170	0.000405	-0.003932	0.001394	6199.812828	44086.793628	3909.880009	22793.394163
42.536500	-0.000404	-0.000060	0.002712	0.001100	6222.835981	44070.711268	3925.871601	22806.864326
43.037000	-0.002419	0.000484	-0.003093	0.001537	6204.380985	44080.776355	3911.473797	22786.890910
43.537000	-0.001263	0.000611	-0.008450	0.001492	6213.406477	44097.110835	3899.383310	22788.952276
44.037500	-0.000366	0.000487	0.002081	0.001577	6219.521464	44077.257757	3923.298830	22785.030543
44.538000	-0.000268	0.000323	0.002055	0.001408	6221.538021	44077.794223	3923.630092	22792.770260
45.034500	-0.000642	0.000082	0.000703	0.003087	6206.081871	43896.443946	3916.629166	22716.155050
45.535500	0.000524	0.000174	-0.002488	-0.001199	6247.294993	44311.112586	3919.154598	22912.342529
46.040000	0.000650	0.001098	-0.001668	-0.000036	6239.411182	44288.304146	3918.361646	22858.888774
46.557500	0.001762	0.001312	0.008439	0.000484	6243.909328	44259.222760	3940.712693	22835.043675
47.036500	-0.002598	0.000445	0.000761	0.003981	6184.739001	43846.375849	3914.705855	22675.466459
47.536500	-0.002442	0.000455	-0.000424	0.003180	6191.894382	43922.775781	3913.825302	22711.915095
48.036500	0.000574	0.001140	0.003325	0.000134	6237.545075	44276.132672	3929.546637	22851.108028
48.536500	0.001678	0.001002	0.000305	0.000081	6246.333455	44268.067111	3922.650595	22853.549611
49.037500	-0.002260	0.000639	-0.001368	0.004352	6184.491810	43829.734372	3908.980073	22658.616254
49.537500	-0.001535	0.000803	0.002191	0.003878	6193.452231	43889.749873	3918.233472	22680.144448
50.035000	0.001807	0.000912	-0.000080	-0.000063	6248.411228	44273.228744	3922.094538	22860.159287
50.538000	0.001980	0.000258	0.003373	-0.000867	6255.854019	44287.504537	3931.996329	22897.081937
51.038500	-0.000490	0.000824	0.002703	0.004223	6198.696246	43859.333602	3918.620627	22664.494550
51.536000	0.000294	0.001193	0.000688	0.003185	6212.377743	43991.984909	3916.369204	22711.684706
52.042000	0.000683	0.000084	0.005492	0.000889	6232.650080	44104.233451	3932.842850	22816.508929
52.537000	0.001222	0.001265	0.002197	0.016380	6121.354677	42771.062399	3889.835693	22119.925934
53.036500	0.012863	-0.028321	-0.005366	0.501390	4012.206034	15140.980983	3229.889165	9216.021985
53.537000	-0.000686	-0.033295	-0.016272	-0.006524	6278.745795	41717.112933	3899.821934	23158.773980
54.034500	-0.002731	-0.043713	-0.016777	-0.165229	7727.306892	57485.692602	4331.768812	32079.407782
54.535000	0.000664	-0.086483	-0.010627	-0.262455	8974.481708	64768.416911	4712.008694	39391.638412
55.038000	-0.008053	-0.094118	-0.011532	-0.272945	8999.142850	65175.868599	4752.066530	40282.838466
55.535500	-0.005081	-0.066089	-0.008591	-0.235537	8537.562421	63846.957765	4612.054943	37200.696936
56.038000	-0.006445	-0.045411	-0.012909	-0.206678	8161.530454	62711.073012	4487.382426	34997.890996
56.536000	-0.007112	-0.049786	-0.012776	-0.216970	8278.454321	63530.524211	4525.534303	35766.728831
57.036000	-0.014391	-0.057123	-0.016628	-0.228751	8334.046438	64153.311583	4555.171697	36669.492115
57.536500	-0.009502	-0.046177	-0.008404	-0.209338	8156.757449	62972.065859	4513.505802	35194.843277
58.036500	-0.002196	-0.023806	-0.008650	-0.151338	7582.438000	58246.182922	4313.115576	31162.057163
58.537000	0.000350	-0.012382	-0.005553	-0.090905	7003.598617	52347.655190	4140.437694	27495.476257
59.034500	-0.004868	-0.009687	-0.011223	-0.057764	6660.401086	49004.654563	4035.839324	25691.106194
59.538000	-0.004838	-0.007946	-0.011628	-0.034679	6468.248750	46796.898455	3976.927797	24513.163154
60.035500	-0.002691	-0.005444	-0.010068	-0.019077	6360.726620	45494.739449	3943.201237	23751.791540
60.535500	-0.001576	-0.002847	-0.004817	-0.001893	6236.615998	44090.179639	3915.386848	22944.261836
61.036000	0.003638	-0.009482	0.001005	0.046582	5924.423111	39189.808186	3821.987138	20831.177205
61.536000	0.001542	-0.000627	-0.006936	-0.001751	6259.258261	44287.374604	3910.202784	22937.745499
62.036500	0.002949	0.000939	0.001107	-0.017377	6391.869904	45955.689427	3965.837997	23670.456800
62.536500	0.003110	0.002828	0.002448	0.016956	6130.962990	42861.540149	3889.105554	22094.475046
63.037000	0.000517	0.007758	-0.002319	0.021483	6079.138168	42898.602591	3868.521930	21895.818129
63.537500	0.002136	0.006612	-0.002363	0.027971	6044.184356	42202.878788	3854.316990	21614.684938
64.038000	0.005625	0.004833	0.004403	0.052793	5895.576035	39872.063222	3816.143855	20577.121336
64.534500	0.005873	0.003884	-0.003589	0.031806	6043.483250	41614.467463	3843.455601	21450.477682
65.036000	0.003375	0.006195	-0.003155	0.052512	5882.216879	40011.858971	3801.202096	20588.506189
65.535500	0.003183	0.005107	-0.003268	0.046922	5918.966441	40397.813630	3812.424717	20817.178281
66.036000	0.004602	0.007868	0.006029	0.057895	5854.236725	39696.829975	3808.975008	20371.085489
66.536500	0.002664	0.015247	-0.001112	0.057561	5843.508322	40354.949540	3795.103275	20384.506955
67.036500	0.002634	0.017874	-0.004214	0.058796	5835.074694	40474.906237	3786.376324	20334.935645
67.556000	0.001149	0.018140	-0.008880	0.061671	5806.195059	40250.277938	3771.409915	20220.169295
68.034000	0.007114	0.019898	0.000487	0.057543	5873.496139	40758.947157	3798.378608	20385.228589
68.543500	0.005801	0.020220	-0.000030	0.058937	5855.292534	40665.781198	3794.508453	20329.302716
69.034500	0.004155	0.021974	-0.003322	0.060767	5832.080937	40659.218504	3784.220248	20256.180019
69.535000	0.002143	0.021818	-0.001109	0.069574	5761.017749	39889.444414	3771.150039	19908.502828
70.035500	0.007367	0.022847	0.005004	0.064601	5827.943819	40403.121383	3793.235925	20103.942743
70.536500	0.004414	0.023333	0.001143	0.062398	5822.969623	40635.557281	3789.896815	20191.226076
71.036000	0.003563	0.023042	-0.004682	0.064843	5801.203372	40399.103599	3773.431207	20094.380802
71.536000	0.002732	0.024541	0.005200	0.064600	5797.337309	40549.477976	3793.633839	20103.974027
72.036500	0.003976	0.024827	0.000357	0.056094	5862.118410	41317.997144	3801.059411	20443.522379
72.534000	0.004846	0.025280	0.002321	0.053543	5885.198877	41584.111635	3810.298385	20546.651133
73.034500	0.002723	0.025510	0.000267	0.058618	5836.855523	41155.803810	3795.754455	20342.098323
73.535000	0.000268	0.026878	-0.001332	0.059038	5817.766913	41239.237734	3791.679335	20325.266227
74.035500	0.008717	0.026800	0.004493	0.052317	5919.923829	41829.097215	3817.317799	20596.454038
74.535500	0.007436	0.026113	0.005823	0.052610	5909.155553	41741.515629	3819.469744	20584.543128
75.036500	0.004276	0.026043	0.003684	0.057100	5857.382758	41336.608246	3805.797725	20403.037973
75.536500	0.005579	0.026195	-0.001850	0.055074	5879.800114	41529.439484	3798.646230	20484.699871
76.036000	0.007925	0.028152	0.010819	0.050312	5928.252118	42130.677659	3834.756450	20678.183613
76.537000	0.009323	0.027532	0.006112	0.048208	5952.405637	42264.586580	3829.270043	20764.306346
77.037500	0.005050	0.027882	0.003869	0.053048	5889.934282	41860.441746	3814.511301	20566.728329
77.541500	0.005636	0.027312	0.003142	0.050681	5910.036308	42021.745840	3817.908266	20663.098327
78.035000	0.010017	0.028680	0.006804	0.043557	5989.666725	42792.817169	3840.564341	20956.261660
78.535000	0.010837	0.029703	0.009253	0.041733	6008.268463	43054.781929	3849.698363	21032.126870
79.036000	0.014203	0.030439	0.010801	0.040346	6041.982024	43251.156888	3856.021067	21089.973539
79.536000	0.012076	0.029822	0.003174	0.038557	6039.578254	43360.034452	3843.483022	21164.934193
80.036000	0.012288	0.030792	0.007066	0.038416	6042.092403	43463.463015	3852.126882	21170.847629
80.538500	0.009609	0.030195	0.002264	0.037835	6027.164429	43462.029161	3843.081287	21195.269095
81.037000	0.011351	0.029907	0.000171	0.037417	6042.532434	43474.125451	3839.516402	21212.826827
81.537000	0.006890	0.029829	0.006612	0.043922	5965.274464	42864.843431	3839.381084	20941.140431
82.040000	0.012817	0.030841	0.014457	0.040349	6032.094158	43288.207191	3863.955978	21089.878847
82.534500	0.010536	0.030041	0.013702	0.041562	6007.348873	43101.700590	3859.672366	21039.221023
83.035000	0.011851	0.029434	0.008809	0.042803	6007.864994	42931.311450	3846.450315	20987.567412
83.535000	0.007999	0.028486	0.008770	0.049543	5934.043776	42230.197936	3832.053182	20709.603609
84.036000	0.013072	0.028476	0.015977	0.046316	5991.745585	42522.095913	3854.308572	20842.178053
84.535000	0.012184	0.027684	0.011148	0.047438	5977.670698	42348.192076	3841.549778	20795.959320
85.035500	0.011939	0.026181	0.010456	0.047454	5975.841894	42210.644823	3840.042471	20795.292188
85.536500	0.011655	0.026903	0.010025	0.054755	5923.354159	41620.755514	3823.753959	20497.591017
86.036500	0.015311	0.026526	0.013051	0.049974	5981.801887	42014.632819	3840.202731	20691.969264
86.540000	0.013483	0.025997	0.012623	0.049820	5970.112095	41980.925936	3839.620080	20698.272479
87.037000	0.012326	0.026214	0.008156	0.050929	5954.369573	41900.985598	3827.850182	20652.995237
87.584500	0.013274	0.025608	0.012374	0.055811	5927.216615	41412.043572	3826.457003	20454.933948
88.034500	0.015850	0.026211	0.015504	0.052653	5966.862402	41746.384749	3839.721882	20582.771801
88.535000	0.015035	0.025985	0.014784	0.053298	5956.719934	41668.696276	3836.826578	20556.582826
89.035500	0.013252	0.026403	0.009550	0.060438	5895.452712	41074.344637	3810.985560	20269.277695
89.535500	0.011232	0.026256	0.013048	0.060858	5878.910663	41024.583354	3817.345600	20252.520379
90.036500	0.016717	0.025205	0.017764	0.055658	5952.023166	41389.965581	3838.139592	20461.105950
90.536000	0.018606	0.025449	0.012141	0.056758	5957.490656	41314.295330	3823.988979	20416.767136
91.036500	0.016008	0.025109	0.012881	0.057208	5936.414789	41244.538566	3824.595592	20398.667682
91.540000	0.013961	0.025225	0.008994	0.062948	5883.235089	40752.164789	3804.697627	20169.415275
92.034500	0.017219	0.024725	0.018474	0.058380	5936.685844	41107.726780	3833.882507	20351.610932
92.535000	0.018899	0.024616	0.010795	0.059223	5942.458283	41024.236038	3816.064517	20317.854028
93.034000	0.014595	0.024451	0.008898	0.065969	5867.128625	40423.463081	3798.348260	20049.950153
93.536500	0.018601	0.024848	0.015590	0.061363	5925.670081	40857.409076	3821.577898	20232.405674
94.035000	0.018975	0.024955	0.019006	0.062326	5921.631533	40782.830507	3826.703367	20194.124045
94.536000	0.018635	0.024936	0.016033	0.063378	5912.097382	40689.614340	3818.309554	20152.332665
95.036500	0.016062	0.025614	0.015584	0.070723	5845.081339	40115.056801	3802.276855	19863.623102
95.539500	0.016216	0.025593	0.020543	0.067194	5869.790851	40416.323418	3819.752773	20001.749555
96.037000	0.018865	0.025136	0.016117	0.066357	5893.368861	40449.106051	3812.321038	20034.661554
96.537000	0.019389	0.025261	0.018230	0.067521	5889.032627	40359.551379	3814.280636	19988.906510
97.034500	0.018406	0.025867	0.016471	0.074554	5835.164568	39810.313095	3796.296310	19714.972970
97.535000	0.020547	0.024399	0.021281	0.068459	5890.525751	40204.904462	3818.657564	19952.126117
98.037500	0.021665	0.025325	0.021973	0.069840	5888.741858	40165.951753	3817.229217	19898.107415
98.536000	0.020077	0.025727	0.018965	0.070923	5870.686577	40107.612723	3808.787172	19855.859984
99.036000	0.019360	0.023748	0.010289	0.076234	5830.335287	39489.474194	3780.519821	19650.201528
99.536500	0.019620	0.026429	0.020842	0.076460	5830.567260	39696.463852	3801.302762	19641.519297
100.039500	0.021802	0.025931	0.022150	0.072783	5869.773805	39966.280799	3811.511629	19783.544080
100.536500	0.022915	0.025117	0.014799	0.073038	5875.553606	39875.290936	3795.980970	19773.643762
101.037000	0.019930	0.025168	0.018593	0.079840	5810.229407	39306.117414	3789.911688	19511.991122
101.537000	0.023240	0.025588	0.026282	0.074779	5866.011895	39767.549641	3815.921831	19706.286890
102.034500	0.021363	0.027030	0.018953	0.076133	5844.354787	39775.034039	3798.126684	19654.094894
102.535000	0.020844	0.025063	0.024953	0.074717	5850.357074	39728.378541	3813.304288	19708.699778
103.035000	0.021868	0.024925	0.018522	0.075461	5852.223824	39653.774520	3798.614367	19679.960689
103.535500	0.021393	0.025033	0.018065	0.075802	5846.769032	39634.112770	3796.998270	19666.847517
104.036000	0.024694	0.025440	0.024271	0.076491	5864.278153	39610.309052	3808.248243	19640.303890
104.539500	0.022689	0.024697	0.020522	0.076872	5848.279992	39515.639439	3799.813186	19625.676221
105.036500	0.024185	0.025014	0.024457	0.077185	5856.203082	39515.939350	3807.206087	19613.643429
105.536000	0.025666	0.026261	0.023928	0.078565	5856.874593	39504.715929	3803.301367	19560.731725
106.037500	0.022834	0.024726	0.022982	0.077692	5843.770582	39449.097903	3803.152003	19594.183460
106.535000	0.022870	0.024951	0.025194	0.078067	5841.505550	39436.528189	3806.909391	19579.811415
107.035000	0.021254	0.023585	0.021896	0.077440	5834.916538	39374.531913	3801.452728	19603.870475
107.535500	0.022133	0.024248	0.023552	0.080227	5822.239515	39196.903116	3799.152246	19497.247223
108.068500	0.022701	0.024776	0.020535	0.079130	5833.297769	39332.722482	3795.260006	19539.115607
108.544000	0.024392	0.024610	0.025280	0.079907	5839.385730	39253.872068	3803.322471	19509.450120
109.038500	0.023915	0.024913	0.021502	0.080197	5834.276649	39255.003576	3795.059776	19498.401116
109.536000	0.021317	0.024171	0.024658	0.082838	5799.618992	38973.413357	3796.100881	19397.993240
110.036500	0.023221	0.024847	0.017821	0.080810	5825.589853	39198.198780	3786.418257	19475.010479
110.537500	0.023539	0.024565	0.024757	0.081510	5823.054952	39116.428490	3798.994172	19448.383739
111.037000	0.026531	0.023578	0.019875	0.081213	5844.945367	39059.122860	3789.730479	19459.698539
