sample name	sample
index	954
start time	 04-12-2021  03:43:55 PM
880	0.044992
Peak Time (s)	122.539
Peak Height 	0.04499
calc peak height	120,123
Baseline Time (s)	10.535
Baseline Value 	-0.003886
subtract baseline	10,4
Abs	0.042061
Peak Time (s)	122.539
Peak Height 	0.04206
calc peak height	120,123
Baseline Time (s)	9.537
Baseline Value 	-6.0901E-4
subtract baseline	10,3
PK_550	0.022510
Peak Time (s)	122.539
Peak Height 	0.02251
calc peak height	120,123
Baseline Time (s)	10.035
Baseline Value 	-3.3712E-4
subtract baseline	10,2
PK_880	0.035703
Peak Time (s)	122.539
Peak Height 	0.0357
calc peak height	120,123
Baseline Time (s)	9.034
Baseline Value 	8.0468E-4
subtract baseline	10,1


Time (s)	A880-A510	A880-A775	A880-A975	A880	I510	I775	I975	I880	
0.035000	-0.002823	-0.000609	-0.003123	0.004971	7064.423633	42627.307717	3918.949789	22940.518693
0.534500	-0.003865	0.000608	-0.001982	0.005642	7047.993593	42677.198437	3920.110066	22909.565517
1.037500	-0.002808	-0.000122	-0.001202	0.003817	7075.674777	42777.445575	3926.562596	22993.872311
1.535500	-0.001306	0.000091	-0.000397	0.002077	7107.027306	42956.818335	3932.903787	23074.563656
2.035500	-0.002813	-0.000228	-0.006193	0.004396	7070.055998	42714.835030	3912.815060	22967.110209
2.536500	-0.002588	-0.000572	-0.002054	0.002250	7092.925886	42879.971293	3928.340004	23066.516097
3.042000	0.003648	0.000564	0.002403	-0.001012	7185.837196	43286.137608	3947.716701	23218.619485
3.537000	-0.001201	0.000198	0.000724	0.001014	7118.382652	43064.698389	3938.375390	23124.036906
4.037000	-0.001347	0.000296	0.000580	0.003736	7090.560160	42823.235235	3931.200381	22997.612061
4.537500	0.000506	0.000064	-0.002700	0.000184	7143.149825	43129.019737	3931.877399	23162.716502
5.037000	-0.000557	0.000470	0.000428	0.000682	7127.895706	43120.556890	3938.464507	23139.502920
5.535000	0.000581	0.000356	-0.001542	0.000632	7139.506890	43114.648583	3933.654962	23141.846802
6.035000	-0.002429	0.000397	-0.005953	0.000411	7112.313466	43138.819631	3923.228444	23152.158018
6.535500	-0.000573	0.000238	0.000083	0.000259	7131.868887	43138.139993	3938.660674	23159.236201
7.036000	-0.000841	0.000288	0.004155	0.000534	7126.568398	43117.355579	3948.240447	23146.390812
7.535500	-0.000177	-0.000255	-0.001400	0.000118	7137.115719	43105.676112	3935.294728	23165.824041
8.036500	-0.000242	0.000211	0.000956	0.000048	7137.157864	43155.141293	3941.385580	23169.067636
8.536500	0.000209	0.000070	0.002296	-0.000092	7142.944977	43155.093008	3945.120417	23175.608817
9.034500	0.000000	0.000160	0.001835	0.000148	7138.550639	43141.225727	3943.350669	23164.398126
9.537500	0.000461	0.000746	0.000000	0.000808	7136.598709	43134.346918	3937.072893	23133.606905
10.035000	0.000050	0.000000	-0.001045	-0.000045	7140.931830	43144.246293	3936.591062	23173.405651
10.535000	-0.000094	-0.000218	0.000114	0.000000	7139.080841	43119.949030	3939.388782	23171.320883
11.034500	-0.001278	-0.000497	-0.000532	-0.000233	7129.781380	43115.670740	3938.350224	23182.184322
11.536000	-0.000647	-0.000464	-0.005602	0.001837	7115.770872	42927.870178	3920.568968	23085.735724
12.038000	-0.001603	0.000449	0.004287	0.000199	7122.403364	43163.196728	3949.422362	23162.019591
12.536500	0.000286	0.000785	0.004379	0.000217	7140.674758	43192.729545	3949.610938	23161.194902
13.036500	0.000126	0.000251	0.002448	-0.000385	7145.011288	43198.977991	3946.245749	23189.324110
13.537000	-0.001779	-0.000067	0.000492	0.003206	7091.509346	42838.593023	3932.304232	23022.165941
14.037500	0.000354	0.000968	0.001401	0.002859	7115.566568	42965.591311	3935.444694	23038.257210
14.535000	-0.003792	0.000294	-0.001424	0.002116	7082.586229	42971.968188	3930.241987	23072.741462
15.034000	-0.001632	0.000475	0.000562	0.000596	7118.259971	43128.886728	3939.016724	23143.509477
15.535500	-0.000340	0.000723	-0.000761	0.002727	7110.103080	42955.170411	3930.372950	23044.386471
16.035500	-0.002254	-0.000044	0.000121	0.005306	7066.681698	42648.444959	3926.152220	22925.085345
16.539000	0.000300	0.000534	0.006714	0.001146	7131.729209	43083.537642	3953.184465	23117.877416
17.036000	0.002657	-0.000077	0.001530	-0.003359	7199.275603	43444.841568	3951.459353	23328.780336
17.536500	0.001060	-0.000229	0.002789	0.001885	7131.928572	42945.047682	3941.376559	23083.470410
18.037000	-0.001499	0.000731	-0.004518	0.001832	7107.536756	43038.501796	3923.261649	23085.977662
18.537000	-0.002825	0.000013	0.000642	0.001677	7096.186399	42986.555298	3936.505046	23093.182149
19.037000	-0.002551	-0.000161	0.000440	0.001439	7101.141820	42992.404828	3936.596554	23104.253446
19.535000	0.000062	0.000172	-0.003745	0.001434	7126.597647	43023.491470	3926.164097	23104.452460
20.035000	0.000577	0.000889	-0.001462	0.002329	7122.891915	43007.199929	3929.616439	23062.857901
20.534500	-0.003241	-0.000766	-0.001593	0.000913	7099.556500	42985.176450	3932.825275	23128.751502
21.038500	-0.000843	0.000521	-0.000749	0.002136	7110.952609	42991.081845	3931.876573	23071.826802
21.535500	0.000384	0.000142	-0.000230	0.002315	7121.149723	42939.656231	3932.726244	23063.528546
22.036500	-0.000830	0.000361	0.001319	0.001882	7113.553223	42999.717014	3937.690179	23083.644877
22.537000	0.001102	0.000568	0.002970	0.001945	7131.764734	43013.035030	3941.683257	23080.721130
23.037000	-0.000386	0.000848	-0.001148	0.002091	7115.833868	43025.327702	3930.994591	23073.929855
23.537500	-0.000807	0.000598	0.004915	0.001670	7115.830311	43041.036067	3947.286339	23093.474326
24.037500	-0.000070	-0.000046	0.001908	0.001410	7125.547718	43005.716618	3940.353855	23105.592934
24.535000	-0.000612	-0.000124	-0.000611	0.001273	7121.598056	43011.137622	3934.378938	23111.964315
25.035500	0.000633	0.000639	0.001421	0.001921	7127.420693	43021.744431	3937.847134	23081.825899
25.535500	-0.000349	-0.000124	0.002019	0.001573	7121.236633	42983.487582	3940.222153	23097.984225
26.036000	0.000159	-0.000165	-0.001440	0.001295	7128.904775	43005.263502	3932.251265	23110.936008
26.536000	0.000168	0.001042	0.002023	0.001804	7124.023220	43069.703814	3939.652497	23087.240415
27.036000	-0.000026	-0.000004	0.002413	-0.000901	7148.564497	43223.102896	3947.462522	23213.414240
27.537000	-0.000060	0.000093	0.001321	-0.000692	7146.188346	43212.737441	3944.172695	23203.641012
28.036500	0.000503	0.001006	0.001776	0.000865	7136.462341	43153.138014	3941.393618	23130.959992
28.537500	0.000642	0.000323	-0.001014	0.000529	7141.112665	43121.066421	3935.233723	23146.651309
29.035000	0.000652	0.000156	-0.000465	0.000892	7137.654320	43072.136260	3935.696463	23129.705358
29.535000	0.000889	0.000073	0.005065	0.000851	7140.367832	43068.151490	3949.742348	23131.604318
30.035500	-0.003559	0.000309	-0.002008	0.006351	7044.145465	42585.197606	3918.296509	22876.921720
30.535500	-0.002011	0.000343	-0.000035	0.002520	7095.907884	42939.299045	3932.702507	23054.015249
31.036000	-0.001831	0.000112	-0.001900	0.002325	7099.534563	42935.970914	3928.537239	23063.048375
31.536500	0.000921	0.001503	0.007643	0.001358	7135.735889	43153.612242	3955.013497	23108.031003
32.037500	-0.003797	-0.000557	-0.001027	0.005390	7051.056719	42593.856945	3923.095226	22921.188763
32.537000	-0.000248	0.000496	0.004583	0.000665	7131.080328	43124.472317	3948.991845	23140.284563
33.037000	-0.000007	0.000386	0.004609	0.000232	7137.656494	43154.329013	3950.157527	23160.480517
33.537500	-0.001297	-0.000126	-0.000853	0.002475	7103.256650	42900.286844	3930.770554	23056.086964
34.043000	-0.002602	0.000081	0.001184	0.003924	7076.624408	42786.283498	3932.238337	22988.910874
34.535000	-0.001110	0.000064	-0.000021	0.001959	7110.081143	42965.212390	3934.138290	23080.038662
35.038000	-0.000016	-0.000270	-0.002080	0.001822	7122.059876	42947.104136	3929.340554	23086.426854
35.535500	-0.000882	0.000351	0.000722	0.001972	7112.174974	42990.498723	3935.965291	23079.456873
36.036000	-0.002003	0.000223	-0.000565	0.003784	7083.759729	42812.183513	3928.229491	22995.412439
36.536500	-0.001360	0.000269	-0.000152	0.001868	7108.541279	42992.544996	3934.039414	23084.298169
37.036500	-0.000015	0.000141	0.000539	0.001640	7123.840458	43001.690686	3936.338847	23094.871874
37.537000	-0.001888	0.000336	0.005618	0.002179	7100.395555	42970.056882	3947.778377	23069.831883
38.037000	0.000111	0.000460	0.000288	0.002313	7118.512399	42969.165647	3934.027399	23063.622038
38.535000	0.001367	0.001145	-0.000632	0.002916	7124.877295	42976.719369	3930.223741	23035.621486
39.035000	-0.001593	0.000567	0.003711	0.002285	7102.229102	42981.625752	3942.694084	23064.925431
39.538000	-0.001859	0.000530	0.000658	0.002483	7097.737479	42959.904655	3934.525600	23055.717631
40.035500	-0.001217	0.000215	-0.000337	0.001592	7112.605767	43013.009541	3934.264656	23097.116545
40.535500	0.001396	0.000347	-0.002530	0.001527	7138.728806	43031.140518	3928.956239	23100.165579
41.036000	0.000630	0.000380	-0.000054	0.001767	7128.893807	43012.058942	3934.536788	23088.996551
41.537000	0.000038	0.000957	0.002509	0.002886	7112.220628	42962.085183	3938.153969	23036.994756
42.036500	-0.001709	0.001129	-0.001497	0.002324	7100.723825	43029.786022	3929.543556	23063.089099
42.537000	0.000570	0.000087	0.001833	0.002161	7124.465870	42948.824809	3938.279819	23070.674169
43.037500	0.000301	0.000333	-0.001637	0.001905	7124.329701	42994.945801	3930.237254	23082.542965
43.535000	-0.002194	0.000218	-0.002091	0.004444	7075.545080	42751.152466	3922.803711	22964.867426
44.038500	-0.002085	0.000781	0.001001	0.006527	7056.574260	42612.230942	3925.303374	22868.812884
44.535500	0.001435	0.001517	0.006246	0.001825	7136.189656	43111.621205	3950.270002	23086.292844
45.035500	0.002005	0.001216	0.004878	0.001340	7146.510390	43128.651491	3948.029854	23108.833734
45.535500	-0.001830	0.000025	-0.000732	0.006923	7055.222395	42507.196679	3920.034102	22850.613591
46.036000	0.000199	0.000988	0.000603	0.001354	7128.715590	43106.261340	3937.215045	23108.174095
46.536000	-0.000414	0.000390	0.004345	0.000899	7127.175479	43093.125717	3947.796486	23129.391978
47.037500	-0.000691	0.000534	-0.000500	0.002944	7104.577881	42917.790132	3930.481810	23034.302062
47.537000	-0.003830	-0.000296	0.002082	0.006059	7044.347150	42556.702381	3929.154594	22890.381595
48.036500	-0.001043	0.000589	0.004005	0.004890	7082.349414	42744.330585	3936.880702	22944.281418
48.535000	0.001470	0.000863	0.002587	0.001449	7140.201425	43085.940479	3941.965752	23103.761086
49.037500	0.000428	0.000172	0.001384	0.000757	7136.783249	43086.072261	3940.678954	23136.009323
49.535500	-0.001592	-0.000308	-0.000635	0.006074	7065.648814	42554.152070	3922.372299	22889.659961
50.036000	-0.003086	0.000429	0.002999	0.014518	6971.210190	41857.979216	3910.535078	22504.600762
50.536000	-0.013355	-0.004518	0.003886	0.031246	6725.294987	39965.125670	3872.469926	21763.579955
51.036000	-0.085566	-0.012753	-0.000113	0.116963	5556.346547	32769.430074	3681.211001	18383.452898
51.537000	-0.052107	-0.019940	-0.020070	-0.130344	7978.749320	54765.691659	4254.581288	30269.666188
52.037000	-0.038820	-0.154266	-0.013041	-0.346717	11524.507403	65535.000000	5200.882851	47949.493468
52.534500	-0.025337	-0.166957	-0.010123	-0.359407	12060.825428	65535.000000	5286.995009	49285.573551
53.035000	-0.024491	-0.166607	-0.010500	-0.359057	12071.295178	65535.000000	5282.912075	49248.145641
53.538000	-0.028501	-0.130616	-0.005484	-0.323066	11263.513332	65535.000000	5115.278447	45561.443111
54.035500	-0.016313	-0.095969	-0.012497	-0.288419	10841.534914	65535.000000	4907.867912	42289.582038
54.535000	-0.005942	-0.095407	-0.010454	-0.287857	11023.141213	65535.000000	4914.902888	42238.625301
55.036000	-0.001553	-0.071441	-0.008608	-0.262936	10647.642660	65397.628035	4807.942031	40044.425009
55.535500	-0.004434	-0.045297	-0.007136	-0.225926	9966.896170	63855.107628	4653.924305	37009.500466
56.036500	-0.010362	-0.025827	-0.007266	-0.188165	9289.710547	61344.409238	4503.014887	34168.377437
56.537000	-0.000027	-0.022228	-0.004966	-0.179276	9311.053220	60637.698204	4478.092430	33534.748174
57.034000	-0.001901	-0.017377	-0.002979	-0.163517	9055.595366	59207.385396	4427.199507	32442.736107
57.537500	0.000866	-0.011796	-0.001527	-0.137775	8737.956383	56656.678760	4341.289008	30742.113919
58.037500	-0.003441	-0.009405	-0.008292	-0.112928	8358.327382	53951.576447	4236.431589	29193.460018
58.535000	0.000754	-0.006017	-0.004163	-0.086032	8079.895092	51265.613316	4165.510478	27614.063509
59.035500	-0.004297	-0.006548	-0.006327	-0.074379	7884.098488	49929.740469	4124.245268	26959.545712
59.535500	-0.004922	-0.005295	-0.005947	-0.064993	7770.308352	49058.562426	4098.043759	26444.965648
60.036000	-0.006505	-0.004108	-0.004553	-0.051417	7602.931292	47762.493533	4063.457905	25720.075885
60.536000	-0.000125	-0.004786	-0.004468	-0.058704	7753.586358	48449.323254	4084.272933	26106.369891
61.036500	0.000310	-0.002930	-0.004893	-0.045973	7617.841132	47324.784401	4047.378110	25435.743320
61.537000	-0.003062	-0.002736	-0.004311	-0.031631	7428.913686	45903.319184	4009.962467	24703.415215
62.037500	-0.008948	-0.002940	-0.007280	-0.022785	7277.563147	45017.997187	3978.770875	24263.650995
62.537500	-0.005770	-0.002458	0.001370	-0.014126	7222.540610	44233.775971	3978.744951	23841.749372
63.035000	-0.006364	-0.002714	0.001116	-0.007692	7153.010665	43603.165105	3961.463703	23533.691197
63.535500	-0.003553	-0.002804	-0.000983	-0.014441	7247.875881	44230.851334	3973.452767	23856.974892
64.035500	-0.004165	-0.002108	-0.000369	-0.013939	7236.712832	44249.368942	3973.743525	23832.757794
64.538500	-0.002451	-0.002396	-0.001956	-0.019765	7312.818894	44778.956993	3984.784781	24115.539607
65.036000	-0.001132	-0.001692	0.003938	-0.022859	7357.978664	45146.184076	4008.564244	24267.300195
65.536500	0.004113	0.000354	-0.001705	-0.027250	7458.206722	45775.910280	4005.222948	24484.514335
66.036500	0.006182	-0.000295	0.007067	-0.027766	7485.468132	45762.746257	4030.243747	24510.177053
66.537000	0.007608	0.000207	0.004213	-0.027434	7497.060689	45779.526035	4021.602073	24493.658543
67.038000	0.010366	0.000497	0.004326	-0.028913	7542.222880	45954.312648	4025.912728	24567.369650
67.540000	0.008498	-0.000240	0.001755	-0.026547	7497.090235	45648.225451	4012.595932	24449.597403
68.035500	0.009300	0.000628	0.002673	-0.026022	7500.022084	45681.906900	4013.647108	24423.522283
68.535500	0.008140	-0.000109	0.002356	-0.029067	7520.085917	45909.575302	4020.995081	24575.050947
69.035500	0.008733	0.001048	0.006678	-0.028272	7517.926521	45945.377128	4030.562907	24535.392442
69.539000	0.005882	-0.000147	0.000063	-0.027017	7474.384977	45703.606666	4009.320152	24472.919248
70.036500	0.004078	0.000517	0.001381	-0.026833	7453.457483	45750.861912	4012.359639	24463.807912
70.539000	0.006127	0.000310	0.004379	-0.028783	7495.658428	45922.906044	4025.702738	24560.858790
71.037000	0.006063	0.000914	0.008918	-0.026963	7475.724637	45802.801818	4033.100665	24470.239875
71.537000	0.010835	0.001322	0.007023	-0.025943	7515.512029	45742.452898	4025.172003	24419.633941
72.037500	0.009203	0.001173	0.001057	-0.025098	7489.206771	45644.714085	4006.849873	24377.773439
72.535000	0.008860	0.000929	0.006319	-0.025968	7494.797535	45706.328859	4023.333211	24420.880632
73.035500	0.008166	0.002012	0.006801	-0.025151	7478.794681	45732.392407	4022.424031	24380.393643
73.535500	0.009027	0.001200	0.012842	-0.025970	7496.579451	45733.097698	4041.126774	24420.962843
74.035500	0.009096	0.001596	0.008876	-0.025092	7488.012618	45685.710852	4027.893000	24377.495644
74.536000	0.009844	0.000690	0.009900	-0.026188	7507.567693	45704.364307	4033.665139	24431.750266
75.036500	0.009921	0.001687	0.013741	-0.025656	7502.735003	45750.095940	4042.736193	24405.384412
75.536500	0.007352	0.000689	0.008540	-0.027028	7490.042812	45787.068258	4032.246707	24473.491620
76.037000	0.009746	0.001394	0.011001	-0.026731	7512.297860	45827.174320	4038.162270	24458.704072
76.543000	0.011334	0.002286	0.015365	-0.025966	7521.070183	45839.803506	4048.068950	24420.760790
77.035000	0.011728	0.001742	0.009384	-0.025628	7521.663282	45752.837653	4030.732412	24404.023362
77.535500	0.011143	0.001895	0.014425	-0.024581	7504.299670	45664.913785	4041.662845	24352.237209
78.035500	0.010230	0.002852	0.016320	-0.022513	7472.742788	45555.808765	4041.186506	24250.291975
78.535500	0.010849	0.002596	0.010608	-0.022862	7482.958924	45564.849406	4026.537605	24267.421091
79.036500	0.010329	0.002603	0.010719	-0.021731	7465.535182	45454.788075	4023.770698	24211.827608
79.536500	0.009189	0.002869	0.013681	-0.019186	7426.885321	45232.486478	4024.903399	24087.282529
80.036500	0.011314	0.003790	0.018358	-0.017719	7433.763274	45179.375275	4033.635910	24015.818536
80.537000	0.012106	0.003121	0.015810	-0.018577	7451.055195	45197.792009	4029.028782	24057.575020
81.040000	0.012684	0.003769	0.015913	-0.016678	7437.208921	45076.358116	4024.154101	23965.236065
81.537500	0.011687	0.003605	0.011858	-0.014980	7409.088792	44896.248095	4008.673035	23883.011030
82.035000	0.011403	0.003926	0.017010	-0.014694	7403.158740	44899.537517	4021.753468	23869.183356
82.535000	0.011948	0.003545	0.012083	-0.013927	7400.850575	44788.929318	4006.464526	23832.186621
83.035500	0.011533	0.003897	0.014988	-0.012844	7385.322684	44718.630449	4011.335661	23780.042063
83.536000	0.012221	0.003757	0.014459	-0.010985	7373.224778	44526.914130	4004.954120	23690.795188
84.036000	0.012288	0.004382	0.014263	-0.010861	7372.631481	44574.862034	4004.100696	23684.846802
84.536500	0.011683	0.004615	0.011301	-0.011021	7368.045981	44612.549877	3996.664967	23692.531473
85.036500	0.011067	0.004902	0.017387	-0.009800	7349.146409	44523.044809	4009.607604	23634.130985
85.537000	0.012399	0.004421	0.015634	-0.007443	7338.632043	44252.434735	3998.663417	23521.867342
86.037500	0.014307	0.006385	0.013743	-0.007920	7363.125838	44485.114953	3994.922951	23544.545311
86.535000	0.015764	0.005868	0.014029	-0.008053	7379.536708	44448.477684	3996.030933	23550.879268
87.035000	0.012926	0.006027	0.015243	-0.008150	7351.294491	44472.958036	3999.501676	23555.495292
87.535500	0.013976	0.006409	0.015950	-0.006028	7340.302790	44307.004567	3995.755495	23454.779573
88.036000	0.014789	0.006023	0.019552	-0.006543	7353.915115	44319.207719	4006.689010	23479.141030
88.536000	0.015921	0.007092	0.017754	-0.005718	7357.077898	44342.455047	3999.712200	23440.091895
89.036500	0.016196	0.006158	0.015920	-0.006240	7365.280146	44303.314270	3996.235966	23464.817331
89.536500	0.015736	0.007442	0.018182	-0.004866	7346.429981	44294.755620	3998.588210	23399.832974
90.037000	0.015756	0.007058	0.020542	-0.004686	7344.784285	44241.051224	4004.378078	23391.296003
90.537000	0.014803	0.007788	0.018458	-0.004440	7332.503419	44287.062188	3998.188661	23379.696610
91.035000	0.014415	0.008065	0.023317	-0.003146	7315.337193	44190.397882	4007.672191	23318.747963
91.535000	0.015912	0.007071	0.024463	-0.002684	7325.900127	44052.481468	4009.502205	23297.053879
92.035000	0.016532	0.008081	0.019598	-0.001190	7316.983335	44006.803759	3992.615324	23226.979126
92.535500	0.018242	0.008002	0.025703	-0.000498	7327.357775	43933.954927	4006.971505	23194.577931
93.036000	0.017352	0.009030	0.024908	0.000608	7307.019675	43926.551059	4001.909676	23142.947033
93.536000	0.015565	0.008343	0.019014	0.000696	7287.992826	43853.639182	3986.119364	23138.851071
94.036500	0.014989	0.009273	0.031502	0.002688	7262.071670	43753.763679	4013.965976	23046.179275
94.539500	0.014080	0.008258	0.027476	0.002097	7258.868767	43713.954707	4004.778919	23073.621531
95.040000	0.014600	0.008940	0.026107	0.003163	7253.391346	43677.974572	3998.311120	23024.181642
95.536500	0.017081	0.009153	0.025934	0.004395	7265.947912	43582.571928	3994.595441	22967.139629
96.034500	0.017128	0.009378	0.026416	0.005854	7251.748268	43467.336621	3992.015838	22899.792532
96.535500	0.017462	0.010035	0.024647	0.006192	7251.712052	43497.143805	3986.479408	22884.250654
97.035500	0.017111	0.010191	0.028227	0.007006	7240.025816	43435.748027	3993.755393	22846.796844
97.536000	0.017347	0.011040	0.029077	0.008386	7228.580299	43386.257431	3992.356343	22783.486840
98.036000	0.018617	0.010324	0.023146	0.008937	7235.779457	43268.581494	3975.401021	22758.293798
98.536500	0.021918	0.011631	0.024832	0.009870	7259.526987	43303.380170	3977.356953	22715.663988
99.036500	0.017767	0.010452	0.026744	0.009858	7218.085746	43195.098087	3982.372202	22716.189160
99.536500	0.019033	0.011166	0.029764	0.012587	7203.536736	43008.900881	3983.132620	22592.024543
100.037500	0.018739	0.012524	0.030545	0.012241	7204.051622	43166.317490	3986.084575	22607.717998
100.537500	0.019254	0.011335	0.026092	0.012244	7209.146720	43056.138696	3974.464128	22607.590487
101.034500	0.022000	0.011754	0.031254	0.013392	7225.052980	42988.932629	3984.925435	22555.521160
101.535500	0.021605	0.012942	0.028915	0.016426	7190.975428	42819.201887	3970.944015	22418.655566
102.035500	0.021525	0.013747	0.030329	0.015560	7198.759087	42972.784002	3976.853708	22457.606489
102.536000	0.022693	0.012913	0.029460	0.015826	7207.714665	42871.543345	3973.906332	22445.620714
103.036000	0.022947	0.013253	0.031689	0.016789	7200.681372	42814.414834	3977.197072	22402.341851
103.536000	0.022054	0.013454	0.027286	0.018759	7172.364894	42652.566382	3960.743187	22314.050787
104.039500	0.022058	0.014524	0.029842	0.018884	7171.173558	42738.951182	3966.990081	22308.443093
104.537000	0.023960	0.013276	0.028625	0.018214	7196.589463	42686.008052	3965.580445	22338.421539
105.037000	0.024255	0.014596	0.030001	0.019629	7185.504084	42677.398426	3965.480674	22275.174071
105.535000	0.021750	0.014185	0.028827	0.022286	7134.751771	42397.822309	3955.662646	22156.923334
106.035000	0.023175	0.015635	0.027357	0.021974	7151.766659	42558.168975	3952.715493	22170.788278
106.535500	0.025512	0.015087	0.029761	0.021821	7176.267964	42522.128341	3959.239701	22177.569862
107.035500	0.022774	0.015426	0.033586	0.022339	7144.262355	42505.861702	3967.736745	22154.601196
107.536000	0.022793	0.014834	0.033598	0.023837	7129.792942	42316.026678	3963.909418	22088.250673
108.036500	0.025659	0.015630	0.031710	0.024252	7153.789194	42350.602219	3958.005732	22069.925588
108.536500	0.025288	0.016783	0.032970	0.025645	7136.509082	42328.826318	3957.665003	22008.501155
109.037000	0.026389	0.017070	0.036825	0.026696	7137.006131	42259.759702	3964.857518	21962.328232
109.537000	0.024905	0.016551	0.036293	0.028935	7100.755100	42010.968047	3957.752156	21864.252513
110.037500	0.025413	0.016699	0.028607	0.027330	7121.287524	42168.830301	3942.316397	21934.486085
110.535000	0.028775	0.017393	0.041329	0.028087	7146.736039	42163.232324	3972.893474	21901.341114
111.034500	0.028459	0.017456	0.037183	0.029109	7133.650753	42076.796620	3959.582238	21856.665214
111.535500	0.028055	0.017541	0.032897	0.031348	7107.906924	41883.266263	3943.003174	21759.130431
112.036000	0.028615	0.017563	0.036349	0.030356	7122.997995	41974.218552	3954.265628	21802.263705
112.536000	0.027589	0.017618	0.036634	0.030754	7109.147867	41943.473092	3953.978623	21784.956457
113.036000	0.028162	0.018069	0.037114	0.031765	7104.892366	41893.244960	3952.626688	21741.020750
113.536500	0.028357	0.018444	0.034704	0.034559	7079.750974	41677.111608	3939.467587	21620.150893
114.037000	0.029974	0.017941	0.040457	0.033066	7109.858163	41765.465648	3957.835557	21684.661777
114.537500	0.030343	0.019123	0.039014	0.034205	7102.389087	41769.247994	3951.255817	21635.435100
115.037500	0.031023	0.017906	0.035010	0.033767	7113.241061	41699.714547	3942.230070	21654.341049
115.535000	0.027945	0.019218	0.036199	0.038148	7041.340449	41426.963845	3934.213721	21466.005332
116.035500	0.031113	0.018975	0.037736	0.035706	7095.303866	41622.217622	3944.215971	21570.760128
116.535500	0.032208	0.019532	0.035704	0.036839	7094.926484	41571.023309	3936.253501	21522.078810
117.036000	0.033419	0.020255	0.042087	0.037863	7096.743727	41544.328849	3949.770888	21478.233860
117.536000	0.028634	0.019183	0.035638	0.040664	7023.916212	41201.828744	3926.542834	21358.707134
118.039500	0.031876	0.019121	0.041347	0.038428	7076.376328	41393.671333	3946.462592	21454.060526
118.536500	0.035138	0.020391	0.040751	0.039420	7098.310963	41418.231245	3942.450354	21411.683690
119.037500	0.032227	0.019864	0.042956	0.040044	7064.203518	41316.538278	3946.445154	21385.104990
119.537500	0.026601	0.019341	0.039164	0.045282	6961.104828	40811.249632	3923.836399	21163.408415
120.035000	0.033592	0.020603	0.039428	0.041280	7065.448413	41272.661955	3934.458879	21332.562764
120.535000	0.033579	0.020401	0.039747	0.041545	7062.772353	41231.458077	3934.593215	21321.299013
121.035500	0.032437	0.021136	0.038047	0.042671	7041.047951	41197.069817	3927.543746	21273.593485
121.536000	0.035061	0.020682	0.040150	0.042926	7063.743426	41134.729061	3932.147053	21262.779919
122.036000	0.033972	0.020864	0.039101	0.043287	7049.840086	41119.080847	3928.633929	21247.546792
122.539000	0.035703	0.022510	0.042061	0.044992	7050.080458	41113.861718	3931.761843	21175.605508
123.039500	0.034502	0.020641	0.043110	0.044437	7043.903710	40998.678121	3935.774080	21199.011245
123.537000	0.033508	0.022376	0.043837	0.047368	7006.544941	40894.101130	3930.265588	21075.872553
124.037000	0.035305	0.021450	0.044188	0.045790	7038.638251	40950.941889	3935.083911	21142.029569
124.535000	0.035930	0.022220	0.046919	0.047013	7032.942543	40911.487742	3938.867584	21090.737287
125.035000	0.035682	0.022589	0.045071	0.047523	7025.712061	40899.089710	3932.957133	21069.369483
125.535500	0.031377	0.021506	0.040035	0.053629	6927.778086	40276.525966	3905.470030	20815.600071
126.036000	0.038731	0.023333	0.043524	0.048554	7044.971130	40874.033689	3926.535553	21026.263582
126.536000	0.034073	0.021421	0.041795	0.048357	7002.515633	40724.648876	3922.736095	21034.480918
127.036000	0.036982	0.022042	0.043996	0.049231	7021.835573	40702.717187	3926.027351	20998.034298
127.536500	0.034341	0.022958	0.037980	0.056190	6931.526261	40181.437313	3894.286313	20710.216682
128.037000	0.035304	0.022447	0.039569	0.050128	6997.413963	40660.014360	3912.886514	20960.660020
128.537000	0.036884	0.022655	0.045729	0.050646	7007.459541	40633.095373	3926.813693	20939.107042
129.037500	0.036006	0.023629	0.040900	0.051847	6987.803278	40613.405956	3911.936246	20889.273937
129.535000	0.032209	0.022802	0.045023	0.056616	6907.794096	40131.596196	3910.355298	20692.737762
130.035500	0.036616	0.022730	0.044991	0.052206	6990.176119	40504.537656	3921.119843	20874.414619
