sample name	sample
index	575
start time	 03-16-2021  03:20:47 PM


Wavelength (nm)	Absorbance
494.344910	-0.615009
494.563924	-0.615009
494.782919	-0.615009
495.001897	0.025409
495.220856	-0.374777
495.439797	-0.297403
495.658719	-0.244672
495.877624	-0.204839
496.096510	-0.207535
496.315378	-0.205233
496.534227	-0.231050
496.753059	-0.198923
496.971872	-0.165141
497.190667	-0.020653
497.409444	-0.020887
497.628203	-0.012527
497.846943	-0.008705
498.065665	-0.008203
498.284369	-0.007480
498.503055	-0.006526
498.721723	-0.007113
498.940372	-0.006711
499.159003	-0.007445
499.377616	-0.005828
499.596210	-0.006652
499.814787	-0.007030
500.033345	-0.006677
500.251885	-0.005734
500.470406	-0.005842
500.688910	-0.004133
500.907395	-0.003555
501.125862	-0.002957
501.344311	-0.003412
501.562742	-0.003089
501.781154	-0.002111
501.999548	-0.002283
502.217924	-0.002745
502.436282	-0.002730
502.654621	-0.004290
502.872942	-0.004588
503.091245	-0.004966
503.309530	-0.004912
503.527797	-0.006324
503.746045	-0.007383
503.964275	-0.007637
504.182487	-0.007699
504.400681	-0.007505
504.618856	-0.006609
504.837013	-0.007320
505.055152	-0.007228
505.273273	-0.007153
505.491376	-0.005574
505.709460	-0.005595
505.927526	-0.005755
506.145574	-0.006513
506.363604	-0.006359
506.581615	-0.006424
506.799608	-0.006475
507.017583	-0.006571
507.235540	-0.006412
507.453478	-0.007212
507.671399	-0.007264
507.889301	-0.007613
508.107185	-0.006568
508.325050	-0.005726
508.542898	-0.006675
508.760727	-0.005643
508.978538	-0.004222
509.196330	-0.003732
509.414105	-0.003243
509.631861	-0.002738
509.849599	-0.001268
510.067319	-0.001786
510.285021	-0.002510
510.502704	-0.001109
510.720369	-0.001530
510.938016	-0.003221
511.155645	-0.004104
511.373255	-0.005397
511.590848	-0.006170
511.808422	-0.007721
512.025977	-0.006787
512.243515	-0.006912
512.461034	-0.007430
512.678536	-0.007865
512.896018	-0.007945
513.113483	-0.006910
513.330930	-0.006075
513.548358	-0.005336
513.765768	-0.004542
513.983160	-0.005231
514.200533	-0.005760
514.417889	-0.005658
514.635226	-0.005460
514.852545	-0.004966
515.069845	-0.005407
515.287128	-0.006003
515.504392	-0.006047
515.721638	-0.006080
515.938866	-0.005184
516.156075	-0.004912
516.373267	-0.004849
516.590440	-0.004904
516.807594	-0.005170
517.024731	-0.005900
517.241850	-0.005492
517.458950	-0.005081
517.676032	-0.004798
517.893095	-0.005490
518.110141	-0.005828
518.327168	-0.006465
518.544177	-0.006314
518.761168	-0.006235
518.978141	-0.005223
519.195095	-0.004541
519.412031	-0.005372
519.628949	-0.005923
519.845849	-0.006440
520.062731	-0.006164
520.279594	-0.005911
520.496439	-0.006184
520.713266	-0.005911
520.930074	-0.005717
521.146865	-0.006195
521.363637	-0.006084
521.580391	-0.005477
521.797127	-0.005033
522.013844	-0.004283
522.230543	-0.004190
522.447224	-0.003386
522.663887	-0.003443
522.880532	-0.003583
523.097158	-0.003579
523.313766	-0.003597
523.530356	-0.003662
523.746928	-0.003707
523.963481	-0.004105
524.180017	-0.003581
524.396534	-0.004528
524.613032	-0.004569
524.829513	-0.005155
525.045975	-0.005060
525.262420	-0.004605
525.478845	-0.004268
525.695253	-0.004120
525.911643	-0.004099
526.128014	-0.003937
526.344367	-0.003207
526.560702	-0.003329
526.777018	-0.003673
526.993316	-0.002964
527.209597	-0.002902
527.425858	-0.002826
527.642102	-0.002634
527.858328	-0.002735
528.074535	-0.003003
528.290724	-0.003261
528.506894	-0.003787
528.723047	-0.002908
528.939181	-0.003460
529.155297	-0.004324
529.371395	-0.004954
529.587475	-0.005708
529.803536	-0.005931
530.019579	-0.005754
530.235604	-0.005595
530.451611	-0.004932
530.667600	-0.005044
530.883570	-0.004486
531.099522	-0.003498
531.315456	-0.003063
531.531372	-0.002822
531.747269	-0.001783
531.963148	-0.001680
532.179009	-0.001223
532.394852	-0.001791
532.610676	-0.001563
532.826482	-0.001511
533.042271	-0.001811
533.258040	-0.001846
533.473792	-0.001166
533.689525	-0.002013
533.905240	-0.002070
534.120937	-0.002246
534.336616	-0.000987
534.552277	-0.001852
534.767919	-0.002267
534.983543	-0.002186
535.199149	-0.002642
535.414736	-0.002709
535.630306	-0.002435
535.845857	-0.002706
536.061390	-0.002574
536.276904	-0.002932
536.492401	-0.002303
536.707879	-0.002768
536.923339	-0.002707
537.138781	-0.002007
537.354204	-0.002208
537.569610	-0.002609
537.784997	-0.002579
538.000366	-0.003259
538.215716	-0.003090
538.431049	-0.003447
538.646363	-0.002802
538.861659	-0.002594
539.076937	-0.002989
539.292196	-0.002952
539.507438	-0.002611
539.722661	-0.002896
539.937866	-0.002133
540.153052	-0.002771
540.368221	-0.002245
540.583371	-0.002221
540.798503	-0.002027
541.013617	-0.001689
541.228712	-0.001120
541.443789	-0.001045
541.658848	-0.000838
541.873889	-0.001494
542.088912	-0.001220
542.303916	-0.001382
542.518902	-0.001519
542.733870	-0.001776
542.948820	-0.001387
543.163752	-0.001694
543.378665	-0.001319
543.593560	-0.001118
543.808437	-0.000821
544.023295	-0.001200
544.238136	-0.001023
544.452958	-0.001214
544.667762	-0.001342
544.882548	-0.002135
545.097315	-0.002056
545.312064	-0.002043
545.526795	-0.001804
545.741508	-0.001795
545.956203	-0.001419
546.170879	-0.001376
546.385537	-0.001126
546.600177	-0.001034
546.814799	-0.000716
547.029402	-0.001373
547.243988	-0.001706
547.458555	-0.001812
547.673103	-0.001826
547.887634	-0.001733
548.102146	-0.001842
548.316640	-0.001501
548.531116	-0.001384
548.745574	-0.001244
548.960013	-0.000802
549.174435	-0.000699
549.388838	-0.000550
549.603222	-0.000016
549.817589	0.000037
550.031937	0.000478
550.246267	0.000013
550.460579	0.000265
550.674873	0.000232
550.889148	0.000246
551.103405	0.000273
551.317644	-0.000199
551.531865	-0.000734
551.746068	-0.000435
551.960252	-0.000874
552.174418	-0.000656
552.388566	-0.000684
552.602696	-0.001007
552.816807	-0.000650
553.030900	-0.000592
553.244975	-0.000410
553.459032	0.000005
553.673070	0.000171
553.887091	0.000439
554.101093	0.000694
554.315077	0.000438
554.529042	0.001099
554.742990	0.000919
554.956919	0.000425
555.170830	0.000454
555.384722	-0.000007
555.598597	-0.000309
555.812453	-0.000497
556.026291	-0.000776
556.240111	-0.000820
556.453913	-0.001117
556.667696	-0.001403
556.881461	-0.001037
557.095208	-0.000822
557.308937	-0.000437
557.522647	-0.000190
557.736339	0.000220
557.950013	0.000369
558.163669	0.000267
558.377307	0.000464
558.590926	0.000933
558.804527	0.001163
559.018110	0.001297
559.231675	0.001340
559.445221	0.000773
559.658749	0.000765
559.872259	0.000936
560.085751	0.000901
560.299225	0.000510
560.512680	0.000311
560.726117	0.000028
560.939536	0.000080
561.152937	0.000009
561.366319	0.000345
561.579683	-0.000010
561.793029	-0.000114
562.006357	0.000080
562.219667	0.000108
562.432958	0.000109
562.646231	0.000526
562.859486	-0.000086
563.072723	-0.000041
563.285941	0.000176
563.499141	0.000231
563.712323	0.000179
563.925487	0.000190
564.138632	0.000736
564.351760	0.001046
564.564869	0.001003
564.777960	0.001335
564.991032	0.001379
565.204087	0.001045
565.417123	0.000847
565.630141	0.000991
565.843140	0.000998
566.056122	0.000344
566.269085	0.000076
566.482030	-0.000070
566.694957	0.000193
566.907866	0.000044
567.120756	0.000030
567.333628	-0.000050
567.546482	0.000147
567.759318	0.000515
567.972135	0.000897
568.184935	0.001029
568.397716	0.001171
568.610478	0.001172
568.823223	0.001073
569.035949	0.001153
569.248657	0.001545
569.461347	0.001572
569.674019	0.001226
569.886672	0.000965
570.099308	0.001112
570.311925	0.001007
570.524523	0.000835
570.737104	0.001366
570.949666	0.001646
571.162210	0.001282
571.374736	0.000518
571.587244	0.000651
571.799733	0.001017
572.012205	0.000817
572.224658	0.000796
572.437092	0.000847
572.649509	0.000775
572.861907	0.000735
573.074287	0.001035
573.286649	0.001779
573.498993	0.002000
573.711318	0.001910
573.923625	0.001804
574.135914	0.001585
574.348185	0.001391
574.560438	0.000954
574.772672	0.000663
574.984888	0.000272
575.197086	0.000026
575.409266	-0.000304
575.621427	-0.000255
575.833570	-0.000171
576.045695	0.000086
576.257802	0.000735
576.469890	0.000762
576.681961	0.000853
576.894013	0.001212
577.106046	0.001078
577.318062	0.001316
577.530059	0.001082
577.742039	0.001093
577.954000	0.001079
578.165942	0.000550
578.377867	0.000674
578.589773	0.000636
578.801661	0.000650
579.013531	0.000780
579.225382	0.000626
579.437216	0.000595
579.649031	0.000612
579.860828	0.000813
580.072606	0.001085
580.284367	0.001065
580.496109	0.000965
580.707833	0.000946
580.919539	0.000925
581.131227	0.000925
581.342896	0.000788
581.554547	0.000562
581.766180	0.000671
581.977795	0.000105
582.189391	0.000183
582.400969	0.000362
582.612529	0.000635
582.824071	0.000588
583.035595	0.000864
583.247100	0.001212
583.458587	0.001275
583.670056	0.001319
583.881506	0.001730
584.092939	0.001894
584.304353	0.001868
584.515749	0.001624
584.727127	0.001606
584.938486	0.001284
585.149828	0.001183
585.361151	0.001297
585.572456	0.001113
585.783742	0.001221
585.995011	0.001066
586.206261	0.000988
586.417493	0.001127
586.628706	0.001122
586.839902	0.001027
587.051079	0.001341
587.262238	0.001502
587.473379	0.001225
587.684502	0.000813
587.895606	0.001168
588.106692	0.001262
588.317760	0.001381
588.528810	0.001463
588.739841	0.001905
588.950855	0.001540
589.161850	0.001361
589.372827	0.001843
589.583785	0.002164
589.794726	0.002009
590.005648	0.002229
590.216552	0.001962
590.427437	0.001812
590.638305	0.001680
590.849154	0.001908
591.059985	0.002161
591.270798	0.001501
591.481592	0.001337
591.692369	0.001067
591.903127	0.000822
592.113867	0.001025
592.324588	0.001197
592.535292	0.000995
592.745977	0.001061
592.956644	0.000812
593.167293	0.001535
593.377923	0.001559
593.588536	0.001515
593.799130	0.001614
594.009706	0.001534
594.220263	0.001907
594.430803	0.001921
594.641324	0.001759
594.851827	0.001895
595.062312	0.001764
595.272778	0.001875
595.483227	0.002124
595.693657	0.002312
595.904069	0.002414
596.114462	0.002058
596.324838	0.002147
596.535195	0.002033
596.745534	0.001904
596.955855	0.001686
597.166157	0.001767
597.376441	0.001709
597.586707	0.001759
597.796955	0.001505
598.007185	0.001691
598.217396	0.001833
598.427589	0.001802
598.637764	0.002085
598.847921	0.002135
599.058060	0.002180
599.268180	0.002262
599.478282	0.002127
599.688366	0.002612
599.898431	0.002569
600.108479	0.002479
600.318508	0.002833
600.528519	0.002600
600.738511	0.002592
600.948486	0.002689
601.158442	0.002990
601.368380	0.003074
601.578300	0.002894
601.788202	0.002870
601.998085	0.002963
602.207950	0.003057
602.417797	0.003477
602.627626	0.003646
602.837436	0.003849
603.047228	0.003657
603.257002	0.003454
603.466758	0.003637
603.676496	0.003390
603.886215	0.003382
604.095916	0.003376
604.305599	0.003293
604.515264	0.003259
604.724910	0.003220
604.934538	0.003457
605.144148	0.003481
605.353740	0.003242
605.563314	0.003686
605.772869	0.003865
605.982406	0.003699
606.191925	0.003752
606.401425	0.003831
606.610908	0.003811
606.820372	0.003362
607.029818	0.003583
607.239246	0.003623
607.448655	0.003340
607.658047	0.003141
607.867420	0.003141
608.076775	0.003009
608.286111	0.002956
608.495430	0.002807
608.704730	0.002916
608.914012	0.002714
609.123275	0.002801
609.332521	0.002973
609.541748	0.003090
609.750957	0.003164
609.960148	0.003185
610.169321	0.003108
610.378475	0.003051
610.587611	0.003244
610.796729	0.003159
611.005829	0.003333
611.214910	0.003385
611.423974	0.003427
611.633019	0.003450
611.842045	0.003513
612.051054	0.003628
612.260044	0.003438
612.469017	0.003129
612.677970	0.003511
612.886906	0.003668
613.095824	0.003742
613.304723	0.003480
613.513604	0.003495
613.722467	0.003588
613.931311	0.003494
614.140138	0.003908
614.348946	0.004069
614.557736	0.003981
614.766507	0.003636
614.975261	0.003622
615.183996	0.003832
615.392713	0.003937
615.601412	0.003647
615.810092	0.003568
616.018754	0.003543
616.227399	0.003738
616.436024	0.003772
616.644632	0.004001
616.853222	0.004405
617.061793	0.004337
617.270346	0.004168
617.478880	0.004475
617.687397	0.004866
617.895895	0.004412
618.104375	0.004473
618.312837	0.004482
618.521281	0.004506
618.729706	0.003992
618.938113	0.004018
619.146502	0.004093
619.354873	0.004055
619.563226	0.004101
619.771560	0.004406
619.979876	0.004617
620.188174	0.004618
620.396453	0.004492
620.604715	0.004736
620.812958	0.005115
621.021183	0.005341
621.229390	0.005421
621.437578	0.005349
621.645748	0.005296
621.853900	0.005001
622.062034	0.004852
622.270150	0.004949
622.478247	0.004949
622.686326	0.004832
622.894387	0.004729
623.102430	0.004623
623.310454	0.004649
623.518461	0.005139
623.726449	0.005394
623.934418	0.005832
624.142370	0.005704
624.350303	0.005549
624.558218	0.005428
624.766115	0.005400
624.973994	0.005348
625.181855	0.005139
625.389697	0.005006
625.597521	0.004702
625.805327	0.004700
626.013114	0.004782
626.220883	0.004744
626.428634	0.004807
626.636367	0.004697
626.844082	0.004858
627.051778	0.004922
627.259457	0.004785
627.467117	0.004809
627.674758	0.004615
627.882382	0.004506
628.089987	0.004604
628.297574	0.004315
628.505143	0.004478
628.712694	0.004446
628.920226	0.004666
629.127740	0.004585
629.335236	0.004739
629.542714	0.004912
629.750174	0.005035
629.957615	0.004972
630.165038	0.005355
630.372443	0.005319
630.579829	0.005342
630.787198	0.005297
630.994548	0.005557
631.201880	0.005757
631.409194	0.005665
631.616489	0.005643
631.823766	0.005959
632.031025	0.005838
632.238266	0.006114
632.445489	0.006255
632.652693	0.006123
632.859879	0.006281
633.067047	0.006137
633.274197	0.005981
633.481329	0.006134
633.688442	0.006335
633.895537	0.006452
634.102614	0.006282
634.309672	0.006192
634.516713	0.006298
634.723735	0.006103
634.930739	0.005950
635.137724	0.006087
635.344692	0.006125
635.551641	0.006172
635.758572	0.006213
635.965485	0.006413
636.172379	0.006469
636.379256	0.006447
636.586114	0.006344
636.792954	0.006591
636.999775	0.006663
637.206579	0.006573
637.413364	0.006332
637.620131	0.006369
637.826880	0.006347
638.033610	0.006458
638.240323	0.006445
638.447017	0.006636
638.653692	0.006538
638.860350	0.006834
639.066990	0.006889
639.273611	0.007108
639.480214	0.007059
639.686798	0.007055
639.893365	0.007054
640.099913	0.007225
640.306443	0.007043
640.512955	0.007054
640.719449	0.006925
640.925924	0.006840
641.132381	0.006542
641.338820	0.006593
641.545241	0.006568
641.751644	0.006666
641.958028	0.006492
642.164394	0.006785
642.370742	0.006967
642.577071	0.006771
642.783383	0.006738
642.989676	0.006822
643.195951	0.006971
643.402207	0.007010
643.608446	0.006898
643.814666	0.007252
644.020868	0.007185
644.227052	0.007055
644.433218	0.007305
644.639365	0.007356
644.845494	0.007445
645.051605	0.007355
645.257698	0.007420
645.463772	0.007525
645.669828	0.007325
645.875866	0.007408
646.081886	0.007569
646.287888	0.007519
646.493871	0.007756
646.699836	0.007760
646.905783	0.007937
647.111712	0.008096
647.317622	0.007865
647.523514	0.007978
647.729388	0.007898
647.935244	0.007886
648.141082	0.007808
648.346901	0.007788
648.552702	0.007838
648.758485	0.007718
648.964250	0.007598
649.169996	0.007939
649.375724	0.007940
649.581434	0.007928
649.787126	0.007831
649.992800	0.008034
650.198455	0.008167
650.404092	0.008140
650.609711	0.008086
650.815311	0.007948
651.020894	0.007892
651.226458	0.007826
651.432004	0.007668
651.637532	0.007985
651.843041	0.008024
652.048532	0.007879
652.254006	0.007736
652.459460	0.007870
652.664897	0.007983
652.870315	0.007951
653.075716	0.008212
653.281097	0.008442
653.486461	0.008159
653.691807	0.008128
653.897134	0.008265
654.102443	0.008590
654.307734	0.008624
654.513006	0.008679
654.718261	0.008799
654.923497	0.008692
655.128715	0.008987
655.333915	0.009195
655.539096	0.009455
655.744259	0.009540
655.949404	0.009400
656.154531	0.009502
656.359640	0.009586
656.564730	0.009405
656.769802	0.009482
656.974856	0.009055
657.179892	0.008915
657.384909	0.008697
657.589908	0.008696
657.794889	0.008844
657.999852	0.008867
658.204797	0.008767
658.409723	0.008899
658.614631	0.008977
658.819521	0.009288
659.024393	0.009365
659.229246	0.009446
659.434081	0.009597
659.638898	0.009665
659.843697	0.009769
660.048478	0.010020
660.253240	0.010127
660.457984	0.010263
660.662710	0.010188
660.867417	0.010141
661.072107	0.010227
661.276778	0.010005
661.481431	0.009928
661.686066	0.009682
661.890682	0.009465
662.095281	0.009354
662.299861	0.009262
662.504422	0.009352
662.708966	0.009418
662.913491	0.009304
663.117999	0.009481
663.322488	0.009324
663.526958	0.009434
663.731411	0.009553
663.935845	0.009605
664.140261	0.009439
664.344659	0.009572
664.549038	0.009632
664.753400	0.009650
664.957743	0.009575
665.162068	0.009724
665.366375	0.009719
665.570663	0.009867
665.774933	0.009830
665.979185	0.010008
666.183419	0.010104
666.387635	0.010131
666.591832	0.010226
666.796011	0.010223
667.000172	0.010191
667.204315	0.010018
667.408439	0.009938
667.612545	0.010194
667.816634	0.010202
668.020703	0.010140
668.224755	0.010100
668.428788	0.009990
668.632803	0.010033
668.836800	0.010398
669.040779	0.010839
669.244739	0.011028
669.448681	0.011182
669.652605	0.011281
669.856511	0.011136
670.060399	0.011202
670.264268	0.011341
670.468119	0.011475
670.671952	0.011174
670.875767	0.011161
671.079563	0.011099
671.283341	0.010839
671.487101	0.010632
671.690843	0.010564
671.894567	0.010800
672.098272	0.010828
672.301959	0.010700
672.505628	0.010531
672.709278	0.010417
672.912911	0.010285
673.116525	0.010432
673.320121	0.010581
673.523699	0.010652
673.727258	0.010542
673.930799	0.010431
674.134322	0.010343
674.337827	0.010591
674.541314	0.010833
674.744782	0.010914
674.948232	0.010962
675.151664	0.011163
675.355078	0.011435
675.558474	0.011615
675.761851	0.011737
675.965210	0.012143
676.168551	0.012332
676.371873	0.012371
676.575178	0.012534
676.778464	0.012674
676.981732	0.012546
677.184981	0.012422
677.388213	0.012512
677.591426	0.012746
677.794621	0.012642
677.997798	0.012441
678.200956	0.012577
678.404097	0.012441
678.607219	0.012356
678.810323	0.012496
679.013408	0.012698
679.216476	0.012462
679.419525	0.012600
679.622556	0.012600
679.825569	0.012917
680.028563	0.012687
680.231540	0.012974
680.434498	0.013088
680.637438	0.013004
680.840359	0.012868
681.043263	0.012998
681.246148	0.012688
681.449015	0.012652
681.651864	0.012669
681.854694	0.012557
682.057506	0.012387
682.260301	0.012367
682.463076	0.012467
682.665834	0.012601
682.868573	0.012776
683.071295	0.012940
683.273998	0.013007
683.476682	0.012972
683.679349	0.013262
683.881997	0.013185
684.084627	0.013095
684.287239	0.012972
684.489833	0.012935
684.692408	0.012620
684.894965	0.012468
685.097504	0.012612
685.300025	0.012691
685.502527	0.012652
685.705012	0.012991
685.907478	0.013032
686.109925	0.013234
686.312355	0.013296
686.514766	0.013356
686.717159	0.013360
686.919534	0.013089
687.121891	0.013081
687.324230	0.012914
687.526550	0.012702
687.728852	0.012721
687.931136	0.012684
688.133401	0.012766
688.335649	0.012936
688.537878	0.013163
688.740089	0.013454
688.942281	0.013347
689.144456	0.013750
689.346612	0.013927
689.548750	0.013822
689.750870	0.013828
689.952971	0.013785
690.155055	0.013985
690.357120	0.013968
690.559167	0.013995
690.761195	0.014272
690.963206	0.014333
691.165198	0.014405
691.367172	0.014835
691.569128	0.014955
691.771065	0.015048
691.972984	0.015009
692.174885	0.015007
692.376768	0.014956
692.578633	0.014957
692.780479	0.014681
692.982308	0.014553
693.184118	0.014504
693.385909	0.014594
693.587683	0.014637
693.789438	0.014406
693.991175	0.014469
694.192894	0.014530
694.394595	0.014399
694.596277	0.014507
694.797941	0.014520
694.999587	0.014160
695.201215	0.013988
695.402824	0.013943
695.604416	0.014315
695.805989	0.014257
696.007543	0.014215
696.209080	0.014289
696.410598	0.014202
696.612099	0.014184
696.813580	0.014332
697.015044	0.014344
697.216490	0.014428
697.417917	0.014278
697.619326	0.014346
697.820717	0.014295
698.022089	0.014328
698.223444	0.014337
698.424780	0.014424
698.626098	0.014480
698.827397	0.014470
699.028679	0.014448
699.229942	0.014460
699.431187	0.014354
699.632414	0.014329
699.833622	0.014159
700.034813	0.014166
700.235985	0.014109
700.437139	0.014230
700.638274	0.014249
700.839392	0.014307
701.040491	0.014167
701.241572	0.014141
701.442635	0.014298
701.643679	0.014377
701.844706	0.014447
702.045714	0.014372
702.246704	0.014203
702.447675	0.014134
702.648629	0.014026
702.849564	0.014215
703.050481	0.014326
703.251380	0.014406
703.452260	0.014470
703.653122	0.014353
703.853966	0.014373
704.054792	0.014400
704.255600	0.014317
704.456389	0.014345
704.657160	0.014311
704.857913	0.014327
705.058648	0.014381
705.259365	0.014370
705.460063	0.014369
705.660743	0.014477
705.861405	0.014489
706.062048	0.014552
706.262674	0.014542
706.463281	0.014373
706.663870	0.014350
706.864441	0.014290
707.064993	0.014245
707.265527	0.014316
707.466043	0.014367
707.666541	0.014382
707.867021	0.014728
708.067482	0.014636
708.267925	0.014709
708.468350	0.014452
708.668757	0.014525
708.869145	0.014539
709.069516	0.014693
709.269868	0.014691
709.470201	0.014527
709.670517	0.014371
709.870814	0.014426
710.071093	0.014266
710.271354	0.014504
710.471597	0.014344
710.671821	0.014222
710.872028	0.013833
711.072216	0.013743
711.272385	0.013799
711.472537	0.013732
711.672670	0.013667
711.872785	0.014073
712.072882	0.014207
712.272961	0.013943
712.473021	0.014027
712.673063	0.014190
712.873087	0.013993
713.073093	0.014110
713.273081	0.014198
713.473050	0.014078
713.673001	0.014042
713.872934	0.013846
714.072849	0.014086
714.272745	0.014177
714.472623	0.014295
714.672483	0.014436
714.872325	0.014339
715.072148	0.014132
715.271954	0.014297
715.471741	0.014116
715.671509	0.014036
715.871260	0.014085
716.070992	0.013765
716.270707	0.013626
716.470403	0.013560
716.670080	0.013518
716.869740	0.013541
717.069381	0.013497
717.269004	0.013221
717.468609	0.013317
717.668195	0.013031
717.867764	0.013158
718.067314	0.013113
718.266846	0.013199
718.466360	0.013262
718.665855	0.013296
718.865332	0.013163
719.064791	0.013412
719.264232	0.013370
719.463655	0.013411
719.663059	0.013650
719.862445	0.013690
720.061813	0.013637
720.261163	0.013543
720.460494	0.013663
720.659807	0.013722
720.859102	0.013536
721.058379	0.013399
721.257638	0.013328
721.456878	0.013114
721.656100	0.012905
721.855304	0.012829
722.054490	0.012824
722.253657	0.012539
722.452806	0.012619
722.651937	0.012513
722.851050	0.012511
723.050145	0.012493
723.249221	0.012252
723.448279	0.012383
723.647319	0.012262
723.846340	0.012284
724.045344	0.012277
724.244329	0.012232
724.443296	0.012382
724.642245	0.012294
724.841175	0.012324
725.040088	0.012637
725.238982	0.012558
725.437857	0.012696
725.636715	0.012550
725.835554	0.012495
726.034376	0.012284
726.233179	0.012110
726.431963	0.012223
726.630730	0.012237
726.829478	0.012032
727.028208	0.012122
727.226920	0.011983
727.425614	0.012074
727.624289	0.012043
727.822946	0.011979
728.021585	0.011977
728.220206	0.011948
728.418808	0.011902
728.617392	0.011795
728.815958	0.011641
729.014506	0.011560
729.213036	0.011463
729.411547	0.011372
729.610040	0.011321
729.808515	0.011405
730.006972	0.011135
730.205410	0.011079
730.403831	0.010971
730.602233	0.011047
730.800616	0.011036
730.998982	0.010855
731.197329	0.010684
731.395658	0.010727
731.593969	0.010571
731.792262	0.010730
731.990536	0.010742
732.188793	0.010787
732.387031	0.010616
732.585250	0.010581
732.783452	0.010649
732.981635	0.010934
733.179800	0.010735
733.377947	0.010546
733.576076	0.010432
733.774186	0.010561
733.972278	0.010459
734.170352	0.010385
734.368408	0.010531
734.566446	0.010449
734.764465	0.010198
734.962466	0.010123
735.160449	0.010278
735.358413	0.010017
735.556360	0.009735
735.754288	0.009622
735.952198	0.009489
736.150090	0.009313
736.347963	0.009178
736.545818	0.009282
736.743655	0.009462
736.941474	0.009392
737.139275	0.009537
737.337057	0.009553
737.534821	0.009458
737.732567	0.009313
737.930295	0.009061
738.128005	0.008995
738.325696	0.008857
738.523369	0.008486
738.721024	0.008517
738.918660	0.008664
739.116279	0.008532
739.313879	0.008771
739.511461	0.009084
739.709024	0.009099
739.906570	0.009187
740.104097	0.009228
740.301606	0.009498
740.499097	0.009421
740.696569	0.009257
740.894024	0.009122
741.091460	0.009006
741.288878	0.008753
741.486277	0.008962
741.683659	0.008888
741.881022	0.008761
742.078367	0.008619
742.275694	0.008619
742.473002	0.008568
742.670293	0.008591
742.867565	0.008491
743.064819	0.008639
743.262054	0.008399
743.459272	0.008511
743.656471	0.008434
743.853652	0.008377
744.050815	0.008125
744.247959	0.008187
744.445085	0.008239
744.642194	0.008209
744.839283	0.008086
745.036355	0.008070
745.233408	0.008109
745.430444	0.008204
745.627461	0.008296
745.824459	0.008638
746.021440	0.008445
746.218402	0.008245
746.415346	0.008195
746.612272	0.008291
746.809180	0.008315
747.006069	0.008132
747.202940	0.008044
747.399793	0.008078
747.596628	0.007941
747.793444	0.008134
747.990243	0.008180
748.187023	0.008255
748.383784	0.008224
748.580528	0.008273
748.777253	0.008305
748.973960	0.008362
749.170649	0.008234
749.367320	0.008256
749.563973	0.008032
749.760607	0.008023
749.957223	0.008017
750.153821	0.007810
750.350400	0.007709
750.546962	0.007557
750.743505	0.007381
750.940030	0.007465
751.136536	0.007447
751.333025	0.007699
751.529495	0.007821
751.725947	0.007690
751.922381	0.008118
752.118796	0.008394
752.315194	0.008356
752.511573	0.008623
752.707934	0.008550
752.904276	0.008535
753.100601	0.008332
753.296907	0.008310
753.493195	0.008565
753.689465	0.008177
753.885716	0.007963
754.081949	0.008096
754.278164	0.007892
754.474361	0.007881
754.670540	0.007656
754.866700	0.007626
755.062843	0.007509
755.258967	0.007343
755.455072	0.007342
755.651160	0.007322
755.847229	0.007356
756.043280	0.007414
756.239313	0.007389
756.435328	0.007362
756.631324	0.007509
756.827302	0.007749
757.023262	0.007698
757.219204	0.007816
757.415127	0.007866
757.611033	0.007963
757.806920	0.007951
758.002788	0.008017
758.198639	0.008118
758.394471	0.007777
758.590286	0.007715
758.786081	0.007840
758.981859	0.007709
759.177619	0.007605
759.373360	0.007575
759.569083	0.007748
759.764788	0.007611
759.960474	0.007702
760.156143	0.007842
760.351793	0.007675
760.547425	0.007731
760.743038	0.007826
760.938634	0.007813
761.134211	0.007893
761.329770	0.007666
761.525311	0.008100
761.720833	0.008142
761.916338	0.008206
762.111824	0.008204
762.307292	0.008209
762.502741	0.008343
762.698173	0.008323
762.893586	0.008140
763.088981	0.008210
763.284358	0.007797
763.479716	0.007782
763.675057	0.007890
763.870379	0.008036
764.065683	0.008082
764.260968	0.008133
764.456236	0.008289
764.651485	0.008217
764.846716	0.008147
765.041929	0.008220
765.237123	0.008332
765.432299	0.008268
765.627457	0.008247
765.822597	0.007965
766.017719	0.007859
766.212822	0.007714
766.407907	0.007636
766.602974	0.007690
766.798023	0.007689
766.993054	0.007680
767.188066	0.007622
767.383060	0.007693
767.578036	0.007871
767.772993	0.007667
767.967933	0.007828
768.162854	0.008077
768.357757	0.007949
768.552642	0.007984
768.747508	0.007444
768.942356	0.007373
769.137186	0.007380
769.331998	0.007352
769.526792	0.007489
769.721567	0.007620
769.916324	0.007384
770.111063	0.007471
770.305784	0.007560
770.500486	0.007680
770.695171	0.007743
770.889837	0.007464
771.084484	0.007200
771.279114	0.007026
771.473725	0.006857
771.668318	0.006800
771.862893	0.006579
772.057450	0.006390
772.251988	0.006481
772.446509	0.006575
772.641011	0.006917
772.835494	0.007156
773.029960	0.007136
773.224407	0.007086
773.418836	0.007002
773.613247	0.007151
773.807640	0.007095
774.002014	0.007251
774.196370	0.007438
774.390708	0.007251
774.585028	0.007288
774.779330	0.007355
774.973613	0.007298
775.167878	0.007518
775.362125	0.007602
775.556354	0.007810
775.750564	0.007671
775.944756	0.007340
776.138930	0.007193
776.333086	0.007290
776.527223	0.007330
776.721343	0.007220
776.915444	0.007232
777.109526	0.007121
777.303591	0.006982
777.497637	0.006824
777.691666	0.007105
777.885676	0.007415
778.079667	0.007347
778.273641	0.007288
778.467596	0.007343
778.661533	0.007326
778.855452	0.007406
779.049352	0.007483
779.243235	0.007804
779.437099	0.007684
779.630945	0.007556
779.824773	0.007463
780.018582	0.007639
780.212373	0.007929
780.406146	0.008031
780.599901	0.008072
780.793638	0.008247
780.987356	0.008330
781.181056	0.008471
781.374738	0.008545
781.568402	0.008647
781.762047	0.008734
781.955674	0.008507
782.149283	0.008654
782.342874	0.008802
782.536447	0.008713
782.730001	0.008454
782.923537	0.008287
783.117055	0.008147
783.310555	0.008075
783.504036	0.007889
783.697499	0.007961
783.890944	0.007811
784.084371	0.007740
784.277780	0.007600
784.471170	0.007722
784.664542	0.007789
784.857896	0.007905
785.051231	0.008044
785.244549	0.007960
785.437848	0.008132
785.631129	0.008352
785.824392	0.008431
786.017636	0.008421
786.210863	0.008623
786.404071	0.008624
786.597260	0.008492
786.790432	0.008416
786.983585	0.008777
787.176721	0.008687
787.369838	0.008597
787.562936	0.008731
787.756017	0.008913
787.949079	0.008931
788.142123	0.009005
788.335149	0.009376
788.528156	0.009302
788.721146	0.009128
788.914117	0.008990
789.107070	0.009187
789.300005	0.009150
789.492921	0.009411
789.685819	0.009386
789.878699	0.009264
790.071561	0.009205
790.264405	0.009387
790.457230	0.009438
790.650037	0.009489
790.842826	0.009138
791.035597	0.009146
791.228349	0.008846
791.421084	0.009031
791.613800	0.009108
791.806497	0.009009
791.999177	0.009178
792.191838	0.009423
792.384481	0.009646
792.577106	0.009556
792.769713	0.009531
792.962301	0.009509
793.154871	0.009347
793.347423	0.009595
793.539957	0.009567
793.732473	0.009532
793.924970	0.009296
794.117449	0.009396
794.309910	0.009420
794.502353	0.009522
794.694777	0.009703
794.887183	0.009787
795.079571	0.009658
795.271941	0.009477
795.464293	0.009472
795.656626	0.009540
795.848941	0.009367
796.041238	0.009556
796.233516	0.009473
796.425777	0.009415
796.618019	0.009359
796.810243	0.009196
797.002449	0.009412
797.194636	0.009389
797.386805	0.009193
797.578956	0.009300
797.771089	0.009428
797.963204	0.009484
798.155300	0.009558
798.347378	0.009315
798.539438	0.009344
798.731480	0.009442
798.923503	0.009408
799.115509	0.009735
799.307496	0.009668
799.499465	0.009709
799.691415	0.009742
799.883348	0.009594
800.075262	0.009857
800.267158	0.010192
800.459035	0.010238
800.650895	0.010388
800.842736	0.010448
801.034559	0.010622
801.226364	0.010913
801.418150	0.010729
801.609919	0.011171
801.801669	0.011304
801.993401	0.011132
802.185114	0.011085
802.376810	0.011038
802.568487	0.010927
802.760146	0.010889
802.951787	0.010601
803.143409	0.010681
803.335014	0.010619
803.526600	0.010716
803.718168	0.010969
803.909717	0.011086
804.101249	0.011373
804.292762	0.011403
804.484257	0.011507
804.675734	0.011753
804.867192	0.012103
805.058632	0.011759
805.250054	0.011832
805.441458	0.011771
805.632844	0.011878
805.824211	0.011770
806.015561	0.011994
806.206891	0.012130
806.398204	0.012164
806.589499	0.012046
806.780775	0.012484
806.972033	0.012253
807.163273	0.012150
807.354495	0.012035
807.545698	0.011935
807.736883	0.011743
807.928050	0.011747
808.119199	0.011612
808.310329	0.011663
808.501441	0.011303
808.692535	0.011416
808.883611	0.011591
809.074669	0.011675
809.265708	0.011870
809.456729	0.012088
809.647732	0.011894
809.838717	0.011909
810.029683	0.011942
810.220632	0.012127
810.411562	0.011976
810.602474	0.011952
810.793367	0.011961
810.984242	0.011849
811.175100	0.011945
811.365938	0.011988
811.556759	0.012021
811.747562	0.012127
811.938346	0.012173
812.129112	0.012439
812.319860	0.012352
812.510589	0.012375
812.701300	0.012528
812.891994	0.012389
813.082668	0.012422
813.273325	0.012377
813.463964	0.012362
813.654584	0.012619
813.845186	0.012550
814.035769	0.012696
814.226335	0.012865
814.416882	0.012966
814.607411	0.012844
814.797922	0.013137
814.988415	0.013362
815.178889	0.013405
815.369345	0.013319
815.559783	0.013418
815.750203	0.013422
815.940605	0.013395
816.130988	0.013327
816.321353	0.013438
816.511700	0.013331
816.702028	0.013363
816.892339	0.013495
817.082631	0.013608
817.272905	0.013772
817.463161	0.013953
817.653398	0.013962
817.843617	0.013822
818.033819	0.013791
818.224001	0.013833
818.414166	0.014027
818.604312	0.014063
818.794440	0.013942
818.984550	0.014040
819.174642	0.014116
819.364716	0.014325
819.554771	0.014524
819.744808	0.014790
819.934827	0.014694
820.124827	0.014408
820.314810	0.014387
820.504774	0.014533
820.694720	0.014417
820.884647	0.014291
821.074557	0.014183
821.264448	0.014107
821.454321	0.013966
821.644176	0.014278
821.834012	0.014355
822.023831	0.014414
822.213631	0.014267
822.403413	0.014375
822.593176	0.014418
822.782922	0.014502
822.972649	0.014795
823.162358	0.015017
823.352049	0.014826
823.541721	0.015014
823.731376	0.014956
823.921012	0.015145
824.110629	0.014904
824.300229	0.014901
824.489811	0.014903
824.679374	0.014488
824.868919	0.014272
825.058445	0.014158
825.247954	0.014074
825.437444	0.013927
825.626916	0.014031
825.816370	0.014219
826.005806	0.014455
826.195223	0.014463
826.384622	0.014513
826.574003	0.014924
826.763366	0.015058
826.952711	0.015254
827.142037	0.015512
827.331345	0.015534
827.520635	0.015384
827.709906	0.015146
827.899160	0.015142
828.088395	0.015381
828.277612	0.015264
828.466810	0.015438
828.655991	0.015537
828.845153	0.015543
829.034297	0.015371
829.223423	0.015586
829.412531	0.015768
829.601620	0.015908
829.790691	0.015864
829.979744	0.015533
830.168779	0.015432
830.357795	0.015263
830.546793	0.015359
830.735773	0.015389
830.924735	0.015486
831.113679	0.015583
831.302604	0.015470
831.491511	0.015640
831.680400	0.015928
831.869271	0.016166
832.058123	0.016073
832.246957	0.016036
832.435773	0.016140
832.624571	0.016428
832.813351	0.016487
833.002112	0.016596
833.190855	0.016471
833.379580	0.016633
833.568287	0.016588
833.756975	0.016583
833.945645	0.016669
834.134297	0.016714
834.322931	0.016513
834.511547	0.016255
834.700144	0.016378
834.888723	0.016421
835.077284	0.016471
835.265826	0.016299
835.454351	0.016616
835.642857	0.016506
835.831345	0.016595
836.019815	0.016669
836.208266	0.016907
836.396699	0.016823
836.585114	0.017122
836.773511	0.017170
836.961890	0.017279
837.150250	0.017042
837.338592	0.017169
837.526916	0.017560
837.715222	0.017398
837.903510	0.017486
838.091779	0.017416
838.280030	0.017398
838.468263	0.017308
838.656477	0.017527
838.844674	0.017804
839.032852	0.017756
839.221012	0.017529
839.409153	0.017535
839.597277	0.017509
839.785382	0.017770
839.973469	0.017694
840.161538	0.017689
840.349589	0.017704
840.537621	0.017523
840.725635	0.017522
840.913631	0.017440
841.101609	0.017693
841.289568	0.017525
841.477509	0.017549
841.665432	0.017503
841.853337	0.017528
842.041224	0.017401
842.229092	0.017586
842.416942	0.017805
842.604774	0.018031
842.792588	0.018061
842.980383	0.018270
843.168160	0.018127
843.355919	0.018225
843.543660	0.018447
843.731382	0.018502
843.919087	0.018707
844.106773	0.018722
844.294441	0.018772
844.482090	0.018891
844.669722	0.019036
844.857335	0.019320
845.044930	0.019553
845.232507	0.019521
845.420065	0.019815
845.607605	0.019834
845.795127	0.019866
845.982631	0.020008
846.170117	0.019991
846.357584	0.019956
846.545033	0.019758
846.732464	0.019701
846.919877	0.019866
847.107272	0.019870
847.294648	0.020148
847.482006	0.020240
847.669346	0.020158
847.856667	0.020326
848.043971	0.020587
848.231256	0.020802
848.418523	0.020857
848.605771	0.020865
848.793002	0.020864
848.980214	0.020563
849.167408	0.020780
849.354584	0.020689
849.541742	0.020648
849.728881	0.020497
849.916002	0.020500
850.103105	0.020937
850.290190	0.021335
850.477256	0.021506
850.664304	0.021856
850.851334	0.022024
851.038346	0.022341
851.225340	0.022770
851.412315	0.023005
851.599272	0.023455
851.786211	0.023213
851.973132	0.023065
852.160034	0.022916
852.346918	0.022961
852.533784	0.022944
852.720632	0.023113
852.907462	0.022890
853.094273	0.023107
853.281066	0.022867
853.467841	0.023220
853.654598	0.023474
853.841336	0.023586
854.028056	0.023619
854.214758	0.023839
854.401442	0.023663
854.588107	0.023840
854.774755	0.023922
854.961384	0.024137
855.147995	0.023920
855.334587	0.023834
855.521162	0.024215
855.707718	0.024217
855.894256	0.024185
856.080775	0.024412
856.267277	0.024530
856.453760	0.024576
856.640225	0.024695
856.826672	0.024694
857.013101	0.024883
857.199511	0.024792
857.385903	0.024689
857.572277	0.024766
857.758633	0.024960
857.944970	0.025113
858.131290	0.025339
858.317591	0.025211
858.503873	0.025129
858.690138	0.025061
858.876384	0.025336
859.062612	0.025562
859.248822	0.025219
859.435014	0.025101
859.621188	0.025045
859.807343	0.024798
859.993480	0.024985
860.179599	0.025542
860.365699	0.025624
860.551781	0.025872
860.737846	0.026147
860.923891	0.026824
861.109919	0.026980
861.295929	0.027024
861.481920	0.027342
861.667893	0.027425
861.853848	0.027287
862.039784	0.027320
862.225702	0.027186
862.411603	0.027176
862.597484	0.026757
862.783348	0.026908
862.969193	0.026999
863.155021	0.026894
863.340830	0.027118
863.526620	0.027237
863.712393	0.027463
863.898147	0.027507
864.083883	0.027522
864.269601	0.027805
864.455301	0.027961
864.640982	0.027861
864.826645	0.028120
865.012290	0.028221
865.197917	0.028271
865.383526	0.028136
865.569116	0.028033
865.754688	0.028199
865.940242	0.028062
866.125777	0.028131
866.311295	0.028417
866.496794	0.028387
866.682275	0.028359
866.867737	0.028404
867.053182	0.028628
867.238608	0.028700
867.424016	0.028473
867.609406	0.028801
867.794778	0.028773
867.980131	0.028628
868.165466	0.028678
868.350783	0.028707
868.536082	0.028812
868.721362	0.028958
868.906625	0.029222
869.091869	0.029331
869.277094	0.029360
869.462302	0.029101
869.647491	0.029435
869.832662	0.029596
870.017815	0.029572
870.202950	0.029585
870.388066	0.029561
870.573165	0.029330
870.758245	0.029342
870.943306	0.029296
871.128350	0.029242
871.313375	0.029227
871.498382	0.029393
871.683371	0.029472
871.868342	0.029617
872.053294	0.029635
872.238229	0.029750
872.423144	0.030059
872.608042	0.030352
872.792922	0.031080
872.977783	0.031126
873.162626	0.031181
873.347451	0.031461
873.532258	0.031424
873.717046	0.031522
873.901816	0.032150
874.086568	0.032185
874.271302	0.032125
874.456017	0.031889
874.640715	0.031777
874.825394	0.031601
875.010055	0.031479
875.194697	0.031769
875.379322	0.031879
875.563928	0.031412
875.748516	0.031450
875.933085	0.031294
876.117637	0.031410
876.302170	0.031211
876.486685	0.031619
876.671182	0.031879
876.855661	0.031840
877.040121	0.031995
877.224563	0.032157
877.408987	0.032149
877.593393	0.032304
877.777780	0.032276
877.962150	0.032801
878.146501	0.032511
878.330833	0.032148
878.515148	0.032365
878.699444	0.032279
878.883722	0.032133
879.067982	0.032042
879.252224	0.032084
879.436447	0.032209
879.620653	0.032419
879.804840	0.032478
879.989008	0.033078
880.173159	0.032654
880.357291	0.032808
880.541405	0.032859
880.725501	0.033105
880.909579	0.033023
881.093638	0.032966
881.277680	0.032700
881.461703	0.032906
881.645707	0.032580
881.829694	0.032995
882.013662	0.032739
882.197612	0.033190
882.381544	0.033415
882.565458	0.033555
882.749353	0.033832
882.933230	0.033865
883.117089	0.033741
883.300930	0.033797
883.484753	0.033739
883.668557	0.033647
883.852343	0.033151
884.036111	0.033252
884.219861	0.033503
884.403592	0.033149
884.587305	0.033262
884.771000	0.033280
884.954677	0.033300
885.138335	0.033359
885.321976	0.033663
885.505598	0.034254
885.689201	0.033839
885.872787	0.033798
886.056354	0.034003
886.239904	0.033683
886.423434	0.033785
886.606947	0.034168
886.790442	0.034158
886.973918	0.034220
887.157376	0.034228
887.340816	0.034320
887.524237	0.034453
887.707641	0.034546
887.891026	0.034651
888.074393	0.034622
888.257741	0.034262
888.441072	0.033881
888.624384	0.033816
888.807678	0.033482
888.990954	0.033435
889.174211	0.032927
889.357451	0.032983
889.540672	0.033267
889.723875	0.033201
889.907059	0.033373
890.090226	0.033745
890.273374	0.033445
890.456504	0.033051
890.639616	0.032879
890.822709	0.033119
891.005785	0.032774
891.188842	0.032742
891.371881	0.032770
891.554901	0.032413
891.737904	0.032397
891.920888	0.032655
892.103854	0.033327
892.286802	0.033868
892.469731	0.033655
892.652643	0.033824
892.835536	0.033705
893.018410	0.033336
893.201267	0.033327
893.384106	0.033392
893.566926	0.033509
893.749728	0.033289
893.932511	0.033019
894.115277	0.033064
894.298024	0.033300
894.480753	0.033409
894.663464	0.033665
894.846157	0.033840
895.028831	0.033817
895.211487	0.033244
895.394125	0.032937
895.576745	0.032677
895.759346	0.032775
895.941930	0.032515
896.124495	0.032463
896.307041	0.032675
896.489570	0.032737
896.672080	0.032704
896.854573	0.033057
897.037046	0.033394
897.219502	0.033911
897.401940	0.033862
897.584359	0.033535
897.766760	0.033436
897.949143	0.033027
898.131507	0.033059
898.313854	0.033028
898.496182	0.032877
898.678492	0.032641
898.860783	0.032394
899.043057	0.032416
899.225312	0.032905
899.407549	0.032557
899.589768	0.032946
899.771968	0.032701
899.954151	0.032889
900.136315	0.033165
900.318461	0.033568
900.500588	0.033625
900.682698	0.033578
900.864789	0.033467
901.046862	0.033715
901.228917	0.033638
901.410953	0.033789
901.592971	0.033505
901.774972	0.033319
901.956953	0.033223
902.138917	0.032936
902.320862	0.033007
902.502790	0.032649
902.684699	0.033384
902.866589	0.033377
903.048462	0.033221
903.230316	0.032922
903.412152	0.032902
903.593970	0.032900
903.775770	0.033267
903.957551	0.033036
904.139314	0.033165
904.321059	0.032513
904.502786	0.032511
904.684494	0.032319
904.866185	0.032441
905.047857	0.032468
905.229510	0.032305
905.411146	0.031801
905.592763	0.032321
905.774363	0.032311
905.955943	0.032314
906.137506	0.031969
906.319051	0.032098
906.500577	0.032252
906.682085	0.032164
906.863575	0.032266
907.045046	0.032596
907.226500	0.032179
907.407935	0.032235
907.589352	0.032106
907.770750	0.032377
907.952131	0.032479
908.133493	0.032416
908.314837	0.032518
908.496163	0.032135
908.677470	0.031629
908.858760	0.031964
909.040031	0.031673
909.221284	0.031506
909.402518	0.031422
909.583735	0.030919
909.764933	0.030440
909.946113	0.029870
910.127275	0.029776
910.308418	0.030201
910.489544	0.029623
910.670651	0.029715
910.851740	0.030043
911.032810	0.029845
911.213863	0.030201
911.394897	0.030383
911.575913	0.030648
911.756911	0.030587
911.937890	0.030678
912.118851	0.030797
912.299794	0.031040
912.480719	0.030967
912.661626	0.030868
912.842514	0.030715
913.023384	0.030673
913.204236	0.030833
913.385070	0.030844
913.565886	0.030084
913.746683	0.029829
913.927462	0.029198
914.108223	0.028602
914.288965	0.028309
914.469690	0.027946
914.650396	0.027663
914.831084	0.026935
915.011754	0.026578
915.192405	0.026293
915.373038	0.025859
915.553653	0.025605
915.734250	0.025561
915.914829	0.025035
916.095389	0.024995
916.275931	0.024782
916.456455	0.024766
916.636961	0.025091
916.817448	0.025182
916.997917	0.025085
917.178368	0.024852
917.358801	0.024897
917.539216	0.025147
917.719612	0.024626
917.899990	0.024357
918.080350	0.024630
918.260692	0.023840
918.441015	0.023816
918.621320	0.023678
918.801607	0.023822
918.981876	0.023236
919.162127	0.023167
919.342359	0.023248
919.522573	0.023496
919.702769	0.023188
919.882947	0.023066
920.063106	0.022765
920.243247	0.022577
920.423370	0.022640
920.603475	0.022371
920.783562	0.022191
920.963630	0.022468
921.143680	0.022125
921.323712	0.022045
921.503725	0.021851
921.683721	0.022054
921.863698	0.022033
922.043657	0.021622
922.223598	0.021725
922.403520	0.021275
922.583424	0.020830
922.763311	0.020652
922.943178	0.020166
923.123028	0.020264
923.302859	0.020027
923.482673	0.019757
923.662467	0.019174
923.842244	0.019142
924.022003	0.019428
924.201743	0.019045
924.381465	0.018998
924.561169	0.018408
924.740854	0.018200
924.920522	0.017846
925.100171	0.017295
925.279802	0.018014
925.459414	0.017374
925.639009	0.017089
925.818585	0.016922
925.998143	0.016485
926.177683	0.017120
926.357205	0.016620
926.536708	0.016396
926.716193	0.016322
926.895660	0.015550
927.075109	0.015881
927.254539	0.015141
927.433951	0.015311
927.613345	0.015305
927.792721	0.014668
927.972079	0.014875
928.151418	0.014582
928.330739	0.014965
928.510042	0.015291
928.689327	0.015179
928.868593	0.015090
929.047841	0.014267
929.227071	0.013984
929.406283	0.013514
929.585476	0.013295
929.764652	0.013113
929.943809	0.012836
930.122948	0.011958
930.302068	0.011351
930.481171	0.011428
930.660255	0.011798
930.839321	0.011742
931.018369	0.012133
931.197398	0.011619
931.376409	0.011022
931.555402	0.011066
931.734377	0.010905
931.913334	0.010730
932.092272	0.009916
932.271192	0.008757
932.450094	0.008178
932.628978	0.007692
932.807844	0.007423
932.986691	0.006920
933.165520	0.005999
933.344331	0.005186
933.523123	0.004367
933.701898	0.004410
933.880654	0.003960
934.059392	0.003214
934.238111	0.002463
934.416813	0.001733
934.595496	0.001579
934.774161	0.001677
934.952808	0.002318
935.131437	0.002010
935.310047	0.002170
935.488639	0.002993
935.667213	0.003105
935.845769	0.003013
936.024306	0.003022
936.202825	0.002730
936.381326	0.002169
936.559809	0.001461
936.738274	0.001805
936.916720	0.000931
937.095148	0.000738
937.273558	0.000285
937.451950	0.000064
937.630323	-0.000521
937.808678	-0.000961
937.987015	-0.001549
938.165334	-0.001514
938.343635	-0.002198
938.521917	-0.002822
938.700181	-0.003500
938.878427	-0.003736
939.056655	-0.004368
939.234864	-0.004562
939.413055	-0.004492
939.591228	-0.003874
939.769383	-0.005157
939.947519	-0.005091
940.125638	-0.004684
940.303738	-0.004819
940.481820	-0.005283
940.659883	-0.004057
940.837929	-0.004308
941.015956	-0.004977
941.193965	-0.006451
941.371955	-0.006117
941.549928	-0.006698
941.727882	-0.007121
941.905818	-0.008814
942.083736	-0.008655
942.261636	-0.009972
942.439517	-0.008741
942.617380	-0.009187
942.795225	-0.009636
942.973052	-0.009777
943.150860	-0.009964
943.328651	-0.010158
943.506423	-0.009217
943.684176	-0.009816
943.861912	-0.010540
944.039629	-0.011649
944.217328	-0.011061
944.395009	-0.010351
944.572672	-0.011207
944.750317	-0.011325
944.927943	-0.012531
945.105551	-0.012934
945.283141	-0.012783
945.460712	-0.013560
945.638265	-0.014457
945.815801	-0.014021
945.993317	-0.014440
946.170816	-0.014220
946.348297	-0.015338
946.525759	-0.014651
946.703203	-0.014788
946.880629	-0.014974
947.058036	-0.015582
947.235425	-0.015627
947.412797	-0.016189
947.590149	-0.015605
947.767484	-0.016070
947.944800	-0.015812
948.122099	-0.016055
948.299379	-0.015526
948.476640	-0.015646
948.653884	-0.014388
948.831109	-0.012906
949.008316	-0.014581
949.185505	-0.016198
949.362676	-0.016039
949.539828	-0.015709
949.716962	-0.015377
949.894078	-0.016530
950.071176	-0.016503
950.248256	-0.016740
950.425317	-0.019750
950.602360	-0.018605
950.779385	-0.017996
950.956391	-0.018214
951.133380	-0.017442
951.310350	-0.018389
951.487302	-0.016883
951.664235	-0.019148
951.841151	-0.018603
952.018048	-0.017298
952.194927	-0.017680
952.371788	-0.016875
952.548631	-0.016308
952.725455	-0.017557
952.902261	-0.017794
953.079049	-0.019113
953.255819	-0.017220
953.432570	-0.018292
953.609303	-0.017715
953.786018	-0.017270
953.962715	-0.017540
954.139394	-0.018807
954.316054	-0.018501
954.492696	-0.019353
954.669320	-0.018313
954.845926	-0.019686
955.022513	-0.018790
955.199083	-0.019895
955.375634	-0.020256
955.552166	-0.021754
955.728681	-0.021360
955.905177	-0.021166
956.081655	-0.017816
956.258115	-0.020170
956.434557	-0.018448
956.610980	-0.018363
956.787385	-0.018282
956.963772	-0.018719
957.140141	-0.017510
957.316492	-0.017612
957.492824	-0.017318
957.669138	-0.020446
957.845434	-0.017702
958.021712	-0.018798
958.197971	-0.019385
958.374212	-0.019904
958.550435	-0.017586
958.726640	-0.018247
958.902826	-0.017852
959.078995	-0.018574
959.255145	-0.017214
959.431277	-0.020627
959.607390	-0.019100
959.783486	-0.017808
959.959563	-0.016852
960.135622	-0.017694
960.311662	-0.018015
960.487685	-0.018227
960.663689	-0.017634
960.839675	-0.016747
961.015643	-0.013820
961.191593	-0.015299
961.367524	-0.014700
961.543437	-0.015403
961.719332	-0.016075
961.895209	-0.015338
962.071067	-0.015219
962.246907	-0.014438
962.422730	-0.014764
962.598533	-0.015539
962.774319	-0.013112
962.950086	-0.015356
963.125835	-0.015959
963.301566	-0.016587
963.477279	-0.015977
963.652973	-0.016239
963.828650	-0.017397
964.004308	-0.019127
964.179947	-0.017646
964.355569	-0.020385
964.531172	-0.021103
964.706757	-0.018471
964.882324	-0.017762
965.057873	-0.017368
965.233403	-0.018224
965.408916	-0.018094
965.584410	-0.016036
965.759885	-0.017042
965.935343	-0.015940
966.110782	-0.013878
966.286203	-0.012230
966.461606	-0.010144
966.636991	-0.011631
966.812357	-0.008950
966.987705	-0.009224
967.163035	-0.009143
967.338347	-0.009840
967.513641	-0.009951
967.688916	-0.009985
967.864173	-0.012962
968.039412	-0.014238
968.214632	-0.013991
968.389835	-0.016892
968.565019	-0.017468
968.740185	-0.017297
968.915333	-0.015963
969.090462	-0.013508
969.265573	-0.015171
969.440667	-0.013617
969.615741	-0.015442
969.790798	-0.014066
969.965836	-0.011659
970.140856	-0.011284
970.315858	-0.013152
970.490842	-0.014212
970.665808	-0.015457
970.840755	-0.012540
971.015684	-0.013259
971.190595	-0.011404
971.365487	-0.010923
971.540362	-0.009775
971.715218	-0.006635
971.890056	-0.005830
972.064875	-0.004681
972.239677	-0.004146
972.414460	-0.007602
972.589225	-0.005649
972.763972	-0.005470
972.938700	-0.006874
973.113411	-0.010308
973.288103	-0.011292
973.462777	-0.012093
973.637432	-0.014145
973.812070	-0.012826
973.986689	-0.010385
974.161290	-0.010703
974.335873	-0.009021
974.510437	-0.008586
974.684984	-0.007321
974.859512	-0.007805
975.034022	-0.007828
975.208513	-0.006979
975.382987	-0.011456
975.557442	-0.010811
975.731879	-0.010557
975.906298	-0.009985
976.080698	-0.009249
976.255080	-0.007718
976.429445	-0.007270
976.603790	-0.005589
976.778118	-0.005028
976.952427	-0.000871
977.126719	-0.002797
977.300992	-0.006624
977.475246	-0.011157
977.649483	-0.011835
977.823701	-0.010657
977.997901	-0.011706
978.172083	-0.010571
978.346247	-0.009732
978.520392	-0.011235
978.694519	-0.009256
978.868628	-0.005550
979.042719	-0.003983
979.216791	-0.004039
979.390845	-0.006078
979.564882	-0.003907
979.738899	-0.007026
979.912899	-0.007684
980.086880	-0.009937
980.260843	-0.011537
980.434788	-0.011721
980.608715	-0.009060
980.782623	-0.008745
980.956514	-0.007742
981.130386	-0.010018
981.304240	-0.008424
981.478075	-0.008349
981.651892	-0.006475
981.825692	-0.005470
981.999472	-0.007330
982.173235	-0.009680
982.346980	-0.009887
982.520706	-0.010700
982.694414	-0.010634
982.868104	-0.011786
983.041775	-0.011789
983.215428	-0.010267
983.389064	-0.010525
983.562680	-0.011051
983.736279	-0.011319
983.909860	-0.011643
984.083422	-0.012067
984.256966	-0.013792
984.430491	-0.013697
984.603999	-0.013226
984.777488	-0.014025
984.950959	-0.014475
985.124412	-0.012358
985.297847	-0.012419
985.471263	-0.012904
985.644661	-0.011606
985.818041	-0.009384
985.991403	-0.009069
986.164747	-0.009302
986.338072	-0.010214
986.511379	-0.009373
986.684668	-0.010947
986.857938	-0.011023
987.031191	-0.010313
987.204425	-0.011425
987.377641	-0.010249
987.550839	-0.011211
987.724018	-0.011795
987.897179	-0.010644
988.070322	-0.011479
988.243447	-0.010417
988.416554	-0.008455
988.589642	-0.008738
988.762712	-0.009623
988.935764	-0.012055
989.108798	-0.008690
989.281813	-0.008132
989.454811	-0.008551
989.627790	-0.008585
989.800751	-0.008452
989.973693	-0.009939
990.146617	-0.008594
990.319524	-0.005475
990.492412	-0.003599
990.665281	-0.004430
990.838133	-0.003524
991.010966	-0.002868
991.183781	-0.001795
991.356578	-0.002861
991.529356	-0.003359
991.702117	-0.002796
991.874859	-0.003443
992.047583	-0.003646
992.220288	-0.003195
992.392976	-0.006795
992.565645	-0.003046
992.738296	-0.004484
992.910929	-0.002770
993.083543	-0.002578
993.256139	-0.002646
993.428718	-0.004519
993.601277	-0.004557
993.773819	-0.007246
993.946342	-0.005952
994.118848	-0.010496
994.291335	-0.011137
994.463803	-0.011235
994.636254	-0.012344
994.808686	-0.014322
994.981100	-0.014527
995.153496	-0.015785
995.325874	-0.014085
995.498233	-0.012506
995.670574	-0.011750
995.842897	-0.010399
996.015202	-0.011277
996.187488	-0.010085
996.359757	-0.008989
996.532007	-0.009255
996.704239	-0.009104
996.876452	-0.008688
997.048648	-0.010105
997.220825	-0.010312
997.392984	-0.010367
997.565124	-0.009382
997.737247	-0.008886
997.909351	-0.010731
998.081437	-0.010021
998.253505	-0.009076
998.425554	-0.009441
998.597586	-0.008284
998.769599	-0.007164
998.941594	-0.007562
999.113571	-0.008263
999.285529	-0.008722
999.457469	-0.006930
999.629391	-0.007356
999.801295	-0.008086
999.973181	-0.009077
1000.145048	-0.009633
1000.316897	-0.009987
1000.488728	-0.009949
1000.660541	-0.010030
1000.832335	-0.008572
1001.004111	-0.007856
1001.175869	-0.007085
1001.347609	-0.007910
1001.519331	-0.005913
1001.691034	-0.004702
1001.862719	-0.005111
1002.034386	-0.004656
1002.206035	-0.004769
1002.377665	-0.005598
1002.549277	-0.006370
1002.720871	-0.005219
1002.892447	-0.003236
1003.064004	-0.003701
1003.235544	-0.006731
1003.407065	-0.006812
1003.578568	-0.007023
1003.750052	-0.007676
1003.921519	-0.007348
1004.092967	-0.008605
1004.264397	-0.009993
1004.435809	-0.011264
1004.607202	-0.012105
1004.778577	-0.009842
1004.949934	-0.008670
1005.121273	-0.008665
1005.292594	-0.007376
1005.463896	-0.009672
1005.635180	-0.009205
1005.806446	-0.008655
1005.977694	-0.008101
1006.148923	-0.007891
1006.320135	-0.007583
1006.491328	-0.009831
1006.662503	-0.010096
1006.833659	-0.010918
1007.004798	-0.008973
1007.175918	-0.008002
1007.347020	-0.007719
1007.518103	-0.007885
1007.689169	-0.007042
1007.860216	-0.007380
1008.031245	-0.006996
1008.202256	-0.006998
1008.373248	-0.007190
1008.544223	-0.007598
1008.715179	-0.007199
1008.886117	-0.007847
1009.057036	-0.006191
1009.227938	-0.005933
1009.398821	-0.005165
1009.569686	-0.004659
1009.740533	-0.004587
1009.911361	-0.002441
1010.082172	-0.004565
1010.252964	-0.005496
1010.423738	-0.005621
1010.594493	-0.006298
1010.765231	-0.006491
1010.935950	-0.006994
1011.106651	-0.006108
1011.277334	-0.005238
1011.447998	-0.006215
1011.618645	-0.004379
1011.789273	-0.003319
1011.959882	-0.003406
1012.130474	-0.003069
1012.301048	-0.002550
1012.471603	-0.003348
1012.642140	-0.004903
1012.812658	-0.005589
1012.983159	-0.007092
1013.153641	-0.005899
1013.324105	-0.007213
1013.494551	-0.007848
1013.664979	-0.009525
1013.835388	-0.011062
1014.005779	-0.011488
1014.176152	-0.013032
1014.346507	-0.012580
1014.516843	-0.010312
1014.687162	-0.011124
1014.857462	-0.010551
1015.027744	-0.009604
1015.198007	-0.009201
1015.368252	-0.010641
1015.538480	-0.009521
1015.708689	-0.007038
1015.878879	-0.007686
1016.049052	-0.010362
1016.219206	-0.011098
1016.389342	-0.011276
1016.559460	-0.010861
1016.729559	-0.010972
1016.899641	-0.008749
1017.069704	-0.008100
1017.239749	-0.007597
1017.409775	-0.007290
1017.579784	-0.004850
1017.749774	-0.002866
1017.919746	-0.003640
1018.089700	-0.005205
1018.259635	-0.004374
1018.429553	-0.006304
1018.599452	-0.007811
1018.769333	-0.008909
1018.939195	-0.008169
1019.109040	-0.009607
1019.278866	-0.010898
1019.448674	-0.008592
1019.618464	-0.006765
1019.788235	-0.007103
1019.957989	-0.006396
1020.127724	-0.004890
1020.297441	-0.005123
1020.467139	-0.006123
1020.636820	-0.005763
1020.806482	-0.004196
1020.976126	-0.007097
1021.145752	-0.006192
1021.315359	-0.007556
1021.484948	-0.007818
1021.654519	-0.007813
1021.824072	-0.007809
1021.993607	-0.007859
1022.163123	-0.008372
1022.332621	-0.009549
1022.502101	-0.008745
1022.671563	-0.011727
1022.841007	-0.010682
1023.010432	-0.010416
1023.179839	-0.011353
1023.349228	-0.010623
1023.518598	-0.008829
1023.687951	-0.008669
1023.857285	-0.008953
1024.026601	-0.008119
1024.195899	-0.007189
1024.365178	-0.005869
1024.534439	-0.003681
1024.703682	-0.004850
1024.872907	-0.005890
1025.042114	-0.006793
1025.211302	-0.006877
1025.380472	-0.007052
1025.549624	-0.005336
1025.718758	-0.005183
1025.887873	-0.006737
1026.056970	-0.009607
1026.226049	-0.007661
1026.395110	-0.007300
1026.564153	-0.006855
1026.733177	-0.007702
1026.902183	-0.008728
1027.071171	-0.010757
1027.240141	-0.010172
1027.409092	-0.010633
1027.578026	-0.009905
1027.746940	-0.011218
1027.915837	-0.010099
1028.084716	-0.009366
1028.253576	-0.006469
1028.422418	-0.003928
1028.591242	-0.003326
1028.760048	-0.002450
1028.928835	-0.002057
1029.097604	-0.002903
1029.266355	-0.001071
1029.435088	-0.000996
1029.603803	-0.004034
1029.772499	-0.005820
1029.941177	-0.005756
1030.109837	-0.004338
1030.278478	-0.003488
1030.447102	-0.003311
1030.615707	-0.000960
1030.784294	-0.000600
1030.952863	-0.001250
1031.121413	-0.000930
1031.289945	-0.000098
1031.458460	-0.001609
1031.626955	-0.002445
1031.795433	-0.004076
1031.963892	-0.003445
1032.132334	-0.003911
1032.300756	-0.005680
1032.469161	-0.005323
1032.637548	-0.003791
1032.805916	-0.003390
1032.974266	-0.004294
1033.142598	-0.005918
1033.310911	-0.005800
1033.479207	-0.007660
1033.647484	-0.008450
1033.815743	-0.009341
1033.983983	-0.008894
1034.152206	-0.009025
1034.320410	-0.009836
1034.488596	-0.008991
1034.656764	-0.008184
1034.824914	-0.008632
1034.993045	-0.007320
1035.161158	-0.006472
1035.329253	-0.005789
1035.497330	-0.006856
1035.665388	-0.006843
1035.833428	-0.007243
1036.001450	-0.005499
1036.169454	-0.006274
1036.337440	-0.005100
1036.505407	-0.005280
1036.673356	-0.005430
1036.841287	-0.006183
1037.009200	-0.006098
1037.177094	-0.006941
1037.344970	-0.007169
1037.512828	-0.009726
1037.680668	-0.009425
1037.848489	-0.010135
1038.016293	-0.008084
1038.184078	-0.006785
1038.351845	-0.006134
1038.519593	-0.006015
1038.687324	-0.004176
1038.855036	-0.005294
1039.022730	-0.003737
1039.190406	-0.002316
1039.358063	-0.003743
1039.525702	-0.005206
1039.693323	-0.008460
1039.860926	-0.005945
1040.028511	-0.006049
1040.196077	-0.006915
1040.363625	-0.006688
1040.531155	-0.006513
1040.698667	-0.008555
1040.866161	-0.006359
1041.033636	-0.005728
1041.201093	-0.002854
1041.368532	-0.003065
1041.535952	-0.003633
1041.703355	-0.003102
1041.870739	-0.001077
1042.038105	-0.001665
1042.205452	-0.000632
1042.372782	-0.003236
1042.540093	-0.003754
1042.707386	-0.003701
1042.874661	-0.005239
1043.041918	-0.004610
1043.209156	-0.003849
1043.376376	-0.005781
1043.543578	-0.005561
1043.710762	-0.005579
1043.877927	-0.005155
1044.045074	-0.005686
1044.212203	-0.007236
1044.379314	-0.006649
1044.546407	-0.005212
1044.713481	-0.007476
1044.880537	-0.007157
1045.047575	-0.007446
1045.214595	-0.008440
1045.381596	-0.008127
1045.548579	-0.008717
1045.715544	-0.007026
1045.882491	-0.007747
1046.049420	-0.010253
1046.216330	-0.010512
1046.383222	-0.009384
1046.550096	-0.010074
1046.716951	-0.010037
1046.883789	-0.008923
1047.050608	-0.006349
1047.217409	-0.006797
1047.384192	-0.006997
1047.550956	-0.005962
1047.717703	-0.006075
1047.884431	-0.007676
1048.051140	-0.006078
1048.217832	-0.005842
1048.384505	-0.006288
1048.551161	-0.006243
1048.717798	-0.007927
1048.884416	-0.007850
1049.051017	-0.005959
1049.217599	-0.005094
1049.384163	-0.004577
1049.550709	-0.006688
1049.717237	-0.005248
1049.883746	-0.005757
1050.050237	-0.008503
1050.216710	-0.009160
1050.383165	-0.007932
1050.549601	-0.009568
1050.716019	-0.009245
1050.882420	-0.007386
1051.048801	-0.006822
1051.215165	-0.007472
1051.381510	-0.007784
1051.547837	-0.006834
1051.714146	-0.005969
1051.880437	-0.007570
1052.046709	-0.007566
1052.212964	-0.007013
1052.379200	-0.008036
1052.545417	-0.008422
1052.711617	-0.007148
1052.877798	-0.005031
1053.043961	-0.005584
1053.210106	-0.005886
1053.376233	-0.005659
1053.542341	-0.005412
1053.708432	-0.007684
1053.874504	-0.008560
1054.040557	-0.008865
1054.206593	-0.009169
1054.372610	-0.011349
1054.538609	-0.010457
1054.704590	-0.010486
1054.870553	-0.008971
1055.036497	-0.008486
1055.202424	-0.005532
1055.368331	-0.003757
1055.534221	-0.001670
1055.700093	0.000343
1055.865946	0.001877
1056.031781	0.002506
1056.197598	0.003554
1056.363397	0.002315
1056.529177	0.000255
1056.694939	-0.002369
1056.860683	-0.003451
1057.026409	-0.005697
1057.192116	-0.008002
1057.357806	-0.007848
1057.523477	-0.008333
1057.689130	-0.008072
1057.854764	-0.007047
1058.020381	-0.005128
1058.185979	-0.004867
1058.351559	-0.004321
1058.517120	-0.003862
1058.682664	-0.004329
1058.848189	-0.004623
1059.013696	-0.004452
1059.179185	-0.004830
1059.344656	-0.008231
1059.510108	-0.008877
1059.675542	-0.009753
1059.840958	-0.008324
1060.006356	-0.008412
1060.171735	-0.006688
1060.337096	-0.007954
1060.502439	-0.006395
1060.667764	-0.007361
1060.833071	-0.003999
1060.998359	-0.005773
1061.163629	-0.003741
1061.328881	-0.006572
1061.494115	-0.005034
1061.659330	-0.007002
1061.824527	-0.005676
1061.989706	-0.011322
1062.154867	-0.011541
1062.320010	-0.011406
1062.485134	-0.013066
1062.650240	-0.011280
1062.815328	-0.009907
1062.980398	-0.011481
1063.145449	-0.012395
1063.310482	-0.013452
1063.475497	-0.010186
1063.640494	-0.007305
1063.805473	-0.007075
1063.970433	-0.004241
1064.135375	-0.006713
1064.300299	-0.008617
1064.465204	-0.006571
1064.630092	-0.006973
1064.794961	-0.008307
1064.959812	-0.009432
1065.124645	-0.010832
1065.289459	-0.011274
1065.454256	-0.010716
1065.619034	-0.011523
1065.783793	-0.012669
1065.948535	-0.011798
1066.113258	-0.009201
1066.277964	-0.007743
1066.442651	-0.007493
1066.607319	-0.007841
1066.771970	-0.009191
1066.936602	-0.012784
1067.101216	-0.011810
1067.265812	-0.007059
1067.430389	-0.007223
1067.594949	-0.007869
1067.759490	-0.007827
1067.924013	-0.007366
1068.088518	-0.007278
1068.253004	-0.006539
1068.417472	-0.002340
1068.581922	-0.003644
1068.746354	-0.006663
1068.910768	-0.007117
1069.075163	-0.007273
1069.239540	-0.007789
1069.403899	-0.007493
1069.568240	-0.010745
1069.732562	-0.011388
1069.896866	-0.013347
1070.061152	-0.010883
1070.225420	-0.010813
1070.389670	-0.012099
1070.553901	-0.011016
1070.718114	-0.009825
1070.882309	-0.007227
1071.046486	-0.005605
1071.210644	-0.004150
1071.374784	-0.002475
1071.538906	-0.002749
1071.703010	-0.002140
1071.867096	-0.003512
1072.031163	-0.005707
1072.195212	-0.006596
1072.359243	-0.006668
1072.523256	-0.004917
1072.687250	-0.010093
1072.851226	-0.010152
1073.015184	-0.010368
1073.179124	-0.010332
1073.343045	-0.006865
1073.506949	-0.006715
1073.670834	-0.006822
1073.834701	-0.009812
1073.998549	-0.009758
1074.162380	-0.007191
1074.326192	-0.006991
1074.489986	-0.007861
1074.653761	-0.009132
1074.817519	-0.012965
1074.981258	-0.011489
1075.144979	-0.011376
1075.308682	-0.010536
1075.472367	-0.008782
1075.636033	-0.008510
1075.799681	-0.010962
1075.963311	-0.011352
1076.126923	-0.010148
1076.290516	-0.007807
1076.454092	-0.008310
1076.617649	-0.006407
1076.781187	-0.006043
1076.944708	-0.005244
1077.108210	-0.002407
1077.271695	-0.000347
1077.435160	0.000458
1077.598608	-0.000547
1077.762038	-0.002682
1077.925449	-0.001647
1078.088842	-0.001554
1078.252217	-0.002810
1078.415573	-0.004330
1078.578912	-0.007096
1078.742232	-0.006326
1078.905534	-0.007726
1079.068817	-0.006772
1079.232083	-0.004548
1079.395330	-0.005432
1079.558559	-0.008396
1079.721770	-0.006928
1079.884962	-0.009720
1080.048136	-0.009520
1080.211293	-0.011304
1080.374430	-0.008585
1080.537550	-0.007435
1080.700651	-0.007884
1080.863735	-0.008499
1081.026800	-0.008363
1081.189846	-0.011882
1081.352875	-0.010000
1081.515885	-0.007163
1081.678877	-0.007675
1081.841851	-0.008473
1082.004807	-0.011503
1082.167744	-0.011433
1082.330663	-0.013202
1082.493564	-0.010565
1082.656447	-0.007322
1082.819312	-0.009097
1082.982158	-0.010293
1083.144986	-0.009829
1083.307796	-0.010891
1083.470587	-0.008532
1083.633361	-0.007855
1083.796116	-0.005622
1083.958853	-0.007295
1084.121571	-0.009069
1084.284272	-0.011505
1084.446954	-0.011758
1084.609618	-0.013199
1084.772264	-0.011570
1084.934892	-0.011827
1085.097501	-0.013361
1085.260092	-0.013025
1085.422665	-0.013445
1085.585220	-0.013672
1085.747756	-0.011340
1085.910274	-0.012038
1086.072774	-0.008363
1086.235256	-0.007301
1086.397720	-0.009294
1086.560165	-0.008420
1086.722592	-0.011043
1086.885001	-0.010836
1087.047392	-0.008002
1087.209764	-0.006338
1087.372119	-0.005194
1087.534455	-0.006182
1087.696772	-0.010716
1087.859072	-0.009826
1088.021353	-0.008312
1088.183616	-0.009050
1088.345861	-0.009830
1088.508088	-0.011982
1088.670296	-0.010320
1088.832486	-0.014590
1088.994658	-0.016597
1089.156812	-0.012423
1089.318948	-0.011403
1089.481065	-0.011953
1089.643164	-0.010985
1089.805245	-0.010564
1089.967308	-0.010074
1090.129352	-0.011118
1090.291378	-0.010383
1090.453386	-0.007497
1090.615376	-0.009825
1090.777347	-0.008706
1090.939301	-0.008834
1091.101236	-0.005416
1091.263153	-0.006927
1091.425051	-0.005402
1091.586932	-0.006714
1091.748794	-0.003022
1091.910638	-0.004239
1092.072463	-0.002317
1092.234271	-0.004907
1092.396060	-0.006212
1092.557831	-0.006278
1092.719584	-0.003199
1092.881319	-0.004453
1093.043035	-0.003315
1093.204733	-0.004381
1093.366413	-0.004708
1093.528075	-0.007281
1093.689718	-0.006649
1093.851343	-0.004681
1094.012950	-0.008667
1094.174539	-0.007942
1094.336110	-0.012034
1094.497662	-0.013105
1094.659196	-0.012948
1094.820712	-0.012000
1094.982210	-0.012080
1095.143689	-0.010632
1095.305151	-0.012682
1095.466594	-0.008599
1095.628018	-0.010222
1095.789425	-0.006963
1095.950813	-0.008410
1096.112183	-0.009644
1096.273535	-0.009884
1096.434869	-0.008091
1096.596184	-0.011062
1096.757482	-0.011258
1096.918761	-0.010763
1097.080021	-0.011086
1097.241264	-0.011436
1097.402488	-0.008565
1097.563694	-0.008087
1097.724882	-0.009173
1097.886052	-0.009423
1098.047203	-0.008038
1098.208336	-0.007642
1098.369451	-0.011358
1098.530548	-0.009121
1098.691627	-0.009617
1098.852687	-0.012431
1099.013729	-0.013816
1099.174753	-0.012823
1099.335758	-0.012408
1099.496746	-0.013250
1099.657715	-0.012962
1099.818666	-0.012223
1099.979599	-0.011694
1100.140513	-0.010280
1100.301409	-0.010250
1100.462287	-0.009717
1100.623147	-0.010119
1100.783989	-0.010424
1100.944812	-0.009804
1101.105617	-0.010693
1101.266404	-0.014256
1101.427173	-0.016303
1101.587923	-0.016716
1101.748656	-0.016609
1101.909370	-0.015212
1102.070066	-0.013399
1102.230743	-0.014447
1102.391403	-0.013457
1102.552044	-0.012236
1102.712667	-0.009566
1102.873271	-0.012711
1103.033858	-0.015146
1103.194426	-0.012658
1103.354976	-0.012659
1103.515508	-0.014539
1103.676021	-0.015235
1103.836517	-0.017195
1103.996994	-0.021985
1104.157453	-0.020544
1104.317893	-0.017021
1104.478316	-0.012943
1104.638720	-0.015015
1104.799106	-0.016383
1104.959474	-0.019535
1105.119823	-0.019079
1105.280155	-0.020024
1105.440468	-0.013631
1105.600763	-0.014592
1105.761039	-0.015448
1105.921298	-0.014398
1106.081538	-0.012782
1106.241760	-0.012398
1106.401964	-0.007852
1106.562149	-0.005273
1106.722316	-0.003322
1106.882465	-0.006726
1107.042596	-0.008022
1107.202709	-0.007889
1107.362803	-0.010454
1107.522879	-0.008996
1107.682937	-0.011048
1107.842977	-0.015478
1108.002999	-0.018364
1108.163002	-0.016106
1108.322987	-0.018599
1108.482954	-0.017744
1108.642902	-0.021529
1108.802833	-0.022947
1108.962745	-0.028275
1109.122639	-0.025175
1109.282515	-0.019602
1109.442372	-0.021218
1109.602211	-0.023321
1109.762032	-0.016259
1109.921835	-0.017011
1110.081620	-0.013461
1110.241386	-0.012520
1110.401134	-0.012152
1110.560864	-0.011136
1110.720576	-0.014468
1110.880269	-0.011864
1111.039945	-0.011655
1111.199602	-0.013981
1111.359240	-0.012125
1111.518861	-0.016827
1111.678463	-0.014814
1111.838047	-0.013274
1111.997613	-0.013282
1112.157161	-0.011282
1112.316690	-0.012472
1112.476202	-0.010337
1112.635695	-0.014460
1112.795169	-0.017316
1112.954626	-0.013668
1113.114064	-0.017148
1113.273484	-0.014560
1113.432886	-0.016679
1113.592270	-0.018159
1113.751635	-0.018007
1113.910983	-0.017378
1114.070312	-0.015327
1114.229622	-0.014527
1114.388915	-0.014607
1114.548189	-0.010117
1114.707445	-0.012806
1114.866683	-0.007027
1115.025903	-0.007866
1115.185104	-0.010971
1115.344287	-0.015006
1115.503452	-0.015773
1115.662599	-0.018108
1115.821727	-0.014648
1115.980838	-0.018756
1116.139930	-0.012791
1116.299004	-0.011379
1116.458059	-0.008699
1116.617097	-0.003702
1116.776116	-0.001856
1116.935117	-0.000470
1117.094099	0.000182
1117.253064	-0.004339
1117.412010	-0.007615
1117.570938	-0.015215
1117.729848	-0.019339
1117.888740	-0.020999
1118.047613	-0.023653
1118.206468	-0.021166
1118.365305	-0.020363
1118.524124	-0.016733
1118.682924	-0.015129
1118.841707	-0.013431
1119.000471	-0.009910
1119.159216	-0.007484
1119.317944	-0.006576
1119.476653	-0.004026
1119.635344	-0.010853
1119.794017	-0.010964
1119.952672	-0.010070
1120.111308	-0.009307
1120.269927	-0.009902
1120.428527	-0.009021
1120.587108	-0.015169
1120.745672	-0.016399
1120.904217	-0.018467
1121.062744	-0.014960
1121.221253	-0.013913
1121.379744	-0.013259
1121.538216	-0.014004
1121.696671	-0.010443
1121.855107	-0.007978
1122.013524	-0.009527
1122.171924	-0.010302
1122.330305	-0.004253
1122.488668	-0.003615
1122.647013	-0.004535
1122.805340	-0.008588
1122.963648	-0.009088
1123.121938	-0.009933
1123.280210	-0.015608
1123.438464	-0.012848
1123.596700	-0.010655
1123.754917	-0.014072
1123.913116	-0.013686
1124.071297	-0.015379
1124.229459	-0.010463
1124.387604	-0.007835
1124.545730	-0.005353
1124.703838	-0.001508
1124.861928	-0.005747
1125.019999	-0.005124
1125.178052	-0.003458
1125.336088	-0.002081
1125.494104	0.002324
1125.652103	0.002603
1125.810083	0.003916
1125.968045	0.001548
1126.125989	0.002528
1126.283915	0.006577
1126.441823	0.009668
1126.599712	0.003478
1126.757583	0.005010
1126.915436	-0.000591
1127.073270	0.000320
1127.231087	-0.003947
1127.388885	-0.003594
1127.546665	-0.008821
1127.704426	-0.006852
1127.862170	-0.007027
1128.019895	-0.004421
1128.177602	-0.007710
1128.335291	-0.005359
1128.492961	-0.009609
1128.650614	-0.011737
1128.808248	-0.009421
1128.965864	-0.008835
1129.123461	-0.009086
1129.281041	-0.013702
1129.438602	-0.013420
1129.596145	-0.015832
1129.753670	-0.014112
1129.911176	-0.009417
1130.068665	-0.004887
1130.226135	-0.004556
1130.383587	-0.001556
1130.541020	-0.004154
1130.698436	-0.005092
1130.855833	-0.006983
1131.013212	-0.002632
1131.170573	-0.003366
1131.327915	-0.003936
1131.485239	-0.006036
1131.642545	-0.008148
1131.799833	-0.009227
1131.957103	-0.009988
1132.114354	-0.006891
1132.271588	-0.007470
1132.428803	-0.007583
1132.585999	-0.008919
1132.743178	-0.014157
1132.900338	-0.013947
1133.057480	-0.011840
1133.214604	-0.009330
1133.371710	-0.007732
1133.528797	-0.016955
1133.685866	-0.008224
1133.842917	-0.008361
1133.999950	-0.008396
1134.156964	-0.002990
1134.313960	-0.002771
1134.470938	-0.004289
1134.627898	-0.007800
1134.784840	-0.013338
1134.941763	-0.007280
1135.098668	-0.016063
1135.255555	-0.017375
1135.412424	-0.016578
1135.569274	-0.019727
1135.726107	-0.015390
1135.882921	-0.018873
1136.039716	-0.017317
1136.196494	-0.008612
1136.353253	-0.008874
1136.509995	0.000228
1136.666717	0.000527
1136.823422	-0.003638
1136.980109	-0.007144
1137.136777	-0.003860
1137.293427	-0.000015
1137.450059	-0.001093
1137.606672	-0.001173
1137.763267	-0.001035
1137.919844	-0.010822
1138.076403	-0.011824
1138.232944	-0.012434
1138.389466	-0.015407
1138.545971	-0.021760
1138.702457	-0.018439
1138.858924	-0.018571
1139.015374	-0.021382
1139.171805	-0.023785
1139.328218	-0.017080
1139.484613	-0.013658
1139.640990	-0.006699
1139.797348	0.000208
1139.953688	-0.002898
1140.110010	-0.001285
1140.266314	0.009760
1140.422600	0.012391
1140.578867	0.017169
1140.735116	0.014950
1140.891347	0.017491
1141.047559	0.014785
1141.203754	0.015457
1141.359930	0.021675
1141.516088	0.018596
1141.672228	0.003970
1141.828349	-0.001257
1141.984452	-0.000471
1142.140537	-0.004319
1142.296604	-0.007332
1142.452653	-0.006454
1142.608683	-0.009341
1142.764695	-0.007884
1142.920689	-0.011958
1143.076665	-0.007294
1143.232622	-0.006968
1143.388562	-0.008487
1143.544483	-0.008593
1143.700385	-0.008458
1143.856270	-0.013667
1144.012136	-0.015290
1144.167985	-0.012880
1144.323814	-0.014690
1144.479626	-0.018402
1144.635420	-0.010829
1144.791195	-0.005618
1144.946952	-0.004165
1145.102691	-0.006894
1145.258411	-0.002249
1145.414113	-0.000625
1145.569798	-0.006035
1145.725463	-0.001787
1145.881111	0.004028
1146.036741	-0.001354
1146.192352	-0.008672
1146.347945	-0.008494
1146.503519	-0.009498
1146.659076	-0.017359
1146.814614	-0.018256
1146.970134	-0.019910
1147.125636	-0.024680
1147.281120	-0.019682
1147.436585	-0.022044
1147.592032	-0.024692
1147.747461	-0.020353
1147.902872	-0.017182
1148.058265	-0.013739
1148.213639	-0.008205
1148.368995	-0.006444
1148.524333	-0.007188
1148.679653	-0.016619
1148.834954	-0.019803
1148.990237	-0.017707
1149.145502	-0.024443
1149.300749	-0.023094
1149.455977	-0.013845
1149.611188	-0.020205
1149.766380	-0.019278
1149.921553	-0.015420
1150.076709	-0.016981
1150.231846	-0.013924
1150.386966	-0.011063
1150.542066	-0.012861
1150.697149	-0.014546
1150.852214	-0.020806
1151.007260	-0.017294
1151.162288	-0.014960
1151.317298	-0.017195
1151.472289	-0.011617
1151.627263	-0.016317
1151.782218	-0.013183
1151.937155	-0.010800
1152.092073	-0.011221
1152.246974	-0.008961
1152.401856	-0.004883
1152.556720	-0.012310
1152.711566	-0.016471
1152.866393	-0.007774
1153.021203	-0.006940
1153.175994	-0.009797
1153.330767	-0.006829
1153.485521	-0.007872
1153.640258	-0.010555
1153.794976	-0.012115
1153.949676	-0.013111
1154.104358	-0.009921
1154.259021	-0.024019
1154.413667	-0.010428
1154.568294	-0.002110
1154.722903	-0.005002
1154.877493	-0.007282
1155.032066	-0.005469
1155.186620	-0.002492
1155.341156	0.004257
1155.495674	0.002196
1155.650173	0.002111
1155.804654	-0.008718
1155.959118	-0.015752
1156.113562	-0.009888
1156.267989	-0.011717
1156.422397	-0.016773
1156.576788	-0.030679
1156.731160	-0.033486
1156.885513	-0.029884
1157.039849	-0.032499
1157.194166	-0.031805
1157.348465	-0.037633
1157.502746	-0.043074
1157.657009	-0.038636
1157.811253	-0.031515
1157.965479	-0.026252
1158.119687	-0.028223
1158.273877	-0.031536
1158.428048	-0.030823
1158.582201	-0.028522
1158.736337	-0.019408
1158.890453	-0.021509
1159.044552	-0.020883
1159.198632	-0.026353
1159.352694	-0.026303
1159.506738	-0.021335
1159.660764	-0.008814
1159.814771	-0.005081
1159.968761	-0.005119
1160.122732	-0.010364
1160.276685	-0.012891
1160.430619	-0.012161
1160.584535	-0.007301
1160.738434	-0.004802
1160.892313	0.000341
1161.046175	-0.005646
1161.200019	0.000827
1161.353844	0.000434
1161.507651	-0.004205
1161.661440	0.003983
1161.815210	0.003229
1161.968962	0.003042
1162.122697	0.000891
1162.276412	-0.008178
1162.430110	-0.009205
1162.583789	-0.018531
1162.737451	-0.022421
1162.891094	-0.019219
1163.044718	-0.021433
1163.198325	-0.029115
1163.351913	-0.033832
1163.505483	-0.025373
1163.659035	-0.019064
1163.812569	-0.015431
1163.966084	-0.007854
1164.119581	0.000562
1164.273060	0.003306
1164.426521	0.011583
1164.579964	0.018533
1164.733388	0.022223
1164.886794	0.015742
1165.040182	0.002625
1165.193551	-0.000986
1165.346903	-0.009589
1165.500236	-0.013417
1165.653551	-0.024493
1165.806848	-0.024201
1165.960126	-0.030409
1166.113386	-0.033757
1166.266628	-0.039717
1166.419852	-0.032316
1166.573058	-0.037100
1166.726245	-0.035957
1166.879414	-0.027318
1167.032565	-0.022618
1167.185698	-0.027088
1167.338812	-0.016706
1167.491909	-0.015529
1167.644987	-0.011837
1167.798046	-0.018312
1167.951088	-0.006387
1168.104111	0.001385
1168.257117	-0.013636
1168.410103	-0.016031
1168.563072	-0.021710
1168.716023	-0.042001
1168.868955	-0.038478
1169.021869	-0.045231
1169.174765	-0.039639
1169.327642	-0.057065
1169.480501	-0.058089
1169.633343	-0.046143
1169.786165	-0.045111
1169.938970	-0.034720
1170.091757	-0.016245
1170.244525	-0.026590
1170.397275	-0.022451
1170.550007	-0.030534
1170.702720	-0.016481
1170.855415	-0.016289
1171.008092	-0.028389
1171.160751	-0.027101
1171.313392	-0.038946
1171.466014	0.008314
1171.618619	-0.051473
1171.771205	-0.051473
1171.923772	-0.051473
