sample name	sample
index	1121
start time	 04-22-2021  01:52:58 PM


Wavelength (nm)	Absorbance
494.344910	-0.302736
494.563924	-0.302736
494.782919	-0.302736
495.001897	NaN
495.220856	-0.276301
495.439797	-0.315738
495.658719	-0.330565
495.877624	-0.277992
496.096510	-0.169728
496.315378	-0.311461
496.534227	-0.350698
496.753059	-0.322270
496.971872	-0.249675
497.190667	0.007840
497.409444	0.021200
497.628203	0.020762
497.846943	0.020349
498.065665	0.019694
498.284369	0.020092
498.503055	0.019865
498.721723	0.019424
498.940372	0.018370
499.159003	0.017394
499.377616	0.016798
499.596210	0.015294
499.814787	0.014602
500.033345	0.014264
500.251885	0.013389
500.470406	0.013952
500.688910	0.013136
500.907395	0.013583
501.125862	0.012668
501.344311	0.012227
501.562742	0.012883
501.781154	0.011950
501.999548	0.012141
502.217924	0.013621
502.436282	0.013405
502.654621	0.013391
502.872942	0.012772
503.091245	0.013254
503.309530	0.012630
503.527797	0.013614
503.746045	0.014476
503.964275	0.015056
504.182487	0.014432
504.400681	0.014632
504.618856	0.016206
504.837013	0.017063
505.055152	0.017804
505.273273	0.017686
505.491376	0.016851
505.709460	0.016479
505.927526	0.015754
506.145574	0.015038
506.363604	0.013599
506.581615	0.012505
506.799608	0.011858
507.017583	0.011573
507.235540	0.011431
507.453478	0.011772
507.671399	0.012245
507.889301	0.012364
508.107185	0.013338
508.325050	0.014054
508.542898	0.014656
508.760727	0.014304
508.978538	0.014096
509.196330	0.013849
509.414105	0.013223
509.631861	0.013075
509.849599	0.013212
510.067319	0.012723
510.285021	0.013602
510.502704	0.013366
510.720369	0.013087
510.938016	0.012705
511.155645	0.013284
511.373255	0.013005
511.590848	0.012958
511.808422	0.013230
512.025977	0.013350
512.243515	0.012652
512.461034	0.011708
512.678536	0.013006
512.896018	0.013889
513.113483	0.013381
513.330930	0.013050
513.548358	0.013348
513.765768	0.012461
513.983160	0.011634
514.200533	0.012065
514.417889	0.012388
514.635226	0.010593
514.852545	0.010598
515.069845	0.011585
515.287128	0.012637
515.504392	0.011865
515.721638	0.012668
515.938866	0.012931
516.156075	0.011670
516.373267	0.012304
516.590440	0.013061
516.807594	0.012511
517.024731	0.012211
517.241850	0.012091
517.458950	0.012314
517.676032	0.011882
517.893095	0.011809
518.110141	0.012132
518.327168	0.012074
518.544177	0.012685
518.761168	0.012319
518.978141	0.011932
519.195095	0.012313
519.412031	0.011817
519.628949	0.012281
519.845849	0.012112
520.062731	0.012444
520.279594	0.012478
520.496439	0.011573
520.713266	0.012092
520.930074	0.011759
521.146865	0.011030
521.363637	0.011244
521.580391	0.011451
521.797127	0.011738
522.013844	0.011503
522.230543	0.011088
522.447224	0.011086
522.663887	0.010576
522.880532	0.011051
523.097158	0.011410
523.313766	0.011091
523.530356	0.010016
523.746928	0.009931
523.963481	0.009617
524.180017	0.009799
524.396534	0.010248
524.613032	0.010610
524.829513	0.010134
525.045975	0.009829
525.262420	0.010457
525.478845	0.010647
525.695253	0.010426
525.911643	0.010793
526.128014	0.010732
526.344367	0.010879
526.560702	0.010207
526.777018	0.011175
526.993316	0.011355
527.209597	0.011318
527.425858	0.011735
527.642102	0.011533
527.858328	0.011303
528.074535	0.010926
528.290724	0.010806
528.506894	0.010737
528.723047	0.010044
528.939181	0.010458
529.155297	0.010263
529.371395	0.009964
529.587475	0.010152
529.803536	0.010014
530.019579	0.010634
530.235604	0.010627
530.451611	0.011637
530.667600	0.011677
530.883570	0.011354
531.099522	0.010908
531.315456	0.010273
531.531372	0.010390
531.747269	0.010616
531.963148	0.010007
532.179009	0.010022
532.394852	0.009312
532.610676	0.009346
532.826482	0.009009
533.042271	0.009983
533.258040	0.010754
533.473792	0.011046
533.689525	0.010910
533.905240	0.011106
534.120937	0.010884
534.336616	0.011187
534.552277	0.011287
534.767919	0.011131
534.983543	0.010991
535.199149	0.010889
535.414736	0.010779
535.630306	0.010860
535.845857	0.010928
536.061390	0.011146
536.276904	0.010739
536.492401	0.010373
536.707879	0.010571
536.923339	0.010170
537.138781	0.010301
537.354204	0.010566
537.569610	0.010385
537.784997	0.009772
538.000366	0.009496
538.215716	0.009521
538.431049	0.010138
538.646363	0.009827
538.861659	0.009807
539.076937	0.009221
539.292196	0.008952
539.507438	0.009146
539.722661	0.009633
539.937866	0.009355
540.153052	0.009933
540.368221	0.009499
540.583371	0.009370
540.798503	0.009175
541.013617	0.009622
541.228712	0.009504
541.443789	0.009585
541.658848	0.009503
541.873889	0.009767
542.088912	0.009128
542.303916	0.009530
542.518902	0.009363
542.733870	0.009796
542.948820	0.009687
543.163752	0.009532
543.378665	0.009339
543.593560	0.009378
543.808437	0.009246
544.023295	0.009190
544.238136	0.008504
544.452958	0.008958
544.667762	0.008606
544.882548	0.008534
545.097315	0.009175
545.312064	0.009757
545.526795	0.009919
545.741508	0.010459
545.956203	0.010671
546.170879	0.010993
546.385537	0.011349
546.600177	0.011144
546.814799	0.011072
547.029402	0.010735
547.243988	0.010270
547.458555	0.009975
547.673103	0.010032
547.887634	0.010264
548.102146	0.009908
548.316640	0.009763
548.531116	0.009891
548.745574	0.010144
548.960013	0.009984
549.174435	0.009888
549.388838	0.010180
549.603222	0.009801
549.817589	0.009486
550.031937	0.009695
550.246267	0.009593
550.460579	0.009823
550.674873	0.009688
550.889148	0.009786
551.103405	0.009933
551.317644	0.009751
551.531865	0.009914
551.746068	0.009645
551.960252	0.009878
552.174418	0.009857
552.388566	0.009640
552.602696	0.009794
552.816807	0.009841
553.030900	0.009603
553.244975	0.009229
553.459032	0.008859
553.673070	0.009085
553.887091	0.008791
554.101093	0.008613
554.315077	0.009041
554.529042	0.008809
554.742990	0.008874
554.956919	0.009139
555.170830	0.009705
555.384722	0.009917
555.598597	0.010056
555.812453	0.010160
556.026291	0.010317
556.240111	0.010279
556.453913	0.010470
556.667696	0.010171
556.881461	0.009944
557.095208	0.009645
557.308937	0.009221
557.522647	0.009177
557.736339	0.008958
557.950013	0.008896
558.163669	0.008633
558.377307	0.008575
558.590926	0.008583
558.804527	0.008729
559.018110	0.009040
559.231675	0.009022
559.445221	0.009081
559.658749	0.009068
559.872259	0.009134
560.085751	0.009126
560.299225	0.009100
560.512680	0.008817
560.726117	0.008537
560.939536	0.008399
561.152937	0.008893
561.366319	0.008679
561.579683	0.008820
561.793029	0.008703
562.006357	0.008962
562.219667	0.008911
562.432958	0.009024
562.646231	0.009142
562.859486	0.009258
563.072723	0.009237
563.285941	0.009143
563.499141	0.008841
563.712323	0.008582
563.925487	0.008265
564.138632	0.008251
564.351760	0.008095
564.564869	0.007865
564.777960	0.007401
564.991032	0.007168
565.204087	0.007230
565.417123	0.007463
565.630141	0.007763
565.843140	0.007551
566.056122	0.007397
566.269085	0.007649
566.482030	0.007748
566.694957	0.007866
566.907866	0.007953
567.120756	0.008007
567.333628	0.008020
567.546482	0.007975
567.759318	0.008476
567.972135	0.008763
568.184935	0.008840
568.397716	0.008880
568.610478	0.009054
568.823223	0.009151
569.035949	0.009065
569.248657	0.008823
569.461347	0.008761
569.674019	0.008650
569.886672	0.008500
570.099308	0.008556
570.311925	0.008674
570.524523	0.008466
570.737104	0.008221
570.949666	0.008423
571.162210	0.008496
571.374736	0.008457
571.587244	0.008376
571.799733	0.008159
572.012205	0.008147
572.224658	0.008004
572.437092	0.008129
572.649509	0.008164
572.861907	0.008212
573.074287	0.008190
573.286649	0.008231
573.498993	0.007958
573.711318	0.008080
573.923625	0.007820
574.135914	0.008083
574.348185	0.007896
574.560438	0.008066
574.772672	0.007799
574.984888	0.008099
575.197086	0.008217
575.409266	0.008322
575.621427	0.008375
575.833570	0.008590
576.045695	0.008522
576.257802	0.008537
576.469890	0.008470
576.681961	0.008637
576.894013	0.008526
577.106046	0.008697
577.318062	0.008749
577.530059	0.008715
577.742039	0.008904
577.954000	0.008730
578.165942	0.008976
578.377867	0.009074
578.589773	0.009195
578.801661	0.009011
579.013531	0.008493
579.225382	0.008645
579.437216	0.008810
579.649031	0.008758
579.860828	0.008639
580.072606	0.008743
580.284367	0.008765
580.496109	0.008752
580.707833	0.009166
580.919539	0.009622
581.131227	0.009418
581.342896	0.008982
581.554547	0.008937
581.766180	0.009094
581.977795	0.008836
582.189391	0.008488
582.400969	0.008495
582.612529	0.008123
582.824071	0.007962
583.035595	0.008029
583.247100	0.008528
583.458587	0.008582
583.670056	0.008440
583.881506	0.008467
584.092939	0.008673
584.304353	0.008381
584.515749	0.008627
584.727127	0.008722
584.938486	0.008552
585.149828	0.008357
585.361151	0.008333
585.572456	0.008403
585.783742	0.008627
585.995011	0.008708
586.206261	0.008667
586.417493	0.008343
586.628706	0.008209
586.839902	0.008173
587.051079	0.008272
587.262238	0.007937
587.473379	0.008285
587.684502	0.008176
587.895606	0.008054
588.106692	0.008358
588.317760	0.008847
588.528810	0.009123
588.739841	0.009347
588.950855	0.009313
589.161850	0.009723
589.372827	0.009606
589.583785	0.009256
589.794726	0.009576
590.005648	0.009480
590.216552	0.009225
590.427437	0.009314
590.638305	0.009576
590.849154	0.009518
591.059985	0.009645
591.270798	0.009951
591.481592	0.010400
591.692369	0.010288
591.903127	0.010567
592.113867	0.010741
592.324588	0.010570
592.535292	0.010691
592.745977	0.010520
592.956644	0.010183
593.167293	0.009864
593.377923	0.009793
593.588536	0.009896
593.799130	0.009637
594.009706	0.009661
594.220263	0.009593
594.430803	0.009420
594.641324	0.009830
594.851827	0.010162
595.062312	0.010269
595.272778	0.010196
595.483227	0.010167
595.693657	0.010621
595.904069	0.010756
596.114462	0.010901
596.324838	0.010953
596.535195	0.010918
596.745534	0.010808
596.955855	0.010871
597.166157	0.010977
597.376441	0.011024
597.586707	0.010536
597.796955	0.010203
598.007185	0.009967
598.217396	0.009949
598.427589	0.009855
598.637764	0.009772
598.847921	0.009880
599.058060	0.009944
599.268180	0.009929
599.478282	0.010016
599.688366	0.010009
599.898431	0.010160
600.108479	0.009755
600.318508	0.009684
600.528519	0.009584
600.738511	0.009178
600.948486	0.008877
601.158442	0.008578
601.368380	0.008413
601.578300	0.008429
601.788202	0.008519
601.998085	0.008770
602.207950	0.008600
602.417797	0.008847
602.627626	0.009136
602.837436	0.009466
603.047228	0.009443
603.257002	0.009565
603.466758	0.010028
603.676496	0.009763
603.886215	0.009868
604.095916	0.010124
604.305599	0.009838
604.515264	0.010124
604.724910	0.010029
604.934538	0.010289
605.144148	0.010361
605.353740	0.009987
605.563314	0.010299
605.772869	0.010331
605.982406	0.010190
606.191925	0.010249
606.401425	0.009741
606.610908	0.009744
606.820372	0.009677
607.029818	0.009481
607.239246	0.009500
607.448655	0.009131
607.658047	0.008857
607.867420	0.008925
608.076775	0.008940
608.286111	0.009130
608.495430	0.009160
608.704730	0.009244
608.914012	0.009420
609.123275	0.009331
609.332521	0.009787
609.541748	0.009812
609.750957	0.010045
609.960148	0.010299
610.169321	0.010217
610.378475	0.010116
610.587611	0.009997
610.796729	0.009882
611.005829	0.009948
611.214910	0.009712
611.423974	0.010010
611.633019	0.009998
611.842045	0.009743
612.051054	0.009978
612.260044	0.010251
612.469017	0.010141
612.677970	0.010289
612.886906	0.010293
613.095824	0.010614
613.304723	0.010394
613.513604	0.010006
613.722467	0.009989
613.931311	0.009582
614.140138	0.009201
614.348946	0.009317
614.557736	0.009190
614.766507	0.009375
614.975261	0.009060
615.183996	0.009129
615.392713	0.009147
615.601412	0.009251
615.810092	0.009327
616.018754	0.009366
616.227399	0.009255
616.436024	0.009253
616.644632	0.009185
616.853222	0.009371
617.061793	0.009212
617.270346	0.009328
617.478880	0.009307
617.687397	0.009265
617.895895	0.009141
618.104375	0.009178
618.312837	0.009435
618.521281	0.009307
618.729706	0.009079
618.938113	0.009147
619.146502	0.009196
619.354873	0.009255
619.563226	0.009365
619.771560	0.009637
619.979876	0.009603
620.188174	0.009406
620.396453	0.009522
620.604715	0.009405
620.812958	0.009420
621.021183	0.009602
621.229390	0.009644
621.437578	0.009540
621.645748	0.009649
621.853900	0.009903
622.062034	0.009871
622.270150	0.009839
622.478247	0.010052
622.686326	0.010122
622.894387	0.010118
623.102430	0.010127
623.310454	0.010490
623.518461	0.010399
623.726449	0.010270
623.934418	0.010457
624.142370	0.010462
624.350303	0.010523
624.558218	0.010475
624.766115	0.010467
624.973994	0.010457
625.181855	0.010277
625.389697	0.010161
625.597521	0.010188
625.805327	0.010352
626.013114	0.010438
626.220883	0.010570
626.428634	0.010477
626.636367	0.010382
626.844082	0.010416
627.051778	0.010353
627.259457	0.010414
627.467117	0.010372
627.674758	0.010064
627.882382	0.009967
628.089987	0.009725
628.297574	0.010102
628.505143	0.010058
628.712694	0.009900
628.920226	0.009906
629.127740	0.009963
629.335236	0.009997
629.542714	0.010093
629.750174	0.009931
629.957615	0.009932
630.165038	0.009771
630.372443	0.009791
630.579829	0.009878
630.787198	0.009966
630.994548	0.009907
631.201880	0.009985
631.409194	0.009947
631.616489	0.010175
631.823766	0.010332
632.031025	0.010343
632.238266	0.010425
632.445489	0.010464
632.652693	0.010416
632.859879	0.010463
633.067047	0.010411
633.274197	0.010661
633.481329	0.010453
633.688442	0.010373
633.895537	0.010350
634.102614	0.010185
634.309672	0.010092
634.516713	0.010060
634.723735	0.010071
634.930739	0.010004
635.137724	0.009789
635.344692	0.009990
635.551641	0.010056
635.758572	0.010086
635.965485	0.010294
636.172379	0.010355
636.379256	0.010407
636.586114	0.010423
636.792954	0.010456
636.999775	0.010622
637.206579	0.010584
637.413364	0.010625
637.620131	0.010851
637.826880	0.010775
638.033610	0.010998
638.240323	0.011032
638.447017	0.011081
638.653692	0.011410
638.860350	0.011412
639.066990	0.011581
639.273611	0.011845
639.480214	0.011879
639.686798	0.011961
639.893365	0.012154
640.099913	0.012418
640.306443	0.012492
640.512955	0.012378
640.719449	0.012513
640.925924	0.012631
641.132381	0.012372
641.338820	0.012119
641.545241	0.012219
641.751644	0.011852
641.958028	0.011626
642.164394	0.011822
642.370742	0.011752
642.577071	0.011482
642.783383	0.011376
642.989676	0.011460
643.195951	0.011510
643.402207	0.011443
643.608446	0.011492
643.814666	0.011719
644.020868	0.011503
644.227052	0.011344
644.433218	0.011385
644.639365	0.011407
644.845494	0.011400
645.051605	0.011346
645.257698	0.011382
645.463772	0.011374
645.669828	0.011273
645.875866	0.011196
646.081886	0.011375
646.287888	0.011442
646.493871	0.011288
646.699836	0.011198
646.905783	0.011230
647.111712	0.011075
647.317622	0.011070
647.523514	0.010986
647.729388	0.011039
647.935244	0.011067
648.141082	0.011039
648.346901	0.011082
648.552702	0.011184
648.758485	0.011204
648.964250	0.011345
649.169996	0.011388
649.375724	0.011453
649.581434	0.011587
649.787126	0.011579
649.992800	0.011655
650.198455	0.011720
650.404092	0.011692
650.609711	0.011780
650.815311	0.011805
651.020894	0.011890
651.226458	0.011880
651.432004	0.011948
651.637532	0.012002
651.843041	0.012080
652.048532	0.012245
652.254006	0.012194
652.459460	0.012292
652.664897	0.012492
652.870315	0.012724
653.075716	0.012773
653.281097	0.012529
653.486461	0.012445
653.691807	0.012277
653.897134	0.012362
654.102443	0.012488
654.307734	0.012576
654.513006	0.012322
654.718261	0.011980
654.923497	0.011861
655.128715	0.012107
655.333915	0.012306
655.539096	0.012477
655.744259	0.012426
655.949404	0.012548
656.154531	0.012247
656.359640	0.012414
656.564730	0.012480
656.769802	0.012705
656.974856	0.012831
657.179892	0.012859
657.384909	0.012942
657.589908	0.012963
657.794889	0.012959
657.999852	0.013124
658.204797	0.013307
658.409723	0.013499
658.614631	0.013366
658.819521	0.013258
659.024393	0.013109
659.229246	0.013161
659.434081	0.013110
659.638898	0.013044
659.843697	0.013084
660.048478	0.012770
660.253240	0.012653
660.457984	0.012612
660.662710	0.012524
660.867417	0.012584
661.072107	0.012486
661.276778	0.012368
661.481431	0.012229
661.686066	0.012252
661.890682	0.012320
662.095281	0.012322
662.299861	0.012389
662.504422	0.012401
662.708966	0.012321
662.913491	0.012431
663.117999	0.012360
663.322488	0.012333
663.526958	0.012127
663.731411	0.012283
663.935845	0.012285
664.140261	0.012308
664.344659	0.012524
664.549038	0.012580
664.753400	0.012560
664.957743	0.012822
665.162068	0.012935
665.366375	0.013179
665.570663	0.013102
665.774933	0.013213
665.979185	0.013427
666.183419	0.013356
666.387635	0.013606
666.591832	0.013625
666.796011	0.013622
667.000172	0.013825
667.204315	0.013925
667.408439	0.014145
667.612545	0.014369
667.816634	0.014434
668.020703	0.014675
668.224755	0.014435
668.428788	0.014601
668.632803	0.014689
668.836800	0.014680
669.040779	0.014615
669.244739	0.014580
669.448681	0.014392
669.652605	0.014295
669.856511	0.014115
670.060399	0.014259
670.264268	0.014138
670.468119	0.014041
670.671952	0.013837
670.875767	0.013845
671.079563	0.013887
671.283341	0.013897
671.487101	0.014064
671.690843	0.013969
671.894567	0.014035
672.098272	0.014111
672.301959	0.014221
672.505628	0.014364
672.709278	0.014562
672.912911	0.014464
673.116525	0.014436
673.320121	0.014321
673.523699	0.014401
673.727258	0.014442
673.930799	0.014368
674.134322	0.014483
674.337827	0.014396
674.541314	0.014235
674.744782	0.014203
674.948232	0.014424
675.151664	0.014386
675.355078	0.014646
675.558474	0.014598
675.761851	0.014618
675.965210	0.014407
676.168551	0.014654
676.371873	0.014752
676.575178	0.014897
676.778464	0.014837
676.981732	0.014865
677.184981	0.014627
677.388213	0.014582
677.591426	0.014465
677.794621	0.014492
677.997798	0.014327
678.200956	0.014288
678.404097	0.014339
678.607219	0.014335
678.810323	0.014353
679.013408	0.014325
679.216476	0.014384
679.419525	0.014662
679.622556	0.014698
679.825569	0.014946
680.028563	0.014966
680.231540	0.015057
680.434498	0.015138
680.637438	0.015248
680.840359	0.015496
681.043263	0.015664
681.246148	0.015522
681.449015	0.015787
681.651864	0.015805
681.854694	0.015797
682.057506	0.015564
682.260301	0.015522
682.463076	0.015502
682.665834	0.015481
682.868573	0.015413
683.071295	0.015625
683.273998	0.015685
683.476682	0.015583
683.679349	0.015691
683.881997	0.015790
684.084627	0.015764
684.287239	0.015839
684.489833	0.015659
684.692408	0.015572
684.894965	0.015503
685.097504	0.015384
685.300025	0.015400
685.502527	0.015401
685.705012	0.015568
685.907478	0.015534
686.109925	0.015453
686.312355	0.015649
686.514766	0.015736
686.717159	0.015632
686.919534	0.015657
687.121891	0.015750
687.324230	0.015653
687.526550	0.015487
687.728852	0.015480
687.931136	0.015428
688.133401	0.015237
688.335649	0.015172
688.537878	0.015096
688.740089	0.015110
688.942281	0.015059
689.144456	0.015090
689.346612	0.015199
689.548750	0.015114
689.750870	0.015256
689.952971	0.015409
690.155055	0.015471
690.357120	0.015428
690.559167	0.015252
690.761195	0.015196
690.963206	0.015150
691.165198	0.015065
691.367172	0.015237
691.569128	0.015175
691.771065	0.015124
691.972984	0.015123
692.174885	0.015299
692.376768	0.015541
692.578633	0.015628
692.780479	0.015929
692.982308	0.015977
693.184118	0.015994
693.385909	0.016027
693.587683	0.016173
693.789438	0.016248
693.991175	0.016422
694.192894	0.016415
694.394595	0.016518
694.596277	0.016502
694.797941	0.016567
694.999587	0.016634
695.201215	0.016672
695.402824	0.016526
695.604416	0.016428
695.805989	0.016378
696.007543	0.016263
696.209080	0.016004
696.410598	0.015919
696.612099	0.015766
696.813580	0.015724
697.015044	0.015537
697.216490	0.015289
697.417917	0.015378
697.619326	0.015241
697.820717	0.015151
698.022089	0.015243
698.223444	0.015182
698.424780	0.015348
698.626098	0.015273
698.827397	0.015306
699.028679	0.015723
699.229942	0.015628
699.431187	0.015597
699.632414	0.015735
699.833622	0.015677
700.034813	0.015685
700.235985	0.015633
700.437139	0.015584
700.638274	0.015862
700.839392	0.015766
701.040491	0.015899
701.241572	0.016063
701.442635	0.016152
701.643679	0.016323
701.844706	0.016307
702.045714	0.016217
702.246704	0.016405
702.447675	0.016136
702.648629	0.016018
702.849564	0.015806
703.050481	0.015720
703.251380	0.015562
703.452260	0.015464
703.653122	0.015435
703.853966	0.015660
704.054792	0.015601
704.255600	0.015602
704.456389	0.015761
704.657160	0.015836
704.857913	0.015937
705.058648	0.015914
705.259365	0.015753
705.460063	0.015739
705.660743	0.015562
705.861405	0.015520
706.062048	0.015571
706.262674	0.015324
706.463281	0.015349
706.663870	0.015315
706.864441	0.015273
707.064993	0.015141
707.265527	0.015152
707.466043	0.015116
707.666541	0.015065
707.867021	0.015128
708.067482	0.015188
708.267925	0.015069
708.468350	0.014929
708.668757	0.014942
708.869145	0.015245
709.069516	0.015128
709.269868	0.015080
709.470201	0.015001
709.670517	0.014914
709.870814	0.015065
710.071093	0.015175
710.271354	0.015367
710.471597	0.015486
710.671821	0.015466
710.872028	0.015672
711.072216	0.015708
711.272385	0.015868
711.472537	0.015819
711.672670	0.015718
711.872785	0.015722
712.072882	0.015582
712.272961	0.015462
712.473021	0.015722
712.673063	0.015645
712.873087	0.015667
713.073093	0.015504
713.273081	0.015744
713.473050	0.015739
713.673001	0.015890
713.872934	0.015874
714.072849	0.015790
714.272745	0.015476
714.472623	0.015577
714.672483	0.015498
714.872325	0.015518
715.072148	0.015267
715.271954	0.015304
715.471741	0.015169
715.671509	0.015159
715.871260	0.015263
716.070992	0.015495
716.270707	0.015228
716.470403	0.015193
716.670080	0.015299
716.869740	0.015364
717.069381	0.015444
717.269004	0.015432
717.468609	0.015410
717.668195	0.015315
717.867764	0.014976
718.067314	0.015149
718.266846	0.015130
718.466360	0.015066
718.665855	0.015019
718.865332	0.014713
719.064791	0.014487
719.264232	0.014388
719.463655	0.014313
719.663059	0.014455
719.862445	0.014279
720.061813	0.014297
720.261163	0.014355
720.460494	0.014368
720.659807	0.014423
720.859102	0.014586
721.058379	0.014609
721.257638	0.014730
721.456878	0.014685
721.656100	0.014566
721.855304	0.014517
722.054490	0.014472
722.253657	0.014411
722.452806	0.014360
722.651937	0.014368
722.851050	0.014388
723.050145	0.014250
723.249221	0.014075
723.448279	0.014261
723.647319	0.014105
723.846340	0.013846
724.045344	0.013874
724.244329	0.013850
724.443296	0.013739
724.642245	0.013775
724.841175	0.013837
725.040088	0.013969
725.238982	0.013926
725.437857	0.013964
725.636715	0.014049
725.835554	0.014043
726.034376	0.014107
726.233179	0.014160
726.431963	0.013908
726.630730	0.013890
726.829478	0.013792
727.028208	0.013563
727.226920	0.013530
727.425614	0.013241
727.624289	0.013072
727.822946	0.012831
728.021585	0.012547
728.220206	0.012582
728.418808	0.012373
728.617392	0.012218
728.815958	0.012101
729.014506	0.012024
729.213036	0.012051
729.411547	0.012041
729.610040	0.012107
729.808515	0.012318
730.006972	0.012326
730.205410	0.012329
730.403831	0.012348
730.602233	0.012551
730.800616	0.012683
730.998982	0.012724
731.197329	0.012789
731.395658	0.012765
731.593969	0.012746
731.792262	0.012767
731.990536	0.012937
732.188793	0.012954
732.387031	0.013034
732.585250	0.012826
732.783452	0.012934
732.981635	0.012954
733.179800	0.013151
733.377947	0.013064
733.576076	0.013006
733.774186	0.012833
733.972278	0.012901
734.170352	0.012618
734.368408	0.012783
734.566446	0.012608
734.764465	0.012478
734.962466	0.012394
735.160449	0.012358
735.358413	0.012230
735.556360	0.012221
735.754288	0.012126
735.952198	0.012333
736.150090	0.012316
736.347963	0.012343
736.545818	0.012316
736.743655	0.012215
736.941474	0.012311
737.139275	0.012313
737.337057	0.012342
737.534821	0.012317
737.732567	0.012216
737.930295	0.012148
738.128005	0.012234
738.325696	0.012275
738.523369	0.012190
738.721024	0.012167
738.918660	0.012143
739.116279	0.012151
739.313879	0.012201
739.511461	0.012158
739.709024	0.012304
739.906570	0.012387
740.104097	0.012376
740.301606	0.012512
740.499097	0.012441
740.696569	0.012523
740.894024	0.012608
741.091460	0.012623
741.288878	0.012804
741.486277	0.012843
741.683659	0.012751
741.881022	0.012622
742.078367	0.012576
742.275694	0.012487
742.473002	0.012427
742.670293	0.012292
742.867565	0.012103
743.064819	0.011878
743.262054	0.011665
743.459272	0.011552
743.656471	0.011711
743.853652	0.011723
744.050815	0.011615
744.247959	0.011736
744.445085	0.011710
744.642194	0.011840
744.839283	0.011859
745.036355	0.011840
745.233408	0.011900
745.430444	0.011724
745.627461	0.011717
745.824459	0.011891
746.021440	0.011729
746.218402	0.011699
746.415346	0.011642
746.612272	0.011633
746.809180	0.011642
747.006069	0.011689
747.202940	0.011712
747.399793	0.011628
747.596628	0.011535
747.793444	0.011527
747.990243	0.011410
748.187023	0.011386
748.383784	0.011452
748.580528	0.011576
748.777253	0.011471
748.973960	0.011448
749.170649	0.011436
749.367320	0.011494
749.563973	0.011394
749.760607	0.011369
749.957223	0.011202
750.153821	0.010927
750.350400	0.010742
750.546962	0.010736
750.743505	0.010782
750.940030	0.010636
751.136536	0.010478
751.333025	0.010605
751.529495	0.010540
751.725947	0.010425
751.922381	0.010415
752.118796	0.010519
752.315194	0.010588
752.511573	0.010734
752.707934	0.010865
752.904276	0.010931
753.100601	0.010960
753.296907	0.011125
753.493195	0.011383
753.689465	0.011685
753.885716	0.011586
754.081949	0.011583
754.278164	0.011401
754.474361	0.011207
754.670540	0.011295
754.866700	0.011293
755.062843	0.011371
755.258967	0.011327
755.455072	0.010937
755.651160	0.010889
755.847229	0.010950
756.043280	0.010946
756.239313	0.011127
756.435328	0.011006
756.631324	0.010934
756.827302	0.010867
757.023262	0.011090
757.219204	0.011462
757.415127	0.011539
757.611033	0.011347
757.806920	0.011237
758.002788	0.011313
758.198639	0.011461
758.394471	0.011378
758.590286	0.011428
758.786081	0.011127
758.981859	0.011015
759.177619	0.011082
759.373360	0.011317
759.569083	0.011311
759.764788	0.011255
759.960474	0.011074
760.156143	0.011171
760.351793	0.010983
760.547425	0.010919
760.743038	0.010967
760.938634	0.010761
761.134211	0.010474
761.329770	0.010496
761.525311	0.010330
761.720833	0.010345
761.916338	0.010309
762.111824	0.010360
762.307292	0.010194
762.502741	0.010127
762.698173	0.010155
762.893586	0.010278
763.088981	0.010131
763.284358	0.010035
763.479716	0.010021
763.675057	0.009839
763.870379	0.009777
764.065683	0.009958
764.260968	0.009669
764.456236	0.009577
764.651485	0.009365
764.846716	0.009370
765.041929	0.009435
765.237123	0.009152
765.432299	0.009035
765.627457	0.008900
765.822597	0.008865
766.017719	0.008983
766.212822	0.008986
766.407907	0.009171
766.602974	0.009204
766.798023	0.009231
766.993054	0.009499
767.188066	0.009509
767.383060	0.009780
767.578036	0.009877
767.772993	0.010033
767.967933	0.010115
768.162854	0.009885
768.357757	0.009998
768.552642	0.009921
768.747508	0.009838
768.942356	0.009994
769.137186	0.009691
769.331998	0.009614
769.526792	0.009544
769.721567	0.009440
769.916324	0.009585
770.111063	0.009403
770.305784	0.009443
770.500486	0.009493
770.695171	0.009331
770.889837	0.009239
771.084484	0.009234
771.279114	0.009150
771.473725	0.009065
771.668318	0.008978
771.862893	0.008834
772.057450	0.008615
772.251988	0.008542
772.446509	0.008759
772.641011	0.008880
772.835494	0.008805
773.029960	0.008789
773.224407	0.008629
773.418836	0.008549
773.613247	0.008578
773.807640	0.008694
774.002014	0.008582
774.196370	0.008513
774.390708	0.008590
774.585028	0.008505
774.779330	0.008473
774.973613	0.008639
775.167878	0.008519
775.362125	0.008488
775.556354	0.008424
775.750564	0.008366
775.944756	0.008298
776.138930	0.008242
776.333086	0.008094
776.527223	0.007917
776.721343	0.007845
776.915444	0.007860
777.109526	0.007921
777.303591	0.007777
777.497637	0.007702
777.691666	0.007483
777.885676	0.007399
778.079667	0.007458
778.273641	0.007642
778.467596	0.007584
778.661533	0.007666
778.855452	0.007609
779.049352	0.007860
779.243235	0.008019
779.437099	0.008293
779.630945	0.008404
779.824773	0.008721
780.018582	0.008717
780.212373	0.008972
780.406146	0.009235
780.599901	0.009430
780.793638	0.009425
780.987356	0.009246
781.181056	0.009258
781.374738	0.009225
781.568402	0.009252
781.762047	0.009200
781.955674	0.009160
782.149283	0.009144
782.342874	0.008982
782.536447	0.008892
782.730001	0.009229
782.923537	0.009291
783.117055	0.009330
783.310555	0.009207
783.504036	0.009336
783.697499	0.009537
783.890944	0.009354
784.084371	0.009418
784.277780	0.009402
784.471170	0.009235
784.664542	0.009164
784.857896	0.009213
785.051231	0.009148
785.244549	0.009098
785.437848	0.008808
785.631129	0.008860
785.824392	0.008802
786.017636	0.008898
786.210863	0.009012
786.404071	0.009123
786.597260	0.009182
786.790432	0.009261
786.983585	0.009202
787.176721	0.009235
787.369838	0.009232
787.562936	0.009558
787.756017	0.009650
787.949079	0.009747
788.142123	0.009730
788.335149	0.009485
788.528156	0.009518
788.721146	0.009531
788.914117	0.009709
789.107070	0.009937
789.300005	0.010006
789.492921	0.009911
789.685819	0.009949
789.878699	0.010070
790.071561	0.010305
790.264405	0.010368
790.457230	0.010487
790.650037	0.010372
790.842826	0.010178
791.035597	0.010058
791.228349	0.010310
791.421084	0.010239
791.613800	0.010174
791.806497	0.010220
791.999177	0.010081
792.191838	0.010073
792.384481	0.010283
792.577106	0.010355
792.769713	0.010349
792.962301	0.010317
793.154871	0.010470
793.347423	0.010545
793.539957	0.010664
793.732473	0.011018
793.924970	0.011136
794.117449	0.011061
794.309910	0.011177
794.502353	0.011351
794.694777	0.011377
794.887183	0.011388
795.079571	0.011514
795.271941	0.011274
795.464293	0.011097
795.656626	0.011114
795.848941	0.011198
796.041238	0.011401
796.233516	0.011263
796.425777	0.011123
796.618019	0.011008
796.810243	0.010794
797.002449	0.010978
797.194636	0.011124
797.386805	0.011182
797.578956	0.011130
797.771089	0.010879
797.963204	0.010983
798.155300	0.011133
798.347378	0.011342
798.539438	0.011285
798.731480	0.011218
798.923503	0.011071
799.115509	0.010962
799.307496	0.011043
799.499465	0.011262
799.691415	0.011089
799.883348	0.011062
800.075262	0.010950
800.267158	0.011095
800.459035	0.011111
800.650895	0.011160
800.842736	0.011197
801.034559	0.011190
801.226364	0.011040
801.418150	0.011234
801.609919	0.011505
801.801669	0.011545
801.993401	0.011607
802.185114	0.011813
802.376810	0.011734
802.568487	0.011859
802.760146	0.011882
802.951787	0.012005
803.143409	0.012106
803.335014	0.012007
803.526600	0.012216
803.718168	0.012206
803.909717	0.012115
804.101249	0.012348
804.292762	0.012397
804.484257	0.012493
804.675734	0.012545
804.867192	0.012548
805.058632	0.012434
805.250054	0.012348
805.441458	0.012176
805.632844	0.012167
805.824211	0.012376
806.015561	0.012443
806.206891	0.012447
806.398204	0.012555
806.589499	0.012724
806.780775	0.013152
806.972033	0.013305
807.163273	0.013808
807.354495	0.014148
807.545698	0.014064
807.736883	0.014231
807.928050	0.014305
808.119199	0.014337
808.310329	0.014336
808.501441	0.014103
808.692535	0.014076
808.883611	0.014113
809.074669	0.014168
809.265708	0.014301
809.456729	0.014181
809.647732	0.014280
809.838717	0.014124
810.029683	0.014044
810.220632	0.014018
810.411562	0.013878
810.602474	0.013698
810.793367	0.013464
810.984242	0.013336
811.175100	0.013320
811.365938	0.013259
811.556759	0.013267
811.747562	0.013308
811.938346	0.013358
812.129112	0.013428
812.319860	0.013457
812.510589	0.013607
812.701300	0.013678
812.891994	0.013797
813.082668	0.013784
813.273325	0.013752
813.463964	0.013656
813.654584	0.013741
813.845186	0.013695
814.035769	0.013740
814.226335	0.013683
814.416882	0.013508
814.607411	0.013311
814.797922	0.013402
814.988415	0.013398
815.178889	0.013522
815.369345	0.013482
815.559783	0.013404
815.750203	0.013341
815.940605	0.013300
816.130988	0.013387
816.321353	0.013522
816.511700	0.013555
816.702028	0.013718
816.892339	0.013743
817.082631	0.013928
817.272905	0.014122
817.463161	0.014122
817.653398	0.014146
817.843617	0.014291
818.033819	0.014565
818.224001	0.014517
818.414166	0.014669
818.604312	0.014772
818.794440	0.014621
818.984550	0.014588
819.174642	0.014713
819.364716	0.014718
819.554771	0.014653
819.744808	0.014409
819.934827	0.014331
820.124827	0.014318
820.314810	0.013970
820.504774	0.013918
820.694720	0.013987
820.884647	0.013782
821.074557	0.013793
821.264448	0.013830
821.454321	0.013819
821.644176	0.014129
821.834012	0.014175
822.023831	0.014443
822.213631	0.014694
822.403413	0.014826
822.593176	0.015061
822.782922	0.015165
822.972649	0.015184
823.162358	0.015409
823.352049	0.015216
823.541721	0.015268
823.731376	0.015346
823.921012	0.015394
824.110629	0.015367
824.300229	0.015498
824.489811	0.015758
824.679374	0.015833
824.868919	0.015791
825.058445	0.015780
825.247954	0.015738
825.437444	0.015791
825.626916	0.015645
825.816370	0.015642
826.005806	0.015625
826.195223	0.015534
826.384622	0.015624
826.574003	0.015730
826.763366	0.015868
826.952711	0.015727
827.142037	0.015802
827.331345	0.015941
827.520635	0.016126
827.709906	0.016336
827.899160	0.016591
828.088395	0.016712
828.277612	0.016869
828.466810	0.017085
828.655991	0.017114
828.845153	0.017052
829.034297	0.017008
829.223423	0.017068
829.412531	0.016843
829.601620	0.016683
829.790691	0.016684
829.979744	0.016648
830.168779	0.016693
830.357795	0.017118
830.546793	0.017345
830.735773	0.017747
830.924735	0.017674
831.113679	0.017817
831.302604	0.017897
831.491511	0.018008
831.680400	0.017914
831.869271	0.018047
832.058123	0.018115
832.246957	0.018188
832.435773	0.018138
832.624571	0.018340
832.813351	0.018417
833.002112	0.018467
833.190855	0.018435
833.379580	0.018484
833.568287	0.018384
833.756975	0.018349
833.945645	0.018319
834.134297	0.018319
834.322931	0.018332
834.511547	0.018585
834.700144	0.018584
834.888723	0.018836
835.077284	0.019053
835.265826	0.019138
835.454351	0.019343
835.642857	0.019431
835.831345	0.019669
836.019815	0.019692
836.208266	0.019616
836.396699	0.019862
836.585114	0.019963
836.773511	0.020098
836.961890	0.020192
837.150250	0.020036
837.338592	0.020232
837.526916	0.020015
837.715222	0.020236
837.903510	0.020335
838.091779	0.020360
838.280030	0.020099
838.468263	0.020101
838.656477	0.019988
838.844674	0.020198
839.032852	0.020168
839.221012	0.020615
839.409153	0.020386
839.597277	0.020464
839.785382	0.020514
839.973469	0.020694
840.161538	0.020860
840.349589	0.021158
840.537621	0.021161
840.725635	0.021406
840.913631	0.021310
841.101609	0.021502
841.289568	0.021598
841.477509	0.021603
841.665432	0.021772
841.853337	0.021789
842.041224	0.021688
842.229092	0.021560
842.416942	0.021372
842.604774	0.021082
842.792588	0.021061
842.980383	0.021052
843.168160	0.020986
843.355919	0.021067
843.543660	0.021133
843.731382	0.021319
843.919087	0.021371
844.106773	0.021305
844.294441	0.021606
844.482090	0.021731
844.669722	0.021757
844.857335	0.021881
845.044930	0.021993
845.232507	0.022031
845.420065	0.021978
845.607605	0.022162
845.795127	0.022436
845.982631	0.022438
846.170117	0.022399
846.357584	0.022592
846.545033	0.022566
846.732464	0.022606
846.919877	0.022673
847.107272	0.022914
847.294648	0.023114
847.482006	0.023377
847.669346	0.023434
847.856667	0.023836
848.043971	0.023829
848.231256	0.024061
848.418523	0.023945
848.605771	0.024050
848.793002	0.024176
848.980214	0.024294
849.167408	0.024314
849.354584	0.024520
849.541742	0.024259
849.728881	0.024272
849.916002	0.024275
850.103105	0.024524
850.290190	0.024474
850.477256	0.024427
850.664304	0.024314
850.851334	0.024153
851.038346	0.024175
851.225340	0.024322
851.412315	0.024607
851.599272	0.024646
851.786211	0.024642
851.973132	0.024604
852.160034	0.024583
852.346918	0.024787
852.533784	0.025123
852.720632	0.025275
852.907462	0.025372
853.094273	0.025413
853.281066	0.025811
853.467841	0.026178
853.654598	0.026468
853.841336	0.026693
854.028056	0.026814
854.214758	0.026751
854.401442	0.026961
854.588107	0.027475
854.774755	0.027178
854.961384	0.026892
855.147995	0.026759
855.334587	0.026732
855.521162	0.026696
855.707718	0.026730
855.894256	0.026785
856.080775	0.026747
856.267277	0.026499
856.453760	0.026930
856.640225	0.027255
856.826672	0.027436
857.013101	0.027988
857.199511	0.028171
857.385903	0.028305
857.572277	0.028308
857.758633	0.028496
857.944970	0.028605
858.131290	0.028750
858.317591	0.028875
858.503873	0.028870
858.690138	0.028562
858.876384	0.028849
859.062612	0.028993
859.248822	0.029137
859.435014	0.029110
859.621188	0.029514
859.807343	0.029340
859.993480	0.029447
860.179599	0.029509
860.365699	0.029941
860.551781	0.030002
860.737846	0.030045
860.923891	0.030283
861.109919	0.030298
861.295929	0.030496
861.481920	0.030557
861.667893	0.030487
861.853848	0.030679
862.039784	0.030582
862.225702	0.030233
862.411603	0.030085
862.597484	0.029930
862.783348	0.030270
862.969193	0.029897
863.155021	0.029959
863.340830	0.029997
863.526620	0.029807
863.712393	0.029623
863.898147	0.029775
864.083883	0.030049
864.269601	0.030395
864.455301	0.030378
864.640982	0.030345
864.826645	0.030494
865.012290	0.030673
865.197917	0.030908
865.383526	0.031116
865.569116	0.031136
865.754688	0.031332
865.940242	0.031109
866.125777	0.030847
866.311295	0.031193
866.496794	0.031333
866.682275	0.031534
866.867737	0.031732
867.053182	0.031838
867.238608	0.032129
867.424016	0.031928
867.609406	0.032474
867.794778	0.032786
867.980131	0.032701
868.165466	0.032915
868.350783	0.032674
868.536082	0.032535
868.721362	0.032253
868.906625	0.032093
869.091869	0.031948
869.277094	0.031493
869.462302	0.031375
869.647491	0.031404
869.832662	0.031284
870.017815	0.031501
870.202950	0.031497
870.388066	0.031817
870.573165	0.031889
870.758245	0.031769
870.943306	0.031871
871.128350	0.031844
871.313375	0.031941
871.498382	0.032012
871.683371	0.031767
871.868342	0.031948
872.053294	0.031801
872.238229	0.031817
872.423144	0.032352
872.608042	0.032318
872.792922	0.032601
872.977783	0.032616
873.162626	0.032494
873.347451	0.032756
873.532258	0.032642
873.717046	0.032834
873.901816	0.033044
874.086568	0.033126
874.271302	0.033231
874.456017	0.032925
874.640715	0.032763
874.825394	0.033003
875.010055	0.033175
875.194697	0.032966
875.379322	0.032974
875.563928	0.032891
875.748516	0.032532
875.933085	0.032572
876.117637	0.032685
876.302170	0.032649
876.486685	0.032856
876.671182	0.032810
876.855661	0.032764
877.040121	0.033181
877.224563	0.033296
877.408987	0.033325
877.593393	0.033349
877.777780	0.033599
877.962150	0.033842
878.146501	0.033709
878.330833	0.033821
878.515148	0.034346
878.699444	0.033973
878.883722	0.034026
879.067982	0.034586
879.252224	0.034555
879.436447	0.034726
879.620653	0.035020
879.804840	0.034911
879.989008	0.035066
880.173159	0.035408
880.357291	0.035724
880.541405	0.035804
880.725501	0.035777
880.909579	0.035812
881.093638	0.035672
881.277680	0.035620
881.461703	0.035966
881.645707	0.035830
881.829694	0.035776
882.013662	0.035665
882.197612	0.035723
882.381544	0.035638
882.565458	0.036009
882.749353	0.036134
882.933230	0.036154
883.117089	0.035772
883.300930	0.035650
883.484753	0.035366
883.668557	0.035443
883.852343	0.035439
884.036111	0.035502
884.219861	0.035594
884.403592	0.035653
884.587305	0.035747
884.771000	0.036265
884.954677	0.036381
885.138335	0.036646
885.321976	0.036349
885.505598	0.036216
885.689201	0.036178
885.872787	0.036122
886.056354	0.036241
886.239904	0.035915
886.423434	0.035566
886.606947	0.035625
886.790442	0.035396
886.973918	0.035637
887.157376	0.036084
887.340816	0.036174
887.524237	0.036213
887.707641	0.035811
887.891026	0.036190
888.074393	0.036476
888.257741	0.036618
888.441072	0.036782
888.624384	0.036913
888.807678	0.036784
888.990954	0.036859
889.174211	0.036873
889.357451	0.036973
889.540672	0.036680
889.723875	0.036752
889.907059	0.036662
890.090226	0.036562
890.273374	0.036425
890.456504	0.036213
890.639616	0.036168
890.822709	0.036178
891.005785	0.036287
891.188842	0.036395
891.371881	0.036288
891.554901	0.035917
891.737904	0.036146
891.920888	0.036017
892.103854	0.035943
892.286802	0.035674
892.469731	0.035576
892.652643	0.035277
892.835536	0.035674
893.018410	0.035531
893.201267	0.036156
893.384106	0.035829
893.566926	0.035915
893.749728	0.036127
893.932511	0.036242
894.115277	0.036141
894.298024	0.036343
894.480753	0.036211
894.663464	0.036176
894.846157	0.036325
895.028831	0.036477
895.211487	0.036561
895.394125	0.036792
895.576745	0.036954
895.759346	0.036781
895.941930	0.037350
896.124495	0.037201
896.307041	0.037389
896.489570	0.037014
896.672080	0.037083
896.854573	0.037407
897.037046	0.037202
897.219502	0.037410
897.401940	0.037555
897.584359	0.037140
897.766760	0.037265
897.949143	0.037357
898.131507	0.037425
898.313854	0.037311
898.496182	0.037126
898.678492	0.037228
898.860783	0.036960
899.043057	0.036674
899.225312	0.036738
899.407549	0.036438
899.589768	0.036157
899.771968	0.036185
899.954151	0.036098
900.136315	0.036109
900.318461	0.036127
900.500588	0.036129
900.682698	0.036503
900.864789	0.036375
901.046862	0.036431
901.228917	0.036508
901.410953	0.036622
901.592971	0.036749
901.774972	0.036767
901.956953	0.036563
902.138917	0.036696
902.320862	0.036844
902.502790	0.036794
902.684699	0.036820
902.866589	0.037052
903.048462	0.036825
903.230316	0.036615
903.412152	0.036425
903.593970	0.036198
903.775770	0.036178
903.957551	0.035905
904.139314	0.036038
904.321059	0.036240
904.502786	0.035844
904.684494	0.035813
904.866185	0.036093
905.047857	0.035746
905.229510	0.035765
905.411146	0.035588
905.592763	0.035530
905.774363	0.035239
905.955943	0.035449
906.137506	0.035280
906.319051	0.035423
906.500577	0.034753
906.682085	0.034968
906.863575	0.035039
907.045046	0.034915
907.226500	0.034791
907.407935	0.034873
907.589352	0.034085
907.770750	0.033987
907.952131	0.033517
908.133493	0.033757
908.314837	0.033896
908.496163	0.034076
908.677470	0.033837
908.858760	0.033866
909.040031	0.033713
909.221284	0.033692
909.402518	0.033814
909.583735	0.033886
909.764933	0.033938
909.946113	0.033364
910.127275	0.032762
910.308418	0.032547
910.489544	0.032389
910.670651	0.031815
910.851740	0.031952
911.032810	0.031764
911.213863	0.031475
911.394897	0.031505
911.575913	0.031869
911.756911	0.031649
911.937890	0.031743
912.118851	0.031360
912.299794	0.031451
912.480719	0.031133
912.661626	0.031342
912.842514	0.031176
913.023384	0.030998
913.204236	0.030437
913.385070	0.030478
913.565886	0.030429
913.746683	0.031069
913.927462	0.031466
914.108223	0.031761
914.288965	0.031495
914.469690	0.031705
914.650396	0.031596
914.831084	0.031840
915.011754	0.032431
915.192405	0.032273
915.373038	0.032095
915.553653	0.031694
915.734250	0.031422
915.914829	0.031359
916.095389	0.031292
916.275931	0.031471
916.456455	0.031366
916.636961	0.030769
916.817448	0.030975
916.997917	0.030268
917.178368	0.030299
917.358801	0.029904
917.539216	0.029932
917.719612	0.029724
917.899990	0.029321
918.080350	0.029506
918.260692	0.030090
918.441015	0.029868
918.621320	0.030638
918.801607	0.030775
918.981876	0.031028
919.162127	0.030749
919.342359	0.031131
919.522573	0.031189
919.702769	0.030477
919.882947	0.030030
920.063106	0.030081
920.243247	0.029581
920.423370	0.029504
920.603475	0.029239
920.783562	0.029401
920.963630	0.029172
921.143680	0.028874
921.323712	0.029396
921.503725	0.029225
921.683721	0.029451
921.863698	0.029207
922.043657	0.029025
922.223598	0.029195
922.403520	0.028892
922.583424	0.028475
922.763311	0.028371
922.943178	0.028165
923.123028	0.027883
923.302859	0.027405
923.482673	0.027048
923.662467	0.026699
923.842244	0.026443
924.022003	0.026442
924.201743	0.025944
924.381465	0.025348
924.561169	0.025100
924.740854	0.024538
924.920522	0.024045
925.100171	0.023696
925.279802	0.023712
925.459414	0.023726
925.639009	0.023412
925.818585	0.023455
925.998143	0.024066
926.177683	0.024029
926.357205	0.024300
926.536708	0.024254
926.716193	0.024369
926.895660	0.024310
927.075109	0.024351
927.254539	0.024246
927.433951	0.024173
927.613345	0.023691
927.792721	0.022622
927.972079	0.022581
928.151418	0.022345
928.330739	0.022183
928.510042	0.021263
928.689327	0.019804
928.868593	0.019156
929.047841	0.018989
929.227071	0.018927
929.406283	0.019198
929.585476	0.018868
929.764652	0.018784
929.943809	0.018721
930.122948	0.018780
930.302068	0.019152
930.481171	0.019364
930.660255	0.018765
930.839321	0.018525
931.018369	0.018025
931.197398	0.017600
931.376409	0.017130
931.555402	0.016710
931.734377	0.016692
931.913334	0.016231
932.092272	0.015241
932.271192	0.015474
932.450094	0.014941
932.628978	0.015168
932.807844	0.015512
932.986691	0.015443
933.165520	0.015300
933.344331	0.015427
933.523123	0.015546
933.701898	0.016028
933.880654	0.015413
934.059392	0.015410
934.238111	0.014808
934.416813	0.013387
934.595496	0.013117
934.774161	0.013183
934.952808	0.013173
935.131437	0.012884
935.310047	0.012652
935.488639	0.013171
935.667213	0.012981
935.845769	0.012704
936.024306	0.013265
936.202825	0.012911
936.381326	0.013120
936.559809	0.012426
936.738274	0.012252
936.916720	0.012398
937.095148	0.011628
937.273558	0.011438
937.451950	0.011729
937.630323	0.012131
937.808678	0.012195
937.987015	0.011481
938.165334	0.011136
938.343635	0.010561
938.521917	0.010093
938.700181	0.009451
938.878427	0.009448
939.056655	0.008985
939.234864	0.007458
939.413055	0.007773
939.591228	0.007038
939.769383	0.006835
939.947519	0.007687
940.125638	0.007803
940.303738	0.008396
940.481820	0.007881
940.659883	0.007897
940.837929	0.009402
941.015956	0.008049
941.193965	0.008430
941.371955	0.008952
941.549928	0.008478
941.727882	0.007601
941.905818	0.007166
942.083736	0.007218
942.261636	0.007250
942.439517	0.006264
942.617380	0.006901
942.795225	0.006007
942.973052	0.005579
943.150860	0.005384
943.328651	0.005637
943.506423	0.005232
943.684176	0.004732
943.861912	0.004661
944.039629	0.004357
944.217328	0.003386
944.395009	0.004982
944.572672	0.005251
944.750317	0.004295
944.927943	0.004484
945.105551	0.004614
945.283141	0.004724
945.460712	0.004330
945.638265	0.003482
945.815801	0.003971
945.993317	0.003040
946.170816	0.002564
946.348297	0.002258
946.525759	0.002237
946.703203	0.001779
946.880629	0.001304
947.058036	0.001617
947.235425	0.002232
947.412797	0.002475
947.590149	0.003468
947.767484	0.002532
947.944800	0.003266
948.122099	0.002927
948.299379	0.004915
948.476640	0.004223
948.653884	0.004344
948.831109	0.004027
949.008316	0.004344
949.185505	0.002687
949.362676	0.003545
949.539828	0.002825
949.716962	0.002831
949.894078	0.000811
950.071176	0.002612
950.248256	0.001825
950.425317	0.002220
950.602360	0.002058
950.779385	0.001563
950.956391	0.001530
951.133380	0.001829
951.310350	0.001712
951.487302	0.002810
951.664235	0.001452
951.841151	0.000182
952.018048	0.000287
952.194927	-0.000525
952.371788	0.000159
952.548631	0.000147
952.725455	-0.000453
952.902261	-0.002013
953.079049	-0.002498
953.255819	-0.002243
953.432570	-0.000766
953.609303	-0.000635
953.786018	-0.000347
953.962715	0.000373
954.139394	-0.000887
954.316054	0.002650
954.492696	0.003699
954.669320	0.004530
954.845926	0.004563
955.022513	0.004770
955.199083	0.003360
955.375634	0.004149
955.552166	0.002868
955.728681	0.003994
955.905177	0.001422
956.081655	0.002171
956.258115	0.000837
956.434557	0.001352
956.610980	0.001243
956.787385	0.001977
956.963772	0.002403
957.140141	0.003043
957.316492	0.003681
957.492824	0.004372
957.669138	0.003461
957.845434	0.004806
958.021712	0.004458
958.197971	0.004998
958.374212	0.003141
958.550435	0.001725
958.726640	0.001234
958.902826	0.000170
959.078995	-0.000562
959.255145	0.000387
959.431277	-0.000970
959.607390	-0.000352
959.783486	0.000548
959.959563	0.003394
960.135622	0.004142
960.311662	0.004826
960.487685	0.006233
960.663689	0.005690
960.839675	0.007153
961.015643	0.008097
961.191593	0.009691
961.367524	0.008847
961.543437	0.008255
961.719332	0.009344
961.895209	0.007523
962.071067	0.006498
962.246907	0.008244
962.422730	0.005998
962.598533	0.005587
962.774319	0.004649
962.950086	0.004457
963.125835	0.005915
963.301566	0.004914
963.477279	0.006841
963.652973	0.005553
963.828650	0.006716
964.004308	0.009673
964.179947	0.010218
964.355569	0.009459
964.531172	0.010529
964.706757	0.011269
964.882324	0.011864
965.057873	0.011125
965.233403	0.013407
965.408916	0.010480
965.584410	0.008779
965.759885	0.008214
965.935343	0.006344
966.110782	0.006702
966.286203	0.004447
966.461606	0.004737
966.636991	0.007719
966.812357	0.006768
966.987705	0.008873
967.163035	0.009057
967.338347	0.009837
967.513641	0.013812
967.688916	0.012833
967.864173	0.014752
968.039412	0.013621
968.214632	0.010809
968.389835	0.011525
968.565019	0.010630
968.740185	0.009666
968.915333	0.008069
969.090462	0.006297
969.265573	0.006442
969.440667	0.006508
969.615741	0.009135
969.790798	0.009429
969.965836	0.006750
970.140856	0.008004
970.315858	0.009168
970.490842	0.010422
970.665808	0.011339
970.840755	0.010520
971.015684	0.009380
971.190595	0.007898
971.365487	0.010163
971.540362	0.013078
971.715218	0.013376
971.890056	0.012975
972.064875	0.013849
972.239677	0.012597
972.414460	0.010525
972.589225	0.009976
972.763972	0.009380
972.938700	0.008326
973.113411	0.006496
973.288103	0.005127
973.462777	0.004647
973.637432	0.004895
973.812070	0.005418
973.986689	0.009028
974.161290	0.009641
974.335873	0.010271
974.510437	0.009155
974.684984	0.011061
974.859512	0.011022
975.034022	0.012931
975.208513	0.012573
975.382987	0.011030
975.557442	0.010584
975.731879	0.010685
975.906298	0.009693
976.080698	0.010745
976.255080	0.010057
976.429445	0.010705
976.603790	0.008880
976.778118	0.007629
976.952427	0.008580
977.126719	0.008302
977.300992	0.008702
977.475246	0.009682
977.649483	0.009612
977.823701	0.010382
977.997901	0.010115
978.172083	0.011389
978.346247	0.011889
978.520392	0.012608
978.694519	0.012141
978.868628	0.012313
979.042719	0.012076
979.216791	0.010530
979.390845	0.010071
979.564882	0.009988
979.738899	0.010452
979.912899	0.011545
980.086880	0.012457
980.260843	0.011459
980.434788	0.010426
980.608715	0.010549
980.782623	0.012085
980.956514	0.013262
981.130386	0.013658
981.304240	0.012446
981.478075	0.012072
981.651892	0.011638
981.825692	0.012849
981.999472	0.013062
982.173235	0.011290
982.346980	0.010306
982.520706	0.008489
982.694414	0.006492
982.868104	0.006249
983.041775	0.006104
983.215428	0.005842
983.389064	0.005873
983.562680	0.005560
983.736279	0.008028
983.909860	0.010490
984.083422	0.012020
984.256966	0.013783
984.430491	0.013667
984.603999	0.013162
984.777488	0.013344
984.950959	0.013984
985.124412	0.012943
985.297847	0.010503
985.471263	0.007515
985.644661	0.006595
985.818041	0.006006
985.991403	0.005993
986.164747	0.006043
986.338072	0.005912
986.511379	0.006199
986.684668	0.009561
986.857938	0.010197
987.031191	0.012079
987.204425	0.010438
987.377641	0.010392
987.550839	0.010586
987.724018	0.009547
987.897179	0.008715
988.070322	0.008709
988.243447	0.008088
988.416554	0.007801
988.589642	0.007313
988.762712	0.009398
988.935764	0.010396
989.108798	0.012492
989.281813	0.013243
989.454811	0.013785
989.627790	0.014310
989.800751	0.013464
989.973693	0.013073
990.146617	0.011903
990.319524	0.011928
990.492412	0.011381
990.665281	0.007632
990.838133	0.008479
991.010966	0.007581
991.183781	0.007352
991.356578	0.006719
991.529356	0.008178
991.702117	0.008178
991.874859	0.007475
992.047583	0.007129
992.220288	0.006801
992.392976	0.005793
992.565645	0.005204
992.738296	0.003069
992.910929	0.005137
993.083543	0.003325
993.256139	0.003655
993.428718	0.002644
993.601277	0.001935
993.773819	0.003404
993.946342	0.003124
994.118848	0.005251
994.291335	0.006039
994.463803	0.003456
994.636254	0.005621
994.808686	0.005285
994.981100	0.007937
995.153496	0.010201
995.325874	0.012158
995.498233	0.012607
995.670574	0.010010
995.842897	0.010262
996.015202	0.011576
996.187488	0.011214
996.359757	0.011906
996.532007	0.010491
996.704239	0.011034
996.876452	0.008761
997.048648	0.008866
997.220825	0.010311
997.392984	0.010660
997.565124	0.009291
997.737247	0.010235
997.909351	0.008773
998.081437	0.008281
998.253505	0.005005
998.425554	0.005382
998.597586	0.004027
998.769599	0.004293
998.941594	0.004267
999.113571	0.005893
999.285529	0.004781
999.457469	0.006785
999.629391	0.008086
999.801295	0.011054
999.973181	0.011275
1000.145048	0.012458
1000.316897	0.012677
1000.488728	0.012512
1000.660541	0.010870
1000.832335	0.010441
1001.004111	0.010196
1001.175869	0.008080
1001.347609	0.006838
1001.519331	0.006851
1001.691034	0.006100
1001.862719	0.004443
1002.034386	0.003202
1002.206035	0.003883
1002.377665	0.003558
1002.549277	0.003899
1002.720871	0.004928
1002.892447	0.005648
1003.064004	0.006375
1003.235544	0.006905
1003.407065	0.007261
1003.578568	0.009580
1003.750052	0.011445
1003.921519	0.011718
1004.092967	0.011333
1004.264397	0.011419
1004.435809	0.010544
1004.607202	0.009672
1004.778577	0.010110
1004.949934	0.010024
1005.121273	0.009223
1005.292594	0.006821
1005.463896	0.007519
1005.635180	0.007333
1005.806446	0.007850
1005.977694	0.007418
1006.148923	0.007944
1006.320135	0.007722
1006.491328	0.007962
1006.662503	0.006659
1006.833659	0.008161
1007.004798	0.006755
1007.175918	0.006302
1007.347020	0.004689
1007.518103	0.004406
1007.689169	0.004694
1007.860216	0.005324
1008.031245	0.006347
1008.202256	0.007784
1008.373248	0.005645
1008.544223	0.005834
1008.715179	0.007739
1008.886117	0.009978
1009.057036	0.012253
1009.227938	0.011027
1009.398821	0.009260
1009.569686	0.007988
1009.740533	0.007609
1009.911361	0.008840
1010.082172	0.009300
1010.252964	0.007495
1010.423738	0.006757
1010.594493	0.005059
1010.765231	0.006188
1010.935950	0.006772
1011.106651	0.007632
1011.277334	0.007474
1011.447998	0.007902
1011.618645	0.007651
1011.789273	0.008987
1011.959882	0.006432
1012.130474	0.006622
1012.301048	0.005399
1012.471603	0.004696
1012.642140	0.004786
1012.812658	0.004859
1012.983159	0.004213
1013.153641	0.004561
1013.324105	0.003166
1013.494551	0.006264
1013.664979	0.006376
1013.835388	0.006105
1014.005779	0.007510
1014.176152	0.006883
1014.346507	0.006731
1014.516843	0.006598
1014.687162	0.005918
1014.857462	0.006253
1015.027744	0.004134
1015.198007	0.002952
1015.368252	0.004353
1015.538480	0.003966
1015.708689	0.005448
1015.878879	0.004138
1016.049052	0.004363
1016.219206	0.005248
1016.389342	0.004929
1016.559460	0.007016
1016.729559	0.007578
1016.899641	0.006842
1017.069704	0.006407
1017.239749	0.004281
1017.409775	0.005350
1017.579784	0.004331
1017.749774	0.004239
1017.919746	0.004346
1018.089700	0.002436
1018.259635	0.002436
1018.429553	0.002826
1018.599452	0.004103
1018.769333	0.004320
1018.939195	0.004650
1019.109040	0.006660
1019.278866	0.006739
1019.448674	0.008182
1019.618464	0.008826
1019.788235	0.008190
1019.957989	0.008481
1020.127724	0.009650
1020.297441	0.009434
1020.467139	0.010295
1020.636820	0.008237
1020.806482	0.007612
1020.976126	0.008137
1021.145752	0.006953
1021.315359	0.008584
1021.484948	0.006741
1021.654519	0.005223
1021.824072	0.005762
1021.993607	0.005110
1022.163123	0.006470
1022.332621	0.007133
1022.502101	0.006464
1022.671563	0.008766
1022.841007	0.008597
1023.010432	0.008945
1023.179839	0.009673
1023.349228	0.009114
1023.518598	0.009789
1023.687951	0.008781
1023.857285	0.007821
1024.026601	0.005897
1024.195899	0.004100
1024.365178	0.002658
1024.534439	0.002456
1024.703682	-0.000236
1024.872907	0.002394
1025.042114	0.003627
1025.211302	0.002910
1025.380472	0.003811
1025.549624	0.005475
1025.718758	0.004893
1025.887873	0.004933
1026.056970	0.006074
1026.226049	0.007735
1026.395110	0.006693
1026.564153	0.004605
1026.733177	0.006120
1026.902183	0.005784
1027.071171	0.005336
1027.240141	0.005807
1027.409092	0.005358
1027.578026	0.005862
1027.746940	0.006272
1027.915837	0.005203
1028.084716	0.004782
1028.253576	0.004900
1028.422418	0.004537
1028.591242	0.003959
1028.760048	0.003460
1028.928835	0.003734
1029.097604	0.001905
1029.266355	0.001667
1029.435088	0.001846
1029.603803	0.003240
1029.772499	0.002589
1029.941177	0.003930
1030.109837	0.002341
1030.278478	0.002647
1030.447102	0.002742
1030.615707	0.004380
1030.784294	0.004022
1030.952863	0.004642
1031.121413	0.001957
1031.289945	0.000846
1031.458460	0.000613
1031.626955	0.003525
1031.795433	0.004682
1031.963892	0.005404
1032.132334	0.005108
1032.300756	0.003698
1032.469161	0.002929
1032.637548	0.003448
1032.805916	0.004471
1032.974266	0.003454
1033.142598	0.002673
1033.310911	0.002748
1033.479207	0.001622
1033.647484	0.001895
1033.815743	0.003652
1033.983983	0.003716
1034.152206	0.004409
1034.320410	0.005823
1034.488596	0.006333
1034.656764	0.005949
1034.824914	0.005969
1034.993045	0.007550
1035.161158	0.007377
1035.329253	0.006880
1035.497330	0.006862
1035.665388	0.007588
1035.833428	0.006236
1036.001450	0.005198
1036.169454	0.004919
1036.337440	0.003841
1036.505407	0.003236
1036.673356	0.004383
1036.841287	0.004934
1037.009200	0.005824
1037.177094	0.006595
1037.344970	0.005916
1037.512828	0.005683
1037.680668	0.006351
1037.848489	0.006316
1038.016293	0.007843
1038.184078	0.008128
1038.351845	0.007899
1038.519593	0.006613
1038.687324	0.006803
1038.855036	0.007862
1039.022730	0.008522
1039.190406	0.006864
1039.358063	0.007032
1039.525702	0.004722
1039.693323	0.003220
1039.860926	0.003315
1040.028511	0.004093
1040.196077	0.002007
1040.363625	0.002640
1040.531155	0.003356
1040.698667	0.004713
1040.866161	0.006215
1041.033636	0.007930
1041.201093	0.006608
1041.368532	0.004559
1041.535952	0.004125
1041.703355	0.004690
1041.870739	0.004033
1042.038105	0.003906
1042.205452	0.003092
1042.372782	0.002245
1042.540093	0.001231
1042.707386	0.003586
1042.874661	0.004665
1043.041918	0.005875
1043.209156	0.005516
1043.376376	0.005252
1043.543578	0.006395
1043.710762	0.006645
1043.877927	0.007549
1044.045074	0.008635
1044.212203	0.007902
1044.379314	0.007832
1044.546407	0.006694
1044.713481	0.007351
1044.880537	0.005866
1045.047575	0.004217
1045.214595	0.003165
1045.381596	0.001394
1045.548579	0.001748
1045.715544	-0.000657
1045.882491	0.000553
1046.049420	0.000260
1046.216330	0.000786
1046.383222	0.001998
1046.550096	0.001555
1046.716951	0.002683
1046.883789	0.003251
1047.050608	0.002744
1047.217409	0.003947
1047.384192	0.002311
1047.550956	0.002797
1047.717703	0.001049
1047.884431	0.001262
1048.051140	0.002285
1048.217832	0.001947
1048.384505	0.000680
1048.551161	-0.000284
1048.717798	-0.000344
1048.884416	0.001364
1049.051017	0.002456
1049.217599	0.003256
1049.384163	0.003873
1049.550709	0.004091
1049.717237	0.004057
1049.883746	0.004970
1050.050237	0.004858
1050.216710	0.005100
1050.383165	0.004725
1050.549601	0.004627
1050.716019	0.004509
1050.882420	0.003383
1051.048801	0.003574
1051.215165	0.002321
1051.381510	0.003016
1051.547837	0.003558
1051.714146	0.005211
1051.880437	0.005435
1052.046709	0.003576
1052.212964	0.003743
1052.379200	0.005324
1052.545417	0.004363
1052.711617	0.006418
1052.877798	0.005870
1053.043961	0.007308
1053.210106	0.003485
1053.376233	0.003646
1053.542341	0.003336
1053.708432	0.001153
1053.874504	-0.000100
1054.040557	-0.000093
1054.206593	0.000249
1054.372610	0.000462
1054.538609	-0.001503
1054.704590	0.000382
1054.870553	0.001215
1055.036497	0.003136
1055.202424	0.005896
1055.368331	0.006652
1055.534221	0.007539
1055.700093	0.006935
1055.865946	0.006092
1056.031781	0.005747
1056.197598	0.005645
1056.363397	0.004504
1056.529177	0.004721
1056.694939	0.004203
1056.860683	0.004355
1057.026409	0.004434
1057.192116	0.005089
1057.357806	0.004359
1057.523477	0.005144
1057.689130	0.005829
1057.854764	0.003579
1058.020381	0.002765
1058.185979	0.001774
1058.351559	0.001497
1058.517120	0.001791
1058.682664	0.001671
1058.848189	0.003050
1059.013696	0.002665
1059.179185	0.001978
1059.344656	0.002431
1059.510108	0.002067
1059.675542	0.001685
1059.840958	-0.000720
1060.006356	-0.001696
1060.171735	-0.002714
1060.337096	-0.004326
1060.502439	-0.005458
1060.667764	-0.003265
1060.833071	-0.001433
1060.998359	-0.001101
1061.163629	-0.001211
1061.328881	0.001237
1061.494115	0.001276
1061.659330	0.002130
1061.824527	0.004527
1061.989706	0.004168
1062.154867	0.002260
1062.320010	0.003432
1062.485134	0.002945
1062.650240	0.005012
1062.815328	0.003040
1062.980398	0.002978
1063.145449	0.002201
1063.310482	0.001740
1063.475497	0.002092
1063.640494	0.003179
1063.805473	0.001454
1063.970433	0.001771
1064.135375	0.001045
1064.300299	0.002451
1064.465204	0.002922
1064.630092	0.002643
1064.794961	0.001767
1064.959812	0.003505
1065.124645	0.001493
1065.289459	0.001491
1065.454256	0.000425
1065.619034	0.000678
1065.783793	0.001997
1065.948535	0.000750
1066.113258	0.001416
1066.277964	0.002279
1066.442651	0.000980
1066.607319	0.002229
1066.771970	0.003268
1066.936602	0.003724
1067.101216	0.004838
1067.265812	0.003579
1067.430389	0.004377
1067.594949	0.003417
1067.759490	0.001962
1067.924013	0.003804
1068.088518	0.003613
1068.253004	0.003103
1068.417472	0.005629
1068.581922	0.003588
1068.746354	0.003787
1068.910768	0.004139
1069.075163	0.003544
1069.239540	0.005427
1069.403899	0.004287
1069.568240	0.004428
1069.732562	0.002579
1069.896866	-0.000807
1070.061152	0.000349
1070.225420	-0.000642
1070.389670	-0.001098
1070.553901	0.000481
1070.718114	-0.002452
1070.882309	-0.002807
1071.046486	-0.002737
1071.210644	-0.001615
1071.374784	-0.001420
1071.538906	-0.002162
1071.703010	-0.001710
1071.867096	-0.002394
1072.031163	-0.003864
1072.195212	-0.000476
1072.359243	0.000091
1072.523256	-0.001111
1072.687250	-0.000795
1072.851226	-0.000150
1073.015184	-0.000623
1073.179124	-0.000897
1073.343045	0.000064
1073.506949	-0.000258
1073.670834	-0.000872
1073.834701	-0.002327
1073.998549	-0.000552
1074.162380	0.000748
1074.326192	-0.000146
1074.489986	-0.002208
1074.653761	-0.001495
1074.817519	-0.001366
1074.981258	0.001026
1075.144979	0.000620
1075.308682	0.000941
1075.472367	0.000496
1075.636033	-0.000888
1075.799681	-0.000590
1075.963311	0.000739
1076.126923	-0.000344
1076.290516	0.000062
1076.454092	-0.001199
1076.617649	-0.001607
1076.781187	-0.001583
1076.944708	-0.002787
1077.108210	-0.005351
1077.271695	-0.004117
1077.435160	-0.002938
1077.598608	-0.001496
1077.762038	-0.004027
1077.925449	-0.003865
1078.088842	-0.003836
1078.252217	-0.004771
1078.415573	-0.003318
1078.578912	-0.000349
1078.742232	-0.000231
1078.905534	-0.001172
1079.068817	-0.002591
1079.232083	0.000101
1079.395330	0.000332
1079.558559	-0.000261
1079.721770	0.001808
1079.884962	-0.000627
1080.048136	-0.001477
1080.211293	-0.000045
1080.374430	0.000303
1080.537550	0.000137
1080.700651	-0.001065
1080.863735	-0.001454
1081.026800	-0.000116
1081.189846	0.000091
1081.352875	0.003746
1081.515885	0.004368
1081.678877	0.003449
1081.841851	0.003679
1082.004807	0.006109
1082.167744	0.006241
1082.330663	0.004339
1082.493564	0.003230
1082.656447	0.001496
1082.819312	-0.001656
1082.982158	-0.004091
1083.144986	-0.004771
1083.307796	-0.003869
1083.470587	-0.006349
1083.633361	-0.007792
1083.796116	-0.007050
1083.958853	-0.006230
1084.121571	-0.004195
1084.284272	-0.001835
1084.446954	-0.001478
1084.609618	-0.002273
1084.772264	-0.001695
1084.934892	-0.001411
1085.097501	0.000052
1085.260092	0.000040
1085.422665	-0.000295
1085.585220	-0.002860
1085.747756	-0.003118
1085.910274	-0.001486
1086.072774	-0.000003
1086.235256	-0.001854
1086.397720	-0.002112
1086.560165	-0.003391
1086.722592	-0.000941
1086.885001	0.000150
1087.047392	0.000491
1087.209764	-0.000659
1087.372119	0.000033
1087.534455	-0.001898
1087.696772	-0.002286
1087.859072	-0.001479
1088.021353	-0.001540
1088.183616	-0.003689
1088.345861	-0.005403
1088.508088	-0.002744
1088.670296	-0.000628
1088.832486	-0.000365
1088.994658	0.001528
1089.156812	0.001143
1089.318948	0.000678
1089.481065	0.000826
1089.643164	0.001035
1089.805245	0.000809
1089.967308	-0.001274
1090.129352	-0.000688
1090.291378	-0.000356
1090.453386	0.000043
1090.615376	0.000442
1090.777347	0.003173
1090.939301	0.005004
1091.101236	0.006652
1091.263153	0.009441
1091.425051	0.009671
1091.586932	0.007475
1091.748794	0.006233
1091.910638	0.004287
1092.072463	0.002768
1092.234271	0.001307
1092.396060	-0.001536
1092.557831	-0.004242
1092.719584	-0.004650
1092.881319	-0.004185
1093.043035	-0.005001
1093.204733	-0.002924
1093.366413	-0.003130
1093.528075	-0.000388
1093.689718	-0.001999
1093.851343	0.002635
1094.012950	0.003011
1094.174539	0.001148
1094.336110	-0.000266
1094.497662	0.001533
1094.659196	-0.002681
1094.820712	-0.002708
1094.982210	-0.003408
1095.143689	-0.000787
1095.305151	-0.005270
1095.466594	0.000234
1095.628018	0.000915
1095.789425	0.003084
1095.950813	0.000650
1096.112183	0.003181
1096.273535	0.003612
1096.434869	0.002970
1096.596184	0.000518
1096.757482	0.003203
1096.918761	0.000108
1097.080021	-0.000886
1097.241264	-0.002314
1097.402488	-0.000932
1097.563694	-0.001531
1097.724882	-0.004273
1097.886052	-0.003866
1098.047203	-0.003766
1098.208336	-0.005762
1098.369451	-0.007454
1098.530548	-0.006973
1098.691627	-0.008057
1098.852687	-0.007639
1099.013729	-0.005231
1099.174753	-0.001119
1099.335758	0.001563
1099.496746	0.002324
1099.657715	0.002196
1099.818666	0.000630
1099.979599	-0.001155
1100.140513	0.002552
1100.301409	0.001245
1100.462287	-0.002260
1100.623147	-0.002279
1100.783989	-0.004913
1100.944812	-0.002978
1101.105617	-0.004364
1101.266404	-0.002269
1101.427173	-0.000205
1101.587923	-0.004477
1101.748656	-0.005278
1101.909370	-0.007882
1102.070066	-0.008776
1102.230743	-0.010992
1102.391403	-0.013630
1102.552044	-0.011384
1102.712667	-0.012837
1102.873271	-0.016155
1103.033858	-0.014161
1103.194426	-0.012516
1103.354976	-0.010003
1103.515508	-0.009580
1103.676021	-0.008110
1103.836517	-0.007101
1103.996994	-0.007399
1104.157453	-0.003109
1104.317893	0.000793
1104.478316	0.000961
1104.638720	-0.000253
1104.799106	0.000989
1104.959474	0.001389
1105.119823	0.004683
1105.280155	0.003033
1105.440468	-0.000066
1105.600763	-0.001149
1105.761039	-0.000118
1105.921298	0.002603
1106.081538	0.003311
1106.241760	0.000498
1106.401964	-0.001377
1106.562149	-0.004041
1106.722316	-0.003963
1106.882465	-0.004038
1107.042596	-0.004506
1107.202709	-0.006958
1107.362803	-0.006961
1107.522879	-0.005278
1107.682937	-0.002601
1107.842977	-0.002233
1108.002999	-0.004803
1108.163002	-0.003448
1108.322987	0.000175
1108.482954	0.000435
1108.642902	0.000392
1108.802833	-0.003048
1108.962745	-0.004192
1109.122639	-0.005649
1109.282515	-0.004188
1109.442372	0.003459
1109.602211	0.006965
1109.762032	0.003040
1109.921835	0.000710
1110.081620	0.002567
1110.241386	0.000105
1110.401134	-0.005524
1110.560864	-0.001242
1110.720576	-0.001867
1110.880269	-0.006263
1111.039945	-0.008498
1111.199602	-0.007888
1111.359240	-0.007006
1111.518861	-0.008345
1111.678463	-0.002076
1111.838047	0.002486
1111.997613	-0.001917
1112.157161	-0.002601
1112.316690	-0.002159
1112.476202	-0.006330
1112.635695	-0.004964
1112.795169	-0.005478
1112.954626	-0.001838
1113.114064	-0.001851
1113.273484	-0.002152
1113.432886	0.000252
1113.592270	0.001776
1113.751635	0.001894
1113.910983	0.005121
1114.070312	0.006643
1114.229622	0.004181
1114.388915	-0.000320
1114.548189	-0.006717
1114.707445	-0.006385
1114.866683	-0.006267
1115.025903	-0.010487
1115.185104	-0.010524
1115.344287	-0.011541
1115.503452	-0.012348
1115.662599	-0.013861
1115.821727	-0.014278
1115.980838	-0.011064
1116.139930	-0.015993
1116.299004	-0.017722
1116.458059	-0.014521
1116.617097	-0.017777
1116.776116	-0.018141
1116.935117	-0.013231
1117.094099	-0.006381
1117.253064	-0.003386
1117.412010	-0.000859
1117.570938	0.004500
1117.729848	-0.000247
1117.888740	0.000214
1118.047613	0.007878
1118.206468	0.008408
1118.365305	0.004810
1118.524124	0.002080
1118.682924	-0.001219
1118.841707	-0.005216
1119.000471	-0.005667
1119.159216	-0.005735
1119.317944	-0.005351
1119.476653	-0.009932
1119.635344	-0.003381
1119.794017	-0.009771
1119.952672	-0.008919
1120.111308	-0.006730
1120.269927	-0.006523
1120.428527	-0.003304
1120.587108	0.004436
1120.745672	0.006478
1120.904217	0.001577
1121.062744	-0.003858
1121.221253	-0.000677
1121.379744	-0.004200
1121.538216	-0.005382
1121.696671	-0.000216
1121.855107	-0.004378
1122.013524	-0.003701
1122.171924	-0.009271
1122.330305	-0.005775
1122.488668	-0.009006
1122.647013	-0.006840
1122.805340	-0.004664
1122.963648	-0.005178
1123.121938	-0.005411
1123.280210	-0.003531
1123.438464	-0.003592
1123.596700	0.000288
1123.754917	0.002191
1123.913116	0.005088
1124.071297	0.003536
1124.229459	0.008131
1124.387604	0.011182
1124.545730	0.008415
1124.703838	0.006405
1124.861928	0.006151
1125.019999	0.005268
1125.178052	0.001253
1125.336088	-0.001063
1125.494104	0.007508
1125.652103	0.004787
1125.810083	0.002887
1125.968045	0.004666
1126.125989	0.001368
1126.283915	-0.002192
1126.441823	-0.004309
1126.599712	0.000051
1126.757583	0.002266
1126.915436	-0.004536
1127.073270	-0.008930
1127.231087	-0.011948
1127.388885	-0.016906
1127.546665	-0.007772
1127.704426	-0.007606
1127.862170	-0.001198
1128.019895	-0.004081
1128.177602	-0.004074
1128.335291	0.000806
1128.492961	0.004600
1128.650614	0.008516
1128.808248	0.008183
1128.965864	0.006199
1129.123461	0.002774
1129.281041	-0.003173
1129.438602	-0.004982
1129.596145	-0.005902
1129.753670	-0.012730
1129.911176	-0.015793
1130.068665	-0.016295
1130.226135	-0.010398
1130.383587	-0.010747
1130.541020	-0.005102
1130.698436	0.000272
1130.855833	0.001587
1131.013212	0.004140
1131.170573	0.000404
1131.327915	0.007510
1131.485239	0.006897
1131.642545	0.003223
1131.799833	-0.003956
1131.957103	-0.003843
1132.114354	-0.003052
1132.271588	0.000633
1132.428803	0.000021
1132.585999	0.005411
1132.743178	0.000404
1132.900338	0.001278
1133.057480	0.002810
1133.214604	0.006872
1133.371710	0.008027
1133.528797	0.001254
1133.685866	0.000928
1133.842917	-0.005512
1133.999950	-0.009357
1134.156964	-0.006280
1134.313960	-0.014426
1134.470938	-0.011913
1134.627898	-0.008412
1134.784840	-0.008278
1134.941763	-0.003500
1135.098668	-0.004444
1135.255555	0.000999
1135.412424	0.006957
1135.569274	-0.003187
1135.726107	0.006498
1135.882921	0.001773
1136.039716	-0.001625
1136.196494	-0.003814
1136.353253	-0.014211
1136.509995	-0.011657
1136.666717	-0.010332
1136.823422	-0.017431
1136.980109	-0.011135
1137.136777	-0.009274
1137.293427	-0.007347
1137.450059	-0.009804
1137.606672	-0.007541
1137.763267	0.000629
1137.919844	-0.002292
1138.076403	-0.011247
1138.232944	0.003230
1138.389466	0.002573
1138.545971	0.000247
1138.702457	0.000717
1138.858924	0.008144
1139.015374	0.008256
1139.171805	0.004249
1139.328218	0.001489
1139.484613	0.012970
1139.640990	0.004923
1139.797348	0.007554
1139.953688	0.011006
1140.110010	0.006301
1140.266314	0.005420
1140.422600	0.000095
1140.578867	-0.001391
1140.735116	0.006741
1140.891347	0.004713
1141.047559	0.004885
1141.203754	0.008488
1141.359930	0.003047
1141.516088	-0.001768
1141.672228	-0.010685
1141.828349	-0.002781
1141.984452	0.002778
1142.140537	-0.003471
1142.296604	-0.004583
1142.452653	0.002669
1142.608683	0.000972
1142.764695	0.004785
1142.920689	0.011435
1143.076665	0.014335
1143.232622	0.005625
1143.388562	0.010028
1143.544483	0.011659
1143.700385	0.009259
1143.856270	0.006404
1144.012136	0.004727
1144.167985	0.006184
1144.323814	0.011380
1144.479626	0.016283
1144.635420	0.016312
1144.791195	0.008133
1144.946952	0.002249
1145.102691	0.004617
1145.258411	0.000152
1145.414113	0.002430
1145.569798	-0.008668
1145.725463	-0.009481
1145.881111	-0.006885
1146.036741	-0.009551
1146.192352	-0.011937
1146.347945	-0.007721
1146.503519	-0.004705
1146.659076	-0.011020
1146.814614	-0.011968
1146.970134	-0.012676
1147.125636	-0.017196
1147.281120	-0.017417
1147.436585	-0.008492
1147.592032	-0.002023
1147.747461	0.001563
1147.902872	-0.006137
1148.058265	-0.001478
1148.213639	-0.000985
1148.368995	-0.003906
1148.524333	-0.006563
1148.679653	-0.013041
1148.834954	-0.018409
1148.990237	-0.028029
1149.145502	-0.028900
1149.300749	-0.020711
1149.455977	-0.022385
1149.611188	-0.030936
1149.766380	-0.024662
1149.921553	-0.010774
1150.076709	-0.015701
1150.231846	-0.007730
1150.386966	0.002423
1150.542066	0.001941
1150.697149	-0.000324
1150.852214	0.005491
1151.007260	0.015701
1151.162288	0.001414
1151.317298	-0.004693
1151.472289	-0.000521
1151.627263	-0.006278
1151.782218	-0.016387
1151.937155	-0.022473
1152.092073	-0.027379
1152.246974	-0.031398
1152.401856	-0.041143
1152.556720	-0.021576
1152.711566	-0.017362
1152.866393	-0.012691
1153.021203	-0.009785
1153.175994	-0.004300
1153.330767	0.002887
1153.485521	0.004101
1153.640258	0.008609
1153.794976	0.007781
1153.949676	0.002931
1154.104358	-0.013741
1154.259021	-0.017021
1154.413667	-0.017138
1154.568294	-0.011017
1154.722903	-0.008739
1154.877493	-0.004058
1155.032066	-0.008457
1155.186620	-0.003908
1155.341156	-0.008332
1155.495674	0.009522
1155.650173	0.005927
1155.804654	-0.003792
1155.959118	-0.009751
1156.113562	-0.008730
1156.267989	-0.008211
1156.422397	0.004472
1156.576788	0.016838
1156.731160	0.024890
1156.885513	0.019584
1157.039849	0.031048
1157.194166	0.037501
1157.348465	0.053732
1157.502746	0.039775
1157.657009	0.030315
1157.811253	0.017232
1157.965479	0.016175
1158.119687	0.018990
1158.273877	0.006751
1158.428048	-0.000066
1158.582201	-0.005713
1158.736337	-0.022790
1158.890453	-0.021234
1159.044552	-0.020583
1159.198632	-0.010781
1159.352694	-0.020359
1159.506738	-0.020158
1159.660764	-0.012106
1159.814771	-0.003261
1159.968761	0.015205
1160.122732	0.019115
1160.276685	0.031132
1160.430619	0.040143
1160.584535	0.034586
1160.738434	0.050282
1160.892313	0.050126
1161.046175	0.046044
1161.200019	0.044902
1161.353844	0.034042
1161.507651	0.027273
1161.661440	0.011412
1161.815210	0.012445
1161.968962	0.014237
1162.122697	-0.009988
1162.276412	-0.010795
1162.430110	0.001298
1162.583789	-0.006496
1162.737451	-0.005391
1162.891094	0.003469
1163.044718	0.030412
1163.198325	0.003858
1163.351913	-0.008820
1163.505483	-0.006402
1163.659035	-0.018579
1163.812569	-0.041984
1163.966084	-0.047303
1164.119581	-0.047787
1164.273060	-0.051453
1164.426521	-0.073997
1164.579964	-0.042916
1164.733388	-0.041904
1164.886794	-0.052395
1165.040182	-0.038368
1165.193551	-0.017821
1165.346903	-0.011441
1165.500236	-0.024995
1165.653551	-0.045434
1165.806848	-0.036012
1165.960126	-0.055432
1166.113386	-0.034830
1166.266628	-0.018499
1166.419852	-0.024008
1166.573058	-0.037499
1166.726245	-0.038878
1166.879414	-0.049757
1167.032565	-0.032336
1167.185698	-0.048641
1167.338812	-0.037590
1167.491909	-0.056594
1167.644987	-0.047845
1167.798046	-0.055269
1167.951088	-0.057170
1168.104111	-0.062145
1168.257117	-0.061532
1168.410103	-0.051113
1168.563072	-0.033620
1168.716023	-0.020634
1168.868955	-0.020267
1169.021869	-0.029101
1169.174765	-0.037388
1169.327642	-0.018763
1169.480501	-0.017508
1169.633343	0.003797
1169.786165	0.013855
1169.938970	-0.006130
1170.091757	-0.012482
1170.244525	0.006591
1170.397275	-0.004391
1170.550007	0.014498
1170.702720	-0.009204
1170.855415	-0.008471
1171.008092	-0.011727
1171.160751	-0.029581
1171.313392	-0.018039
1171.466014	-0.050498
1171.618619	-0.041006
1171.771205	-0.041006
1171.923772	-0.041006
