sample name	sample
index	1049
start time	 04-19-2021  02:29:55 PM
880	0.220258
Peak Time (s)	101.037
Peak Height 	0.2203
calc peak height	100,103
Baseline Time (s)	9.539
Baseline Value 	-0.004053
subtract baseline	10,4
Abs	0.158016
Peak Time (s)	100.035
Peak Height 	0.158
calc peak height	100,103
Baseline Time (s)	10.537
Baseline Value 	0.001548
subtract baseline	10,3
PK_550	0.102277
Peak Time (s)	102.537
Peak Height 	0.1023
calc peak height	100,103
Baseline Time (s)	10.537
Baseline Value 	7.4642E-4
subtract baseline	10,2
PK_880	0.156455
Peak Time (s)	102.537
Peak Height 	0.1565
calc peak height	100,103
Baseline Time (s)	9.036
Baseline Value 	0.001319
subtract baseline	10,1


Time (s)	A880-A510	A880-A775	A880-A975	A880	I510	I775	I975	I880	
0.036500	0.001053	-0.000740	0.002963	0.002381	6581.990317	45863.990887	4001.406362	24305.511284
0.542000	-0.001575	-0.001100	-0.004032	0.003317	6552.093856	45736.178579	3981.192250	24259.453063
1.037000	-0.000102	-0.001034	-0.003420	0.003164	6565.696398	45757.695879	3983.126905	24266.957006
1.537500	-0.003412	-0.001701	-0.003907	0.006464	6510.705087	45368.913978	3973.586346	24105.394464
2.034500	0.001227	0.000007	-0.000020	0.001564	6590.345385	46018.581957	3995.849929	24345.759015
2.537500	-0.000810	-0.000398	0.001051	0.001543	6573.370173	45980.574207	3998.648699	24346.809914
3.035000	-0.000200	-0.000178	0.001891	-0.000914	6599.225467	46246.268779	4007.138530	24468.351501
3.535500	-0.000428	-0.000607	-0.002907	0.001969	6572.988838	45917.712751	3987.455222	24325.762617
4.035500	0.000161	0.000175	0.005088	0.001040	6585.773473	46087.189908	4010.354424	24371.619693
4.536000	0.001024	-0.000714	-0.001140	0.000066	6601.290296	46095.575064	3996.818393	24419.795287
5.039000	-0.000004	-0.000685	0.004462	0.000564	6588.385846	46049.048985	4009.966064	24395.124994
5.537000	-0.001210	-0.000536	-0.002159	0.000010	6582.891231	46118.792198	3994.353743	24422.542015
6.037000	0.000430	-0.000566	-0.000559	-0.000260	6599.021163	46142.685399	3999.141942	24435.919442
6.537500	-0.001216	-0.000962	-0.000156	-0.000437	6586.608822	46120.889540	4000.631071	24444.682740
7.037000	-0.001215	-0.000655	0.001320	-0.000245	6585.004727	46132.328532	4003.936081	24435.180303
7.535000	-0.001672	-0.000868	-0.000252	-0.000725	6585.189613	46158.817858	4001.124538	24458.943848
8.035500	0.000208	-0.000025	0.001768	0.000165	6593.547893	46154.159658	4004.034199	24414.879095
8.535000	-0.000227	-0.000049	-0.000159	-0.000025	6591.480643	46170.685778	3999.564489	24424.278088
9.036000	0.000000	-0.000099	-0.002959	-0.000440	6596.906778	46206.970987	3993.460572	24444.850981
9.539000	0.002263	0.000045	0.001004	0.000000	6612.351070	46177.481988	4002.492104	24423.040539
10.036500	0.001402	0.000147	0.000472	0.000295	6602.546259	46158.385085	4000.366151	24408.456909
10.536500	-0.000036	0.000000	0.000000	-0.000265	6595.119576	46199.375864	4000.590051	24436.153108
11.037000	0.001253	0.000017	0.002393	0.000128	6602.696609	46161.956418	4005.742718	24416.697019
11.534000	-0.004052	-0.000298	-0.005578	0.004763	6519.478743	45672.870654	3973.663584	24188.533563
12.038000	-0.000721	-0.000179	-0.002957	0.000086	6586.381098	46146.732774	3992.121100	24418.790930
12.597000	-0.001449	-0.000144	-0.002622	0.000462	6577.081044	46112.843645	3992.015166	24400.168764
13.044000	-0.001601	-0.000470	-0.001195	-0.001687	6593.917221	46294.251821	4001.173976	24506.727463
13.536000	-0.004567	-0.000426	-0.007856	0.005886	6505.950858	45550.179880	3965.168193	24133.638945
14.052500	-0.004405	-0.000275	-0.001001	0.000833	6549.210131	46062.997364	3995.208148	24381.829962
14.535500	-0.007351	-0.001478	-0.001779	0.002199	6513.403925	45809.062001	3989.740832	24314.468874
15.057500	-0.001934	-0.000036	-0.002519	0.001714	6562.500511	45999.435908	3989.088981	24338.344623
15.547000	-0.005656	-0.000682	-0.002529	0.007470	6483.980352	45370.258897	3974.522276	24056.409877
16.034000	-0.001004	-0.000171	-0.005459	0.001446	6572.552957	46012.617345	3982.315328	24351.581334
16.534000	0.000362	0.000049	0.000878	0.001220	6585.945809	46056.730882	3999.029623	24362.704515
17.037000	0.000928	-0.000031	-0.000288	0.001648	6587.113529	46006.530345	3994.950596	24341.632555
17.535000	-0.005820	-0.000778	-0.000254	0.005651	6497.560611	45538.619286	3984.844289	24145.076499
18.036000	-0.000409	0.000352	0.003913	-0.000741	6595.996279	46281.848515	4011.927780	24459.777320
18.539000	-0.004941	0.000286	0.000502	0.002219	6533.207524	45981.330255	3995.507926	24313.463463
19.036000	-0.000759	0.000052	-0.003912	0.002297	6567.462206	45950.440195	3984.077260	24309.637476
19.536500	-0.004404	-0.000923	-0.003687	0.003410	6527.777881	45744.530593	3981.829366	24254.902256
20.037000	-0.002834	0.000447	-0.001373	0.002913	6544.963129	45928.613665	3988.955626	24279.302367
20.537000	-0.005982	-0.000523	-0.003222	0.001751	6528.444253	45947.579225	3987.209771	24336.518068
21.037000	-0.002205	-0.000232	-0.001461	0.002597	6552.851238	45892.730522	3989.534283	24294.849989
21.540000	-0.003887	0.000199	-0.003557	0.003781	6528.988042	45818.380451	3981.221393	24236.666684
22.035000	-0.002669	-0.000776	0.001265	0.002050	6553.541079	45892.984381	3997.894065	24321.788605
22.535000	-0.003611	-0.000131	-0.003614	0.001738	6548.284316	45987.607705	3986.246488	24337.154841
23.038500	-0.001814	-0.000296	-0.000469	0.002002	6561.090937	45945.200247	3993.581534	24324.145571
23.536000	-0.004352	-0.000426	0.000512	0.004361	6520.331089	45699.831626	3990.069305	24208.252944
24.036000	-0.000901	0.000065	-0.001819	0.002358	6565.763198	45945.699121	3989.232853	24306.632029
24.537000	-0.001724	-0.000628	-0.001867	0.001929	6562.459650	45919.637496	3990.202522	24327.743849
25.036500	-0.002328	-0.000186	-0.002843	0.002077	6556.168373	45948.662119	3987.343281	24320.457357
25.534000	-0.004764	-0.000513	-0.000574	0.002121	6535.494345	45912.043564	3993.009089	24318.313001
26.037000	-0.002093	-0.000917	-0.006900	0.001505	6562.923003	45932.971460	3978.529400	24348.678881
26.535000	-0.002584	-0.000547	-0.002377	0.002274	6552.386453	45893.526212	3988.026977	24310.767486
27.035000	-0.003743	0.000242	-0.001654	0.002892	6537.570637	45910.428232	3988.295581	24280.356421
27.538000	-0.004597	-0.000540	-0.003542	0.002695	6532.107544	45852.686057	3984.005203	24290.040427
28.036000	-0.000526	0.000423	0.001436	-0.000551	6593.395468	46269.909147	4005.022493	24450.310887
28.536000	-0.002038	-0.000565	-0.001908	0.000349	6573.087161	46082.343273	3994.130222	24405.793361
29.045500	-0.000997	0.000002	0.002857	0.000801	6578.034874	46093.720375	4005.202584	24383.441289
29.536500	-0.003108	-0.001296	-0.002246	0.000233	6565.081609	46021.407386	3993.560946	24411.532926
30.036500	-0.004329	-0.001073	0.000434	0.000305	6554.257007	46036.365178	4000.242556	24407.968222
30.537500	-0.001430	-0.000330	-0.002878	0.000397	6577.786004	46100.839457	3991.530565	24403.393617
31.035000	-0.001990	-0.001118	-0.002873	0.000295	6573.935801	46032.811569	3991.801871	24408.432934
31.535000	-0.004788	0.000233	0.002336	0.006071	6502.604176	45596.581281	3990.356844	24124.581242
32.038000	-0.003284	-0.000885	-0.000982	0.002597	6543.847634	45828.309875	3990.754292	24294.843642
32.563500	-0.001677	-0.000370	-0.004501	0.000501	6574.837307	46086.593987	3987.135906	24398.270706
33.036000	-0.002670	-0.000909	-0.002573	0.000051	6570.282095	46077.812039	3993.191366	24420.539276
33.536500	-0.006004	-0.000765	-0.002104	0.005551	6496.875464	45549.816212	3980.420178	24149.997478
34.036500	-0.002941	-0.000856	-0.002834	0.000155	6567.135320	46072.708029	3992.260549	24415.384752
34.536500	-0.004499	-0.000452	0.002216	0.000502	6551.189187	46078.314301	4004.319775	24398.206427
35.040000	-0.000666	0.000035	0.002624	0.002844	6563.662202	45894.749457	3999.344876	24282.720666
35.534500	-0.003835	-0.000645	-0.001846	0.003966	6527.879416	45717.069683	3985.081477	24227.592237
36.035000	-0.002737	-0.000992	-0.007811	0.001923	6554.038128	45884.284721	3975.188775	24328.070434
36.538000	-0.002909	-0.000467	-0.000143	0.001899	6552.798964	45938.552079	3994.679135	24329.253955
37.035500	-0.003022	-0.001440	-0.001284	0.001172	6557.926375	45914.142809	3993.617217	24365.075319
37.535500	-0.002752	-0.000589	-0.002803	0.002845	6546.211779	45833.011819	3985.496811	24282.657410
38.036000	-0.003371	-0.000050	-0.005373	0.001750	6550.187035	45994.566733	3981.765434	24336.595406
38.536000	-0.002232	-0.000212	-0.003403	0.001325	6563.264810	46020.577125	3987.831945	24357.553542
39.037000	-0.002559	-0.000595	-0.003506	0.000924	6563.882861	46022.335426	3988.590091	24377.354386
39.537000	-0.004558	-0.000576	-0.006182	0.001222	6544.682242	45994.680021	3981.054075	24362.609403
40.037000	-0.005131	-0.000523	-0.003046	0.000720	6544.090922	46049.590450	3990.277282	24387.401614
40.535000	-0.003505	-0.000112	-0.000474	0.001025	6555.121260	46060.134398	3996.064740	24372.348246
41.037500	-0.002695	-0.000502	-0.000990	0.000630	6565.206315	46060.653084	3995.754961	24391.861969
41.535500	-0.005449	-0.000873	-0.004418	0.001847	6532.080814	45903.580331	3983.936383	24331.820978
42.035500	-0.003898	-0.000427	-0.002121	0.000638	6555.070122	46067.243793	3992.844853	24391.462291
42.536000	-0.003399	-0.000768	-0.003928	0.000698	6558.740281	46027.563638	3988.091219	24388.496851
43.036000	-0.004055	-0.000560	0.001791	0.000669	6553.502095	46051.091413	4002.796013	24389.950888
43.536500	-0.003258	-0.000225	-0.004414	0.002916	6541.413428	45861.968564	3981.241533	24279.183335
44.037000	-0.005076	-0.000786	-0.003927	0.000465	6546.676318	46048.822299	3988.684388	24400.017462
44.537500	-0.003198	0.000397	-0.002495	0.001840	6550.877963	46029.854541	3988.831721	24332.149999
45.037500	-0.000680	0.000260	-0.002696	-0.001498	6600.100046	46348.125957	3996.836416	24497.306933
45.540500	-0.004601	-0.000503	-0.002723	0.003323	6526.861602	45794.422943	3984.489513	24259.163444
46.035500	-0.004520	-0.000400	-0.001644	-0.000618	6560.379060	46194.734895	3997.278655	24453.674562
46.535500	-0.000184	-0.000063	0.003450	-0.000829	6598.640817	46249.243514	4010.955271	24464.125714
47.035000	-0.001966	-0.001085	0.000376	-0.001464	6588.953747	46210.768677	4004.645477	24495.649009
47.536000	-0.006468	-0.000481	0.000370	0.003322	6511.418644	45796.586661	3992.353193	24259.197645
48.036500	0.000028	-0.000598	-0.001917	-0.000568	6598.220549	46170.022583	3996.450690	24451.180936
48.567000	0.000544	-0.000265	0.001934	-0.001002	6606.266962	46246.348999	4007.475197	24472.707778
49.037000	-0.002028	-0.001611	-0.003340	0.000541	6571.551843	45959.739841	3989.985990	24396.296668
49.537000	-0.001477	0.000140	-0.001474	0.004196	6545.585873	45771.755641	3985.442192	24216.332963
50.056500	0.000342	-0.000414	-0.003278	-0.001112	6605.490410	46242.560299	3994.360887	24478.179744
50.535000	-0.000771	-0.000644	0.003432	-0.001765	6601.592478	46284.595648	4013.338397	24510.592732
51.034500	-0.000243	-0.000497	0.005400	-0.001179	6601.092514	46240.833822	4016.934611	24481.462864
51.535500	-0.001864	-0.001076	0.002570	0.002852	6553.563510	45784.323652	3999.184994	24282.309738
52.036000	-0.000841	0.001826	-0.002462	0.012449	6482.629722	45129.875139	3962.262284	23815.491032
52.536500	0.008243	-0.009540	0.015810	0.084429	6002.973310	37773.578908	3836.885999	20624.552321
53.036000	0.023307	-0.009875	-0.004209	0.243704	5133.277437	27079.723086	3514.746671	15190.006996
53.536500	-0.010565	-0.021268	-0.033524	-0.046298	6907.757880	48734.262404	4033.205772	26841.649567
54.037000	-0.007319	-0.122502	-0.026455	-0.283419	9852.117075	65535.000000	4900.103331	44214.120443
54.540000	-0.004629	-0.123006	-0.018348	-0.283924	9903.244595	65535.000000	4940.468829	44262.091859
55.035000	-0.006059	-0.097548	-0.017282	-0.258465	9484.304154	65535.000000	4828.178762	41908.465026
55.535000	0.000328	-0.091557	-0.013946	-0.252474	9490.295423	65535.000000	4816.329233	41374.332639
56.035500	-0.001648	-0.068458	-0.009469	-0.225713	9069.940122	65009.988758	4719.704230	39076.561406
56.535000	-0.004967	-0.062303	-0.010561	-0.217387	8907.357757	64700.774500	4680.332810	38390.026456
57.036000	-0.001971	-0.070944	-0.010143	-0.229704	9122.041582	65225.161348	4733.772356	39410.289638
57.535500	0.000849	-0.062734	-0.003928	-0.218183	8999.118146	64752.518097	4711.318301	38455.064834
58.036000	0.000938	-0.033492	-0.003322	-0.172821	8397.810911	62502.560912	4532.425835	34931.009971
58.536500	0.003367	-0.015082	0.001683	-0.120349	7802.173988	58014.314435	4361.806737	31288.313590
59.040000	0.005247	-0.010961	0.000949	-0.098467	7582.635585	55809.751729	4286.838997	29894.501411
59.534500	0.011965	-0.005525	0.004218	-0.077101	7428.163024	53907.869352	4229.601957	28599.703677
60.037500	0.015241	-0.001101	0.005469	-0.056162	7248.686674	52008.509803	4169.986506	27391.133991
60.535000	0.020604	0.003027	0.016029	-0.032606	7071.310380	49864.592136	4132.089187	26099.371873
61.035500	0.022600	0.007102	0.017451	0.003391	6759.078164	46543.550755	4036.612136	24255.838423
61.536000	0.025794	0.010805	0.022655	0.011899	6712.440044	46064.437371	4027.880383	23841.959636
62.036000	0.029279	0.011919	0.025182	0.022077	6654.521035	45174.921807	4007.911343	23357.406027
62.536000	0.035945	0.018161	0.031037	0.054326	6441.175142	42723.682585	3941.669348	21895.034530
63.037000	0.039665	0.021755	0.033718	0.069873	6346.715371	41645.399179	3910.811050	21227.902062
63.539500	0.050844	0.026518	0.050018	0.098542	6211.642249	39575.670229	3881.989295	20058.540580
64.037000	0.056212	0.029864	0.054715	0.119396	6096.518135	38130.616190	3845.560965	19255.185071
64.534500	0.063181	0.034572	0.061902	0.124792	6108.026055	38075.033960	3849.534040	19053.536693
65.035000	0.068161	0.038330	0.070469	0.138676	6043.429198	37266.681669	3837.789016	18546.001213
65.535000	0.078165	0.043978	0.077259	0.154356	6002.933833	36484.271416	3818.473343	17992.006889
66.035500	0.087640	0.050577	0.088587	0.157320	6049.435734	36765.692499	3836.636262	17889.528145
66.536000	0.092653	0.054456	0.095035	0.161371	6056.360822	36752.339748	3841.905087	17750.563768
67.036000	0.099679	0.059955	0.104773	0.181560	5962.874053	35629.823017	3819.140737	17077.073672
67.539500	0.107949	0.063671	0.111228	0.183418	6008.060503	35769.769353	3829.086269	17016.657032
68.039500	0.114545	0.071011	0.113026	0.191415	5998.127971	35720.202950	3815.697932	16759.505417
68.537000	0.115681	0.071694	0.115267	0.195314	5978.640043	35478.753932	3812.150484	16635.833275
69.035000	0.116859	0.072936	0.117312	0.185684	6055.589458	36302.104921	3837.428078	16943.309423
69.535000	0.115778	0.074089	0.118013	0.188768	6025.708560	36154.352926	3832.212685	16844.094819
70.056000	0.121330	0.077637	0.120527	0.179213	6135.467657	37169.836875	3858.921484	17153.775394
70.535500	0.121464	0.078395	0.122825	0.177720	6147.517786	37347.384464	3867.463542	17202.774752
71.035500	0.122939	0.080678	0.122422	0.180601	6137.099717	37300.138593	3860.057937	17108.363210
71.547000	0.127717	0.082216	0.130801	0.175062	6214.320039	37863.582246	3891.831285	17290.437613
72.036500	0.132135	0.083012	0.129264	0.174821	6249.799161	37946.875380	3888.827482	17298.406061
72.539500	0.132887	0.083996	0.129896	0.173892	6262.688048	38101.183422	3892.444216	17329.187719
73.037000	0.130786	0.084150	0.129113	0.177816	6216.707653	37797.799541	3881.578695	17199.615835
73.537000	0.126446	0.083879	0.122915	0.178926	6175.661433	37687.334606	3864.941638	17163.179442
74.037000	0.129402	0.086463	0.131632	0.173980	6235.344422	38293.972692	3896.277481	17326.287344
74.535000	0.134370	0.086474	0.135262	0.174666	6268.142840	38239.157735	3903.157825	17303.529332
75.035000	0.130056	0.085689	0.133915	0.178450	6206.382324	37870.436299	3891.194083	17178.792488
75.535000	0.131892	0.087444	0.136530	0.180310	6206.207220	37861.973507	3892.947529	17117.876087
76.036000	0.137239	0.089109	0.137552	0.175492	6283.905766	38386.227639	3906.599650	17276.210767
76.536500	0.139509	0.088613	0.141253	0.175950	6297.952194	38308.609607	3914.260534	17261.093235
77.039500	0.139784	0.089568	0.134969	0.183755	6239.974142	37756.079484	3881.387106	17005.697695
77.537000	0.138028	0.088571	0.137089	0.184869	6218.138571	37587.576656	3883.701566	16969.638723
78.037000	0.140302	0.089975	0.145230	0.180988	6265.144339	38011.023472	3911.746825	17095.716201
78.537500	0.141141	0.090631	0.137073	0.180901	6272.275017	38071.002004	3892.835657	17098.564509
79.037000	0.139215	0.090670	0.145005	0.187113	6210.139046	37576.066161	3896.836843	16897.253875
79.535000	0.140166	0.091881	0.138894	0.188003	6210.599385	37601.660974	3880.647723	16868.653304
80.035500	0.143953	0.091942	0.141490	0.182444	6282.067426	38052.218874	3899.528766	17048.280617
80.535500	0.144861	0.091920	0.142767	0.181967	6292.788517	38088.963772	3903.637849	17063.815454
81.036000	0.142930	0.092084	0.139564	0.187635	6234.373398	37647.093905	3883.032140	16880.462510
81.542000	0.143570	0.092544	0.148242	0.188166	6235.212996	37641.478094	3901.941655	16863.419547
82.036500	0.146445	0.092784	0.147138	0.182897	6297.867458	38083.644411	3911.745327	17033.570316
82.537000	0.145826	0.093878	0.148849	0.184315	6282.086201	38057.502328	3912.438956	16987.572104
83.034000	0.142768	0.094741	0.144871	0.190094	6214.462483	37662.877179	3889.600828	16801.655384
83.537500	0.143939	0.095356	0.151095	0.185390	6259.261967	38089.989006	3915.214642	16952.792490
84.034500	0.146794	0.095722	0.148578	0.185944	6276.975984	38074.814837	3907.950380	16934.914581
84.535000	0.142247	0.095723	0.148432	0.185503	6245.435654	38110.577789	3908.646935	16949.149034
85.035500	0.142692	0.096448	0.147625	0.193323	6189.524308	37541.625368	3888.501488	16698.838835
85.535500	0.145950	0.095544	0.148874	0.188193	6253.190804	37879.433123	3903.360380	16862.548651
86.039000	0.143820	0.094320	0.147891	0.188651	6233.412156	37744.525886	3899.981437	16847.830171
86.536000	0.149280	0.096236	0.153085	0.191751	6251.443178	37649.968993	3904.891131	16748.807691
87.036500	0.145137	0.095482	0.154452	0.197089	6179.610947	37167.356639	3895.605490	16579.922416
87.537500	0.149643	0.095745	0.151462	0.193812	6238.466542	37447.036779	3896.273953	16683.357721
88.037000	0.146635	0.095032	0.153079	0.194047	6213.811922	37371.877945	3899.498866	16675.916193
88.537000	0.149377	0.096040	0.151682	0.195242	6225.544503	37357.047174	3893.456695	16638.110381
89.035000	0.144342	0.095976	0.152105	0.201844	6138.285915	36833.829243	3879.203677	16431.209114
89.535500	0.146689	0.095570	0.151061	0.202195	6153.089824	36774.906267	3876.013397	16420.291440
90.036000	0.150434	0.095769	0.156033	0.197408	6217.128959	37164.776646	3898.545430	16569.873890
90.539000	0.151844	0.098055	0.153401	0.199821	6209.538882	37154.809558	3886.835040	16494.269750
91.036000	0.150912	0.096493	0.152565	0.199316	6206.306185	37071.823439	3886.071093	16510.061088
91.536500	0.151218	0.098045	0.157434	0.201280	6193.808762	37039.559383	3892.792382	16448.756467
92.036500	0.152530	0.097984	0.156485	0.201884	6199.137562	36987.451770	3889.193981	16429.949004
92.534500	0.152355	0.098666	0.151701	0.203163	6188.198729	36940.746668	3875.264546	16390.246760
93.035000	0.153285	0.098101	0.156222	0.203876	6189.825453	36841.018235	3883.990000	16368.139512
93.535000	0.148129	0.097973	0.153704	0.209937	6106.580215	36362.208570	3864.437722	16181.801606
94.035500	0.151596	0.098328	0.156839	0.205336	6166.239044	36745.104228	3882.052332	16323.024256
94.536000	0.154479	0.098979	0.155085	0.206292	6180.654701	36721.432018	3875.847956	16293.564642
95.039000	0.155393	0.099716	0.151370	0.207616	6177.580358	36675.866133	3864.410525	16252.851358
95.536500	0.149431	0.099284	0.153423	0.213233	6092.008378	36210.125275	3856.401990	16081.569616
96.036000	0.150472	0.099646	0.154873	0.208367	6135.380797	36612.280929	3870.640515	16229.838623
96.537000	0.153512	0.100291	0.154019	0.209422	6150.088755	36580.607520	3866.315727	16197.557117
97.037000	0.154031	0.101126	0.155100	0.211101	6141.487978	36515.372854	3864.963276	16146.340754
97.537000	0.151411	0.099619	0.148905	0.216281	6084.230747	36003.360161	3839.616396	15989.557032
98.034500	0.155239	0.101605	0.154598	0.212556	6139.655962	36440.118767	3860.556293	16102.107072
98.534500	0.152501	0.100595	0.154163	0.212552	6119.479922	36362.804473	3859.586263	16102.228327
99.035500	0.150467	0.100011	0.149571	0.217621	6067.654903	35931.351257	3838.133585	15949.284639
99.538500	0.151863	0.100371	0.157316	0.218739	6069.669681	35873.900112	3852.798408	15915.806675
100.035500	0.153843	0.101019	0.158016	0.214183	6117.357286	36270.190032	3864.589789	16052.824777
100.536500	0.154554	0.101993	0.154551	0.215274	6114.563188	36261.206575	3854.360420	16019.871901
101.036500	0.150192	0.101015	0.149112	0.220258	6046.651370	35807.742990	3831.358727	15870.427639
101.536500	0.153200	0.101923	0.154323	0.215441	6103.405327	36243.025243	3853.478662	16014.831408
102.037000	0.154460	0.101441	0.156636	0.215502	6112.201662	36201.585156	3858.517201	16013.017248
102.537000	0.156455	0.102277	0.154609	0.216376	6120.440867	36198.693735	3852.033635	15986.702742
103.035000	0.151376	0.101741	0.152235	0.220136	6056.055379	35871.830896	3838.460405	15874.072179
103.535500	0.154494	0.100952	0.160111	0.216226	6107.132108	36108.911187	3864.704966	15991.186834
104.038000	0.154754	0.103087	0.159464	0.217970	6096.285371	36138.729376	3859.324200	15938.826085
104.539000	0.156747	0.102628	0.157273	0.218503	6106.958042	36063.145148	3853.228615	15922.858684
105.036000	0.151176	0.101602	0.157450	0.220359	6053.009793	35844.448100	3849.490094	15867.422016
105.536500	0.156523	0.103101	0.158505	0.219322	6099.329723	36036.803882	3854.149449	15898.365264
106.036500	0.154055	0.103126	0.159266	0.220005	6076.385277	35986.800807	3854.324942	15877.989941
106.537000	0.154746	0.103537	0.162154	0.220554	6077.413023	35976.268413	3859.561320	15861.604722
107.034500	0.152300	0.102177	0.155760	0.224408	6032.016142	35582.824760	3836.824099	15747.320024
107.538000	0.154848	0.102301	0.157646	0.220371	6079.475974	35896.487872	3849.897836	15867.060054
108.035000	0.155704	0.103265	0.163483	0.221274	6079.139897	35901.061825	3860.931432	15840.184426
108.538000	0.155011	0.104370	0.160986	0.222699	6063.795016	35876.875762	3852.152117	15797.862428
109.035500	0.154623	0.103262	0.161495	0.222274	6064.062464	35825.248731	3854.235242	15810.480499
109.536000	0.153844	0.103275	0.156444	0.228106	6016.644332	35388.369457	3830.236165	15638.588243
110.035500	0.154079	0.104980	0.163109	0.224099	6046.992486	35817.170957	3853.766046	15756.446155
110.536500	0.158586	0.103765	0.162096	0.224134	6079.296028	35722.795486	3851.426488	15755.393574
111.037000	0.153792	0.102585	0.155093	0.227748	6018.823789	35363.663481	3828.077008	15649.069266
111.601500	0.154821	0.103839	0.158992	0.230329	6007.781444	35264.834890	3830.942946	15573.653669
112.034500	0.157593	0.103916	0.164917	0.225696	6060.798047	35616.623013	3854.234415	15709.319888
112.538000	0.157743	0.104424	0.161593	0.225939	6060.125549	35636.579327	3846.301846	15702.165603
113.038000	0.156058	0.103176	0.157260	0.228758	6027.785395	35332.455640	3830.592972	15619.508728
113.538500	0.158270	0.105222	0.158354	0.227853	6050.132492	35552.820004	3834.958625	15645.985970
114.036000	0.156922	0.104712	0.163706	0.228030	6039.169596	35501.373992	3846.350010	15640.790264
114.539500	0.159204	0.104095	0.157616	0.227769	6057.460901	35474.729245	3833.528781	15648.448067
115.036500	0.158066	0.104381	0.159408	0.230920	6026.683142	35261.215327	3830.563072	15556.457869
