sample name	sample
index	462
start time	 03-11-2021  11:54:02 AM
880	0.076660
Peak Time (s)	92.537
Peak Height 	0.07666
calc peak height	90,93
Baseline Time (s)	8.535
Baseline Value 	-0.006723
subtract baseline	10,4
Abs	0.028044
Peak Time (s)	91.536
Peak Height 	0.02804
calc peak height	90,93
Baseline Time (s)	9.536
Baseline Value 	0.004129
subtract baseline	10,3
PK_550	0.018003
Peak Time (s)	90.035
Peak Height 	0.018
calc peak height	90,93
Baseline Time (s)	10.036
Baseline Value 	8.854E-4
subtract baseline	10,2
PK_880	0.029338
Peak Time (s)	90.035
Peak Height 	0.02934
calc peak height	90,93
Baseline Time (s)	11.537
Baseline Value 	0.003831
subtract baseline	10,1


Time (s)	A880-A510	A880-A775	A880-A975	A880	I510	I775	I975	I880	
0.036000	-0.001178	-0.000733	-0.003714	0.002896	7054.238475	45608.928410	3932.527976	24178.245505
0.536500	-0.004020	-0.001244	-0.000731	0.005232	7004.270670	45329.867463	3934.212292	24063.773134
1.036000	-0.005876	-0.001260	-0.007172	0.006810	6971.454614	45174.352656	3913.528295	23986.762395
1.562000	-0.001707	-0.000055	-0.003092	0.002702	7050.988140	45694.838029	3934.651742	24187.789245
2.037000	-0.002083	-0.000173	0.003911	0.001435	7059.637930	45808.219764	3956.396693	24250.170032
2.537000	-0.000765	-0.000188	0.000726	0.001350	7073.303567	45815.223416	3948.196724	24254.389137
3.037500	-0.004697	-0.000323	-0.004289	0.005174	6998.332417	45425.604259	3925.138759	24066.584379
3.535000	0.000165	-0.000791	-0.003016	0.000973	7086.055641	45792.842640	3939.361206	24272.960528
4.035500	-0.001013	-0.000694	0.004380	0.001255	7071.809850	45774.605570	3958.120084	24259.057892
4.538000	-0.001479	-0.000393	0.001473	0.000954	7070.191773	45834.074955	3951.211939	24273.902897
5.035500	-0.001132	-0.000301	0.000009	0.000998	7073.148227	45838.779701	3947.234870	24271.725958
5.537000	-0.000921	-0.000525	0.001491	0.000405	7081.001700	45875.420980	3952.713238	24301.063568
6.036500	-0.000968	0.000185	0.001392	0.001477	7070.078677	45839.501142	3949.619132	24248.100090
6.536500	-0.002406	-0.000920	-0.001516	0.000220	7068.311287	45854.523021	3945.269557	24310.167978
7.037000	-0.002157	-0.000871	-0.000573	0.000496	7068.054511	45832.015901	3947.024724	24296.518109
7.535000	-0.001668	-0.000471	0.001785	0.000568	7072.113910	45864.472897	3953.059752	24292.975936
8.034500	-0.000080	-0.000130	-0.002601	0.000568	7087.632512	45898.330641	3941.511206	24292.994830
8.535000	-0.000722	-0.000528	0.002463	0.000000	7086.902996	45915.124189	3956.362506	24321.068384
9.038000	-0.001681	-0.000934	-0.001746	-0.000408	7081.512682	45915.330348	3946.317875	24341.248610
9.536000	0.000761	0.000261	0.000000	0.000268	7098.803170	45966.785442	3949.135717	24307.804994
10.036000	-0.002493	0.000000	-0.000638	0.000715	7062.652340	45896.573073	3946.277457	24285.702412
10.536500	0.000105	-0.000879	-0.001333	-0.000529	7100.191300	45932.788024	3947.723982	24347.253722
11.037000	0.001742	0.000144	0.001039	0.000269	7108.435644	45955.097315	3951.875960	24307.751118
11.537000	0.000000	0.000005	0.002636	-0.000078	7094.740313	45975.700216	3957.028403	24324.930375
12.036500	0.000782	0.000244	0.002721	0.000056	7101.096710	45986.117582	3956.900453	24318.313031
12.537500	-0.003274	-0.000345	-0.005314	0.004735	7016.209778	45466.559608	3923.627545	24088.084748
13.035000	0.000009	-0.000184	-0.002054	-0.000893	7102.827834	46037.873813	3946.784231	24365.301828
13.538000	0.000518	0.000664	-0.001027	0.000286	7096.248259	46004.964671	3946.383391	24306.913973
14.035500	-0.000993	-0.000328	0.000882	0.000454	7079.815452	45889.929244	3950.974304	24298.611752
14.536000	-0.002849	-0.001441	-0.001464	0.003831	7029.010866	45447.727422	3935.952965	24132.363523
15.036000	-0.000293	-0.000219	0.000148	0.000252	7088.635009	45920.801726	3949.568489	24308.603095
15.544000	0.001323	-0.000493	0.002977	0.000130	7105.673860	45905.720245	3957.380321	24314.617594
16.036500	-0.001516	-0.000713	-0.000899	-0.000593	7084.935996	45955.598936	3949.035499	24350.424492
16.537000	-0.002780	-0.001363	-0.002165	0.004230	7025.831679	45416.223937	3933.088301	24112.796193
17.037500	-0.001108	-0.000017	0.002147	-0.000229	7085.367085	45988.508224	3956.130344	24332.386193
17.540000	0.001584	-0.000247	0.004842	-0.002486	7134.054618	46190.223895	3969.347524	24444.440650
18.037000	0.000001	-0.000345	0.003785	-0.000432	7098.221929	45976.095452	3961.026887	24342.457908
18.538000	-0.000386	-0.000249	0.001456	0.003529	7055.786788	45594.382828	3944.384872	24147.180758
19.035500	0.000306	0.000115	0.002194	0.001792	7079.436638	45801.496962	3950.904502	24232.602372
19.536000	-0.000009	0.000773	0.003357	0.002733	7067.187146	45773.510079	3951.491508	24186.276880
20.036500	-0.002219	-0.000258	0.003403	0.001766	7055.106137	45767.211132	3954.172088	24233.885914
20.542000	-0.003556	-0.000137	-0.004136	0.004003	7020.543245	45558.822850	3928.562319	24123.935923
21.037000	-0.003246	0.000004	-0.003606	0.002651	7036.580389	45705.712558	3933.449016	24190.318424
21.543000	-0.002321	-0.000833	-0.001408	0.001518	7056.526828	45734.885497	3942.148098	24246.108065
22.035000	-0.001923	-0.000659	-0.001877	0.001515	7060.416360	45752.360293	3940.927573	24246.262047
22.534500	-0.001789	-0.000325	-0.000358	0.003544	7042.026880	45585.324169	3939.589150	24146.418759
23.035500	-0.000837	-0.000283	-0.001366	0.002024	7066.031581	45739.314686	3940.931325	24221.183134
23.535500	-0.002075	-0.000364	-0.000318	0.001778	7056.385519	45755.503944	3944.325209	24233.274972
24.036000	-0.000448	-0.000288	-0.003073	0.002450	7065.671048	45696.726245	3935.361225	24200.210227
24.536000	-0.002292	-0.000197	-0.004329	0.003267	7039.841692	45625.222130	3929.970165	24160.020526
25.036500	-0.001164	-0.000289	0.002615	0.002140	7061.723609	45727.155773	3951.098570	24215.445524
25.536500	-0.000402	0.000136	-0.000890	0.002529	7065.345990	45730.671057	3940.854242	24196.287593
26.037000	-0.000552	-0.000116	-0.000486	0.001995	7069.087346	45758.596068	3943.313177	24222.573489
26.537000	-0.001427	-0.000450	-0.000307	0.001720	7063.245192	45752.784460	3944.507641	24236.150051
27.034500	0.000566	-0.000040	0.003090	0.002377	7076.261305	45728.371034	3951.726149	24203.783867
27.535500	-0.001077	0.000684	0.003573	0.002745	7056.683255	45763.579630	3952.031332	24185.697558
28.035000	0.001492	0.000076	0.001134	-0.001374	7122.154098	46111.564626	3956.481814	24389.138649
28.537000	-0.001211	0.000031	0.003408	0.000340	7078.805000	45936.780026	3957.969067	24304.248110
29.052000	-0.001485	-0.000494	-0.000709	0.001063	7069.080873	45813.354390	3945.177670	24268.555493
29.536000	-0.001075	0.000620	0.004999	0.000826	7075.383909	45947.060832	3960.909231	24280.229660
30.036500	-0.000261	-0.000310	0.000918	0.000395	7087.554051	45897.590652	3951.224936	24301.546000
30.539500	-0.001514	-0.000554	-0.001164	0.006168	7019.361148	45305.900873	3930.655066	24018.081230
31.037000	-0.000381	0.000631	0.002171	0.002244	7068.322602	45807.718876	3949.649032	24210.316296
31.543000	0.000596	0.001524	0.002990	0.005205	7049.053701	45603.916337	3944.012143	24065.101342
32.040500	-0.002557	-0.000327	0.001796	0.002835	7041.458041	45654.951659	3947.105199	24181.259795
32.576500	-0.002480	-0.000236	-0.002412	0.004714	7024.058212	45479.317774	3931.191895	24089.121809
33.038000	-0.001206	-0.000503	0.002152	0.001280	7069.683854	45790.965283	3952.147783	24257.823956
33.535000	-0.000153	-0.000284	-0.000404	0.000219	7090.336241	45917.605578	3948.202353	24310.255123
34.035500	0.000499	0.000144	0.001575	0.000405	7094.894615	45941.513483	3952.935485	24301.020309
34.537500	-0.002097	0.000402	-0.002943	0.005903	7016.299356	45425.282651	3926.732771	24031.011268
35.039000	-0.000922	0.000209	0.003523	0.003673	7049.186511	45625.270598	3949.447975	24140.123029
35.539500	-0.002582	-0.000891	0.001929	0.002373	7045.688293	45644.848083	3948.672013	24203.966039
36.037000	-0.001408	-0.000457	0.000851	0.002876	7052.199537	45638.144580	3944.509362	24179.234166
36.538000	-0.000193	0.000208	0.001139	0.004284	7050.332787	45565.081513	3941.572883	24110.169404
37.035000	-0.002401	-0.000661	0.001000	0.002415	7047.040059	45663.448290	3946.113513	24201.912854
37.535000	-0.003227	-0.000563	0.000392	0.002786	7035.457730	45636.606080	3943.544203	24183.686279
38.035500	-0.000749	0.000290	-0.003839	0.003085	7056.574655	45691.149050	3931.713455	24168.984731
38.536000	-0.002799	-0.000461	-0.000487	0.003718	7030.586699	45554.863568	3938.799210	24137.892374
39.036000	-0.001382	0.000197	0.002290	0.003164	7049.667304	45674.235129	3947.538779	24165.117416
39.536500	-0.001026	0.000825	0.001014	0.003672	7048.184853	45685.991115	3942.848406	24140.161415
40.037000	-0.002261	-0.000038	0.003230	0.003418	7038.688055	45626.063506	3949.345726	24152.621654
40.539500	-0.004200	-0.000678	0.000033	0.003647	7017.763378	45540.571241	3940.345214	24141.374386
41.038000	-0.002185	-0.000066	-0.003162	0.002780	7045.594022	45686.056009	3934.268047	24183.964884
41.537500	-0.000841	0.000394	0.001515	0.003376	7052.849307	45672.647483	3944.942805	24154.680791
42.035500	-0.001653	0.000083	0.001889	0.003170	7046.965947	45662.371128	3946.467015	24164.788364
42.535000	-0.003069	-0.000128	0.001878	0.004638	7019.109857	45497.296095	3942.580336	24092.798412
43.036000	-0.000718	0.000097	0.003406	0.002912	7058.553069	45689.117279	3951.147026	24177.480039
43.544500	-0.001418	0.000564	0.000786	0.003578	7045.294854	45669.513794	3942.497692	24144.762485
44.036000	-0.001450	0.000618	0.002968	0.003475	7045.981631	45684.917652	3948.504764	24149.802314
44.544500	-0.001611	0.000329	-0.000475	0.004884	7030.800094	45517.989927	3935.787524	24080.780568
45.037000	0.003105	0.000881	0.001774	-0.000614	7130.576757	46116.015146	3956.164599	24351.477883
45.556500	0.001230	0.000439	0.002747	0.000715	7099.024470	45940.095248	3955.216654	24285.698441
46.043000	0.000187	-0.000497	-0.000772	-0.000064	7096.437098	45924.645375	3947.977713	24324.259248
46.537000	-0.001035	-0.000090	-0.000226	0.005735	7028.139795	45393.548029	3934.218609	24039.181861
47.035500	0.000730	0.000569	-0.002067	0.001987	7081.669060	45826.962849	3939.192907	24222.963367
47.536000	0.000319	-0.000048	0.003659	0.000322	7093.946467	45930.749606	3958.682147	24305.122192
48.036000	-0.000276	-0.000415	0.006214	0.002098	7070.778795	45718.943012	3960.758506	24217.534202
48.537500	-0.002345	-0.000143	0.001488	0.005844	7014.479988	45377.649288	3938.404620	24033.864535
49.036500	0.000188	-0.000227	0.001598	0.000672	7089.240016	45878.401811	3952.290916	24287.853146
49.536500	0.000354	0.000764	0.000528	0.000981	7087.835531	45945.936409	3948.646916	24272.567946
50.037000	-0.000795	0.000673	0.003561	0.001090	7075.552244	45926.154083	3956.383317	24267.230288
50.537500	-0.003777	-0.001125	0.002741	0.004766	7011.077030	45387.007656	3944.510567	24086.547988
51.035000	0.001755	0.000907	0.003784	0.000871	7102.649173	45971.042473	3957.557864	24278.012356
51.535000	0.001558	0.000274	0.005038	0.002153	7088.147397	45781.455668	3957.481900	24214.805863
52.035000	-0.003728	-0.003980	0.003551	-0.003213	7088.930324	45891.412940	3967.833745	24480.607854
52.536000	-0.048542	-0.007854	-0.035304	0.251089	4972.864646	26619.453477	3396.388061	14886.828681
53.036000	-0.035068	-0.009695	-0.037762	-0.036454	7107.577815	48705.347902	3946.395113	26202.514770
53.536500	-0.093688	-0.053389	-0.050293	-0.187790	8123.681060	61592.703887	4376.749029	35944.607950
54.036500	-0.116810	-0.302469	-0.113972	-0.465098	12328.415576	65535.000000	5376.324180	65535.000000
54.537000	-0.119131	-0.302469	-0.113417	-0.465098	12277.828288	65535.000000	5379.614472	65535.000000
55.040000	-0.115014	-0.302469	-0.104625	-0.465098	12367.749250	65535.000000	5432.293891	65535.000000
55.534000	-0.038339	-0.134480	-0.013184	-0.297109	10560.673853	65535.000000	5007.511591	45421.829138
56.034500	-0.035361	-0.108490	-0.013247	-0.271119	10162.120476	65535.000000	4879.187483	42947.956283
56.535000	-0.029041	-0.123267	-0.019238	-0.285895	10526.697785	65535.000000	4921.605602	44336.307508
57.035500	-0.013736	-0.105835	-0.016752	-0.268464	10489.132144	65535.000000	4849.959017	42703.486359
57.536000	-0.010041	-0.081648	-0.010679	-0.244276	10136.490928	65535.000000	4766.360879	40543.711540
58.036000	-0.010497	-0.057022	-0.012283	-0.213301	9626.949962	64625.743254	4624.512153	37947.812528
58.536500	-0.012875	-0.029909	-0.011117	-0.166996	8907.027362	61956.802737	4444.758516	34396.592784
59.036500	-0.007491	-0.018495	-0.006852	-0.134133	8534.924701	59110.440462	4340.173211	32096.396809
59.537000	-0.004174	-0.011728	-0.004825	-0.113003	8305.988070	57281.406808	4274.053091	30706.764210
60.034500	-0.004506	-0.004766	-0.009093	-0.071647	7805.516371	53139.842173	4127.419470	28175.002365
60.535000	-0.000745	-0.001357	-0.006948	-0.046027	7561.682942	50634.430571	4057.765191	26723.354553
61.035000	0.000690	-0.000043	-0.006307	-0.024939	7352.690230	48509.273275	4000.088390	25591.077968
61.535500	-0.002144	-0.000845	-0.003983	-0.022917	7302.492675	48213.473713	4000.919350	25485.334152
62.035500	-0.001921	-0.000777	-0.004777	-0.021197	7287.127487	48041.440129	3994.008056	25395.818477
62.536000	-0.001142	0.001558	0.003884	0.002518	7058.258298	45872.398729	3953.454274	24196.865350
63.036500	0.000494	0.004853	-0.001254	0.016582	6939.203445	44819.591391	3903.723504	23516.109460
63.536500	0.010445	0.007969	0.001238	0.023105	6971.707585	44491.982300	3893.559634	23207.818911
64.036500	0.015919	0.010165	0.003296	0.024246	7013.150506	44593.058160	3895.862371	23154.337813
64.537000	0.015658	0.010931	0.006307	0.027859	6976.069166	44320.576680	3894.350176	22985.993505
65.037500	0.018763	0.012455	0.006713	0.029594	6989.146447	44300.502335	3891.017900	22905.658073
65.537500	0.018643	0.011686	0.008991	0.030491	6979.444504	44141.939148	3894.481362	22864.254341
66.035500	0.018133	0.012579	0.007443	0.032896	6951.739555	43998.565144	3884.597594	22753.642160
66.535000	0.015290	0.012732	0.007304	0.040597	6853.064255	43290.187161	3865.258544	22403.527929
67.036000	0.017734	0.012276	0.012784	0.035808	6920.499875	43695.395351	3890.660422	22620.532408
67.536000	0.018750	0.013091	0.008505	0.038299	6906.649105	43538.150917	3873.846648	22507.359429
68.036500	0.019211	0.013185	0.009331	0.041351	6882.447511	43262.206046	3868.374822	22369.573187
68.537000	0.016471	0.013707	0.012238	0.048887	6787.880080	42615.448256	3857.086823	22033.524596
69.037000	0.020507	0.015541	0.014740	0.046896	6843.071841	42966.852972	3868.040478	22121.723222
69.537500	0.020185	0.014535	0.013890	0.049453	6816.601411	42639.333877	3859.722922	22008.489752
70.035000	0.020285	0.015509	0.012871	0.052447	6790.179747	42454.890468	3850.010398	21876.757235
70.535000	0.018883	0.014920	0.008778	0.059300	6715.771507	41782.612097	3823.967410	21578.636406
71.035500	0.021776	0.015828	0.013085	0.054211	6787.704680	42323.425712	3846.283823	21799.582920
71.535500	0.023764	0.016792	0.016507	0.055228	6796.539850	42318.677771	3852.072021	21755.212188
72.036000	0.021431	0.015574	0.013296	0.054900	6778.310404	42237.941815	3845.136164	21769.513211
72.536500	0.020853	0.016732	0.014180	0.060842	6719.602293	41806.859573	3833.079037	21512.230923
73.036500	0.023238	0.016776	0.018692	0.056439	6780.741300	42207.391070	3854.427589	21702.528978
73.540000	0.024316	0.016770	0.019785	0.056779	6787.443013	42176.083985	3856.248719	21687.759692
74.037000	0.024631	0.016464	0.019389	0.057289	6785.680712	42102.395589	3854.056735	21665.660929
74.537500	0.021944	0.017301	0.013316	0.063264	6707.717436	41641.214695	3825.317916	21408.348947
75.035000	0.026252	0.017927	0.016832	0.059388	6781.331236	42044.928258	3842.855735	21574.846369
75.535500	0.025006	0.017690	0.017367	0.059435	6769.607846	42019.426426	3844.025480	21572.829705
76.035500	0.027607	0.019065	0.024194	0.061257	6776.665646	41979.117372	3856.082451	21494.361347
76.535500	0.025457	0.018298	0.013889	0.065256	6721.294384	41552.436615	3821.985106	21323.336795
77.036500	0.027852	0.018977	0.021889	0.062323	6769.227747	41875.318091	3847.945296	21448.604743
77.536000	0.025996	0.017776	0.019630	0.061897	6756.303731	41805.861550	3843.547419	21466.896773
78.039000	0.028074	0.017658	0.019943	0.062580	6768.905999	41734.096417	3842.660703	21437.600405
78.536500	0.023015	0.017507	0.017093	0.068167	6673.721258	41224.245592	3822.671902	21199.821193
79.037500	0.027750	0.018517	0.019877	0.063946	6753.653116	41688.882444	3839.242306	21379.205966
79.534500	0.027489	0.018266	0.021150	0.064419	6747.035249	41624.174723	3841.150832	21358.995485
80.035000	0.025532	0.018113	0.027853	0.064627	6727.600088	41592.064274	3856.784722	21350.150878
80.535000	0.022044	0.017373	0.020064	0.070530	6644.389239	41004.532576	3824.098665	21100.163323
81.035500	0.029551	0.018351	0.022158	0.066049	6750.923200	41486.658158	3839.666437	21289.613403
81.536000	0.027181	0.018296	0.021813	0.066982	6721.276696	41398.920254	3836.621527	21249.987382
82.036500	0.027159	0.018895	0.028410	0.067402	6717.332765	41414.859809	3851.419654	21232.214964
82.537000	0.023965	0.018112	0.020991	0.073302	6636.940767	40826.486918	3819.772603	20983.945915
83.036500	0.029381	0.018118	0.025402	0.068183	6730.222047	41276.845891	3842.317185	21199.148501
83.537000	0.027033	0.018052	0.023475	0.068564	6705.842681	41237.362538	3836.812600	21183.049198
84.037000	0.024973	0.016726	0.021527	0.067779	6694.507246	41189.660035	3834.051253	21216.249067
84.535000	0.022691	0.017453	0.018253	0.075575	6606.038646	40571.228535	3808.116472	20889.190642
85.035500	0.027011	0.018341	0.022159	0.070084	6692.127686	41128.752914	3830.086509	21118.924640
85.535500	0.026718	0.017243	0.020438	0.069791	6692.126253	41057.950885	3826.718618	21131.268618
86.035500	0.025858	0.017165	0.026899	0.070332	6679.718802	41003.594648	3840.759235	21108.481637
86.536000	0.020453	0.016694	0.021550	0.076605	6577.794996	40416.306737	3813.373556	20846.435306
87.038500	0.026167	0.017642	0.020859	0.071395	6673.053503	40952.222135	3823.936304	21063.820897
87.537000	0.025296	0.017038	0.025482	0.071325	6665.988095	40905.458164	3835.019786	21066.762126
88.037000	0.025096	0.017078	0.021767	0.071597	6661.832547	40885.205162	3825.596727	21055.352542
88.537000	0.022442	0.016313	0.019140	0.077505	6587.180576	40305.771562	3805.706888	20809.138031
89.037500	0.025820	0.016841	0.027766	0.071283	6670.980819	40891.929411	3840.559160	21068.533063
89.535000	0.025956	0.017069	0.023705	0.071948	6666.318736	40853.716398	3829.336677	21040.632947
90.035500	0.029338	0.018003	0.027683	0.072278	6693.308597	40906.491381	3837.988197	21026.775701
90.535500	0.020774	0.015233	0.023737	0.076586	6580.724028	40291.901205	3818.515189	20847.222273
91.036000	0.025647	0.016567	0.022677	0.071567	6666.944741	40843.072053	3827.808714	21056.600348
91.536000	0.023234	0.015570	0.028044	0.070818	6652.308426	40821.440678	3842.334089	21088.066697
92.039000	0.025181	0.016058	0.024942	0.070997	6667.860428	40848.368893	3834.516473	21080.515622
92.537000	0.020805	0.015310	0.023213	0.076660	6580.348474	40292.097367	3817.118997	20844.137862
93.037000	0.025057	0.015158	0.025369	0.070541	6670.799341	40809.651110	3836.615227	21099.712206
93.537000	0.025217	0.016165	0.023030	0.070564	6672.007576	40895.652466	3831.013487	21098.744480
94.040500	0.024481	0.016181	0.024039	0.070344	6667.450288	40916.364901	3833.924353	21108.002184
94.535000	0.021661	0.015733	0.024079	0.076178	6591.892018	40370.169266	3820.269014	20864.138956
95.035500	0.023277	0.015278	0.026283	0.070215	6657.987433	40848.592081	3839.569213	21113.416334
95.535000	0.024496	0.015606	0.029322	0.069850	6671.948236	40909.212970	3847.719967	21128.801105
96.036000	0.025766	0.016137	0.024285	0.069926	6682.490616	40949.061108	3835.500635	21125.575497
96.539000	0.021437	0.013729	0.023786	0.072981	6617.684564	40473.290374	3827.090142	20997.374629
97.036000	0.023042	0.014818	0.023198	0.069318	6663.803203	40886.758585	3834.361393	21151.195773
