sample name	sample
index	662
start time	 03-22-2021  10:30:45 AM
880	0.130873
Peak Time (s)	180.535
Peak Height 	0.1309
calc peak height	180,183
Baseline Time (s)	11.037
Baseline Value 	-0.003015
subtract baseline	10,4
Abs	0.069249
Peak Time (s)	181.536
Peak Height 	0.06925
calc peak height	180,183
Baseline Time (s)	10.036
Baseline Value 	0.004979
subtract baseline	10,3
PK_550	0.038033
Peak Time (s)	182.037
Peak Height 	0.03803
calc peak height	180,183
Baseline Time (s)	8.541
Baseline Value 	8.577E-4
subtract baseline	10,2
PK_880	0.061746
Peak Time (s)	181.036
Peak Height 	0.06175
calc peak height	180,183
Baseline Time (s)	9.536
Baseline Value 	0.004224
subtract baseline	10,1


Time (s)	A880-A510	A880-A775	A880-A975	A880	I510	I775	I975	I880	
0.038500	-0.006415	-0.001065	-0.004844	0.004701	7283.678728	45420.082363	3890.356134	23888.090597
0.536500	-0.005021	-0.000208	-0.006922	0.003103	7315.489272	45662.250882	3888.990669	23966.340115
1.036500	-0.003945	-0.001133	-0.006128	0.001624	7342.814468	45716.990270	3895.475216	24038.955322
1.537000	-0.005306	-0.001325	-0.009126	0.004057	7302.287729	45457.826256	3880.035842	23919.588260
2.037000	-0.003086	-0.000367	-0.002116	-0.000429	7374.159438	45997.219474	3912.944438	24140.234148
2.537500	-0.001257	0.000012	-0.001327	-0.000991	7400.046996	46091.025794	3916.867783	24168.011926
3.034500	0.000217	-0.001327	-0.002292	-0.003762	7446.370779	46234.369384	3922.132925	24305.628153
3.535500	-0.002414	0.000204	-0.003469	0.004636	7326.955937	45551.497059	3894.467006	23891.288649
4.036000	0.000102	0.000231	-0.002222	-0.000234	7406.585859	46037.307702	3912.069445	24130.567709
4.538500	-0.002019	0.000056	-0.006043	-0.000586	7387.394035	46054.990178	3902.056385	24147.976661
5.036500	-0.001119	-0.000211	-0.000503	-0.000886	7400.414941	46058.294889	3918.963388	24162.836942
5.536500	-0.003768	-0.000959	-0.004788	-0.001079	7373.813578	46003.012534	3907.094701	24172.405473
6.037000	-0.000501	0.000880	-0.002663	-0.000232	7400.026492	46101.982318	3910.789188	24130.508632
6.537000	-0.001874	0.000233	-0.003754	-0.000285	7385.704859	46042.644642	3907.787348	24133.128416
7.037500	-0.000156	0.000188	0.000780	-0.000193	7403.341700	46028.931537	3920.682648	24128.534801
7.537500	-0.001668	-0.000712	0.001033	-0.000797	7393.492372	45999.495785	3923.188697	24158.448450
8.035000	-0.002015	-0.000329	-0.002146	-0.000515	7386.669312	46009.534632	3913.107848	24144.479732
8.541000	-0.000847	0.000000	-0.002024	-0.000581	7400.054160	46048.918045	3913.653164	24147.739901
9.038500	0.000216	0.000792	0.000075	0.000441	7400.488955	46025.963248	3916.781990	24097.247005
9.536000	0.000000	-0.000218	-0.001733	-0.000400	7407.292943	46009.173546	3913.971877	24138.811097
10.036000	-0.001199	-0.000146	0.000000	-0.000541	7395.794114	46030.364055	3919.423426	24145.765314
10.536500	-0.003563	-0.000397	-0.001240	0.003889	7322.655276	45565.897473	3902.999217	23927.794888
11.036500	0.001056	0.000018	0.002579	0.000000	7414.431032	45992.737185	3925.378960	24119.025200
11.536500	0.000509	0.000282	0.003956	0.000439	7403.706137	45975.348449	3928.131889	24097.373437
12.037000	-0.002079	0.000013	-0.000934	0.000034	7380.039686	45988.891851	3915.032073	24117.349229
12.540500	-0.002651	0.000228	-0.000977	0.004030	7330.902041	45613.743331	3903.351359	23920.927000
13.035500	0.001804	0.000157	0.002689	-0.000758	7430.855933	46082.209056	3927.923172	24156.474259
13.538500	0.000102	0.000610	0.000131	-0.000148	7405.660191	46066.591292	3918.659926	24126.346917
14.038500	-0.001480	-0.000271	0.000848	0.002835	7356.288351	45682.572402	3912.074782	23979.480386
14.536000	-0.003872	-0.000695	-0.003518	0.003506	7323.437215	45574.279040	3897.557738	23946.548566
15.036000	0.000146	-0.000053	-0.000929	-0.000396	7408.833103	46025.089847	3916.296028	24138.570993
15.536500	-0.002290	0.000161	0.000951	-0.000174	7380.008954	46024.367930	3921.126453	24127.634637
16.040000	-0.000879	0.000686	0.002524	-0.000311	7396.778528	46090.476712	3926.128929	24134.410691
16.537500	-0.001991	0.000178	-0.001926	0.005665	7320.467520	45447.501560	3895.934652	23841.032282
17.035000	0.001407	0.000484	0.003192	-0.002405	7444.549337	46279.953616	3934.250231	24238.152218
17.535000	0.000318	0.001059	0.000215	0.002142	7383.155926	45883.088210	3912.246833	24013.478686
18.038000	-0.000607	0.000493	0.004626	0.002300	7371.458179	45811.226250	3924.637545	24005.723992
18.536000	-0.002490	0.000285	0.000191	0.004003	7332.902293	45621.924743	3906.795215	23922.217851
19.036000	-0.000983	0.000361	-0.003881	0.002368	7366.671438	45791.423288	3899.782566	24002.411781
19.536500	-0.002143	0.000269	0.001752	0.002384	7354.007459	45780.658476	3916.009178	24001.609951
20.036500	-0.000813	-0.000002	0.000704	0.002282	7369.424873	45763.929309	3913.261275	24006.607338
20.536500	-0.000822	0.000296	-0.000549	0.004471	7345.778482	45576.832372	3903.314247	23899.339668
21.037000	-0.000412	-0.000072	0.002654	0.002501	7371.383819	45735.223000	3918.291620	23995.842623
21.535000	-0.000659	0.000533	-0.002190	0.002618	7367.469138	45783.674190	3903.923959	23990.128177
22.034500	-0.001450	0.000341	-0.002724	0.002398	7361.309139	45786.451847	3903.021234	24000.912834
22.538000	0.000438	0.000655	0.001248	0.002889	7376.386771	45768.950665	3913.079687	23976.827577
23.035500	-0.000112	0.000829	0.003201	0.003217	7366.893875	45753.515514	3917.800030	23960.706254
23.536000	0.001826	0.000882	0.002662	0.003302	7386.920109	45750.351063	3915.983254	23956.542614
24.036000	0.002352	0.001356	0.003236	0.003824	7386.968628	45745.679130	3916.135699	23930.993184
24.536000	0.000776	0.000930	-0.000875	0.003875	7369.391225	45698.470154	3904.091121	23928.504882
25.039500	0.000490	0.000595	-0.001641	0.003387	7371.568162	45713.657013	3903.290956	23952.419194
25.540000	0.000294	0.001163	0.000120	0.003675	7366.346973	45741.406955	3907.539624	23938.308066
26.037000	-0.000297	0.000340	-0.000791	0.003338	7363.603470	45693.216692	3905.881370	23954.809971
26.537500	-0.000366	0.001547	0.004652	0.004622	7349.044578	45685.534173	3917.932937	23891.943653
27.038000	0.003320	0.002239	0.006516	0.002602	7410.753956	45954.827654	3929.296745	23990.924682
27.535500	0.002135	0.000511	0.004555	0.000528	7420.434159	45989.279891	3929.627249	24092.980761
28.036000	0.002214	0.001005	0.003057	0.001581	7409.825571	45933.642858	3922.153065	24041.095348
28.535500	0.001660	0.001087	0.004792	0.001856	7400.813519	45914.380610	3926.426607	24027.572935
29.036500	0.000209	0.001340	0.005929	0.002296	7380.319782	45895.806441	3928.472619	24005.952663
29.536500	0.001923	0.000497	0.002596	0.002948	7391.808631	45747.329764	3916.822787	23973.904494
30.037000	0.000824	0.000844	0.000160	0.001913	7391.112663	45884.503845	3912.751575	24024.731217
30.537000	-0.001063	0.000005	0.000728	0.005082	7336.631198	45487.830702	3905.231929	23869.479864
31.037000	0.002025	0.002455	0.004708	0.006419	7355.433140	45597.624240	3912.875394	23804.321523
31.540000	0.001495	0.001748	0.001733	0.003358	7382.741685	45830.810271	3913.122584	23953.813459
32.035000	0.001767	0.001264	0.002355	0.002562	7394.315566	45861.821254	3917.245178	23992.873394
32.535500	-0.001619	0.001151	0.004449	0.008526	7293.986022	45262.116708	3906.032765	23702.062398
33.036000	0.000949	0.001495	0.003466	0.002235	7388.982517	45917.326011	3921.438109	24008.930827
33.536000	-0.000970	0.001146	0.000086	0.004826	7340.383128	45625.809024	3904.121245	23882.010217
34.036500	-0.000108	0.001617	0.001205	0.006087	7336.109198	45547.754466	3903.713055	23820.513684
34.536500	0.000450	0.001231	-0.001777	0.005314	7350.379841	45585.896213	3897.365701	23858.171655
35.037000	0.001725	0.000690	0.001612	0.005174	7365.616469	45546.369794	3907.519416	23865.026094
35.537000	0.000477	0.001253	0.001926	0.005755	7345.937132	45544.581555	3906.746225	23836.666144
36.037500	-0.000307	0.001717	0.004515	0.005620	7338.973258	45603.623348	3914.630940	23843.232500
36.535000	-0.000598	0.001341	0.001031	0.006502	7326.415359	45479.610800	3902.016260	23800.296467
37.035500	-0.000144	0.001437	0.004371	0.005905	7337.665515	45547.938964	3913.386144	23829.351914
37.535500	0.000473	0.001444	0.003357	0.006436	7338.587477	45496.274250	3908.915452	23803.520236
38.036000	0.000091	0.000693	0.001685	0.005402	7345.579613	45524.106316	3907.068621	23853.877221
38.536000	-0.000550	0.000710	0.003126	0.005644	7336.113003	45501.920182	3910.535767	23842.065883
39.039000	0.000505	0.000911	0.003386	0.005906	7344.624498	45496.058129	3910.530431	23829.332873
39.537000	0.000745	0.000782	0.003255	0.005834	7347.960309	45490.335804	3910.357777	23832.812930
40.037000	0.001276	0.001308	0.002576	0.006301	7348.651632	45496.175189	3907.048034	23810.093572
40.537500	-0.000174	0.001324	0.002113	0.007489	7320.401905	45380.861806	3902.289132	23752.342800
41.035000	0.001406	0.001609	0.003185	0.006245	7350.646449	45531.344344	3908.967145	23812.786302
41.535000	0.001550	0.002725	0.008182	0.007564	7338.036325	45511.280620	3919.646121	23748.679640
42.035000	0.002638	0.001540	0.006645	0.006729	7358.696222	45476.873189	3917.602054	23789.270049
42.535500	0.000137	0.001676	0.003641	0.008128	7316.899192	45352.613025	3904.848682	23721.319625
43.036000	0.000592	0.001692	0.008752	0.006793	7336.039137	45485.533664	3923.563682	23786.146777
43.536500	0.003809	0.001271	0.005259	0.002134	7421.176817	45905.016383	3926.977706	24013.869160
44.036500	0.001354	0.001155	0.001811	0.003459	7380.124174	45761.923064	3913.058945	23948.881107
44.537000	0.000569	0.002235	0.000938	0.010503	7296.225213	45174.710740	3890.299552	23606.525451
45.037500	0.003090	0.001589	0.003491	0.004057	7392.440466	45745.713627	3916.200165	23919.592445
45.537000	0.003056	0.002245	0.008573	0.005022	7381.633800	45715.093375	3928.229715	23872.445542
46.034500	0.003669	0.001836	0.007248	0.004519	7393.710214	45724.392984	3925.817497	23896.980174
46.535000	0.000415	0.001145	0.003330	0.009878	7301.229153	45129.240088	3898.922825	23636.675477
47.035500	0.000326	0.001894	0.001339	0.008196	7318.194682	45367.399355	3898.036556	23718.040416
47.536000	0.001172	0.001202	0.000015	0.006732	7342.908789	45443.297044	3898.437620	23789.108727
48.036000	0.001511	0.001833	0.000600	0.004609	7369.391126	45715.122379	3906.226007	23892.599503
48.536000	-0.001182	0.001540	-0.000087	0.010325	7279.540078	45124.122712	3887.886974	23615.079660
49.036000	0.002516	0.002537	0.002443	0.005360	7372.136309	45710.562746	3909.383013	23855.943728
49.540000	0.002534	0.002032	0.008380	0.003105	7396.746363	45884.234440	3933.302665	23966.240971
50.037000	0.001733	0.001786	0.004551	0.005442	7362.816838	45628.099910	3915.256041	23851.949146
50.537500	-0.004420	0.000094	0.000457	0.018845	7156.793672	44161.772652	3865.420904	23208.204123
51.037500	-0.049829	-0.021495	0.062958	0.476719	4087.621168	16449.325502	3140.997258	9826.211401
51.538500	-0.031648	-0.011273	-0.002208	0.049768	6596.225781	40315.198650	3775.205689	21796.651413
52.035500	-0.039826	-0.105702	-0.027622	-0.267521	10655.639418	65535.000000	4850.346706	42382.702698
52.536000	-0.042321	-0.181073	-0.022508	-0.342891	12112.109771	65535.000000	5297.687118	49908.928869
53.036000	-0.058335	-0.142997	-0.023470	-0.304815	11008.026229	65535.000000	5070.359770	45943.709320
53.536000	-0.051149	-0.138832	-0.020476	-0.300650	11066.131062	65535.000000	5063.851845	45530.687681
54.039500	-0.038231	-0.101393	-0.021264	-0.263212	10605.965198	65535.000000	4860.736937	41990.607216
54.537000	-0.027426	-0.109242	-0.028323	-0.271060	10953.659589	65535.000000	4864.754803	42707.707127
55.037500	-0.017081	-0.114373	-0.021454	-0.276192	11253.664252	65535.000000	4926.715888	43183.595773
55.535000	-0.012985	-0.090309	-0.021942	-0.252127	10868.552543	65535.000000	4801.754868	40999.752691
56.034500	-0.016978	-0.055946	-0.016859	-0.209653	10038.048639	64372.246176	4624.512755	37428.505143
56.535500	-0.007662	-0.033182	-0.018242	-0.172682	9584.337890	62387.693027	4457.892811	34592.034088
57.036000	-0.009538	-0.017735	-0.013714	-0.124650	8835.213660	58073.570519	4285.879553	31249.743098
57.538500	-0.012117	-0.013587	-0.010264	-0.100716	8470.911704	55607.531929	4210.661249	29717.300947
58.036500	-0.015205	-0.012081	-0.007021	-0.082800	8197.690622	53645.914992	4158.922115	28624.229435
58.539500	-0.012964	-0.009831	-0.009565	-0.065034	8004.062308	51858.029059	4090.129591	27583.888638
59.037000	-0.015209	-0.008590	-0.006961	-0.043148	7716.504228	49576.089307	4027.728832	26359.476685
59.537500	-0.016841	-0.007244	-0.006214	-0.024708	7489.205042	47767.043956	3972.859132	25374.677932
60.037500	-0.015820	-0.005618	-0.005118	-0.011515	7356.381634	46582.692101	3936.609395	24695.318050
60.535000	-0.014070	-0.005622	-0.002022	-0.000927	7262.258731	45525.522061	3914.660772	24164.847380
61.035500	-0.013658	-0.003956	-0.004736	0.012412	7127.987359	44389.927367	3868.886621	23514.693237
61.536000	-0.005375	-0.002674	-0.005602	0.008530	7254.242605	44888.626641	3877.360598	23701.874817
62.035500	-0.003050	-0.001131	-0.000573	0.006022	7305.378179	45283.884332	3898.788265	23823.656990
62.536000	-0.003118	-0.000827	0.000033	0.008937	7273.750346	45028.716057	3892.185390	23682.163129
63.041500	-0.005734	-0.001661	-0.001663	0.008837	7247.242563	44957.200773	3887.640541	23687.010145
63.536500	-0.000364	-0.000671	0.001031	0.006381	7330.210175	45293.773491	3902.363513	23806.164079
64.045500	0.001334	-0.000644	0.002451	0.007531	7336.081925	45183.754201	3903.142040	23750.287659
64.537500	-0.005434	-0.000791	-0.000506	0.014239	7193.934401	44518.504988	3875.631871	23427.167662
65.038000	0.000090	-0.000740	0.002106	0.009418	7302.652116	44990.206906	3896.733388	23658.872872
65.535500	0.000453	-0.000536	0.000123	0.009882	7301.589637	44964.952946	3889.747403	23636.477273
66.041500	0.002439	0.000378	0.004137	0.011970	7300.507345	44850.834591	3895.242899	23535.921707
66.535500	-0.001503	0.000465	-0.001011	0.018935	7186.003159	44188.621234	3861.080349	23203.947479
67.036000	-0.002209	0.001240	0.001281	0.021266	7154.622220	44040.218825	3860.971024	23094.010213
67.539000	0.002357	0.000858	0.003047	0.018257	7233.288283	44291.048807	3874.322988	23236.014749
68.036500	0.003334	0.002451	0.008111	0.019390	7231.650936	44335.118618	3885.425473	23182.429238
68.537000	0.004513	0.002279	0.009588	0.019738	7240.361152	44285.328972	3888.633793	23165.999171
69.037000	-0.001109	0.001563	0.004213	0.024638	7131.294118	43751.107183	3859.750723	22936.065045
69.534500	0.006009	0.003167	0.012042	0.022569	7226.379153	44099.660872	3887.561874	23032.836110
70.035000	0.005771	0.003312	0.007402	0.022920	7220.222316	44080.021040	3873.458891	23016.381314
70.535000	0.000924	0.003463	0.000428	0.029448	7102.954172	43477.011287	3836.108764	22712.855509
71.035500	0.004942	0.004510	0.008146	0.028627	7152.461292	43652.732496	3859.594972	22750.768920
71.536000	0.007191	0.004721	0.005888	0.025461	7208.536377	43972.407846	3862.119957	22897.702891
72.039000	0.008513	0.003932	0.008008	0.025399	7222.975454	43903.393287	3868.208554	22900.576947
72.536500	0.006189	0.004799	0.004362	0.032124	7129.374650	43351.369436	3839.539537	22589.728823
73.040000	0.008093	0.005259	0.005468	0.030397	7166.697992	43556.539380	3847.302465	22669.080344
73.537000	0.009070	0.005768	0.007940	0.027657	7205.234509	43863.338861	3861.719117	22795.673400
74.037000	0.011430	0.006542	0.014556	0.028059	7225.666189	43898.654832	3879.135080	22777.061407
74.535000	0.007119	0.005991	0.007063	0.034353	7116.097808	43254.446841	3840.828435	22487.750350
75.035500	0.007742	0.005661	0.010542	0.033093	7135.357865	43341.357743	3853.858760	22545.341456
75.535500	0.010885	0.007404	0.011831	0.030280	7196.832157	43769.970387	3865.252157	22674.505836
76.036000	0.012285	0.008046	0.015393	0.030794	7206.047426	43782.037270	3873.788122	22650.833102
76.538500	0.010520	0.006614	0.013736	0.035639	7137.728038	43192.513498	3855.650437	22429.133763
77.036000	0.009909	0.008163	0.011206	0.036444	7123.229078	43261.952003	3846.453465	22392.553706
77.536500	0.013815	0.008859	0.015641	0.032588	7203.301601	43689.378902	3869.451164	22568.467412
78.039500	0.013359	0.007532	0.012085	0.031606	7208.764447	43656.788641	3862.262487	22613.480246
78.537000	0.012689	0.008319	0.012835	0.035924	7157.087702	43325.162131	3852.370302	22416.169914
79.035000	0.011799	0.008694	0.009523	0.039514	7111.193920	43025.668098	3833.467999	22253.657640
79.535000	0.014000	0.008478	0.015155	0.034008	7190.468299	43519.735410	3864.126446	22503.518433
80.035000	0.017421	0.009116	0.019372	0.034539	7220.549301	43529.731814	3874.445601	22479.245595
80.535000	0.011487	0.008468	0.019363	0.038508	7118.269557	43098.010475	3863.309601	22299.045246
81.038500	0.010476	0.008625	0.016507	0.040632	7086.375412	42915.525888	3849.514968	22203.290543
81.536500	0.017133	0.009265	0.016527	0.035851	7203.865401	43420.675995	3862.813810	22419.523843
82.039000	0.016351	0.009641	0.016509	0.036424	7189.786957	43402.117464	3861.167278	22393.463524
82.537000	0.015909	0.009267	0.019942	0.036614	7183.237224	43349.350794	3870.221584	22384.865215
83.037000	0.014796	0.008579	0.019819	0.041912	7117.302287	42792.973854	3855.125262	22145.805951
83.537000	0.017818	0.009542	0.020797	0.037329	7195.620366	43308.137522	3870.612267	22352.414506
84.040000	0.018428	0.009675	0.022442	0.038055	7194.419098	43252.808475	3873.192542	22319.547209
84.535000	0.015778	0.010534	0.022655	0.043291	7113.246545	42846.156816	3859.163114	22084.046577
85.035500	0.015072	0.010671	0.015269	0.044868	7090.023485	42713.302719	3834.530450	22013.688046
85.538500	0.018807	0.011024	0.023776	0.040254	7175.550850	43173.461585	3870.763128	22220.279332
86.035500	0.017757	0.011023	0.022730	0.040076	7166.538501	43189.990872	3868.334696	22228.313266
86.536000	0.015423	0.010871	0.014639	0.046288	7079.188953	42601.035903	3828.967786	21950.539723
87.042000	0.014577	0.011410	0.017398	0.046344	7070.074527	42645.404892	3836.308460	21948.048029
87.536500	0.020245	0.011702	0.021895	0.042143	7170.888174	43060.832016	3860.243450	22135.457586
88.040000	0.020653	0.011998	0.026031	0.042742	7168.909811	43032.565364	3870.109556	22108.599464
88.534500	0.017205	0.011581	0.024793	0.048544	7074.394653	42459.280709	3850.544127	21850.649059
89.043000	0.019362	0.011943	0.022288	0.043813	7144.586870	42928.242013	3856.698618	22060.730299
89.535000	0.018804	0.012118	0.026741	0.043968	7137.277630	42930.112907	3868.667989	22053.818884
90.038000	0.020548	0.012820	0.025184	0.044735	7147.306607	42924.053024	3862.179310	22019.612787
90.536000	0.018595	0.012769	0.026568	0.049605	7077.720880	42470.900208	3852.513503	21803.832620
91.036000	0.017778	0.013579	0.025474	0.052879	7036.531870	42245.900221	3840.514611	21660.140441
91.536500	0.020292	0.012720	0.025582	0.047077	7120.688841	42698.616804	3856.781864	21915.569160
92.039000	0.020343	0.013736	0.025744	0.047586	7116.003141	42745.222022	3855.819562	21893.005739
92.537000	0.019455	0.012991	0.025479	0.053547	7046.645236	42131.653783	3838.701140	21630.936214
93.040000	0.016976	0.013056	0.026991	0.053922	7018.078109	42103.659173	3841.812443	21614.609531
93.537500	0.021563	0.013034	0.026214	0.048682	7117.279214	42579.882070	3854.088735	21844.573887
94.035000	0.021484	0.014091	0.029990	0.049787	7105.195438	42575.397987	3861.494856	21795.811984
94.538000	0.020901	0.014615	0.026733	0.055686	7039.697074	42084.939306	3836.289301	21537.784240
95.041000	0.018445	0.014015	0.026849	0.056716	7004.874244	41937.549313	3833.803324	21493.122087
95.536000	0.023426	0.015384	0.027164	0.052430	7098.073605	42451.649533	3846.376003	21679.789648
96.039000	0.023677	0.014351	0.030463	0.052301	7101.935320	42369.068392	3855.832335	21685.443061
96.537000	0.020859	0.014069	0.030805	0.057500	7021.120781	41871.584233	3842.458286	21459.161387
97.040000	0.022050	0.014906	0.029273	0.058618	7021.853607	41846.311248	3835.223322	21410.862400
97.537000	0.023853	0.014547	0.029004	0.053862	7087.865473	42244.541862	3847.497359	21617.214604
98.039500	0.025906	0.016329	0.031869	0.055936	7087.645654	42217.927218	3849.673644	21526.921373
98.535000	0.024465	0.015358	0.033878	0.055329	7079.198687	42184.815707	3856.902154	21553.305451
99.037500	0.020604	0.014785	0.030248	0.060959	6984.184949	41624.995151	3831.508538	21310.081707
99.535500	0.024377	0.015288	0.031258	0.056337	7068.132379	42087.064901	3846.890728	21509.548097
100.038500	0.025345	0.015943	0.027957	0.057409	7067.071333	42049.202721	3834.931583	21463.076261
100.536000	0.026245	0.016444	0.034603	0.058465	7065.509186	41999.016447	3850.241510	21417.470388
101.039500	0.023323	0.016246	0.033512	0.064918	6971.927601	41401.744859	3829.627521	21140.959093
101.536500	0.026889	0.016087	0.033509	0.059093	7065.664526	41909.977368	3845.502954	21390.381463
102.037000	0.025347	0.016650	0.029566	0.059791	7043.120042	41897.728567	3832.829592	21360.286397
102.537500	0.027627	0.016947	0.031360	0.060715	7056.743632	41841.175872	3835.192819	21320.551930
103.037500	0.025369	0.016999	0.032340	0.066559	6975.921731	41322.668308	3822.029966	21071.269436
103.538000	0.028211	0.016912	0.036056	0.062029	7049.404105	41719.790760	3844.434427	21264.231855
104.037000	0.026778	0.016797	0.030646	0.062275	7032.559974	41687.409241	3829.021958	21253.680170
104.536000	0.027010	0.017262	0.037490	0.069124	6966.808639	41118.516018	3829.009478	20962.921118
105.038500	0.022769	0.016600	0.034085	0.068599	6930.321682	41106.530104	3821.237995	20985.071229
105.536000	0.027710	0.017389	0.034952	0.064167	7022.963222	41570.941772	3835.577719	21172.924813
106.039000	0.027511	0.017471	0.032932	0.065427	7008.409913	41465.636639	3826.680145	21119.324531
106.536500	0.027552	0.016870	0.038443	0.064961	7013.464694	41453.627947	3842.942285	21139.130912
107.037500	0.024349	0.016533	0.036784	0.070232	6929.793160	40956.366208	3824.108959	20916.305259
107.537500	0.029021	0.018375	0.039822	0.066999	7007.793444	41406.096978	3841.138283	21052.669893
108.037000	0.028127	0.017541	0.034405	0.066868	7000.200600	41343.414362	3826.766317	21058.177534
108.535000	0.026295	0.017398	0.033952	0.072506	6926.587145	40832.538030	3810.423857	20821.023729
109.037000	0.026319	0.018309	0.039401	0.071163	6939.968732	41030.947011	3828.663120	20877.250922
109.535500	0.029016	0.019002	0.039587	0.069304	6984.855718	41256.776709	3834.210153	20955.347962
110.036000	0.029771	0.017710	0.037611	0.068824	6997.103382	41184.806679	3830.149993	20975.563468
110.536500	0.029625	0.018495	0.040334	0.070411	6979.922235	41113.703660	3833.230656	20908.773766
111.036000	0.028036	0.018912	0.039287	0.070683	6961.550295	41126.605804	3829.652619	20897.361807
111.537000	0.029664	0.019069	0.040657	0.071762	6966.962249	41045.156537	3830.442111	20852.143795
112.037500	0.029774	0.018674	0.039712	0.071739	6968.271475	41012.305074	3827.944858	20853.108810
112.537500	0.028808	0.018742	0.039940	0.072388	6952.379444	40961.103785	3826.807716	20825.973648
113.034500	0.029672	0.019128	0.040516	0.072863	6956.195308	40953.299719	3827.082104	20806.115652
113.535000	0.030415	0.019105	0.039172	0.073668	6955.590499	40880.384711	3821.287432	20772.531862
114.036000	0.031934	0.019964	0.040343	0.074759	6959.797332	40859.979749	3821.500728	20727.105845
114.535500	0.027333	0.019589	0.043221	0.079878	6865.157715	40380.292599	3815.488922	20515.497834
115.039000	0.031154	0.019482	0.044343	0.074999	6949.761141	40796.556942	3831.659710	20717.107826
115.536500	0.032314	0.020188	0.043036	0.075808	6953.221858	40787.658886	3825.933928	20683.556313
116.037000	0.031152	0.019795	0.045870	0.076274	6937.243214	40712.345931	3832.343337	20664.215132
116.537000	0.030930	0.019326	0.042763	0.080435	6894.531040	40309.331103	3812.776566	20492.646483
117.040000	0.031645	0.021079	0.046194	0.078478	6920.520281	40631.934641	3827.251832	20573.142481
117.535000	0.031300	0.020083	0.038622	0.078396	6917.959144	40552.164207	3807.176858	20576.523302
118.035000	0.031375	0.020035	0.040110	0.078444	6918.219527	40543.855426	3811.010416	20574.546797
118.535000	0.027993	0.019677	0.040315	0.083670	6835.115449	40060.425134	3797.700832	20360.370922
119.038500	0.029719	0.020110	0.043353	0.083186	6856.291072	40139.350622	3807.018026	20380.080741
119.536000	0.032618	0.021255	0.045512	0.080950	6905.913561	40431.921626	3818.755390	20471.498506
120.036500	0.032832	0.021478	0.044993	0.081258	6905.005187	40424.605008	3816.538222	20458.906152
120.542000	0.030089	0.021207	0.042203	0.086380	6829.252939	39959.121654	3795.538370	20250.349459
121.036500	0.029778	0.021299	0.039888	0.085981	6830.082655	40001.176924	3790.507870	20266.469246
121.540000	0.031662	0.021658	0.045284	0.082741	6879.293325	40311.498355	3813.348253	20398.246039
122.037500	0.032389	0.021638	0.045821	0.083418	6879.781777	40251.305167	3812.976418	20370.653772
122.535000	0.034887	0.022077	0.043012	0.084346	6894.979965	40208.980071	3803.040733	20332.872957
123.035500	0.031854	0.021861	0.045068	0.087978	6830.841668	39878.117006	3798.875982	20185.759975
123.535500	0.032733	0.022143	0.048408	0.085293	6865.019619	40133.021188	3814.878694	20294.397515
124.045500	0.032846	0.022076	0.047680	0.085655	6862.622715	40096.038085	3811.965660	20279.695280
124.536000	0.032942	0.023126	0.045688	0.089528	6826.435323	39853.824944	3796.425757	20123.377599
125.036500	0.033062	0.022731	0.044750	0.088921	6833.370343	39871.840069	3795.552416	20147.751597
125.536500	0.033501	0.023149	0.046329	0.087737	6848.909696	40009.301097	3802.843050	20195.492381
126.040000	0.033318	0.022540	0.046379	0.087898	6845.618846	39943.227234	3802.551019	20189.001134
126.534000	0.029985	0.022580	0.043924	0.093076	6764.850702	39505.278250	3782.529012	19981.365210
127.035000	0.031148	0.021987	0.042403	0.090872	6796.607589	39641.988357	3784.304096	20069.426940
127.535000	0.033457	0.022428	0.044003	0.089042	6835.987311	39835.637111	3793.271540	20142.887411
128.035500	0.034869	0.023256	0.048519	0.090453	6836.012312	39785.876049	3801.452884	20086.240866
128.536000	0.032776	0.022992	0.046313	0.094287	6779.717507	39437.532347	3785.593597	19933.143165
129.039000	0.033960	0.023270	0.049202	0.092779	6805.193592	39588.945379	3797.116081	19993.203831
129.536000	0.034519	0.023039	0.046217	0.091305	6824.526773	39694.612917	3793.143969	20052.080915
130.036500	0.034129	0.023737	0.050876	0.091834	6815.779303	39709.058871	3804.036843	20030.945571
130.539500	0.034311	0.023846	0.051240	0.096935	6769.237777	39286.182322	3791.553262	19828.213031
131.037000	0.036180	0.023564	0.051504	0.093682	6817.713545	39537.307728	3800.806816	19957.223458
131.534500	0.035128	0.024501	0.052818	0.094095	6803.781597	39581.694461	3803.189787	19940.766347
132.037500	0.038258	0.024446	0.050928	0.094404	6830.634202	39550.800336	3797.381741	19928.497301
132.535000	0.033948	0.024106	0.048560	0.099462	6742.149148	39095.739328	3777.987623	19728.675630
133.035500	0.035443	0.023960	0.047620	0.094758	6800.479976	39479.594887	3787.776268	19914.427209
133.536000	0.035908	0.023286	0.051874	0.095195	6800.749351	39385.662297	3797.790017	19897.090449
134.036000	0.037547	0.024887	0.051370	0.096383	6805.024417	39420.597167	3793.340068	19850.023168
134.536000	0.035770	0.024608	0.049463	0.100759	6747.048787	39029.132368	3776.966727	19677.799454
135.039000	0.038110	0.025111	0.049544	0.097487	6799.894486	39346.244314	3785.676395	19806.417872
135.537000	0.036526	0.024953	0.049469	0.097507	6784.723077	39331.198154	3785.426571	19805.623023
136.037500	0.035782	0.023813	0.049547	0.097440	6778.326807	39240.818495	3785.804947	19808.248940
136.537500	0.039869	0.025164	0.054791	0.098352	6808.380882	39277.822545	3797.158530	19772.312484
137.035000	0.035924	0.025260	0.052978	0.100549	6750.455104	39101.338074	3786.645599	19686.013811
137.535000	0.037784	0.024588	0.050287	0.098386	6788.302423	39226.404329	3785.266621	19770.959279
138.036000	0.037824	0.025492	0.052983	0.099264	6780.394008	39228.641821	3790.017776	19736.444285
138.536000	0.035499	0.025464	0.048837	0.103938	6714.906810	38835.424451	3767.165223	19553.767250
139.036000	0.038769	0.025885	0.053019	0.101408	6769.097111	39081.713092	3784.511539	19652.384904
139.539000	0.036354	0.024530	0.054482	0.099310	6766.107406	39143.992342	3793.824894	19734.613369
140.036500	0.038066	0.026086	0.054550	0.101195	6764.495899	39116.435522	3789.064650	19660.732906
140.537000	0.037759	0.026339	0.051095	0.104354	6732.049764	38873.535565	3771.898803	19537.584231
141.037500	0.037032	0.025852	0.054089	0.102172	6745.636249	39014.979623	3785.310723	19622.539475
141.535000	0.038986	0.026475	0.054351	0.102694	6759.056227	39023.485446	3784.633550	19602.195795
142.041000	0.041092	0.026439	0.058969	0.102892	6776.996090	39003.881686	3796.204938	19594.468413
142.535500	0.037856	0.025788	0.057078	0.106414	6713.802185	38656.802721	3782.049523	19457.781562
143.036000	0.039835	0.026668	0.054772	0.104166	6753.216246	38916.673985	3781.898798	19544.896591
143.536000	0.041731	0.026785	0.053231	0.103893	6773.588636	38949.179852	3778.606717	19555.500405
144.039000	0.041060	0.027030	0.053916	0.104185	6764.523025	38945.263198	3779.625737	19544.136937
144.536500	0.039472	0.027621	0.050855	0.108027	6713.828619	38674.984602	3761.866498	19395.545462
145.036500	0.040491	0.027113	0.057673	0.105947	6742.682265	38805.422643	3784.811317	19475.831288
145.534500	0.041915	0.027682	0.052472	0.106076	6754.800281	38842.026458	3771.009609	19470.823163
146.034500	0.040953	0.027207	0.058657	0.105827	6748.121593	38823.219560	3787.691972	19480.461449
146.535000	0.041770	0.027851	0.054504	0.106764	6747.004369	38798.908381	3774.475481	19444.247533
147.035000	0.041095	0.026874	0.054802	0.106517	6743.001642	38738.243840	3775.883533	19453.792870
147.536000	0.044694	0.028622	0.061451	0.108112	6761.772110	38750.893039	3789.023251	19392.251153
148.035500	0.045016	0.027052	0.055170	0.107284	6772.589498	38689.407393	3774.851963	19424.175844
148.538000	0.043665	0.028119	0.057561	0.108704	6746.585385	38660.187523	3777.361318	19369.473619
149.036500	0.043148	0.028419	0.058529	0.110190	6727.883990	38562.130215	3776.021105	19312.425770
149.536500	0.041758	0.027926	0.060730	0.108804	6727.851182	38635.904414	3785.334460	19365.630759
150.037000	0.045028	0.028537	0.059261	0.110598	6741.616130	38538.115760	3776.858986	19296.790369
150.537000	0.043316	0.028723	0.059811	0.110524	6726.339531	38559.564047	3778.473052	19299.621708
151.034500	0.044663	0.028853	0.061349	0.110773	6736.574047	38549.777758	3781.820510	19290.099177
151.535000	0.045643	0.029267	0.058378	0.111735	6736.746087	38504.635729	3771.645537	19253.340858
152.035000	0.045449	0.029323	0.059609	0.112347	6729.227405	38458.771727	3773.240221	19229.980755
152.536000	0.043917	0.029572	0.059678	0.112860	6710.222889	38437.048945	3772.094524	19210.413876
153.039000	0.045562	0.029810	0.063003	0.113324	6721.193294	38418.522988	3779.491401	19192.785037
153.536000	0.045957	0.030727	0.058213	0.114539	6713.571349	38394.010043	3764.027084	19146.612894
154.036500	0.044957	0.030348	0.064727	0.114741	6702.432559	38346.207124	3780.285559	19138.932078
154.537000	0.043163	0.029621	0.060961	0.117285	6662.498079	38078.854429	3764.033470	19042.771229
155.037000	0.046900	0.030459	0.061138	0.116037	6708.424421	38249.114899	3767.682067	19089.872139
155.537500	0.049423	0.030581	0.053858	0.115943	6732.749981	38266.851501	3749.393297	19093.418612
156.035000	0.048295	0.031077	0.058675	0.116455	6717.494726	38265.529103	3760.313816	19074.087750
156.535500	0.045899	0.031183	0.057745	0.120222	6660.656280	37967.033679	3748.404848	18932.403841
157.035500	0.048971	0.031488	0.060331	0.117378	6715.192588	38223.607977	3762.182129	19039.236273
157.538500	0.049807	0.030830	0.063986	0.116320	6732.821623	38256.353440	3774.283066	19079.191048
158.036500	0.048706	0.032200	0.061925	0.117555	6711.103496	38267.456504	3765.807883	19032.595917
158.536500	0.046218	0.031226	0.061631	0.120835	6657.965792	37920.763034	3756.688510	18909.468933
159.037000	0.050151	0.031407	0.057342	0.117755	6722.659737	38186.191992	3753.622204	19025.039901
159.537000	0.052500	0.032967	0.067659	0.118374	6738.776330	38263.135165	3778.469299	19001.741946
160.037000	0.051103	0.031290	0.063727	0.117557	6733.368525	38192.821501	3770.428162	19032.498636
160.537500	0.049779	0.033338	0.060884	0.123499	6666.178515	37876.028912	3748.058558	18810.161226
161.035000	0.052797	0.033440	0.059353	0.119796	6728.289534	38185.529677	3753.545034	18948.351629
161.534500	0.050859	0.032284	0.061602	0.118496	6722.352318	38197.297199	3762.574552	18997.171678
162.038500	0.055086	0.032938	0.059214	0.119323	6754.091319	38183.140004	3754.392090	18966.101303
162.535500	0.050736	0.032302	0.058991	0.122382	6685.243804	37882.635624	3746.102713	18851.736081
163.036500	0.053289	0.033054	0.061964	0.119874	6732.141022	38147.643033	3759.981349	18945.426256
163.536500	0.052191	0.032630	0.061958	0.119194	6728.254553	38168.549031	3761.702261	18970.959387
164.036500	0.053841	0.033344	0.056567	0.119615	6739.714646	38192.470211	3746.967033	18955.157042
164.537500	0.053928	0.033057	0.061520	0.119561	6741.025205	38173.469366	3759.647230	18957.173797
165.034500	0.055295	0.033512	0.065843	0.119883	6750.804224	38184.383025	3769.889078	18945.120880
165.535000	0.054325	0.034219	0.064025	0.120597	6735.068472	38183.750336	3763.397405	18918.365843
166.035000	0.054414	0.033996	0.063436	0.120454	6737.227375	38177.153841	3762.256665	18923.704494
166.538500	0.049707	0.033643	0.062163	0.124401	6657.259498	37827.741382	3749.006211	18776.660969
167.035500	0.054442	0.034251	0.059620	0.121071	6731.736613	38147.638804	3750.993920	18900.629192
167.535500	0.055669	0.034363	0.061366	0.120392	6749.537145	38212.297490	3757.141645	18926.044795
168.036500	0.055448	0.035414	0.066051	0.122109	6731.442534	38157.878904	3764.713053	18861.910942
168.536500	0.052373	0.034558	0.066197	0.126019	6666.855410	37770.904048	3755.118769	18716.764367
169.037000	0.054738	0.034468	0.057332	0.122321	6722.852776	38063.471591	3742.089581	18853.994834
169.537500	0.055899	0.035199	0.064678	0.121923	6737.374414	38155.462572	3761.677319	18868.829728
170.035000	0.058389	0.035861	0.070676	0.122596	6754.376209	38154.604772	3775.353400	18843.757917
170.535000	0.054973	0.034394	0.061257	0.123611	6713.055278	37952.603162	3748.715298	18806.003781
171.038000	0.058124	0.035374	0.065314	0.122886	6749.172659	38091.151295	3760.841693	18832.936890
171.535500	0.057191	0.035616	0.062778	0.123013	6739.268734	38100.628444	3754.072327	18828.230298
172.036000	0.056393	0.035509	0.064963	0.122132	6740.033577	38163.739914	3761.871387	18861.028199
172.536500	0.055206	0.035630	0.064944	0.128190	6672.931365	37682.308672	3746.468075	18636.761837
173.036000	0.057843	0.035276	0.067126	0.122751	6747.807404	38094.271214	3765.819829	18837.981470
173.536500	0.060815	0.035830	0.061926	0.123036	6773.023502	38116.160788	3751.855537	18827.357806
174.037500	0.056127	0.036200	0.067720	0.123051	6728.986885	38145.119767	3766.572880	18826.814762
174.537000	0.056822	0.035385	0.064340	0.127007	6698.726431	37757.982513	3747.925875	18680.323338
175.035000	0.059745	0.036242	0.068770	0.123327	6760.238472	38126.035316	3768.559762	18816.559401
175.540500	0.058593	0.036821	0.065125	0.123529	6747.544403	38156.776509	3758.723488	18809.049836
176.035500	0.060252	0.037401	0.071807	0.124604	6753.015796	38116.416625	3773.088912	18769.135190
176.535500	0.057581	0.035888	0.064363	0.130270	6675.644927	37535.846774	3739.788496	18560.454683
177.036000	0.058304	0.036413	0.064296	0.124096	6739.548930	38077.321788	3755.176848	18787.993939
177.536000	0.060569	0.036645	0.064783	0.123903	6762.569266	38111.960795	3756.903923	18795.159687
178.036500	0.059119	0.036661	0.065209	0.124318	6745.092163	38079.388350	3756.932481	18779.753140
178.537000	0.059180	0.036655	0.069345	0.127099	6719.723788	37853.140728	3760.378127	18676.909607
179.037000	0.060057	0.036629	0.067326	0.124504	6752.122541	38061.659768	3761.849370	18772.841512
179.534500	0.059002	0.036655	0.060890	0.124054	6746.464878	38100.487763	3746.674244	18789.560448
180.034500	0.061379	0.038020	0.068744	0.125862	6751.796445	38064.346915	3762.002573	18722.592155
180.535000	0.057013	0.036631	0.062561	0.130873	6664.897749	37547.053770	3733.788705	18538.416021
181.035500	0.061746	0.036918	0.066756	0.125257	6760.902917	38023.890405	3758.474714	18744.936224
181.536000	0.059985	0.037400	0.069249	0.125482	6742.304637	38044.855546	3764.263601	18736.640228
182.036500	0.061156	0.038033	0.061474	0.125887	6749.461846	38063.350393	3743.532800	18721.637123
182.536500	0.057436	0.037159	0.062895	0.130671	6670.634515	37605.725871	3735.124270	18545.814771
183.062500	0.061497	0.037872	0.069231	0.125910	6752.438261	38048.320072	3763.123241	18720.787138
183.534000	0.062548	0.037805	0.068118	0.125871	6762.672728	38046.104572	3760.381810	18722.243429
184.037500	0.062829	0.038963	0.071751	0.127001	6754.706504	38048.379912	3766.781597	18680.534595
184.538000	0.058913	0.037949	0.066826	0.131984	6672.132085	37563.689168	3741.665003	18497.867665
185.035000	0.064579	0.038609	0.065990	0.126792	6773.108385	38036.573607	3752.637146	18688.240500
185.535500	0.061128	0.037749	0.067681	0.126280	6745.526957	38008.293003	3758.227008	18707.119734
186.036000	0.062105	0.038633	0.070617	0.126856	6749.279331	38033.347284	3764.249176	18685.892585
