sample name	sample
index	588
start time	 03-16-2021  04:15:53 PM
880	0.190411
Peak Time (s)	181.036
Peak Height 	0.1904
calc peak height	180,183
Baseline Time (s)	8.536
Baseline Value 	-0.003379
subtract baseline	10,4
Abs	0.121926
Peak Time (s)	180.536
Peak Height 	0.1219
calc peak height	180,183
Baseline Time (s)	9.537
Baseline Value 	0.003844
subtract baseline	10,3
PK_550	0.070400
Peak Time (s)	180.536
Peak Height 	0.0704
calc peak height	180,183
Baseline Time (s)	10.037
Baseline Value 	8.6152E-4
subtract baseline	10,2
PK_880	0.113674
Peak Time (s)	182.037
Peak Height 	0.1137
calc peak height	180,183
Baseline Time (s)	10.037
Baseline Value 	0.0017
subtract baseline	10,1


Time (s)	A880-A510	A880-A775	A880-A975	A880	I510	I775	I975	I880	
0.036000	-0.005033	-0.001799	-0.005755	0.006667	5534.729558	33325.953939	3624.902592	18143.746153
0.536500	-0.003117	-0.000453	-0.003820	0.004534	5559.701973	33570.704611	3632.266264	18218.986765
1.037000	-0.002257	-0.001012	-0.009079	0.003395	5572.119997	33611.703025	3624.810860	18259.340499
1.534500	-0.001344	-0.000481	-0.005683	0.001177	5591.679667	33806.752895	3634.985833	18338.167056
2.037500	-0.003610	-0.001144	-0.005533	0.003753	5561.491004	33577.129901	3630.573152	18246.658417
2.538000	0.000137	0.000452	-0.004238	0.001297	5600.232023	33864.668838	3637.407965	18333.902493
3.035500	0.002078	0.000449	0.001037	-0.001281	5628.800039	34048.851246	3651.911255	18426.020927
3.535500	0.000192	-0.000051	0.003264	0.001749	5597.733635	33796.676839	3650.416945	18317.802501
4.036000	-0.000962	-0.001221	-0.004897	0.000220	5600.088294	33822.198922	3638.173186	18372.314496
4.536500	-0.001769	-0.000664	-0.000049	0.000392	5593.941290	33849.629948	3646.787817	18366.189085
5.036500	0.000353	-0.000000	0.001475	0.000392	5607.288785	33896.952450	3649.612648	18366.173893
5.537000	-0.001740	0.000175	0.004836	0.000514	5593.354811	33900.780975	3655.654354	18361.818610
6.037500	-0.000344	0.000756	0.002841	0.000641	5601.335462	33933.234071	3651.692623	18357.307450
6.539500	-0.001823	0.000268	-0.001702	0.000529	5592.742344	33906.358334	3643.479348	18361.287298
7.037500	-0.003211	-0.000773	-0.001082	0.000030	5587.168774	33867.630773	3645.545500	18379.107062
7.535500	-0.001699	-0.000231	-0.001740	0.000187	5595.669202	33895.175710	3644.040362	18373.501987
8.036000	-0.003637	-0.000513	-0.001472	0.000004	5584.668805	33888.063879	3644.872837	18380.041183
8.536000	-0.000141	-0.000477	-0.002805	0.000000	5606.648304	33890.927852	3642.420357	18380.187558
9.036000	0.000687	-0.000231	0.005164	-0.000078	5612.365553	33914.046036	3657.380000	18382.979883
9.536500	0.002523	0.000180	0.000000	-0.000353	5625.734887	33963.096077	3648.257787	18392.790980
10.037000	0.000000	0.000000	0.000704	0.000281	5605.767598	33904.946050	3648.388887	18370.156628
10.537000	0.001028	0.000173	0.005948	0.000123	5613.253225	33928.584769	3658.475364	18375.798792
11.037000	-0.001990	-0.000238	-0.002793	-0.000348	5597.202346	33932.910026	3643.084533	18392.646292
11.535500	-0.001285	0.000928	-0.000775	0.000663	5595.282186	33943.983373	3644.944360	18356.529656
12.035000	0.000618	-0.000286	0.000845	0.000090	5610.869959	33898.112798	3649.005123	18376.963515
12.535500	0.001445	-0.000107	0.002139	-0.000448	5619.500677	33949.382752	3652.414189	18396.202725
13.035500	-0.001736	-0.001005	-0.001662	-0.001882	5608.458481	33987.750948	3648.011492	18447.587476
13.536000	-0.001343	0.001011	0.009278	0.000181	5597.945894	33984.365853	3664.646673	18373.735141
14.036000	-0.000333	-0.000268	-0.004172	0.002680	5588.596777	33715.040841	3635.000860	18284.701386
14.536500	-0.001526	-0.000972	-0.004909	0.000871	5592.459382	33793.613408	3636.960924	18349.092733
15.037000	-0.002339	-0.000611	-0.005198	-0.001495	5602.219231	33988.216863	3640.769023	18433.691820
15.537000	0.000151	0.000385	-0.001560	-0.000771	5613.358268	34007.685344	3646.142042	18407.752421
16.035000	-0.004310	-0.000776	-0.002511	0.004475	5552.684738	33552.043777	3634.756838	18221.068134
16.538000	-0.001044	-0.000043	0.003732	-0.000753	5605.701292	33975.808796	3655.960897	18407.127197
17.035000	0.001060	-0.000169	-0.000419	-0.003415	5635.905963	34157.813369	3653.177242	18502.701086
17.535500	-0.001243	-0.000561	0.007250	0.000414	5597.106543	33855.420334	3660.375920	18365.388340
18.035500	-0.004198	-0.000410	0.001013	0.001973	5568.895305	33755.182535	3645.827013	18309.838353
18.535500	0.000050	-0.000148	-0.007404	0.001069	5601.118411	33838.204158	3632.049061	18342.032568
19.036500	0.000478	-0.000225	0.000430	0.000989	5604.316422	33838.377688	3646.568651	18344.884750
19.536500	-0.003108	-0.000826	-0.001380	0.000332	5585.929561	33842.414150	3644.437363	18368.337596
20.037000	0.000808	0.000272	-0.000491	0.001806	5601.252703	33815.595670	3643.357113	18315.794408
20.537000	-0.003255	-0.000487	0.002807	0.000532	5583.755243	33852.260772	3651.831090	18361.179936
21.034500	0.000536	-0.000163	-0.006997	0.000527	5607.594327	33875.746505	3633.776652	18361.355219
21.534500	-0.000426	-0.000058	0.001976	0.001342	5596.406524	33825.086150	3648.779949	18332.298055
22.035500	-0.000327	-0.000589	-0.003669	0.001089	5598.623877	33805.366758	3638.831579	18341.322574
22.535500	-0.001371	-0.000110	0.001102	0.001347	5590.444604	33821.044049	3647.150029	18332.116455
23.036000	0.002557	0.000579	0.003589	0.001836	5612.085605	33835.329968	3650.860147	18314.707023
23.536500	-0.001022	0.000284	0.002895	0.000753	5596.368628	33891.545893	3651.584348	18353.307569
24.036500	-0.000691	-0.000171	-0.000751	0.001784	5591.971869	33785.611074	3642.918489	18316.550334
24.537000	0.000467	-0.000102	0.001199	0.001121	5603.414866	33837.725279	3647.749361	18340.181916
25.037000	0.001037	-0.000186	0.000156	0.001175	5606.671328	33827.938899	3645.717396	18338.257898
25.537500	0.001338	-0.000473	-0.005454	0.000920	5610.173794	33825.637503	3635.873754	18347.336353
26.037500	-0.001178	-0.000526	-0.002722	0.000356	5597.881663	33862.084286	3641.918472	18367.479637
26.535500	-0.000939	-0.000142	-0.000378	0.000769	5596.791367	33860.033728	3645.481102	18352.742804
27.035500	-0.000961	0.000033	0.003194	-0.001810	5612.899016	34057.012462	3656.934990	18445.015671
27.536500	0.000423	0.000006	-0.002258	-0.001432	5619.259317	34027.917032	3646.073601	18431.437909
28.036000	0.001561	0.000205	0.002327	-0.000338	5619.538228	33963.805616	3652.558888	18392.254733
28.536500	0.002532	0.000891	-0.002125	0.000154	5622.579071	33977.724368	3643.390989	18374.700607
29.036500	0.000492	-0.000213	0.005952	-0.000391	5613.115326	33937.749557	3659.449078	18394.175408
29.537000	-0.005233	-0.001445	-0.005419	0.004395	5547.484202	33510.515946	3629.615808	18223.923180
30.037000	-0.000041	0.000154	0.006162	-0.000602	5611.078315	33979.052277	3660.240670	18401.706907
30.537500	-0.000749	0.000385	0.002575	0.003135	5583.149001	33729.094030	3646.565794	18268.547397
31.034500	0.000303	-0.000339	0.002549	0.002041	5596.602824	33755.435131	3648.547942	18307.435424
31.535000	-0.002512	0.000255	-0.000155	0.004482	5563.782371	33624.466319	3639.053963	18220.839189
32.035500	-0.006182	-0.001562	-0.000408	0.004478	5541.120146	33496.377594	3638.596782	18220.972267
32.535000	0.000319	0.000985	0.003396	0.000411	5606.963134	33966.048949	3653.157927	18365.521807
33.035500	0.000537	-0.000384	0.005732	-0.000492	5614.033731	33932.756052	3659.224507	18397.783341
33.536500	-0.003140	0.000514	-0.000578	0.004335	5560.797902	33653.244717	3638.549600	18226.054209
34.036000	-0.001079	0.000170	0.000123	0.002531	5584.864265	33756.752676	3643.152149	18289.990431
34.537000	-0.002462	-0.000391	0.004798	0.001378	5583.425096	33798.844751	3653.969815	18331.025495
35.037000	0.000349	-0.000289	-0.001543	0.002088	5596.596796	33755.684705	3640.901930	18305.763210
35.535000	-0.003689	0.000468	-0.000133	0.003612	5561.880195	33701.187512	3640.692163	18251.650778
36.035000	-0.002423	-0.000653	0.000390	0.001936	5580.186421	33740.606594	3644.743682	18311.168699
36.535500	0.000411	0.000782	-0.003800	0.003211	5589.937179	33751.942186	3634.711376	18265.857828
37.035500	-0.000781	0.000433	-0.000681	0.002349	5587.863556	33788.356522	3642.006899	18296.458910
37.536500	-0.002580	-0.000282	0.000238	0.003206	5571.291813	33676.789559	3642.120889	18266.049983
38.036500	-0.001463	-0.000244	0.003198	0.002657	5581.675345	33718.387135	3648.607450	18285.522920
38.536000	-0.001706	-0.001136	-0.001791	0.001508	5587.343384	33736.652037	3641.511022	18326.380715
39.036500	-0.000631	-0.000188	-0.000178	0.002144	5590.093310	33758.877337	3643.311806	18303.770759
39.537000	-0.001614	-0.000233	0.000962	0.001870	5585.651589	33775.089831	3645.923566	18313.511680
40.040000	-0.001682	0.000642	-0.002735	0.002609	5580.607282	33784.804800	3637.757628	18287.229633
40.535000	-0.001105	0.000229	0.000764	0.002597	5584.289744	33756.315856	3644.214376	18287.665230
41.037500	-0.000170	0.000369	0.001902	0.002550	5590.436155	33769.559823	3646.403881	18289.324750
41.535500	-0.003034	0.000223	0.001450	0.002220	5574.600993	33782.618761	3646.178708	18301.059980
42.035500	0.001379	0.000252	0.004536	0.002474	5600.645177	33766.707294	3651.436034	18292.040608
42.536000	0.000467	-0.000060	-0.000563	0.002607	5594.073358	33735.044451	3641.748297	18287.296714
43.036500	-0.000368	0.000272	-0.002386	0.002613	5588.800439	33758.134106	3638.390544	18287.079561
43.536500	0.001857	0.000994	0.004937	0.002550	5603.171134	33814.044774	3652.040926	18289.324056
44.037000	-0.000858	0.000793	-0.000816	0.005514	5567.643147	33589.497831	3635.955502	18184.374101
44.537500	0.003619	0.000711	0.002231	0.000655	5626.294784	33928.939649	3650.530538	18356.782271
45.037500	0.000776	-0.000498	0.003434	-0.000479	5615.465983	33923.660644	3654.889581	18397.311167
45.535000	-0.000891	0.000849	-0.000284	0.000384	5599.508338	33958.296848	3646.368197	18366.481919
46.035500	-0.004215	0.000212	0.001629	0.006058	5543.506081	33510.103205	3639.436539	18165.200979
46.535500	0.000594	0.000542	0.008264	0.000328	5609.217790	33940.285971	3662.451229	18368.477831
47.036000	0.003282	0.001526	-0.001014	0.000806	5623.196973	33976.454578	3644.236840	18351.409389
47.536500	-0.002640	-0.000581	-0.002657	0.002900	5572.820461	33677.280468	3637.368442	18276.892305
48.036500	-0.003197	0.000111	0.000051	0.004155	5561.558842	33637.387377	3640.032945	18232.404862
48.536500	0.002023	0.000456	0.006470	0.000653	5616.189224	33910.931280	3658.459132	18356.866079
49.037500	0.003219	0.001303	-0.001989	0.000774	5623.002847	33962.863714	3642.498421	18352.560815
49.540000	-0.002997	-0.000271	0.003183	0.003875	5564.532490	33630.138308	3646.320635	18242.304967
50.038000	-0.001989	-0.000298	-0.000090	0.003205	5574.974669	33675.698645	3641.519371	18266.080877
50.535000	0.000703	0.000844	-0.001945	0.003179	5591.962432	33758.569241	3638.160706	18266.985670
51.035500	0.014639	-0.003231	0.011899	0.125115	4992.326290	25985.338350	3462.859360	14495.347478
51.535500	-0.005183	-0.010954	-0.001281	0.045560	5305.492820	30138.690996	3565.293683	16834.504512
52.036000	-0.013589	-0.016098	-0.006011	-0.102243	6227.839426	40733.124119	3847.298402	22499.988862
52.536000	0.000707	-0.043927	0.002783	-0.328944	8719.811919	62709.447408	4570.586439	35961.280978
53.036500	0.003998	-0.022837	0.014283	-0.252886	7817.134817	55598.155451	4331.895489	30643.440641
53.537000	-0.009697	-0.013358	0.000701	-0.172177	6850.306770	47625.688613	4041.230539	25931.516495
54.040000	-0.022868	-0.011958	-0.015308	-0.177429	6778.361690	48316.136268	4011.904937	26212.224041
54.534500	-0.013177	-0.007502	-0.014802	-0.203843	7117.313206	51662.335697	4086.685598	27676.661716
55.035000	-0.005301	-0.002422	-0.007495	-0.213647	7293.849161	53362.689575	4136.682493	28243.260570
55.535500	0.000369	-0.000186	-0.007567	-0.210609	7320.752903	53269.533467	4127.447650	28066.286737
56.035500	0.005173	0.001758	-0.005329	-0.195195	7213.296140	51731.049210	4089.049788	27187.357891
56.535500	0.004124	0.002525	-0.002757	-0.170936	6967.342250	49159.447252	4028.330798	25865.687569
57.035500	0.004551	0.002408	0.001330	-0.139885	6688.267255	45955.572111	3956.950494	24278.270813
57.536500	0.004500	0.002820	-0.001870	-0.106897	6408.450788	42843.668267	3867.853623	22711.602318
58.036500	0.006837	0.003819	0.003103	-0.078579	6202.884749	40408.064753	3814.193862	21458.454012
58.534000	0.007266	0.004426	0.006204	-0.044350	5953.212279	37613.380595	3746.988068	20048.867489
59.037500	0.013113	0.009087	0.008161	-0.014283	5785.892533	35640.540403	3690.303401	18899.103956
59.535000	0.007706	0.005642	0.006818	-0.039028	5918.737433	37286.687111	3737.237966	19839.546299
60.037500	0.014156	0.006581	0.009609	-0.009839	5763.139842	35120.755614	3684.476109	18735.837077
60.535000	0.016915	0.009420	0.015537	0.015691	5615.269831	33480.210803	3647.318621	17829.460804
61.036000	0.020374	0.011349	0.025363	0.028131	5559.047509	32748.741186	3642.489022	17406.732567
61.536000	0.018014	0.012305	0.013654	0.037364	5488.174642	32185.172654	3604.830028	17100.718850
62.036500	0.016805	0.015743	0.018160	0.020781	5582.576654	33567.107606	3642.760036	17655.010941
62.536500	0.018003	0.015296	0.025042	0.021401	5586.188017	33491.788626	3654.382136	17633.904750
63.037500	0.018267	0.015310	0.016787	0.023065	5577.443610	33375.802215	3636.050694	17577.419016
63.538000	0.024084	0.015706	0.021082	0.024801	5603.019846	33281.904196	3640.739415	17518.699794
64.035000	0.019526	0.015225	0.021984	0.032992	5523.910046	32681.104543	3627.455445	17244.815738
64.535000	0.023532	0.016284	0.024583	0.033159	5547.491070	32742.362020	3631.862429	17239.290950
65.035000	0.020097	0.016427	0.019641	0.036685	5504.891942	32510.786742	3616.622235	17123.018703
65.535500	0.024006	0.017573	0.025044	0.040432	5505.876406	32333.922215	3619.578097	17000.484935
66.036000	0.022575	0.017698	0.022024	0.047969	5451.968919	31835.734487	3600.918475	16757.194353
66.536000	0.024705	0.018874	0.016884	0.045459	5479.722486	32082.465349	3596.339595	16837.756500
67.036000	0.024547	0.019100	0.025456	0.046240	5474.083895	32045.201305	3609.983968	16812.640499
67.537000	0.026548	0.019566	0.032901	0.047358	5479.382210	32001.366530	3621.245217	16776.747692
68.037000	0.024416	0.019635	0.028821	0.052972	5433.228441	31632.135453	3604.056011	16598.009475
68.537500	0.027271	0.020711	0.028407	0.049350	5471.764564	31944.683225	3609.702523	16713.055722
69.035500	0.030433	0.020954	0.032171	0.050105	5486.232495	31910.500521	3615.036330	16689.009088
69.535500	0.031291	0.021166	0.031588	0.051468	5483.192986	31833.658697	3611.582267	16645.664648
70.035500	0.029708	0.021143	0.032087	0.057133	5439.913850	31457.075535	3602.488147	16466.999073
70.535500	0.030373	0.023351	0.027370	0.054254	5460.986604	31793.612016	3599.278553	16557.507563
71.036000	0.032145	0.022071	0.025890	0.053826	5474.150893	31737.030537	3597.449452	16571.026340
71.536500	0.033538	0.022621	0.030944	0.056704	5465.258903	31582.821372	3601.240561	16480.454862
72.036500	0.031249	0.023116	0.029074	0.059649	5434.147784	31421.390549	3592.874704	16388.398666
72.537000	0.032793	0.022883	0.029084	0.057177	5457.987461	31568.912636	3597.176493	16465.635458
73.040000	0.036781	0.024191	0.035464	0.058917	5471.423151	31540.386228	3605.282251	16411.226403
73.535000	0.035249	0.024423	0.034085	0.060985	5449.938330	31419.519985	3599.251958	16346.852897
74.035000	0.037075	0.024535	0.041003	0.060498	5463.717952	31458.856010	3612.264087	16361.974308
74.535000	0.039973	0.025825	0.027563	0.061869	5472.863852	31453.580997	3586.458305	16319.442856
75.035500	0.039163	0.024877	0.036215	0.061592	5469.669744	31409.521036	3601.911124	16328.031388
75.536000	0.038168	0.026391	0.038524	0.065182	5442.352058	31273.467276	3599.674504	16217.146643
76.036000	0.040976	0.027264	0.039127	0.065053	5459.816068	31339.030986	3600.950630	16221.121167
76.536500	0.039252	0.026813	0.042111	0.065922	5444.387785	31252.699122	3604.652709	16194.392816
77.036500	0.042429	0.027149	0.039687	0.066855	5457.731031	31213.741652	3598.785310	16165.782346
77.537500	0.042774	0.028176	0.038627	0.069590	5443.525558	31102.567342	3592.204744	16082.247930
78.037500	0.041901	0.027715	0.038735	0.072451	5421.476394	30887.627608	3587.468014	15995.432265
78.534500	0.043312	0.028742	0.035406	0.070491	5441.374759	31080.857195	3585.123653	16054.852844
79.035000	0.044811	0.028474	0.040099	0.071568	5443.874184	30993.685237	3591.332987	16022.180108
79.535500	0.045033	0.028621	0.047212	0.074498	5427.864413	30814.183661	3598.579674	15933.654592
80.035500	0.043162	0.028699	0.036807	0.075144	5413.072263	30777.677221	3579.583298	15914.231864
80.536000	0.044124	0.029195	0.045742	0.074192	5424.315107	30870.848307	3596.556127	15942.878246
81.036000	0.046134	0.030705	0.046250	0.076694	5421.423329	30807.025156	3593.101685	15867.728805
81.536500	0.044079	0.030471	0.044606	0.078752	5397.358449	30660.070700	3586.731867	15806.231700
82.037000	0.047426	0.030799	0.046838	0.081597	5400.283133	30499.627153	3585.681586	15721.691240
82.539500	0.047530	0.031319	0.051814	0.079116	5415.395004	30691.002728	3598.550669	15795.374340
83.037500	0.049205	0.031842	0.050036	0.081215	5412.912773	30590.342319	3591.833064	15733.013288
83.535000	0.050904	0.032420	0.047472	0.082231	5416.915302	30562.450083	3585.682636	15702.945023
84.035000	0.048586	0.032453	0.042763	0.086680	5377.516410	30282.487482	3570.174303	15572.036056
84.535500	0.050151	0.032349	0.047445	0.084475	5399.392199	30415.320596	3581.805647	15636.746253
85.035500	0.050144	0.033699	0.055645	0.085188	5395.200485	30455.729700	3594.660305	15615.791126
85.536000	0.049384	0.032389	0.045962	0.086298	5384.342632	30302.588872	3576.199932	15583.225447
86.036500	0.046755	0.033602	0.042039	0.091714	5338.163714	30038.619678	3560.591966	15425.533680
86.536500	0.051581	0.032845	0.053947	0.087154	5392.121252	30277.365290	3588.343162	15558.176916
87.040000	0.056653	0.034095	0.058332	0.088828	5411.946393	30250.592807	3593.011363	15509.314638
87.537500	0.055050	0.034374	0.052032	0.089633	5397.881437	30217.495304	3580.834636	15485.897712
88.037000	0.051186	0.035074	0.053213	0.096162	5338.070085	29853.246490	3571.799489	15297.503672
88.535000	0.054280	0.035022	0.046016	0.092091	5379.151286	30103.854107	3566.568758	15414.631167
89.035000	0.052740	0.035691	0.054964	0.093124	5364.319165	30081.062000	3579.884883	15384.810468
89.535500	0.053911	0.035739	0.055492	0.094316	5364.201474	30009.567169	3578.758345	15350.479747
90.036000	0.051783	0.035587	0.045805	0.099059	5325.020769	29705.634205	3554.697661	15214.792112
90.536500	0.054207	0.036105	0.057565	0.095445	5359.413449	29961.914543	3580.360328	15318.039715
91.036500	0.055567	0.037200	0.048526	0.097044	5358.049727	29930.603155	3562.506946	15272.269784
91.537000	0.057284	0.036917	0.054681	0.097651	5364.416994	29875.195354	3571.763806	15254.922797
92.037000	0.057145	0.037388	0.052248	0.098485	5358.830924	29852.690065	3566.298657	15231.147551
92.537000	0.060704	0.038573	0.059049	0.099651	5372.592462	29853.871342	3575.750859	15197.989192
93.035000	0.059279	0.039383	0.062941	0.101007	5356.604282	29819.979521	3580.044162	15159.510145
93.535500	0.057873	0.037485	0.049581	0.101288	5346.960790	29685.211536	3557.239773	15151.555987
94.035500	0.058565	0.038440	0.056998	0.101493	5349.741695	29731.504044	3569.207268	15145.745911
94.536000	0.058472	0.039101	0.050112	0.102481	5343.574878	29711.315972	3556.150951	15117.843510
95.035500	0.060377	0.039557	0.057341	0.103688	5347.551221	29664.982942	3566.114280	15083.803974
95.536500	0.056876	0.038578	0.057993	0.104224	5324.616460	29571.756119	3566.308727	15068.731413
96.036500	0.057396	0.038975	0.060669	0.108196	5305.166082	29353.016389	3564.151067	14957.572301
96.539500	0.061215	0.040007	0.058528	0.105952	5339.429361	29553.427496	3564.322827	15020.260510
97.037000	0.062518	0.040455	0.063335	0.106898	5341.459851	29522.839984	3570.769417	14993.799606
97.537500	0.063006	0.040025	0.062727	0.107860	5338.757752	29437.619926	3568.140462	14966.939169
98.035500	0.063126	0.040203	0.058586	0.107731	5340.181357	29456.378172	3561.468009	14970.545445
98.535000	0.062057	0.040820	0.061525	0.108825	5327.898120	29427.286642	3564.529133	14940.080870
99.035500	0.062567	0.040844	0.053620	0.109177	5328.793549	29407.195049	3550.932390	14930.284691
99.535500	0.066650	0.041771	0.065353	0.111694	5337.677831	29310.309643	3566.123903	14860.527082
100.036000	0.064929	0.041942	0.066031	0.111715	5327.797228	29319.427243	3567.219560	14859.949593
100.536500	0.066584	0.043162	0.071399	0.113312	5328.126091	29296.541020	3573.540387	14815.903766
101.037000	0.070192	0.043092	0.065361	0.113867	5345.478487	29258.585254	3562.527757	14800.643953
101.536500	0.067121	0.043193	0.069313	0.115045	5321.365186	29193.290821	3567.141048	14768.306196
102.037500	0.064340	0.042164	0.063637	0.113796	5312.721622	29206.566246	3559.790527	14802.582438
102.534500	0.067738	0.043462	0.071381	0.115526	5322.128843	29180.425116	3569.794430	14755.119359
103.034500	0.068311	0.044067	0.071260	0.116470	5320.033480	29159.944677	3568.012736	14729.294119
103.535500	0.070031	0.043513	0.068302	0.117212	5325.561742	29081.656035	3561.857642	14709.021430
104.036000	0.064329	0.044225	0.070183	0.122774	5262.649121	28790.790468	3555.786707	14558.227301
104.536000	0.067466	0.044175	0.065927	0.118355	5304.674517	29052.643918	3556.054709	14677.883676
105.036000	0.068623	0.043902	0.072532	0.118557	5310.030146	29024.056317	3566.651109	14672.373269
105.536500	0.067857	0.044731	0.073441	0.120529	5294.693268	28955.375104	3564.882412	14618.869037
106.039500	0.067479	0.044804	0.066442	0.124277	5271.745167	28735.729746	3547.224750	14517.806516
106.537000	0.069189	0.044765	0.071471	0.121354	5297.525756	28907.974398	3560.248000	14596.558384
107.034500	0.070290	0.044940	0.073115	0.121667	5301.936251	28899.682938	3562.451122	14588.097064
107.535000	0.072060	0.045054	0.066808	0.122280	5308.425705	28869.796267	3551.069584	14571.537165
108.035000	0.069877	0.045346	0.065910	0.127032	5269.770015	28604.389282	3541.913029	14444.090000
108.535500	0.074338	0.046605	0.064367	0.123916	5312.036426	28864.713241	3544.450339	14527.507431
109.036000	0.071624	0.045813	0.076066	0.124130	5295.614538	28804.623985	3563.260220	14521.761159
109.536500	0.073973	0.046451	0.077158	0.125535	5300.899612	28758.954937	3562.741655	14484.103700
110.036000	0.072624	0.046613	0.072026	0.129849	5269.384678	28512.837959	3547.245717	14369.197390
110.536500	0.072614	0.047100	0.073624	0.126782	5286.345266	28723.296631	3554.856045	14450.761251
111.037000	0.074489	0.047509	0.073662	0.128382	5287.882264	28652.656871	3552.298974	14408.154056
111.537500	0.074133	0.047530	0.080831	0.128585	5284.766616	28641.799664	3563.775480	14402.746942
112.035000	0.073618	0.046317	0.065862	0.130112	5273.433306	28479.880331	3536.893425	14362.240279
112.538000	0.078272	0.047480	0.075538	0.129392	5303.376112	28591.067128	3553.715082	14381.321505
113.035500	0.075901	0.048908	0.076178	0.131765	5276.923420	28535.216593	3550.882504	14318.533639
113.536000	0.075069	0.048269	0.075728	0.130687	5278.290008	28561.158558	3551.908961	14347.020265
114.036000	0.074515	0.048196	0.069864	0.133139	5261.667819	28412.331725	3538.455350	14282.350014
114.536500	0.076847	0.048682	0.074480	0.132314	5279.129260	28489.514494	3547.227608	14304.064588
115.036500	0.076661	0.049543	0.076742	0.134539	5265.780530	28409.223799	3547.288837	14245.588266
115.539500	0.078565	0.050760	0.075824	0.134476	5276.662939	28484.494109	3545.900616	14247.223781
116.037500	0.077550	0.048470	0.083213	0.133026	5279.074911	28435.053428	3560.363556	14285.301676
116.537500	0.077081	0.050069	0.075842	0.134710	5267.153689	28430.087242	3545.552674	14241.094222
117.035000	0.078708	0.048518	0.070493	0.136456	5266.499225	28236.960873	3534.160618	14195.439016
117.535500	0.081080	0.050915	0.077058	0.136550	5279.111770	28371.702619	3544.543344	14192.982693
118.035500	0.079429	0.050447	0.078622	0.136368	5270.969306	28354.967684	3547.371412	14197.731703
118.536000	0.083199	0.052896	0.080541	0.138645	5279.244382	28365.065584	3546.790705	14138.448801
119.036000	0.078990	0.051833	0.083089	0.140228	5247.304387	28210.260535	3548.356693	14097.394910
119.536000	0.077631	0.051291	0.085997	0.138555	5249.024641	28276.352398	3555.840655	14140.779959
120.039500	0.083554	0.051339	0.080475	0.138827	5280.203746	28263.225967	3546.387473	14133.715646
120.537000	0.081034	0.051494	0.080719	0.139569	5262.152516	28228.982782	3545.580474	14114.463833
121.037000	0.081780	0.053443	0.086929	0.145021	5236.361354	28025.479020	3546.809038	13974.070593
121.535000	0.082884	0.051862	0.096131	0.141013	5264.389978	28166.240144	3568.558722	14077.095238
122.035000	0.083098	0.052570	0.081249	0.141657	5262.021435	28169.949064	3543.062857	14060.476957
122.535500	0.084857	0.051909	0.085477	0.141488	5272.673799	28141.409784	3550.193317	14064.854893
123.035500	0.081246	0.052566	0.081186	0.145559	5230.516680	27943.681941	3536.697170	13960.290418
123.535000	0.082862	0.052498	0.084399	0.142855	5254.131400	28096.145787	3546.217900	14029.621000
124.036500	0.083482	0.052678	0.076456	0.147351	5232.935372	27846.962191	3526.351196	13914.600201
124.536000	0.085933	0.053490	0.085546	0.144407	5262.490421	28063.710123	3545.563191	13989.786067
125.037000	0.084311	0.054125	0.086489	0.149468	5225.935528	27808.522181	3538.928608	13860.845547
125.537000	0.087207	0.055279	0.086341	0.146618	5257.331141	28039.236308	3543.274724	13933.258761
126.037500	0.089200	0.053756	0.094410	0.145990	5271.791710	27987.531365	3557.448938	13949.293030
126.534500	0.086152	0.054349	0.087323	0.146893	5250.024767	27969.565532	3544.415618	13926.253495
127.035000	0.088509	0.054723	0.086756	0.147843	5257.760154	27936.395354	3541.970058	13902.085575
127.535500	0.086162	0.055426	0.091799	0.148697	5240.205825	27927.643270	3548.747842	13880.371031
128.036000	0.083591	0.054350	0.083675	0.152361	5206.400414	27655.895426	3529.837638	13787.795133
128.536000	0.086710	0.054665	0.084953	0.149253	5240.167929	27851.828584	3536.813397	13866.281746
129.036500	0.084106	0.054699	0.086567	0.153893	5200.932677	27588.525423	3531.992372	13749.311000
129.539500	0.087273	0.055236	0.092535	0.149872	5239.859966	27849.097198	3548.034383	13850.604597
130.036500	0.090408	0.055613	0.090516	0.154164	5233.549963	27625.131856	3537.856397	13742.516959
130.537000	0.092525	0.054593	0.088503	0.150481	5265.349441	27777.251809	3540.535548	13835.196637
131.035000	0.093250	0.056817	0.095062	0.152162	5260.077806	27808.414075	3548.419662	13792.808039
131.535000	0.089403	0.056264	0.092750	0.152355	5237.933728	27765.623247	3544.360241	13787.955401
132.034500	0.087157	0.056702	0.090724	0.155546	5208.458078	27608.521050	3535.981232	13707.957659
132.535500	0.089947	0.056967	0.093074	0.153018	5237.285637	27767.938943	3543.812758	13771.281740
133.036000	0.092536	0.056958	0.090246	0.154738	5242.031616	27669.090980	3536.507389	13728.149519
133.536000	0.091721	0.057272	0.094611	0.154567	5238.510028	27696.781834	3543.793220	13732.422592
134.036500	0.089504	0.056415	0.093507	0.155703	5220.283250	27583.223511	3540.185128	13704.017696
134.536500	0.090353	0.056798	0.095310	0.154971	5228.865252	27646.681273	3544.269559	13722.324886
135.037000	0.093210	0.057021	0.088579	0.155439	5241.884675	27632.734596	3532.733184	13710.626531
135.537500	0.091528	0.057754	0.091300	0.156046	5229.405039	27639.888981	3536.101075	13695.468421
136.035000	0.089924	0.057300	0.086750	0.159402	5202.594086	27423.772255	3523.590141	13612.064555
136.535000	0.092388	0.057640	0.097721	0.157049	5228.629870	27576.344463	3544.807954	13670.479692
137.035500	0.093388	0.058532	0.092442	0.163194	5200.834898	27279.603697	3526.576214	13518.588944
137.535000	0.095279	0.058550	0.095589	0.158236	5237.908036	27560.590066	3539.461530	13640.961933
138.036000	0.092972	0.059263	0.096315	0.159142	5220.445162	27549.669925	3539.173767	13618.500337
138.536000	0.093329	0.059128	0.093592	0.159144	5222.368979	27541.880874	3534.816153	13618.454252
139.039500	0.090147	0.058209	0.094409	0.164817	5174.851240	27170.565310	3527.116795	13478.810323
139.536500	0.094165	0.058497	0.093372	0.159372	5225.659433	27493.149127	3534.101265	13612.788747
140.037000	0.092104	0.059259	0.094829	0.163509	5192.259221	27302.757000	3529.846279	13510.849770
140.537500	0.093812	0.058989	0.096026	0.160401	5218.173608	27462.772517	3536.693573	13587.350583
141.037500	0.092847	0.059737	0.088804	0.165911	5183.399297	27194.851110	3516.639634	13452.100829
141.535000	0.096297	0.059550	0.098165	0.162188	5221.954640	27393.514226	3537.257134	13543.294766
142.035500	0.097438	0.060752	0.104679	0.163506	5220.992113	27386.950800	3545.618344	13510.926146
142.538000	0.098214	0.060496	0.098231	0.163100	5227.407900	27395.467188	3535.905354	13520.895829
143.036500	0.092123	0.060656	0.094610	0.168898	5163.701926	27079.409699	3521.029851	13379.506260
143.536500	0.095694	0.060467	0.089153	0.163045	5214.053487	27396.867881	3521.648429	13522.240824
144.036500	0.096309	0.061099	0.100676	0.164044	5211.982630	27376.179140	3538.305694	13497.745083
144.537000	0.095044	0.060865	0.100463	0.163635	5207.365509	27386.046692	3538.618916	13507.756551
145.037500	0.094068	0.060891	0.092839	0.170011	5168.107678	27030.555637	3516.539330	13352.580185
145.537500	0.096039	0.060669	0.104722	0.165114	5204.763561	27291.781341	3543.090502	13471.568412
146.035000	0.099079	0.060954	0.100616	0.165196	5220.729409	27303.224911	3536.366442	13469.566696
146.535000	0.098374	0.062136	0.101190	0.166162	5211.697544	27315.316844	3535.740429	13445.991907
147.036000	0.094725	0.059929	0.097567	0.171596	5163.199146	26889.414218	3521.433841	13314.353875
147.536000	0.098191	0.062181	0.098981	0.166703	5207.788742	27287.434185	3531.364792	13432.799777
148.036500	0.099438	0.062629	0.099857	0.170606	5193.529216	27094.143899	3526.581327	13338.215785
148.539500	0.097296	0.061872	0.102627	0.167656	5197.856112	27216.685642	3535.648852	13409.629691
149.036500	0.099803	0.063013	0.108059	0.168235	5208.221560	27248.133042	3543.438065	13395.571721
149.537000	0.098860	0.062570	0.101977	0.168357	5202.492551	27216.520370	3533.497802	13392.620211
150.037500	0.097554	0.061723	0.106369	0.170550	5183.761708	27046.842253	3537.002732	13339.552959
150.535000	0.101988	0.063815	0.105238	0.169889	5211.086559	27200.408127	3536.253589	13355.524660
151.035000	0.100905	0.063259	0.100510	0.169497	5207.362891	27191.256376	3529.361454	13365.007788
151.535500	0.102655	0.063164	0.097758	0.170140	5213.330444	27150.009229	3524.012395	13349.454958
152.035500	0.100412	0.062722	0.102718	0.169266	5205.949859	27174.149661	3533.229577	13370.600108
152.536000	0.102447	0.062825	0.112229	0.170314	5211.271939	27121.407217	3546.821363	13345.263945
153.038500	0.100990	0.063337	0.104216	0.170735	5201.162772	27126.455911	3533.275710	13335.101357
153.537000	0.099054	0.063487	0.104188	0.171144	5188.599142	27112.038321	3532.580962	13325.248476
154.037000	0.103424	0.063379	0.104427	0.171705	5209.037739	27074.686313	3532.068939	13311.724498
154.537000	0.103431	0.063414	0.106284	0.172185	5206.490782	27049.923848	3534.259046	13300.180095
155.034500	0.103320	0.063248	0.105887	0.171897	5207.441401	27056.737051	3534.085790	13307.117501
155.534500	0.101915	0.064657	0.105917	0.172872	5194.658743	27080.911577	3532.583665	13283.688118
156.035000	0.101187	0.063495	0.102993	0.174962	5179.613770	26900.503677	3524.662818	13233.647613
156.535500	0.099779	0.063587	0.100238	0.172833	5183.457056	27023.549349	3523.679705	13284.621582
157.036000	0.100606	0.064125	0.102089	0.180384	5147.889591	26637.025393	3514.798432	13104.928784
157.536500	0.103566	0.063522	0.102222	0.173641	5199.383772	26975.097371	3525.526157	13265.229382
158.036500	0.101305	0.063746	0.102320	0.177163	5168.554232	26792.915331	3520.162226	13181.188591
158.537000	0.104284	0.064760	0.108173	0.174949	5196.220149	26971.186741	3532.865489	13233.935392
159.037000	0.099147	0.062634	0.099023	0.179369	5145.556277	26611.045616	3511.630169	13128.898773
159.534500	0.098331	0.065329	0.104812	0.175419	5162.047484	26976.684943	3526.804313	13222.716642
160.034500	0.101803	0.064729	0.103950	0.179491	5158.883318	26719.028374	3519.074453	13126.024389
160.535000	0.101790	0.066006	0.106706	0.176734	5173.399521	26941.381845	3527.716953	13191.400029
161.035500	0.102386	0.064238	0.107025	0.182287	5147.239870	26539.390585	3519.508946	13060.131780
161.536000	0.105146	0.064845	0.103222	0.176036	5195.017547	26915.692806	3523.334844	13208.002553
162.036000	0.105684	0.065632	0.111141	0.176738	5194.137730	26920.439300	3534.742822	13191.296853
162.539500	0.104846	0.066101	0.106062	0.177983	5183.010947	26877.544247	3524.736596	13161.720619
163.036000	0.102876	0.066283	0.103562	0.182677	5147.766811	26629.666771	3513.529140	13050.972801
163.537000	0.107559	0.065934	0.106230	0.178302	5195.805661	26850.694200	3524.499855	13154.156995
164.036500	0.104280	0.065669	0.097139	0.179293	5173.038098	26781.519149	3508.850937	13130.702316
164.534500	0.108164	0.066788	0.109922	0.179683	5191.651250	26821.656193	3528.138363	13121.469641
165.037500	0.101850	0.066448	0.104636	0.184960	5130.466738	26514.202361	3511.665182	12997.550811
165.534500	0.107126	0.066327	0.104936	0.179526	5186.944255	26804.924554	3520.558022	13125.189832
166.036000	0.101899	0.067163	0.107412	0.183062	5140.628179	26656.717978	3518.904725	13041.943318
166.535500	0.108699	0.067827	0.106515	0.180633	5189.434342	26826.567483	3521.295219	13099.061860
167.036000	0.103639	0.067563	0.099144	0.186219	5133.227337	26506.363504	3501.344064	12968.195847
167.536500	0.107953	0.066985	0.105946	0.180364	5186.883927	26794.996028	3520.825421	13105.390974
168.036500	0.108439	0.066802	0.100414	0.182882	5176.061994	26646.815289	3508.369933	13046.172114
168.537500	0.108248	0.067444	0.117187	0.180728	5186.516279	26800.216165	3538.027915	13096.814204
169.037500	0.107200	0.067251	0.106384	0.181404	5177.336485	26752.497566	3519.887236	13080.902939
169.540500	0.108858	0.066241	0.112544	0.180820	5189.284091	26729.067533	3530.487613	13094.655649
170.035500	0.104900	0.066324	0.105668	0.182650	5158.554850	26633.380542	3516.832790	13051.604616
170.535500	0.109588	0.068321	0.115582	0.182245	5185.571935	26765.063470	3533.046337	13061.125917
171.036000	0.106692	0.066863	0.111713	0.184645	5157.485256	26553.902896	3523.150846	13004.904651
171.536500	0.109435	0.067207	0.109716	0.182694	5182.362264	26679.258478	3523.078789	13050.576668
172.039000	0.110474	0.068430	0.109648	0.185754	5171.620965	26578.901916	3518.195553	12979.032784
172.537000	0.106182	0.067832	0.112882	0.182929	5163.851288	26700.664522	3527.687345	13045.065688
173.044000	0.107112	0.068066	0.106329	0.188280	5140.604908	26421.767199	3509.162438	12920.340247
173.540000	0.107573	0.066336	0.109111	0.182691	5172.473310	26631.766749	3522.134528	13050.635989
174.034500	0.108332	0.068645	0.110354	0.184171	5168.652653	26677.129788	3521.764948	13015.970472
174.535000	0.108718	0.068016	0.113475	0.183923	5172.016628	26656.258984	3527.054808	13021.770979
175.035500	0.109348	0.068031	0.109383	0.184095	5174.447375	26647.732141	3520.367861	13017.765683
175.535500	0.110611	0.068721	0.110976	0.185190	5175.338061	26625.566698	3521.145029	12992.175522
176.035500	0.110450	0.068956	0.102845	0.184624	5177.492566	26669.350057	3509.425929	13005.388228
176.536500	0.113519	0.070815	0.111211	0.186860	5181.922430	26648.718866	3518.905328	12953.278261
177.036500	0.108439	0.068881	0.110717	0.188814	5144.759566	26437.059033	3515.104975	12907.984568
177.537000	0.109489	0.069348	0.116913	0.185975	5165.231859	26616.929771	3529.242971	12973.884333
178.037000	0.113139	0.069642	0.109607	0.186856	5179.923512	26584.851330	3516.418437	12953.376626
178.537500	0.112141	0.070266	0.110790	0.187059	5173.538754	26607.861188	3517.940479	12948.664314
179.035000	0.108420	0.067792	0.107304	0.186920	5154.607313	26480.730166	3512.757602	12951.904572
179.535500	0.112809	0.068794	0.106555	0.186681	5179.098292	26548.156456	3511.969539	12957.443406
180.035500	0.112594	0.069903	0.113993	0.189986	5160.446651	26428.908218	3518.370307	12880.897622
180.535500	0.112166	0.070400	0.121926	0.187479	5171.443440	26592.268345	3534.814121	12938.923454
181.036000	0.109841	0.069284	0.109437	0.190411	5143.735032	26372.379857	3510.662910	12871.087007
181.539000	0.108645	0.068579	0.114221	0.186681	5157.052339	26536.520844	3523.891795	12957.459291
182.036500	0.113674	0.069875	0.108291	0.189982	5166.174721	26427.594555	3509.561315	12880.988647
182.537000	0.111770	0.069214	0.110420	0.187468	5169.406725	26528.238191	3516.731590	12939.177306
183.037000	0.111686	0.070663	0.118598	0.191487	5147.769183	26388.797505	3523.218617	12846.328936
183.534500	0.113716	0.069393	0.114918	0.187923	5177.316030	26513.204117	3523.036495	12928.619097
184.035000	0.107218	0.069261	0.117561	0.190130	5131.495175	26386.316353	3523.719675	12877.574648
184.535500	0.112251	0.069698	0.107364	0.188775	5165.028692	26483.452891	3509.991832	12908.872878
185.035500	0.110786	0.069407	0.110942	0.191698	5141.943877	26309.548138	3510.998459	12841.464237
185.536000	0.112392	0.071159	0.116441	0.190135	5158.596205	26488.996467	3521.957811	12877.469906
186.039000	0.110023	0.070265	0.118685	0.191515	5138.908123	26365.730774	3523.310951	12845.674383
