sample name	sample
index	766
start time	 03-31-2021  12:42:27 PM
880	0.007766
Peak Time (s)	90.038
Peak Height 	0.007766
calc peak height	90,93
Baseline Time (s)	11.037
Baseline Value 	-0.001084
subtract baseline	10,4
Abs	-0.009830
Peak Time (s)	92.536
Peak Height 	-0.00983
calc peak height	90,93
Baseline Time (s)	9.542
Baseline Value 	0.003464
subtract baseline	10,3
PK_550	0.003720
Peak Time (s)	91.536
Peak Height 	0.00372
calc peak height	90,93
Baseline Time (s)	10.537
Baseline Value 	-1.3419E-4
subtract baseline	10,2
PK_880	-0.008380
Peak Time (s)	91.536
Peak Height 	-0.00838
calc peak height	90,93
Baseline Time (s)	10.537
Baseline Value 	8.3819E-4
subtract baseline	10,1


Time (s)	A880-A510	A880-A775	A880-A975	A880	I510	I775	I975	I880	
0.039000	-0.001477	-0.000221	-0.000955	0.003707	6786.828816	41132.339170	4034.060711	22436.576704
0.536000	-0.002257	0.000762	-0.000483	0.004226	6775.696499	41173.032419	4033.951541	22413.426560
1.036000	-0.003092	-0.000058	-0.005085	0.002734	6781.328717	41232.031384	4026.784950	22480.081832
1.537500	0.000922	0.001106	0.002589	0.002052	6821.798142	41394.471162	4046.156759	22510.598961
2.037500	-0.001533	0.000340	-0.004193	0.003515	6787.997869	41198.329811	4027.037992	22445.136924
2.537500	-0.000455	0.000291	0.001455	0.001124	6817.913847	41404.514020	4045.675306	22552.236048
3.035000	0.001714	0.001257	-0.005871	-0.000843	6853.892687	41664.161838	4033.215171	22640.767765
3.535000	0.000803	0.000619	-0.003791	0.001434	6826.130127	41406.094835	4032.760090	22538.323344
4.035500	-0.000617	0.000481	-0.008771	0.003267	6798.004761	41232.491678	4017.143931	22456.228645
4.535500	0.000436	0.001111	0.004380	0.001293	6824.174244	41462.006583	4052.145945	22544.650862
5.038500	0.001303	0.000405	-0.004902	0.000879	6835.294752	41436.152528	4031.475168	22563.232870
5.539000	0.003513	0.000741	-0.002681	0.000733	6855.840664	41478.744594	4036.952642	22569.808283
6.036500	0.002521	0.000756	-0.001040	0.000590	6848.422726	41492.680156	4041.096874	22576.207786
6.537000	0.000323	-0.000024	-0.002524	-0.000038	6834.742712	41479.242809	4039.105705	22604.477350
7.037000	-0.001867	-0.000444	-0.001555	-0.000455	6819.353165	41479.005174	4042.332582	22623.250069
7.534500	0.000338	0.000163	-0.002146	0.000099	6833.683691	41483.623822	4039.666806	22598.290578
8.035000	-0.002059	-0.000025	-0.001730	0.000383	6810.449663	41441.993946	4039.972815	22585.525231
8.538000	0.000532	0.000164	0.002026	0.000191	6834.566719	41475.637199	4049.198948	22594.152838
9.036000	-0.001251	-0.000477	-0.003096	-0.000489	6824.993090	41479.090739	4038.825018	22624.792993
9.541500	-0.002816	-0.000096	0.000000	-0.000091	6808.001079	41477.565515	4045.114293	22606.860666
10.036000	-0.001107	0.000662	-0.002402	0.000985	6813.474992	41449.487426	4037.014474	22558.486746
10.536500	0.000000	0.000000	0.000264	0.000108	6830.669232	41468.484041	4045.265911	22597.904252
11.036500	0.000001	0.000390	0.000030	0.000000	6831.619208	41512.513807	4044.971384	22602.763565
11.539500	0.001517	-0.000093	-0.000224	-0.000512	6849.274182	41515.028504	4045.573349	22625.815825
12.034500	-0.000453	-0.000226	-0.002814	-0.000124	6828.748429	41468.939427	4038.631776	22608.328153
12.535000	0.000555	-0.000643	-0.006347	-0.000784	6843.261865	41490.514589	4031.978345	22638.103278
13.035000	0.000404	-0.000056	0.000815	-0.000371	6838.343896	41505.822334	4047.676459	22619.452272
13.540500	-0.000719	0.000146	-0.000492	0.000323	6822.571039	41462.423371	4042.998187	22588.242777
14.036000	-0.000603	-0.000038	-0.003472	0.002970	6800.695002	41213.053391	4029.952834	22469.526839
14.541500	-0.000117	0.000033	0.001743	0.002616	6807.927362	41250.305166	4042.861062	22485.323172
15.038500	-0.001121	0.000219	-0.005334	0.000316	6819.139473	41469.372255	4031.777133	22588.522345
15.536500	-0.000050	0.000089	-0.010295	0.000401	6827.684715	41450.423285	4020.200253	22584.708753
16.040000	-0.001499	0.000319	-0.002039	0.000174	6817.093667	41490.846341	4039.741634	22594.924583
16.540000	0.000432	0.000198	-0.000091	0.000337	6832.430298	41465.746173	4043.900446	22587.581548
17.037500	0.001889	-0.000723	-0.000641	-0.003694	6880.426656	41741.522697	4052.063904	22769.760808
17.534500	-0.000658	0.000549	-0.001761	0.001298	6814.647109	41411.860282	4037.775184	22544.417014
18.035000	-0.001399	0.000227	-0.000950	0.001353	6807.769255	41378.583041	4039.530662	22541.936173
18.535500	-0.001162	-0.001001	-0.002382	0.001048	6812.460735	41297.385436	4036.915598	22555.658477
19.038500	-0.001365	-0.000315	-0.003376	0.002550	6797.749270	41225.613088	4031.142030	22488.311198
19.539000	-0.002147	0.000234	0.000900	0.001495	6800.092021	41366.702926	4043.511415	22535.566151
20.037000	-0.001020	-0.000456	-0.007046	0.001252	6811.923369	41327.403377	4025.687262	22546.498383
20.536500	-0.002694	0.000912	-0.002196	0.002003	6791.015787	41381.677454	4035.132027	22512.800592
21.036500	0.000698	0.001049	-0.003569	0.002268	6817.986626	41370.397948	4031.347597	22500.922837
21.536500	-0.001121	0.000304	-0.005568	0.001313	6810.515080	41388.910337	4028.941181	22543.746216
22.037500	-0.001600	-0.000102	-0.002045	0.001190	6807.445333	41364.016475	4037.366839	22549.277534
22.534500	-0.002742	0.000393	-0.001617	0.001683	6793.349793	41364.178177	4037.214773	22527.133319
23.035500	-0.000199	0.000469	-0.001504	0.001635	6815.712800	41375.150228	4037.589379	22529.312389
23.535500	-0.001078	-0.000063	-0.005366	0.001474	6809.494598	41342.376073	4029.035995	22536.500784
24.036000	0.000950	0.000553	-0.004649	0.002031	6822.227946	41347.601666	4029.405196	22511.555101
24.535500	-0.000037	0.000544	-0.001918	0.001656	6816.924789	41379.896411	4036.580205	22528.363406
25.037000	0.000047	0.000299	0.000113	0.002923	6806.705589	41246.776607	4038.354841	22471.628845
25.536500	-0.001036	0.000574	-0.007917	0.001441	6810.146937	41401.453902	4023.258296	22538.015830
26.037000	-0.000159	-0.000105	-0.003404	0.001289	6819.046586	41354.956992	4033.987983	22544.813658
26.539500	-0.000047	0.000485	0.002735	0.001726	6816.232725	41368.451541	4047.262175	22525.204940
27.035000	-0.001282	0.000200	0.002826	-0.000822	6827.608576	41568.450329	4053.465949	22639.801032
27.541500	-0.000141	0.000124	0.004126	-0.000614	6835.718776	41543.315115	4056.043900	22630.443642
28.035500	0.000919	0.000481	-0.003894	0.000839	6832.304948	41446.426888	4033.896475	22565.033105
28.538000	-0.001581	0.000323	-0.002983	0.000337	6814.977799	41476.794434	4037.169845	22587.585604
29.036500	-0.000260	0.000435	0.002378	0.000401	6825.872165	41481.033502	4049.533962	22584.735103
29.536000	-0.001186	0.000833	-0.001762	0.000813	6814.278027	41479.758182	4038.898125	22566.180256
30.036500	-0.000016	0.000794	-0.005884	0.000934	6823.360882	41465.635467	4029.085433	22560.747126
30.536500	-0.001203	-0.000313	-0.009475	0.002294	6801.343735	41248.266181	4017.757998	22499.774566
31.037000	-0.001733	0.000372	-0.001228	0.002532	6794.722113	41287.474837	4036.147675	22489.082286
31.534500	-0.000443	0.000294	-0.002832	0.000487	6823.532972	41460.976534	4037.172100	22580.850733
32.035000	0.000040	-0.000348	0.001282	0.000042	6831.584721	41443.552276	4047.802756	22600.853416
32.539500	-0.002649	-0.000229	-0.000375	0.000250	6806.506622	41435.770879	4043.443111	22591.523430
33.036000	0.000680	-0.000080	-0.003606	0.000115	6836.514845	41460.722584	4036.238804	22597.573183
33.536500	0.000595	0.000048	-0.003106	-0.001903	6853.378246	41650.906775	4042.092157	22688.631606
34.035500	-0.000542	-0.000769	-0.006632	0.001450	6814.332970	41282.366633	4026.181332	22537.574787
34.536000	-0.000913	0.000059	-0.002106	0.001841	6807.757149	41320.857163	4035.716555	22520.074329
35.036500	0.000235	0.000052	-0.003649	0.002929	6808.270355	41224.537061	4029.639234	22471.339891
35.537000	-0.001137	0.000378	0.001562	0.002394	6801.050002	41300.195777	4042.956632	22495.269302
36.036500	-0.001304	0.000354	-0.005052	0.002508	6798.630420	41288.028423	4027.378877	22490.165370
36.535000	-0.001814	-0.000732	-0.003247	0.001185	6805.639602	41308.947403	4034.593254	22549.477632
37.035500	-0.000415	0.000361	-0.000491	0.003070	6801.446751	41239.346262	4036.610552	22465.058274
37.535500	-0.001125	0.000235	-0.002331	0.002283	6802.109813	41297.422717	4034.170552	22500.239132
38.036000	0.000492	0.000360	-0.000927	0.002306	6815.876391	41306.376401	4037.371728	22499.210465
38.536000	-0.001608	-0.000227	0.002282	0.001647	6803.433515	41312.729968	4046.387939	22528.755208
39.036000	-0.001727	-0.000108	-0.005127	0.001794	6801.132810	41310.231220	4028.847487	22522.146915
39.536500	-0.002348	-0.000023	-0.001132	0.001935	6794.573640	41305.278437	4037.756249	22515.838041
40.037000	-0.000711	0.000470	0.000197	0.002735	6801.785792	41278.292562	4038.984297	22480.023206
40.537500	-0.001339	-0.000115	-0.000389	0.002001	6802.691597	41291.383526	4039.329984	22512.877870
41.034500	-0.000966	0.000062	0.000859	0.001720	6808.341157	41331.707686	4042.890669	22525.482437
41.535000	0.000067	0.000032	0.001091	0.002117	6813.840120	41294.211207	4042.506665	22507.703245
42.035000	0.000241	-0.000684	-0.003380	0.001455	6821.066403	41289.376565	4033.659871	22537.350532
42.538500	-0.001432	0.000106	-0.000417	0.002103	6801.014032	41301.870545	4039.028467	22508.323000
43.036000	-0.001224	-0.000096	-0.003801	0.001520	6807.835610	41335.437699	4032.536122	22534.442640
43.536500	-0.001230	0.000582	-0.001990	0.001150	6810.984608	41427.839334	4037.587279	22551.071904
44.037000	-0.001812	-0.000012	0.000907	0.000681	6810.013535	41416.827658	4045.429769	22572.145429
44.537000	-0.001235	-0.000045	-0.005495	0.000294	6818.347357	41448.072780	4031.457370	22589.529443
45.036500	0.000971	0.000642	-0.001129	0.001118	6830.332464	41435.989435	4039.662743	22552.494596
45.537500	-0.002510	0.000175	-0.002339	0.000372	6806.646349	41460.635516	4038.582183	22586.019309
46.034000	-0.000174	0.000854	-0.003869	0.000876	6822.496234	41476.081947	4033.868743	22563.368896
46.535000	0.000084	0.000234	-0.000412	0.000771	6825.644590	41430.596757	4042.140011	22568.081743
47.035500	-0.002528	-0.000328	-0.000670	0.005708	6760.718129	40948.056346	4030.097998	22347.450809
47.535000	-0.002278	0.000004	-0.004525	0.002849	6787.320529	41227.347842	4027.807431	22474.902670
48.035500	0.000451	0.000603	0.001276	0.001097	6826.001714	41434.349933	4045.318947	22553.438859
48.536500	-0.000369	0.000385	0.002322	0.000933	6820.306353	41429.606790	4048.154674	22560.798864
49.036500	-0.006295	0.000732	0.000055	0.006925	6718.468913	40934.428129	4028.966038	22293.481560
49.543000	0.002670	0.000196	0.001525	-0.001382	6866.980195	41617.782117	4051.720094	22665.078325
50.037000	-0.001116	0.000208	0.005459	0.005236	6776.812883	41036.060469	4045.421885	22368.441642
50.535000	-0.002480	-0.000735	-0.003880	0.010891	6717.191309	40463.851366	4010.948351	22118.524719
51.035000	-0.037291	-0.002409	0.002501	0.234007	5078.512022	25361.275658	3625.371650	14458.083205
51.535000	-0.052174	-0.007534	-0.005297	0.087471	5793.981882	33934.621818	3849.619628	19036.037649
52.038000	-0.044105	-0.019506	-0.006714	-0.120227	7554.532551	51498.959878	4348.192418	28838.783304
52.535500	-0.041036	-0.130118	-0.008801	-0.341401	10593.644261	65535.000000	5213.348633	45964.146675
53.036000	-0.029850	-0.088068	0.001646	-0.299166	10073.713340	65508.288272	5059.215420	41987.337210
53.536000	-0.023911	-0.078321	-0.001328	-0.287816	9986.828676	65278.226610	4993.364282	40982.890121
54.037000	-0.025983	-0.035741	-0.006182	-0.219663	8952.344943	61721.873583	4689.496578	35473.865794
54.537000	-0.030477	-0.027494	-0.011838	-0.194353	8561.406544	59462.891596	4575.261251	33638.291498
55.037000	-0.031330	-0.024721	-0.015381	-0.188170	8472.956818	59021.874200	4541.027383	33205.863736
55.537500	-0.022323	-0.027867	-0.016550	-0.206106	8819.541941	60959.589347	4600.526004	34477.345941
56.035500	-0.013229	-0.018390	-0.011550	-0.184383	8654.421513	59350.505229	4541.186594	32944.117780
56.535500	-0.009610	-0.013294	-0.013003	-0.163377	8434.780933	57326.594321	4464.998931	31532.593405
57.036000	-0.006269	-0.008994	-0.011461	-0.143822	8237.752181	55454.462476	4406.682673	30278.630637
57.536000	-0.012670	-0.008008	-0.012871	-0.118284	7870.494463	52575.986365	4323.829030	28723.682639
58.036000	-0.013603	-0.010123	-0.012806	-0.132159	8016.060261	53934.388726	4366.044819	29557.147168
58.539500	-0.014121	-0.005924	-0.009845	-0.090661	7558.871651	49749.673220	4252.562474	27141.638674
59.040000	-0.016879	-0.005995	-0.015217	-0.064823	7272.054846	47047.119735	4167.758373	25750.145496
59.537000	-0.019844	-0.007032	-0.018340	-0.065306	7248.039077	46991.113431	4160.858802	25775.402006
60.037500	-0.022728	-0.007357	-0.017439	-0.077681	7340.611741	48226.346505	4195.975391	26432.236640
60.538000	-0.025076	-0.006352	-0.014105	-0.048455	7040.313000	45386.342228	4128.469528	24910.565277
61.035500	-0.027542	-0.005246	-0.014542	-0.032688	6876.587520	43982.221234	4088.224388	24131.182615
61.538500	-0.021964	-0.005700	-0.019227	-0.057499	7153.350496	46341.307536	4138.437213	25370.538144
62.036000	-0.016414	-0.001831	-0.015589	-0.046095	7098.519961	45597.397077	4118.786885	24792.099159
62.538500	-0.018841	-0.002455	-0.021988	-0.046296	7077.864856	45555.993319	4103.349474	24802.146602
63.036500	-0.017771	-0.002469	-0.022825	-0.051006	7131.724960	46017.747649	4112.970353	25039.363157
63.537000	-0.017022	-0.003227	-0.019060	-0.052929	7156.864672	46133.017380	4127.252910	25136.939596
64.037000	-0.016226	-0.002395	-0.022954	-0.053505	7169.826041	46272.802875	4118.898018	25166.217916
64.537000	-0.015588	-0.000947	-0.018309	-0.051937	7161.040724	46260.849371	4126.642751	25086.535984
65.035000	-0.013210	-0.001516	-0.017862	-0.050353	7168.539593	46047.364000	4123.775918	25006.293624
65.535000	-0.014037	-0.001571	-0.023555	-0.048619	7144.382417	45870.765050	4105.223657	24918.831494
66.036000	-0.016454	-0.001501	-0.019290	-0.045655	7094.055808	45586.576015	4108.448795	24770.075390
66.535500	-0.015694	-0.001495	-0.020471	-0.042031	7067.532116	45233.957888	4096.578455	24589.586720
67.035500	-0.016760	-0.002302	-0.024433	-0.039140	7031.167940	44876.686119	4079.873782	24446.706956
67.536000	-0.016416	-0.001092	-0.021313	-0.035174	6998.163094	44612.258664	4077.829423	24252.194303
68.036500	-0.017980	-0.001948	-0.022393	-0.032546	6960.313305	44280.451721	4068.916977	24124.284046
68.537000	-0.016795	-0.000812	-0.020789	-0.028696	6936.438251	44023.837231	4063.555955	23938.285931
69.037000	-0.015115	-0.000399	-0.012536	-0.025687	6924.596923	43779.853191	4076.117892	23794.084453
69.534500	-0.015472	-0.000061	-0.015200	-0.023609	6902.973462	43617.169734	4064.752363	23695.066274
70.035000	-0.015839	-0.000579	-0.021569	-0.021362	6879.903371	43359.962216	4044.416532	23588.525806
70.535000	-0.017318	-0.000785	-0.012290	-0.018375	6840.801423	43064.947268	4059.228775	23447.765943
71.038500	-0.015576	0.000165	-0.010711	-0.014533	6822.554240	42799.650330	4053.877599	23268.125303
71.536000	-0.018784	-0.001380	-0.020792	-0.008449	6742.870858	42108.075910	4016.452488	22986.870413
72.036500	-0.013107	-0.000285	-0.020477	-0.009414	6799.656337	42293.575241	4019.363801	23031.208867
72.536500	-0.013798	-0.000252	-0.008476	-0.006473	6768.491907	42031.929745	4040.229627	22896.344715
73.036000	-0.013434	0.000566	-0.012206	-0.002922	6741.369384	41787.608019	4023.427198	22734.765064
73.537000	-0.016100	-0.001173	-0.009812	-0.002090	6711.819226	41559.164673	4027.009211	22697.098043
74.037500	-0.013566	0.000421	-0.016098	0.001006	6707.085304	41426.288694	4005.690801	22557.503446
74.537500	-0.016086	0.000334	-0.015547	0.003456	6665.570643	41203.069933	4001.432510	22447.809018
75.035500	-0.016475	0.000087	-0.015863	0.011700	6594.563730	40464.972144	3982.464537	22083.049309
75.538000	-0.012360	0.000675	-0.021457	0.008271	6656.533787	40812.335547	3977.725707	22233.915904
76.035500	-0.011572	0.001007	-0.012529	0.010453	6645.011588	40652.019551	3992.570018	22137.804715
76.535500	-0.013373	0.001201	-0.010140	0.012601	6612.531855	40483.376079	3993.103610	22043.611892
77.036000	-0.014322	0.001757	-0.013709	0.019444	6549.329552	39945.935896	3970.278186	21746.708876
77.536000	-0.012043	0.001787	-0.013472	0.016020	6595.483913	40240.259855	3978.241414	21894.688149
78.039500	-0.013930	0.002491	-0.011049	0.017777	6565.922589	40150.266405	3979.697630	21818.607833
78.537500	-0.013076	0.002429	-0.015374	0.018139	6569.903083	40114.130518	3969.498988	21802.978000
79.037000	-0.013633	0.003148	-0.013968	0.019049	6558.056665	40097.774175	3970.571130	21763.698384
79.535000	-0.010734	0.003531	-0.017410	0.019368	6578.914048	40103.293197	3962.459210	21749.978310
80.035500	-0.012059	0.004134	-0.009591	0.019799	6564.698100	40117.862546	3978.464642	21731.405658
80.535500	-0.011593	0.003462	-0.011932	0.019423	6571.502681	40092.636401	3974.180496	21747.584554
81.035500	-0.014805	0.004279	-0.015694	0.019623	6544.006384	40145.257408	3965.601635	21738.978936
81.536000	-0.012447	0.002491	-0.011344	0.018527	6571.842760	40086.208272	3977.413225	21786.195838
82.036000	-0.013100	0.003257	-0.018326	0.018945	6563.197071	40115.940401	3961.400150	21768.205756
82.537000	-0.010781	0.004447	-0.012425	0.019643	6576.293424	40157.839792	3972.630809	21738.116166
83.037000	-0.016403	0.001783	-0.013817	0.023582	6499.687744	39598.538253	3961.124936	21569.401715
83.537500	-0.014412	0.002551	-0.016325	0.023552	6515.740895	39665.653756	3955.826435	21570.683210
84.037500	-0.012154	0.003100	-0.009693	0.018818	6571.865784	40113.410158	3980.386525	21773.668189
84.535000	-0.011681	0.002869	-0.019055	0.019293	6571.853185	40053.266977	3959.094176	21753.218567
85.038500	-0.011077	0.003284	-0.012294	0.018398	6583.999709	40164.947558	3975.624697	21791.794505
85.535500	-0.017062	0.002681	-0.016236	0.023433	6495.646873	39686.595514	3956.268811	21575.748786
86.036000	-0.010702	0.003674	-0.012001	0.017176	6596.980495	40302.717194	3978.928949	21844.569733
86.536000	-0.010488	0.003047	-0.017514	0.015940	6608.827605	40355.058690	3969.626783	21898.162821
87.036500	-0.010896	0.003534	-0.008671	0.014925	6613.793895	40484.143717	3991.208925	21942.264662
87.536500	-0.016646	0.002085	-0.010714	0.019496	6530.286941	39969.332951	3976.675494	21744.469011
88.039500	-0.012106	0.002951	-0.014439	0.012576	6623.125027	40636.475048	3983.665989	22044.689263
88.537500	-0.010700	0.002512	-0.014222	0.011192	6646.101983	40718.314901	3987.190973	22105.330213
89.035000	-0.011578	0.002607	-0.008055	0.010546	6644.185528	40782.629529	4002.331998	22133.704185
89.535000	-0.010425	0.004196	-0.013574	0.009976	6658.437100	40970.427435	3991.309901	22158.741191
90.038000	-0.010397	0.002084	-0.014093	0.007766	6677.045904	40979.058448	3995.063674	22256.262890
90.535500	-0.010453	0.003249	-0.012059	0.007165	6681.588665	41133.376360	4000.938509	22282.845233
91.036000	-0.010228	0.002755	-0.017331	0.005458	6697.747996	41239.848744	3992.996851	22358.589187
91.536000	-0.008380	0.003720	-0.012876	0.004798	6718.827124	41382.846627	4004.411215	22387.960962
92.037000	-0.009330	0.002239	-0.013073	0.001649	6737.412805	41530.268994	4011.061652	22528.684606
92.536000	-0.009719	0.003030	-0.009830	0.000532	6743.580116	41699.505183	4020.963374	22578.823781
93.037000	-0.008577	0.002769	-0.010983	-0.000972	6766.100389	41810.166720	4021.765862	22646.574588
93.534500	-0.008779	0.002504	-0.016258	-0.002821	6780.190148	41951.613067	4013.968834	22730.170036
94.035500	-0.008315	0.002329	-0.011698	-0.004980	6802.739523	42129.658487	4029.316837	22828.271295
94.535000	-0.008882	0.002245	-0.011162	-0.006811	6813.657062	42286.995298	4034.779575	22911.810912
95.035000	-0.011259	0.001524	-0.014811	-0.009454	6815.951739	42460.868282	4032.452653	23033.034162
95.535500	-0.010766	0.002556	-0.014377	-0.009963	6824.633496	42600.832819	4034.633448	23056.465615
96.035500	-0.010163	0.001700	-0.010303	-0.011287	6841.387951	42643.422358	4047.204629	23117.576157
