sample name	sample
index	904
start time	 04-08-2021  03:51:34 PM
880	0.492399
Peak Time (s)	120.537
Peak Height 	0.4924
calc peak height	120,123
Baseline Time (s)	8.534
Baseline Value 	-0.004383
subtract baseline	10,4
Abs	0.363110
Peak Time (s)	122.038
Peak Height 	0.3631
calc peak height	120,123
Baseline Time (s)	11.037
Baseline Value 	0.002212
subtract baseline	10,3
PK_550	0.204950
Peak Time (s)	120.036
Peak Height 	0.205
calc peak height	120,123
Baseline Time (s)	9.536
Baseline Value 	3.1854E-4
subtract baseline	10,2
PK_880	0.346275
Peak Time (s)	122.038
Peak Height 	0.3463
calc peak height	120,123
Baseline Time (s)	9.536
Baseline Value 	0.001898
subtract baseline	10,1


Time (s)	A880-A510	A880-A775	A880-A975	A880	I510	I775	I975	I880	
0.035500	-0.001025	0.000493	0.006819	0.002036	6881.815281	42463.295948	3962.013528	22734.916488
0.536500	-0.001758	0.000035	-0.003856	0.004213	6855.541941	42224.468158	3931.517132	22635.960999
1.036500	-0.001992	-0.000313	-0.004249	0.003895	6856.297890	42221.792419	3931.340657	22650.388722
1.536500	-0.000582	0.000379	0.000061	0.002337	6883.105928	42425.618102	3945.150919	22721.222733
2.034500	-0.000110	-0.000730	-0.000788	0.000220	6906.641496	42517.255156	3948.159456	22817.873567
2.537500	-0.001870	-0.000386	-0.002344	0.000500	6888.092674	42523.135630	3943.808831	22805.087255
3.035000	0.000412	0.000377	0.001198	0.001151	6902.918124	42533.321531	3950.671289	22775.324762
3.538000	-0.002042	-0.000721	0.003171	0.000946	6882.475081	42452.044659	3955.872947	22784.670329
4.035500	-0.000237	0.000708	0.000963	0.001289	6895.755233	42550.908205	3949.782766	22769.015529
4.536000	0.000590	-0.000240	0.000116	0.000788	6907.841578	42510.184322	3948.958863	22791.898639
5.036500	-0.002472	-0.001042	-0.003372	0.001367	6874.779171	42384.652500	3939.332269	22765.464237
5.536500	-0.001964	-0.000601	0.000700	-0.000114	6892.799224	42559.389290	3952.498514	22833.155247
6.036000	0.000343	0.000632	0.003051	0.000717	6906.235704	42596.070706	3956.133649	22795.141515
6.536500	-0.000407	-0.000068	-0.001495	0.000442	6901.911230	42557.306213	3945.956197	22807.724063
7.036500	-0.001038	-0.000035	0.000646	0.000362	6896.903387	42567.665442	3951.235540	22811.387790
7.535000	0.000893	0.000052	0.001409	0.000543	6912.850903	42559.111975	3952.623985	22803.114386
8.035000	-0.001214	-0.000204	-0.001705	0.000043	6898.203817	42581.327296	3946.405339	22825.994317
8.534500	0.000706	-0.000497	-0.002115	0.000000	6916.098570	42558.481538	3945.533495	22827.950094
9.035500	-0.001704	0.000007	-0.001948	-0.000144	6895.446776	42617.630541	3946.270916	22834.549123
9.536000	0.000000	0.000000	-0.002026	-0.000022	6909.850970	42605.827130	3945.795334	22828.954068
10.036000	0.001074	0.000107	0.000756	0.000256	6917.113914	42590.210483	3951.750266	22816.207762
10.536500	0.000535	0.000267	0.001406	0.000244	6912.305088	42605.879517	3953.330300	22816.773848
11.036500	-0.001851	-0.000248	0.000000	0.004388	6853.130166	42183.105251	3940.159408	22628.015532
11.537500	-0.002115	-0.000476	0.000526	-0.000059	6890.935488	42565.853784	3951.953267	22830.669144
12.037500	-0.002637	-0.000028	-0.001258	0.000393	6882.100219	42565.454354	3946.633817	22809.977554
12.535500	-0.002355	0.000048	-0.004152	0.000739	6881.516112	42540.827279	3938.973001	22794.138809
13.035000	-0.004060	0.000158	-0.002736	0.005194	6826.105818	42147.042297	3931.841336	22591.528394
13.535500	0.000611	0.000328	-0.000694	-0.000277	6917.763042	42659.052042	3949.566613	22840.631878
14.038500	0.001762	0.000622	-0.001726	-0.000368	6929.132125	42694.183001	3947.327204	22844.792241
14.536000	-0.002759	-0.001056	0.000041	0.000774	6877.540115	42437.209457	3948.813407	22792.524954
15.036500	-0.004149	-0.002224	-0.002860	0.002823	6846.544761	42146.082177	3937.111882	22699.108962
15.544000	-0.001414	0.000230	0.002479	-0.000538	6901.666460	42673.978999	3957.771091	22852.598886
16.040000	0.000617	-0.000147	0.004285	-0.001339	6927.538455	42712.722911	3964.041741	22889.370075
16.537000	0.000026	-0.000360	-0.002662	-0.001492	6923.526834	42707.265871	3947.775675	22896.386951
17.037500	-0.004958	-0.000823	-0.001378	0.003960	6829.115435	42169.880309	3937.921894	22647.443498
17.535000	-0.001322	-0.000356	0.001503	-0.001213	6908.659140	42682.073198	3957.048165	22883.573211
18.035500	-0.000558	0.000181	0.006909	-0.003307	6934.814986	42923.339164	3975.181408	22979.971210
18.536000	-0.000396	-0.000142	-0.001155	0.001257	6894.597642	42476.359537	3944.830107	22770.472751
19.035500	0.000286	-0.000877	-0.002936	0.002562	6888.939386	42291.310887	3937.544878	22710.961544
19.536500	0.002803	-0.000690	-0.001141	0.000669	6929.169774	42480.068640	3946.255975	22797.343689
20.036500	-0.001221	-0.000641	0.001708	0.000330	6895.522865	42515.318637	3953.847057	22812.832715
20.539500	-0.002223	-0.000020	-0.001229	0.000880	6881.434539	42521.792633	3945.546268	22787.676166
21.036500	-0.001180	-0.000507	-0.005195	0.001635	6884.045578	42408.862733	3934.416051	22753.201751
21.537500	-0.000450	0.000307	0.000398	0.001534	6891.587976	42491.999878	3947.854945	22757.814796
22.035000	-0.001777	0.000368	0.006791	0.001693	6878.116761	42483.121634	3962.772965	22750.564912
22.534500	-0.002566	-0.001142	0.001246	0.000578	6881.067187	42447.187697	3952.150056	22801.492649
23.035500	-0.003374	-0.000086	-0.000739	0.002366	6857.626978	42380.741266	3943.189582	22719.902560
23.535500	-0.001894	-0.000247	-0.002988	0.001154	6881.939543	42476.184798	3940.738841	22775.178448
24.036000	-0.001168	-0.000764	-0.002700	0.001148	6888.577074	42429.748479	3941.434794	22775.456634
24.536500	0.001002	0.000689	-0.001343	0.001606	6904.142763	42520.282790	3943.557286	22754.533601
25.039500	-0.002025	-0.000642	0.001637	0.002207	6871.230360	42344.765983	3949.203419	22727.159205
25.537000	-0.000248	0.000064	-0.000104	0.001563	6893.159412	42467.340722	3946.595499	22756.508784
26.037000	0.000444	0.000329	0.006120	0.001784	6897.440012	42471.288852	3960.937478	22746.399981
26.535000	-0.000998	0.000510	-0.001358	0.001769	6884.476271	42489.058762	3943.135566	22747.086902
27.035000	-0.000145	0.000086	0.000834	0.002036	6889.800823	42426.341667	3947.699263	22734.931710
27.535500	-0.000826	-0.000157	-0.001128	0.001169	6891.489505	42483.016970	3945.101705	22774.484218
28.035500	0.000893	0.000081	-0.002688	-0.000718	6924.386146	42676.839823	3945.878735	22860.880501
28.536000	0.002024	0.000509	0.004428	-0.000182	6929.832539	42666.930413	3961.600002	22836.296086
29.036500	-0.002756	-0.000572	-0.000591	0.005124	6838.397801	42087.589667	3937.035402	22594.678497
29.536500	0.001163	0.000026	0.005707	0.000105	6919.315159	42596.646412	3963.989514	22823.132687
30.036500	0.000413	0.000647	0.003427	0.000297	6910.709541	42635.719990	3958.040143	22814.348930
30.537000	0.000793	0.000516	0.002382	-0.000064	6917.471631	42656.744805	3956.400669	22830.866684
31.037000	-0.002391	-0.000599	-0.002991	0.005796	6835.649110	42024.621313	3929.838221	22564.277124
31.557500	-0.000347	-0.000396	0.002394	-0.000909	6914.784849	42650.640721	3958.455477	22869.613781
32.035500	-0.000972	0.000626	0.001351	0.002669	6876.566324	42417.794334	3947.424136	22706.077469
32.535500	0.000856	-0.000529	0.004622	0.000595	6912.032551	42501.420264	3960.196150	22800.731070
33.068500	-0.003074	-0.000212	0.002348	0.005254	6834.384945	42108.252022	3943.660070	22588.775685
33.536000	-0.001087	-0.000474	0.006516	-0.000972	6908.598614	42649.256452	3968.548564	22872.508352
34.036500	0.002140	0.000039	0.003707	-0.000217	6931.213901	42627.200562	3959.947532	22837.884224
34.536500	-0.000685	-0.000200	0.002768	-0.000504	6907.998203	42631.548762	3958.383196	22851.042933
35.037000	-0.004780	-0.000347	-0.000909	0.004358	6827.137219	42176.863691	3938.087714	22629.354752
35.537500	-0.000412	-0.000367	0.005693	0.001067	6896.182715	42473.180730	3961.636581	22779.150445
36.034500	-0.001563	-0.000821	0.003134	0.001376	6882.922969	42403.876424	3954.753087	22765.022957
36.535000	-0.001785	-0.000299	0.000524	0.001674	6878.214047	42424.248262	3947.822410	22751.436862
37.035000	-0.003200	-0.000291	0.005676	0.003229	6851.426069	42283.974439	3956.404955	22680.646164
37.535500	-0.001286	0.000028	0.000809	0.001663	6882.826672	42454.943935	3948.524749	22751.922546
38.036000	-0.000169	0.000459	0.002134	0.002524	6885.149017	42415.828682	3949.628668	22712.681523
38.536000	0.000065	-0.000020	0.002953	0.002163	6890.557661	42405.187303	3952.442690	22729.151986
39.039000	-0.002939	-0.000576	0.000551	0.001216	6871.926871	42440.665982	3948.976370	22772.361728
39.536000	-0.001444	0.000286	-0.000956	0.001690	6881.152911	42475.876062	3944.274205	22750.697448
40.037000	-0.001015	-0.000676	0.004894	0.000610	6894.848934	42486.695457	3960.813057	22800.038521
40.534500	0.002916	0.000065	0.001266	0.001010	6927.077029	42517.683937	3951.168061	22781.734821
41.035000	-0.001609	-0.000066	0.004408	0.001120	6884.828999	42495.734194	3958.419706	22776.723358
41.535000	0.000710	-0.000095	0.003776	0.001089	6906.191731	42495.926639	3956.979947	22778.147647
42.035500	-0.002469	0.000079	0.001584	0.000288	6884.571976	42584.756281	3953.649237	22814.754931
42.535500	0.000321	-0.000625	0.001460	-0.000053	6913.063508	42551.672602	3954.169833	22830.369390
43.036000	-0.001692	-0.000948	-0.000127	0.001110	6884.168160	42416.540419	3947.617154	22777.194814
43.539000	-0.001458	-0.000630	0.000671	0.000177	6894.765779	42530.342036	3951.736064	22819.865233
44.036500	-0.001336	-0.001237	0.002473	-0.000402	6901.142731	42527.772883	3957.430138	22846.390034
44.537000	-0.002401	-0.000597	0.000383	-0.000011	6887.908578	42550.482573	3951.497895	22828.473379
45.034500	-0.001942	-0.000630	0.002023	0.003121	6863.718101	42263.026840	3947.945627	22685.523288
45.537000	0.000095	0.000127	-0.001814	-0.001685	6925.930012	42769.506009	3950.252874	22905.280805
46.035000	-0.000152	-0.000023	0.000702	-0.000898	6916.464736	42683.715904	3954.376003	22869.114021
46.534500	-0.001926	0.000821	0.001764	-0.000443	6896.149908	42719.346030	3955.830790	22848.265768
47.035500	-0.003204	-0.000251	-0.000543	0.004925	6836.170270	42134.477858	3937.617072	22603.705934
47.535500	0.000010	-0.000101	0.007161	-0.001131	6920.076148	42697.957345	3970.499676	22879.815955
48.036000	0.001833	-0.000020	-0.000610	-0.000914	6934.801991	42685.488121	3951.284289	22869.866129
48.566500	0.000725	0.000042	0.005437	-0.000645	6922.172055	42666.596060	3965.149034	22857.518361
49.037000	-0.002140	0.000260	-0.000016	0.004043	6853.640111	42260.250410	3940.936059	22643.673494
49.537000	-0.001344	0.000149	0.000524	0.001253	6886.026116	42503.290004	3948.823925	22770.662744
50.065500	0.001399	-0.000577	0.002068	-0.001394	6935.217665	42678.507120	3958.838724	22891.907739
50.537500	-0.000466	0.000368	0.003706	-0.001002	6914.544328	42729.020660	3961.834556	22873.901113
51.035000	-0.004457	-0.000347	-0.004286	0.004495	6828.803223	42164.543552	3929.853559	22623.165154
51.535500	0.000199	-0.000242	-0.000428	-0.003217	6940.942177	42876.177137	3957.223745	22975.811182
52.035500	0.003741	0.000481	0.006540	0.002643	6919.678212	42407.040143	3959.882395	22707.260630
52.538500	-0.001485	-0.002218	0.004851	0.014118	6769.809778	41141.130530	3928.720032	22191.826908
53.036000	-0.072709	-0.014941	-0.005567	0.193113	5095.614263	27521.865526	3570.778059	15688.867829
53.536500	-0.087451	-0.023579	-0.029974	-0.053506	6611.709550	45430.472080	4008.158601	25435.564730
54.036500	-0.060719	-0.094598	-0.016080	-0.292556	9705.115171	65484.582133	4871.313129	41947.776163
54.537000	-0.039069	-0.102350	-0.000728	-0.300659	10184.347906	65535.000000	4979.814567	42682.406243
55.034500	-0.014253	-0.071741	0.015556	-0.267069	10039.594778	65107.167813	4899.191002	39724.378197
55.535000	0.003355	-0.030855	0.025430	-0.207388	9384.715391	62475.867843	4684.316179	35001.345214
56.035000	0.017893	-0.008755	0.034616	-0.154010	8833.958141	58341.613124	4513.240503	31293.242239
56.535500	0.032882	0.002194	0.041575	-0.123373	8625.629133	55888.066866	4428.492244	29362.005776
57.035000	0.050275	0.016395	0.059067	-0.071931	8197.419864	51540.313574	4314.765034	26410.517498
57.538500	0.066343	0.026481	0.071710	-0.031651	7912.703709	48278.810902	4228.530261	24331.504138
58.036000	0.083328	0.037316	0.083451	0.020074	7530.958988	44208.576650	4113.094240	21929.592417
58.536500	0.097861	0.044350	0.098731	0.043314	7439.968581	42698.439978	4091.352302	20940.088600
59.037000	0.108272	0.054457	0.107340	0.079417	7181.890251	40390.798168	4019.257936	19504.234168
59.537000	0.121658	0.063164	0.123783	0.145526	6697.741770	35758.977955	3900.042150	17165.240503
60.034500	0.138942	0.072312	0.146682	0.184012	6519.035006	33617.940576	3865.353736	15958.860656
60.535000	0.149870	0.080919	0.157156	0.223353	6292.816136	31524.713570	3804.309199	14831.332539
61.035500	0.162753	0.088653	0.177241	0.260589	6110.360901	29650.109325	3769.913952	13854.226783
61.535500	0.177259	0.098073	0.189907	0.273474	6122.189482	29438.198342	3769.482988	13535.157924
62.038500	0.192018	0.106344	0.203951	0.276963	6205.663283	29731.091266	3790.478485	13450.361962
62.536000	0.206671	0.113947	0.221631	0.286112	6247.224042	29636.028175	3807.823683	13231.251177
63.036500	0.212443	0.122892	0.230120	0.301250	6176.814676	29258.631195	3794.275688	12878.716116
63.536500	0.223027	0.127751	0.248186	0.318475	6127.795612	28520.922691	3795.977665	12492.209135
64.037000	0.233793	0.135043	0.256333	0.348920	5986.879297	27195.004554	3751.940591	11845.484602
64.537000	0.234065	0.137611	0.258089	0.374663	5813.721497	25936.750946	3707.025579	11332.918405
65.034000	0.231300	0.138060	0.265480	0.359297	5898.113357	26788.069483	3749.576314	11635.197069
65.535000	0.237003	0.142480	0.268962	0.407614	5622.297887	24499.389663	3667.822906	10719.656943
66.035500	0.241941	0.144982	0.277847	0.415131	5606.448891	24252.272866	3670.192967	10586.142543
66.538500	0.249965	0.149614	0.281874	0.421357	5617.483083	24174.374187	3666.384041	10477.305599
67.036000	0.255104	0.152162	0.279127	0.426284	5618.791468	24058.610544	3653.244031	10392.284358
67.572000	0.262544	0.156281	0.280665	0.428086	5653.700318	24171.361000	3652.795337	10361.420672
68.036000	0.266756	0.157013	0.291111	0.427584	5683.242027	24231.644862	3671.602826	10369.993982
68.534000	0.269697	0.160739	0.293497	0.427658	5701.364652	24411.110384	3675.635496	10368.732971
69.037000	0.270578	0.163605	0.291846	0.432837	5674.238967	24297.236825	3663.783781	10280.660985
69.534500	0.278403	0.165152	0.297310	0.427796	5756.248796	24623.107555	3682.090728	10366.380336
70.035000	0.277094	0.167605	0.295331	0.428407	5743.852808	24715.070814	3677.536120	10355.936401
70.535000	0.283587	0.169508	0.298307	0.429550	5778.524300	24753.165301	3680.757573	10336.442499
71.035500	0.282314	0.169789	0.302555	0.435887	5729.334579	24451.615985	3677.087202	10229.288836
71.536000	0.290492	0.173109	0.299400	0.430365	5818.503050	24893.265283	3681.244964	10322.565976
72.036000	0.293128	0.174085	0.299432	0.428430	5848.890878	25040.635812	3684.719099	10355.538435
72.536500	0.297750	0.178583	0.303863	0.428898	5876.777700	25246.253103	3691.766227	10347.549502
73.036500	0.296129	0.178499	0.304692	0.432321	5842.954848	25067.216343	3687.146705	10289.400849
73.534000	0.300179	0.179952	0.309521	0.423497	5930.085171	25596.121699	3711.773137	10440.264673
74.034500	0.303667	0.180672	0.307412	0.421215	5969.980223	25752.971502	3712.089371	10479.773745
74.535000	0.307455	0.182476	0.314224	0.420808	5999.323112	25869.203257	3725.431936	10486.847323
75.035000	0.304409	0.183128	0.312792	0.424188	5954.489834	25725.858807	3716.511744	10428.327176
75.535500	0.310517	0.184465	0.313552	0.417707	6042.951171	26139.061970	3729.971517	10540.929915
76.035500	0.313373	0.185837	0.314524	0.417315	6066.192413	26233.277552	3732.531515	10547.797444
76.536000	0.312628	0.186285	0.312729	0.416144	6069.251290	26320.141817	3731.359894	10568.337428
77.036000	0.312662	0.187358	0.320979	0.422187	6026.347905	26054.579045	3735.512922	10462.916591
77.536500	0.319894	0.189025	0.318354	0.416958	6115.985608	26423.844052	3740.439520	10554.043294
78.033500	0.321756	0.190242	0.315714	0.417828	6123.233630	26442.593710	3733.805161	10538.813382
78.537000	0.321852	0.191384	0.317904	0.418233	6120.968648	26482.467465	3737.172674	10531.726629
79.037500	0.324506	0.193253	0.328841	0.419283	6132.715952	26526.780899	3756.079865	10513.387881
79.535000	0.325445	0.191452	0.331468	0.417870	6150.014444	26505.791021	3763.929568	10538.071325
80.035500	0.325470	0.194259	0.324452	0.420128	6133.595472	26535.579528	3746.018038	10498.677069
80.538500	0.327933	0.194918	0.332151	0.421466	6141.854737	26498.747013	3758.262313	10475.424206
81.035500	0.329177	0.194139	0.324733	0.423759	6134.143955	26332.936148	3739.638529	10435.728667
81.536000	0.330680	0.195919	0.327333	0.423162	6149.595213	26461.128200	3745.724113	10446.040608
82.036000	0.330679	0.194904	0.328225	0.423397	6147.854751	26393.634069	3746.979582	10441.981436
82.537000	0.332401	0.196065	0.327223	0.425514	6144.949287	26342.204281	3741.036150	10405.507864
83.036500	0.331730	0.196965	0.329731	0.427640	6124.411429	26276.312352	3741.760729	10369.036995
83.537500	0.331657	0.195463	0.329973	0.426646	6131.157807	26249.072343	3744.113507	10386.061849
84.037000	0.333216	0.196878	0.331093	0.429430	6122.196992	26175.866251	3740.947860	10338.491171
84.535000	0.332700	0.197051	0.335969	0.430858	6108.008119	26108.906444	3747.522642	10314.193183
85.038000	0.333481	0.198441	0.335184	0.434008	6090.813978	26015.368046	3740.023205	10260.900147
85.536000	0.335157	0.198113	0.333076	0.434519	6099.257487	25970.921218	3735.067464	10252.282829
86.036000	0.336899	0.198824	0.335655	0.437307	6091.680553	25861.281929	3734.675266	10205.503723
86.536500	0.333565	0.198420	0.332370	0.438389	6059.863733	25783.066658	3726.484696	10187.416481
87.036500	0.337134	0.200185	0.335582	0.447208	6022.457928	25415.709752	3716.089197	10041.716209
87.537000	0.335584	0.198620	0.328760	0.442849	6042.415089	25560.500014	3711.565470	10113.369257
88.040000	0.335527	0.198991	0.337987	0.444882	6027.551643	25474.260142	3724.851540	10079.857481
88.534500	0.335790	0.199316	0.333208	0.447014	6014.323222	25380.866729	3712.083209	10044.889897
89.034500	0.331823	0.199988	0.333831	0.454492	5934.545667	25032.576568	3699.618408	9923.595089
89.535500	0.336265	0.200678	0.341904	0.452820	5976.900618	25152.807650	3717.396583	9950.529130
90.035500	0.337483	0.200089	0.340759	0.454172	5975.970059	25053.954193	3712.804930	9928.749704
90.535500	0.340978	0.203356	0.352281	0.459163	5965.552831	24966.523011	3724.877377	9848.887111
91.036000	0.336751	0.202328	0.337022	0.465001	5896.396413	24621.645631	3686.525357	9756.622393
91.536500	0.339755	0.201149	0.344655	0.461246	5942.658782	24750.403649	3706.995300	9815.825101
92.036000	0.341130	0.202250	0.339966	0.463462	5936.867123	24694.604310	3694.520740	9780.830654
92.537000	0.340847	0.203001	0.345533	0.466529	5913.891403	24579.086561	3699.013671	9732.684022
93.037500	0.337391	0.201179	0.339512	0.471250	5858.546525	24256.116223	3679.885885	9659.233565
93.537000	0.342330	0.203430	0.345402	0.469554	5903.370169	24450.329459	3693.344316	9685.524486
94.034500	0.343091	0.203922	0.342396	0.470958	5899.001573	24405.348142	3685.492066	9663.757334
94.535500	0.343090	0.202108	0.341418	0.471512	5895.233585	24288.850278	3682.783084	9655.191302
95.036000	0.342989	0.203189	0.350168	0.477500	5854.183018	24049.433983	3687.675185	9563.231364
95.536500	0.344650	0.203949	0.344039	0.474794	5883.569534	24218.256295	3681.616575	9604.633165
96.036000	0.346003	0.205093	0.346265	0.477159	5876.727897	24158.634767	3681.372311	9568.434348
96.536500	0.346108	0.205222	0.341768	0.478445	5868.771901	24102.294824	3671.249100	9548.834924
97.037000	0.343889	0.204839	0.345860	0.480240	5841.890689	23996.605789	3675.252765	9521.566806
97.540000	0.347293	0.204444	0.349510	0.481120	5858.761847	23934.982501	3680.110095	9508.245057
98.037000	0.346235	0.204896	0.345600	0.483162	5838.058224	23858.463220	3669.711136	9477.436690
98.535000	0.347591	0.206569	0.348890	0.485287	5832.941781	23836.699916	3671.735510	9445.520661
99.038000	0.346720	0.205934	0.348748	0.486541	5818.851775	23746.184172	3669.308954	9426.755373
99.535500	0.347971	0.208159	0.349316	0.488512	5814.093988	23758.355903	3666.881347	9397.389098
100.036000	0.345574	0.207392	0.347776	0.488842	5796.144440	23705.902144	3663.653421	9392.474526
100.536000	0.347513	0.206297	0.341841	0.489334	5805.654678	23630.330807	3652.673997	9385.176425
101.036000	0.346570	0.205342	0.349482	0.489425	5798.857212	23580.631304	3665.590710	9383.824182
101.536500	0.345736	0.206146	0.353529	0.489747	5791.277906	23603.534301	3672.047836	9379.052702
102.036500	0.345499	0.206940	0.353306	0.490374	5785.624146	23611.452424	3670.569828	9369.759743
102.534500	0.345078	0.205735	0.347394	0.489063	5791.447278	23616.517835	3662.617720	9389.199830
103.034500	0.344666	0.207385	0.348267	0.491415	5773.397531	23583.173998	3660.079068	9354.360085
103.538000	0.343559	0.206913	0.350889	0.490568	5771.710726	23600.966686	3666.047977	9366.893301
104.035000	0.345929	0.206889	0.349577	0.490540	5787.352157	23601.143293	3663.832995	9367.302396
104.536000	0.340847	0.205495	0.347233	0.489111	5763.555515	23602.790722	3662.257161	9388.479670
105.035500	0.345058	0.205478	0.343449	0.490100	5784.537209	23555.089446	3654.103549	9373.818342
105.536000	0.342708	0.205195	0.341667	0.489135	5775.502034	23587.453607	3652.715172	9388.132089
106.036500	0.343795	0.205736	0.339647	0.488797	5784.791861	23629.208545	3649.868548	9393.150228
106.536500	0.342295	0.204961	0.348656	0.489371	5771.274746	23565.158122	3664.259673	9384.631786
107.036500	0.342060	0.204919	0.346455	0.494440	5736.990221	23324.305098	3651.838303	9309.833927
107.537500	0.343990	0.205529	0.348807	0.489770	5779.715488	23573.172871	3663.831722	9378.704670
108.037500	0.340343	0.205522	0.348467	0.490075	5754.052096	23558.392290	3662.723430	9374.187821
108.535500	0.343413	0.204750	0.353597	0.489899	5775.112350	23530.117178	3671.900796	9376.789465
109.035500	0.341632	0.204929	0.352766	0.489261	5767.680232	23568.849390	3671.564129	9386.254607
109.536000	0.340787	0.204569	0.348311	0.489356	5761.582092	23547.320921	3663.690913	9384.852819
110.036000	0.341939	0.205272	0.354565	0.490296	5762.955153	23536.070895	3672.894203	9370.908099
110.536000	0.340820	0.204103	0.351720	0.489875	5758.435367	23500.691313	3668.682200	9377.149411
111.036500	0.342473	0.203829	0.350773	0.489263	5773.135073	23516.666300	3668.101649	9386.227653
111.537500	0.344859	0.205788	0.349335	0.490800	5778.666744	23536.623475	3662.968812	9363.456046
112.037000	0.341254	0.202558	0.348464	0.488200	5772.122397	23506.834510	3665.948120	9402.025729
112.540500	0.341635	0.203776	0.352424	0.489866	5763.771035	23485.651014	3669.919405	9377.280893
113.038000	0.341964	0.203795	0.349579	0.493368	5743.271715	23321.903744	3658.983256	9325.582580
113.535500	0.341718	0.204461	0.350760	0.490055	5763.085295	23509.106462	3666.708762	9374.477409
114.035500	0.340177	0.203833	0.352502	0.490128	5752.640644	23476.022380	3669.600761	9373.405696
114.536000	0.339033	0.202574	0.347189	0.489944	5746.445813	23425.340363	3660.753228	9376.132415
115.036000	0.341558	0.204414	0.353686	0.491137	5755.044712	23455.779431	3669.902570	9358.467687
115.537000	0.343197	0.203110	0.345579	0.489223	5778.109318	23484.594359	3659.230068	9386.818798
116.036500	0.345763	0.204089	0.351531	0.490442	5786.904122	23473.277481	3667.373541	9368.750750
116.537500	0.341494	0.203634	0.348932	0.490996	5755.545318	23425.729795	3661.939274	9360.561841
117.037000	0.338653	0.203631	0.349821	0.495766	5706.752001	23202.244486	3655.303262	9290.419020
117.535000	0.343184	0.204742	0.349008	0.490870	5767.311052	23483.881195	3662.285787	9362.420070
118.035000	0.343531	0.203094	0.357832	0.489588	5777.907732	23466.611387	3679.854488	9381.407475
118.535000	0.344553	0.203736	0.350433	0.492226	5767.391242	23372.660779	3662.404648	9342.392358
119.035500	0.340746	0.203181	0.349634	0.493699	5733.317295	23277.697664	3658.511048	9320.720287
119.535500	0.343533	0.203901	0.354773	0.489799	5776.550877	23494.726848	3674.125401	9378.279689
120.036000	0.346248	0.204950	0.359561	0.491728	5781.671717	23453.215826	3679.131561	9349.735491
120.536500	0.342745	0.203074	0.349558	0.492399	5754.557248	23333.517035	3660.606722	9339.846514
121.036500	0.345715	0.202656	0.361014	0.488506	5799.276838	23496.995505	3687.388404	9397.469927
121.537000	0.344068	0.204182	0.354031	0.489872	5779.555998	23504.577828	3672.702477	9377.193267
122.037500	0.346275	0.204471	0.363110	0.489893	5793.856434	23517.259603	3688.650483	9376.885302
122.538000	0.343086	0.203045	0.355491	0.491666	5761.510746	23366.526794	3672.121391	9350.652289
123.035000	0.346111	0.203775	0.352487	0.490248	5790.457034	23467.625030	3669.366275	9371.627029
123.535500	0.345360	0.205129	0.353698	0.490521	5783.755370	23518.644568	3670.994250	9367.577786
124.035500	0.346517	0.204757	0.354284	0.490062	5794.333226	23522.804497	3672.814641	9374.385452
124.536000	0.345504	0.204866	0.354042	0.493726	5763.835513	23355.331499	3666.037149	9320.321450
125.036500	0.345377	0.204297	0.359684	0.489263	5792.097296	23538.818559	3683.692934	9386.228555
125.536500	0.345424	0.204071	0.351487	0.488632	5796.541339	23557.985463	3670.433994	9395.599876
126.037000	0.346057	0.204933	0.357228	0.489513	5794.915455	23557.096406	3678.924496	9382.521691
126.540000	0.344543	0.203712	0.355736	0.492758	5763.879684	23346.597140	3670.649992	9334.561738
127.035000	0.343702	0.204766	0.358755	0.490303	5774.366035	23511.827813	3680.220005	9370.816837
127.624000	0.348215	0.203885	0.362918	0.489044	5812.198087	23529.691089	3689.820588	9389.487853
128.035000	0.347204	0.204340	0.354930	0.489049	5805.502945	23550.997541	3675.710100	9389.410575
128.535500	0.345406	0.204139	0.359527	0.489289	5792.118245	23530.088705	3683.368059	9385.840968
129.035500	0.346361	0.203460	0.350070	0.488394	5804.266400	23540.334994	3668.391132	9399.147464
129.536000	0.345275	0.203880	0.352666	0.488515	5796.331205	23554.484534	3672.688275	9397.337002
130.036500	0.346582	0.204817	0.356176	0.489760	5796.738775	23539.882373	3676.645944	9378.853688
130.566000	0.344836	0.202684	0.351979	0.487940	5797.226486	23525.084287	3672.494568	9405.899031
131.037500	0.340453	0.202652	0.352667	0.492720	5737.714598	23298.706751	3665.401531	9335.117659
