sample name	sample
index	1161
start time	 04-26-2021  10:18:01 AM
880	0.006945
Peak Time (s)	91.037
Peak Height 	0.006945
calc peak height	90,93
Baseline Time (s)	11.538
Baseline Value 	-0.008145
subtract baseline	10,4
Abs	0.006398
Peak Time (s)	92.538
Peak Height 	0.006398
calc peak height	90,93
Baseline Time (s)	10.037
Baseline Value 	0.003756
subtract baseline	10,3
PK_550	-0.010180
Peak Time (s)	91.537
Peak Height 	-0.01018
calc peak height	90,93
Baseline Time (s)	11.037
Baseline Value 	0.001322
subtract baseline	10,2
PK_880	0.002906
Peak Time (s)	90.537
Peak Height 	0.002906
calc peak height	90,93
Baseline Time (s)	11.538
Baseline Value 	0.004032
subtract baseline	10,1


Time (s)	A880-A510	A880-A775	A880-A975	A880	I510	I775	I975	I880	
0.037000	0.000188	-0.000343	0.002571	0.002847	6129.526143	43971.902159	3785.342275	22712.285871
0.537000	-0.002000	-0.001366	-0.003473	0.004507	6100.073270	43718.306423	3767.348102	22636.209374
1.037000	-0.005478	-0.001803	-0.006540	0.006229	6060.696463	43515.438022	3756.328105	22557.658360
1.535000	-0.002746	-0.001377	-0.006763	0.004527	6094.242381	43715.368877	3759.716516	22635.292308
2.040500	-0.000154	-0.000930	0.005821	0.000179	6147.446835	44169.551065	3799.377264	22835.093884
2.535500	-0.000218	-0.000832	-0.001191	-0.000310	6150.734276	44225.515291	3783.916562	22857.691805
3.035500	-0.002475	-0.000535	0.000236	0.005965	6085.377319	43659.253753	3772.572447	22569.655988
3.536000	-0.002178	-0.000604	-0.000421	0.000812	6126.979878	44140.347364	3783.088752	22805.880752
4.036500	-0.001446	-0.001236	-0.001084	0.000510	6134.929105	44108.906244	3782.239907	22819.821828
4.536500	-0.001522	-0.000397	-0.001819	0.000797	6132.142518	44161.482831	3779.841822	22806.588638
5.037000	-0.000541	-0.000156	0.001910	0.001014	6138.026817	44163.776335	3788.105654	22796.593116
5.537000	-0.001588	-0.000584	0.000088	0.000413	6134.590954	44180.298023	3785.225067	22824.314673
6.037000	-0.001301	-0.000382	-0.002176	0.000471	6136.349104	44193.946254	3779.770815	22821.637133
6.535000	-0.000833	-0.000234	0.001345	0.000968	6136.126519	44160.732844	3786.881513	22798.713980
7.035000	-0.001886	-0.000117	-0.002424	0.000300	6133.161518	44235.520283	3779.588780	22829.522110
7.535500	-0.001161	-0.000463	-0.005298	0.000124	6140.100638	44219.313629	3773.285975	22837.623246
8.036000	-0.001358	-0.000667	-0.000552	-0.000176	6140.898783	44228.492699	3785.103882	22851.495646
8.535500	-0.000472	-0.000638	-0.002290	0.000234	6144.577094	44192.198884	3780.059025	22832.578873
9.036500	0.000885	0.000006	0.002173	-0.000067	6157.399476	44282.297969	3791.286621	22846.466227
9.536000	-0.002933	-0.000580	-0.001337	-0.000481	6131.115563	44265.847508	3783.974486	22865.581471
10.036500	0.000792	0.000689	0.000000	0.000664	6151.017930	44277.696696	3784.426399	22812.708421
10.537000	0.000027	-0.000220	-0.005450	-0.000604	6154.913490	44312.002082	3774.630474	22871.298055
11.037000	-0.000802	0.000000	0.002617	0.000202	6142.275302	44256.072097	3791.700749	22834.055228
11.538000	0.000000	0.000414	0.002274	0.000000	6150.025907	44314.832822	3791.366785	22843.367861
12.035500	-0.002146	0.000065	0.001205	-0.000094	6134.193117	44290.501628	3789.056301	22847.689455
12.535500	-0.002942	-0.000035	0.000955	-0.000648	6132.336446	44333.973101	3789.777730	22873.349554
13.036000	-0.002785	0.000118	0.001427	0.000847	6122.053361	44205.786268	3787.360039	22804.269723
13.536000	0.002521	-0.000410	0.000050	-0.001886	6184.285629	44416.520588	3790.566999	22930.703114
14.036500	-0.001802	0.000039	0.003418	0.001639	6123.518371	44122.791415	3790.191325	22767.767784
14.536500	-0.000756	-0.000790	-0.005436	0.001396	6133.428719	44067.171429	3770.012157	22778.991559
15.037000	-0.002728	-0.000414	-0.000478	0.000740	6123.313870	44165.268307	3783.124883	22809.224125
15.537000	-0.003496	-0.000282	0.000817	-0.001645	6135.738959	44405.691561	3791.811038	22919.500219
16.035500	-0.001402	-0.000458	0.003066	-0.002003	6154.678652	44423.106207	3798.012712	22936.128995
16.535500	-0.002129	-0.000157	0.000355	-0.001741	6147.029235	44426.891317	3790.944773	22923.962048
17.034500	-0.000995	-0.000063	0.002710	-0.001093	6150.781856	44373.838250	3794.995465	22893.930749
17.535500	-0.002538	-0.000349	0.003831	0.000619	6125.700051	44183.015108	3793.591613	22814.782542
18.036000	-0.001179	-0.000731	-0.000307	0.000152	6139.747269	44191.082299	3784.908833	22836.359196
18.536000	-0.001761	-0.000969	-0.001037	0.000140	6135.353178	44169.587869	3783.220386	22836.903415
19.037000	-0.002264	-0.000494	0.000701	0.001126	6123.909291	44120.848194	3784.987723	22791.395425
19.537000	0.000178	-0.001033	-0.000623	0.000103	6150.603442	44166.996176	3784.279532	22838.603270
20.037500	-0.003057	-0.000403	0.002512	0.001041	6118.482514	44137.639032	3789.464199	22795.338544
20.537000	-0.001165	-0.000525	-0.004443	0.001030	6133.094915	44127.068405	3773.167716	22795.831354
21.037500	-0.002028	0.000022	-0.000225	0.001663	6121.600928	44118.972155	3781.551012	22766.693696
21.535000	-0.002165	-0.000236	0.000530	0.000844	6126.840497	44172.330113	3785.251215	22804.433963
22.036000	-0.001549	-0.000106	-0.003175	0.000526	6134.015988	44214.976946	3777.302946	22819.074715
22.536000	-0.001208	-0.000611	-0.000562	0.000065	6140.193428	44210.770910	3784.514534	22840.357633
23.036500	-0.000765	0.000056	0.000289	0.001090	6135.712229	44176.755035	3784.105673	22793.092484
23.536500	-0.004024	0.000174	0.002529	0.000969	6111.626696	44199.491386	3789.675842	22798.641155
24.036500	-0.001709	-0.000868	-0.003486	-0.000023	6137.014142	44194.780177	3777.861102	22844.448266
24.539500	-0.002614	-0.000470	-0.006328	0.000497	6126.048282	44183.031002	3770.024551	22820.397843
25.034000	-0.000869	-0.001175	0.003509	0.000609	6138.613296	44105.247514	3792.849528	22815.230321
25.536500	-0.001146	-0.000838	-0.001152	0.000205	6139.594943	44175.902087	3782.796789	22833.916498
26.035000	-0.004030	-0.000748	0.003965	-0.000077	6119.592425	44211.337443	3795.564673	22846.947818
26.535000	0.000414	0.000149	-0.001267	0.001195	6143.990319	44175.561307	3780.201934	22788.215268
27.036000	-0.000399	-0.000930	-0.001215	-0.001042	6155.001437	44285.969314	3785.582545	22891.559012
27.536000	0.000607	0.000433	0.006261	-0.002075	6170.834870	44515.495499	3805.832135	22939.469298
28.036500	-0.000144	0.000274	0.002267	-0.001213	6158.301724	44417.486385	3794.227834	22899.468201
28.536500	-0.000020	0.000114	0.000848	-0.001671	6162.816520	44446.059081	3791.945684	22920.708646
29.037000	-0.003103	-0.000566	-0.001001	0.004126	6094.585276	43829.762186	3773.974646	22653.662906
29.537500	-0.000250	-0.000356	0.006433	-0.001822	6162.204053	44415.515918	3805.636794	22927.714424
30.037500	-0.001729	-0.000256	-0.000010	-0.001987	6152.022849	44440.990521	3790.661812	22935.384233
30.538000	-0.000774	0.000413	0.004973	0.001629	6131.492352	44159.430771	3793.904232	22768.257738
31.035000	-0.002745	0.000088	0.001744	0.003484	6102.196549	43952.331542	3781.896543	22683.055592
31.535500	-0.001033	-0.000863	-0.000434	-0.001973	6157.306292	44381.406145	3789.626335	22934.721975
32.036000	-0.001405	-0.000245	0.001188	-0.001531	6151.002169	44398.250577	3792.421869	22914.218361
32.536000	0.003026	0.000297	0.002670	-0.000954	6180.942900	44394.888316	3794.569235	22887.468740
33.036500	-0.001731	-0.000237	-0.002388	0.002773	6115.371362	43988.918474	3773.896582	22715.663866
33.539000	0.000761	0.000098	0.003694	-0.001959	6171.132111	44472.224345	3799.405598	22934.098645
34.034000	-0.001110	-0.000219	0.004478	0.001402	6130.653594	44120.817945	3793.269061	22778.701490
34.537000	-0.002602	-0.000668	0.005922	0.000994	6122.328764	44116.932602	3797.673790	22797.485008
35.038000	-0.001608	-0.000586	-0.007393	0.002033	6121.981324	44025.944607	3764.007099	22749.645555
35.535000	-0.001714	-0.000344	0.006616	0.001150	6127.949667	44132.912258	3798.957352	22790.300822
36.035500	-0.000746	0.000121	0.001765	0.001306	6134.196180	44162.327923	3787.074463	22783.127521
36.535500	-0.002062	0.000109	-0.003507	0.000776	6128.149772	44211.685986	3775.943712	22807.559251
37.035500	-0.002445	0.000489	0.001692	0.002613	6111.131277	44072.938634	3783.820991	22722.989279
37.536500	-0.001506	-0.000581	0.000206	0.000684	6133.128711	44154.689368	3784.864283	22811.772192
38.036500	-0.002083	0.000268	0.003750	0.001107	6125.445548	44195.271635	3792.239592	22792.285660
38.537000	-0.002414	0.000533	0.004458	0.001859	6117.139641	44148.920936	3792.136292	22757.679312
39.037500	-0.002465	-0.000075	-0.000266	0.002613	6110.983398	44019.435601	3779.227084	22723.019540
39.537500	-0.002370	-0.001119	0.006465	0.000656	6126.699287	44106.113610	3799.776589	22813.076669
40.038000	-0.003035	0.000126	0.002289	0.001365	6116.168716	44157.204302	3788.170567	22780.403933
40.535000	0.000132	0.000247	0.005550	0.001484	6139.584518	44157.404347	3795.622666	22774.927965
41.035500	-0.001348	-0.000366	0.004439	0.001379	6129.001870	44109.054762	3793.229625	22779.763578
41.536000	-0.002836	0.000233	0.002087	0.001204	6118.924077	44182.753613	3788.073946	22787.821693
42.036000	0.000280	0.000401	0.003357	0.001514	6140.496598	44169.132666	3790.344907	22773.529667
42.536500	-0.000323	-0.000638	-0.000541	0.000162	6146.276250	44198.988447	3784.334151	22835.874748
43.036500	-0.002932	-0.000611	0.004294	0.001202	6118.203405	44102.490164	3793.304677	22787.896717
43.537000	-0.000054	0.000122	0.001975	0.000837	6143.136442	44207.100791	3788.675533	22804.712629
44.034500	0.002144	-0.000148	0.005057	-0.003529	6194.193308	44599.469461	3806.434015	23007.090822
44.537500	0.000847	0.000255	0.009172	-0.001785	6170.445729	44470.629137	3812.151758	22926.013875
45.035000	-0.000086	-0.000159	-0.000850	0.002822	6127.614036	43991.653632	3777.370717	22713.426017
45.535500	-0.000986	0.000089	0.004876	-0.001348	6152.827811	44412.824248	3800.769170	22905.750000
46.035000	-0.001327	-0.000396	0.002822	-0.001594	6152.092910	44389.852275	3796.456191	22917.157354
46.536000	0.000248	-0.000217	0.003220	-0.001824	6166.093832	44429.084625	3797.951775	22927.831227
47.035500	-0.000957	0.000861	0.002555	0.002821	6120.937620	44088.614973	3785.365118	22713.462052
47.536500	-0.000184	0.000300	0.001906	0.002095	6132.448307	44104.260441	3785.545432	22746.801614
48.036500	-0.000083	0.000020	0.000918	-0.000915	6156.464718	44364.702558	3790.319878	22885.668084
48.537000	0.000494	-0.000031	0.002363	-0.001795	6167.780587	44444.139097	3795.841005	22926.480786
49.038000	-0.004279	-0.000150	0.001442	0.003376	6091.338597	43939.989430	3781.440413	22687.983278
49.537500	0.000078	-0.000639	0.004984	-0.003060	6174.387387	44507.178460	3805.133325	22985.256619
50.035000	0.000448	0.000284	0.007679	-0.001425	6164.540430	44438.882815	3807.680395	22909.314796
50.535500	0.000541	-0.000268	0.003696	-0.001198	6163.508140	44364.234537	3797.594899	22898.810913
51.035500	0.017015	-0.000564	0.012177	0.166844	5170.003480	31010.063553	3479.222252	16443.065484
51.536000	0.022090	-0.011782	0.009184	0.187344	5086.995700	29023.544570	3441.462954	15813.068694
52.036000	0.000596	-0.016679	-0.001844	-0.007162	6210.561933	43376.445489	3798.604005	23176.989396
52.536500	-0.009937	-0.029164	-0.002379	-0.125029	7169.246480	54518.478255	4120.101260	29537.136456
53.036500	-0.003185	-0.019416	0.006853	-0.098517	6974.504746	52560.296164	4067.130084	27952.487960
53.537000	-0.005350	-0.022710	0.001558	-0.065340	6647.559039	48552.574478	3956.500973	26101.023388
54.040000	-0.002289	-0.017357	0.006748	-0.053204	6567.812265	47843.621539	3937.548183	25458.308543
54.535000	-0.011149	-0.011900	-0.003402	-0.041595	6393.945108	47210.003529	3880.108794	24860.084357
55.035500	-0.010077	-0.008492	-0.004628	-0.064341	6597.045566	49966.443362	3936.900842	26047.424251
55.535500	-0.009780	-0.007547	-0.014725	-0.092777	6857.354243	53267.425158	3987.569952	27621.932660
56.036000	-0.007050	-0.005991	-0.006622	-0.085491	6814.929379	52606.052846	3989.878386	27208.647966
56.536500	-0.002183	-0.007742	-0.007543	-0.099806	6996.634742	54067.825561	4028.331848	28027.295710
57.036500	-0.002134	-0.005858	-0.008341	-0.081311	6821.747301	52144.109184	3973.313163	26974.622397
57.537000	-0.004129	-0.005919	-0.009089	-0.061882	6627.739826	49978.738031	3918.331677	25916.027347
58.033500	-0.003634	-0.007221	-0.008537	-0.056445	6584.336181	49252.455555	3905.400900	25628.210967
58.540500	-0.001979	-0.005861	-0.002525	-0.031689	6387.843906	46816.461309	3857.106963	24362.160929
59.035000	-0.004694	-0.005889	-0.004548	-0.011194	6200.679353	44785.041009	3801.779635	23367.268227
59.535500	-0.002431	-0.005601	-0.007757	-0.004430	6165.526870	44163.680680	3778.177560	23049.103113
60.035500	-0.005735	-0.007018	-0.009715	-0.002188	6122.706739	43816.704914	3768.398986	22944.727547
60.535500	-0.005380	-0.010034	-0.005084	0.001257	6099.090536	43211.050057	3771.151158	22785.399151
61.036000	-0.006649	-0.009627	-0.000648	0.017373	5969.283663	41775.570946	3744.373607	22056.554416
61.536000	-0.003582	-0.012688	-0.001080	0.028863	5908.242238	40491.546432	3717.779228	21553.248536
62.036500	-0.008803	-0.009023	-0.009486	0.034581	5830.706888	40313.745057	3687.199069	21307.665389
62.536500	-0.009557	-0.007498	-0.008072	0.035850	5816.585409	40335.920497	3687.509967	21253.623858
63.037000	-0.013350	-0.008129	-0.010957	0.033408	5807.183771	40492.712676	3686.563520	21357.775564
63.537000	-0.006856	-0.005596	-0.010070	0.023787	5921.203360	41562.343956	3709.206082	21773.972305
64.035000	-0.007001	-0.005398	-0.006659	0.017675	5964.501024	42129.594912	3730.200822	22043.171513
64.535500	-0.006920	-0.004917	-0.007925	0.013483	5995.884087	42554.997492	3736.745859	22230.032764
65.035500	-0.009503	-0.005462	-0.006199	0.014550	5969.055445	42407.729119	3738.225210	22182.290896
65.536000	-0.006754	-0.005631	-0.002026	0.008341	6035.286784	42962.318424	3761.840058	22461.682624
66.036500	-0.004374	-0.004957	-0.006084	0.007689	6058.012942	43085.181391	3754.030257	22491.249746
66.536500	-0.007986	-0.004875	-0.006186	0.006416	6040.461380	43211.037166	3756.706997	22549.106435
67.037000	-0.011297	-0.005282	-0.002419	0.009070	5996.142443	42927.257393	3759.259472	22428.666906
67.537000	-0.009999	-0.006300	-0.007386	0.003610	6046.409170	43339.738732	3760.394807	22677.291303
68.037000	-0.010293	-0.006688	-0.009585	0.002598	6051.792764	43397.996151	3757.667870	22723.684503
68.537500	-0.011746	-0.007974	-0.005475	0.002676	6040.313501	43270.748911	3766.954406	22720.109991
69.035500	-0.012498	-0.006720	-0.006893	0.007771	5996.866376	42914.390370	3751.998068	22487.530548
69.535500	-0.011039	-0.006490	-0.007042	0.005395	6025.303114	43155.800001	3757.086716	22595.657291
70.035500	-0.010801	-0.006512	-0.009312	0.006704	6017.331604	43032.292938	3748.921158	22536.022385
70.535500	-0.010730	-0.007542	-0.013687	0.008561	6004.095030	42765.795936	3734.862276	22451.739474
71.036000	-0.014597	-0.007778	-0.009143	0.012652	5945.756198	42369.553496	3735.875892	22267.255978
71.536500	-0.013078	-0.007679	-0.009965	0.010486	5972.635928	42576.501077	3738.893741	22364.702349
72.037000	-0.010158	-0.006360	-0.003067	0.013161	5974.429405	42452.552634	3748.438277	22244.437560
72.537500	-0.008684	-0.006167	-0.005924	0.016393	5961.572634	42176.019971	3734.706302	22100.116307
73.037500	-0.011237	-0.007731	-0.010549	0.019694	5919.127365	41737.486492	3717.117014	21953.810509
73.535000	-0.010381	-0.006701	-0.007146	0.017085	5944.184910	42065.109372	3730.431331	22069.360610
74.035000	-0.008378	-0.008536	-0.007471	0.016250	5964.850539	41974.741486	3731.566579	22106.469183
74.535500	-0.010719	-0.007456	-0.003570	0.019112	5927.061176	41814.445047	3733.891420	21979.550833
75.036000	-0.012875	-0.009310	-0.008338	0.020984	5898.108861	41481.204268	3719.146346	21896.969647
75.536500	-0.008552	-0.007990	0.001441	0.017034	5957.863640	41953.310046	3749.884130	22071.645415
76.036500	-0.009830	-0.008621	-0.007307	0.016182	5954.760790	41973.252810	3732.087778	22109.530010
76.537000	-0.009366	-0.009389	-0.011151	0.017749	5946.730039	41763.155610	3720.075958	22039.871819
77.037000	-0.010725	-0.008948	-0.006967	0.019852	5921.681831	41614.445050	3724.679333	21946.863930
77.540000	-0.009365	-0.009218	-0.003654	0.013595	5977.067470	42153.139332	3746.122096	22224.992844
78.034500	-0.007601	-0.009596	-0.001962	0.012555	5997.698217	42213.184752	3752.331877	22271.625307
78.535000	-0.008584	-0.010530	-0.004742	0.011221	6000.297793	42249.458993	3749.041516	22331.610200
79.035500	-0.010126	-0.011105	-0.005821	0.015145	5960.159206	41842.918005	3737.738129	22155.727388
79.535500	-0.009609	-0.010429	0.000803	0.010353	5999.137090	42337.634047	3763.723777	22370.720191
80.036000	-0.006165	-0.010124	-0.000146	0.009278	6032.690518	42463.414125	3764.012814	22419.259344
80.536500	-0.007667	-0.009815	-0.004348	0.013282	5991.852456	42127.432439	3745.261751	22239.042092
81.036000	-0.004228	-0.010868	0.002595	0.007871	6057.737490	42523.960581	3773.627599	22482.985003
81.537000	-0.006880	-0.010786	0.002569	0.006822	6045.711918	42627.585489	3776.014340	22530.657384
82.037500	-0.005163	-0.011145	-0.001748	0.005939	6065.245450	42675.615937	3768.027220	22570.829732
82.537500	-0.007431	-0.012607	-0.002356	0.007831	6034.039615	42368.885578	3762.255081	22484.818990
83.034000	-0.003758	-0.011024	0.002422	0.004603	6085.981387	42809.624816	3780.861221	22631.833637
83.535000	-0.004107	-0.011376	0.000769	0.004202	6086.376160	42814.090863	3777.928270	22650.160769
84.035500	-0.003077	-0.011158	0.007961	0.003750	6097.638224	42875.851958	3795.966476	22670.851245
84.536000	-0.005968	-0.012731	-0.001083	0.006132	6057.738725	42512.689058	3769.121447	22562.057980
85.035500	-0.001072	-0.012769	0.000440	0.002017	6126.217012	42887.147577	3782.279877	22750.395257
85.536500	-0.003215	-0.012943	-0.000818	0.001216	6115.931555	42945.080550	3781.206753	22787.282170
86.036500	-0.001326	-0.011937	-0.002211	0.001380	6129.159581	43022.917870	3777.559964	22779.704135
86.537000	-0.003669	-0.012607	-0.000962	0.005518	6079.719261	42580.122251	3770.826058	22590.024812
87.040000	-0.002870	-0.012503	0.004200	0.001307	6117.877606	42977.350831	3792.833605	22783.082191
87.537000	0.001741	-0.011585	0.003666	0.001805	6149.527524	43016.174505	3790.388406	22760.151278
88.034500	0.000464	-0.010963	0.006994	0.002415	6134.963543	43017.323390	3796.843122	22732.083103
88.535500	-0.003546	-0.012194	0.001127	0.005816	6078.400747	42590.740467	3774.996146	22576.479144
89.036000	-0.000551	-0.011720	0.007805	0.001568	6133.676996	43025.624555	3800.799827	22771.044076
89.536000	0.001948	-0.010821	0.009051	0.001569	6152.958645	43108.962275	3803.781993	22771.014595
90.036500	0.002621	-0.011297	0.004505	0.001071	6162.039523	43110.994705	3794.119714	22793.964580
90.536500	0.002906	-0.010571	0.004851	0.002001	6157.030642	43091.992323	3792.731114	22751.114516
91.037000	-0.003745	-0.010621	0.002943	0.006945	6068.356107	42631.374939	3776.599023	22525.057335
91.537000	0.001016	-0.010180	0.001040	0.001938	6142.904963	43134.227202	3783.875455	22754.041119
92.037500	0.002217	-0.010184	0.002398	0.001696	6154.057736	43156.215416	3787.646373	22765.155401
92.537500	0.000479	-0.010348	0.006398	0.001733	6140.348175	43137.627074	3797.048534	22763.479880
93.035000	-0.002650	-0.009650	0.002089	0.006577	6079.421229	42754.385051	3775.466254	22541.811374
93.549000	-0.000674	-0.010758	0.004795	0.000869	6138.112393	43179.778384	3795.288099	22803.271920
94.036000	0.002278	-0.010430	0.005230	0.001534	6155.784166	43148.449821	3794.740839	22772.610012
94.535500	0.001006	-0.010402	0.005687	0.001533	6145.952823	43151.204772	3795.831761	22772.671556
95.039000	-0.003090	-0.010195	0.005100	0.007141	6071.824482	42652.499584	3781.191055	22516.143210
95.536500	0.000791	-0.009917	0.004141	0.002130	6139.686892	43140.775046	3790.742355	22745.195732
96.036500	-0.001179	-0.010939	0.005565	0.001612	6128.514999	43094.008823	3795.353546	22769.052617
