sample name	sample
index	1477
start time	 05-18-2021  12:24:01 PM


Wavelength (nm)	Absorbance
494.344910	0.037655
494.563924	0.037655
494.782919	0.037655
495.001897	-0.148262
495.220856	0.015781
495.439797	0.031278
495.658719	0.026094
495.877624	0.014479
496.096510	0.018350
496.315378	0.009402
496.534227	-0.020647
496.753059	-0.006364
496.971872	-0.005221
497.190667	0.020156
497.409444	0.026773
497.628203	0.028623
497.846943	0.030724
498.065665	0.032350
498.284369	0.032747
498.503055	0.033707
498.721723	0.032892
498.940372	0.033357
499.159003	0.034918
499.377616	0.033395
499.596210	0.034383
499.814787	0.035141
500.033345	0.034836
500.251885	0.034690
500.470406	0.034080
500.688910	0.034562
500.907395	0.033970
501.125862	0.032546
501.344311	0.033875
501.562742	0.033238
501.781154	0.033029
501.999548	0.032978
502.217924	0.033877
502.436282	0.033619
502.654621	0.033761
502.872942	0.033532
503.091245	0.033957
503.309530	0.033990
503.527797	0.033391
503.746045	0.032439
503.964275	0.032341
504.182487	0.033132
504.400681	0.033530
504.618856	0.033073
504.837013	0.033864
505.055152	0.033253
505.273273	0.033268
505.491376	0.033425
505.709460	0.033749
505.927526	0.033699
506.145574	0.031911
506.363604	0.031220
506.581615	0.031344
506.799608	0.031083
507.017583	0.031667
507.235540	0.031662
507.453478	0.031541
507.671399	0.030591
507.889301	0.030652
508.107185	0.031114
508.325050	0.031619
508.542898	0.031620
508.760727	0.031850
508.978538	0.031918
509.196330	0.031217
509.414105	0.031963
509.631861	0.032826
509.849599	0.033389
510.067319	0.033178
510.285021	0.034071
510.502704	0.034153
510.720369	0.033745
510.938016	0.034081
511.155645	0.034594
511.373255	0.033895
511.590848	0.033862
511.808422	0.033306
512.025977	0.033116
512.243515	0.032010
512.461034	0.031920
512.678536	0.032184
512.896018	0.031547
513.113483	0.031631
513.330930	0.032180
513.548358	0.031679
513.765768	0.031671
513.983160	0.032246
514.200533	0.032297
514.417889	0.031822
514.635226	0.031126
514.852545	0.031030
515.069845	0.031336
515.287128	0.030856
515.504392	0.031262
515.721638	0.031431
515.938866	0.030104
516.156075	0.029446
516.373267	0.029711
516.590440	0.030258
516.807594	0.030132
517.024731	0.029003
517.241850	0.029033
517.458950	0.028526
517.676032	0.028414
517.893095	0.028895
518.110141	0.029873
518.327168	0.030342
518.544177	0.030510
518.761168	0.030694
518.978141	0.031461
519.195095	0.031041
519.412031	0.031456
519.628949	0.031388
519.845849	0.032129
520.062731	0.032116
520.279594	0.032002
520.496439	0.031321
520.713266	0.031298
520.930074	0.030837
521.146865	0.030945
521.363637	0.030473
521.580391	0.030307
521.797127	0.029526
522.013844	0.029282
522.230543	0.028628
522.447224	0.029143
522.663887	0.028932
522.880532	0.029743
523.097158	0.030547
523.313766	0.030836
523.530356	0.031018
523.746928	0.032070
523.963481	0.031890
524.180017	0.032692
524.396534	0.032898
524.613032	0.032999
524.829513	0.032505
525.045975	0.031974
525.262420	0.032169
525.478845	0.032130
525.695253	0.031431
525.911643	0.031466
526.128014	0.031813
526.344367	0.031473
526.560702	0.031503
526.777018	0.031439
526.993316	0.031382
527.209597	0.030448
527.425858	0.030206
527.642102	0.030366
527.858328	0.030540
528.074535	0.029764
528.290724	0.029921
528.506894	0.030032
528.723047	0.029868
528.939181	0.029125
529.155297	0.030420
529.371395	0.030638
529.587475	0.030358
529.803536	0.030289
530.019579	0.030316
530.235604	0.030030
530.451611	0.030263
530.667600	0.030615
530.883570	0.031565
531.099522	0.031018
531.315456	0.030681
531.531372	0.030980
531.747269	0.030766
531.963148	0.030760
532.179009	0.030521
532.394852	0.030435
532.610676	0.030831
532.826482	0.030362
533.042271	0.030858
533.258040	0.031171
533.473792	0.031356
533.689525	0.031437
533.905240	0.031480
534.120937	0.032080
534.336616	0.031994
534.552277	0.031844
534.767919	0.032550
534.983543	0.032345
535.199149	0.032370
535.414736	0.032320
535.630306	0.032874
535.845857	0.033639
536.061390	0.033914
536.276904	0.033965
536.492401	0.033956
536.707879	0.033226
536.923339	0.033187
537.138781	0.033253
537.354204	0.032800
537.569610	0.032788
537.784997	0.032292
538.000366	0.032206
538.215716	0.032092
538.431049	0.031569
538.646363	0.032220
538.861659	0.031707
539.076937	0.032142
539.292196	0.032433
539.507438	0.032541
539.722661	0.032779
539.937866	0.032494
540.153052	0.032551
540.368221	0.032986
540.583371	0.032887
540.798503	0.033823
541.013617	0.033796
541.228712	0.034160
541.443789	0.034340
541.658848	0.034257
541.873889	0.034682
542.088912	0.035164
542.303916	0.035223
542.518902	0.035532
542.733870	0.035409
542.948820	0.035400
543.163752	0.035602
543.378665	0.035613
543.593560	0.035729
543.808437	0.035653
544.023295	0.035581
544.238136	0.035705
544.452958	0.035640
544.667762	0.035676
544.882548	0.035854
545.097315	0.035677
545.312064	0.035552
545.526795	0.035602
545.741508	0.035976
545.956203	0.035812
546.170879	0.035897
546.385537	0.035840
546.600177	0.035622
546.814799	0.035807
547.029402	0.036120
547.243988	0.036420
547.458555	0.036804
547.673103	0.036557
547.887634	0.036804
548.102146	0.036795
548.316640	0.037059
548.531116	0.037408
548.745574	0.037382
548.960013	0.037495
549.174435	0.037125
549.388838	0.036988
549.603222	0.037082
549.817589	0.037253
550.031937	0.037251
550.246267	0.037351
550.460579	0.037509
550.674873	0.037545
550.889148	0.037399
551.103405	0.037510
551.317644	0.037418
551.531865	0.037286
551.746068	0.037171
551.960252	0.037286
552.174418	0.037330
552.388566	0.037402
552.602696	0.037365
552.816807	0.037411
553.030900	0.037625
553.244975	0.037937
553.459032	0.037896
553.673070	0.038188
553.887091	0.038454
554.101093	0.038629
554.315077	0.038872
554.529042	0.038827
554.742990	0.038926
554.956919	0.038545
555.170830	0.038467
555.384722	0.038918
555.598597	0.038743
555.812453	0.038870
556.026291	0.038918
556.240111	0.038572
556.453913	0.039227
556.667696	0.039220
556.881461	0.039696
557.095208	0.039997
557.308937	0.040065
557.522647	0.040362
557.736339	0.040322
557.950013	0.040265
558.163669	0.040247
558.377307	0.040010
558.590926	0.040404
558.804527	0.040740
559.018110	0.040736
559.231675	0.040498
559.445221	0.040326
559.658749	0.040546
559.872259	0.040605
560.085751	0.040949
560.299225	0.040768
560.512680	0.040705
560.726117	0.040614
560.939536	0.040705
561.152937	0.040722
561.366319	0.041184
561.579683	0.040911
561.793029	0.041037
562.006357	0.040970
562.219667	0.040983
562.432958	0.040930
562.646231	0.040966
562.859486	0.040798
563.072723	0.041188
563.285941	0.040989
563.499141	0.041606
563.712323	0.041926
563.925487	0.042266
564.138632	0.042468
564.351760	0.042494
564.564869	0.042409
564.777960	0.042380
564.991032	0.042333
565.204087	0.042324
565.417123	0.041913
565.630141	0.042162
565.843140	0.041942
566.056122	0.042098
566.269085	0.042467
566.482030	0.042719
566.694957	0.042933
566.907866	0.043197
567.120756	0.043449
567.333628	0.043438
567.546482	0.042734
567.759318	0.043049
567.972135	0.043307
568.184935	0.043117
568.397716	0.043168
568.610478	0.043258
568.823223	0.043199
569.035949	0.043064
569.248657	0.043299
569.461347	0.043627
569.674019	0.043628
569.886672	0.043592
570.099308	0.043780
570.311925	0.043695
570.524523	0.043730
570.737104	0.043965
570.949666	0.043991
571.162210	0.044000
571.374736	0.044159
571.587244	0.044169
571.799733	0.044191
572.012205	0.044096
572.224658	0.044319
572.437092	0.044424
572.649509	0.044281
572.861907	0.044635
573.074287	0.044449
573.286649	0.044489
573.498993	0.044844
573.711318	0.044988
573.923625	0.045253
574.135914	0.045385
574.348185	0.045442
574.560438	0.045457
574.772672	0.045505
574.984888	0.046151
575.197086	0.046140
575.409266	0.045759
575.621427	0.046216
575.833570	0.046195
576.045695	0.046043
576.257802	0.046094
576.469890	0.046304
576.681961	0.046177
576.894013	0.045962
577.106046	0.046242
577.318062	0.046741
577.530059	0.046174
577.742039	0.046422
577.954000	0.046767
578.165942	0.046840
578.377867	0.047108
578.589773	0.047297
578.801661	0.047577
579.013531	0.047489
579.225382	0.047290
579.437216	0.047431
579.649031	0.047475
579.860828	0.047350
580.072606	0.047271
580.284367	0.047098
580.496109	0.047179
580.707833	0.046911
580.919539	0.047025
581.131227	0.047375
581.342896	0.047296
581.554547	0.047141
581.766180	0.047009
581.977795	0.047162
582.189391	0.047176
582.400969	0.047225
582.612529	0.047513
582.824071	0.047829
583.035595	0.047883
583.247100	0.048225
583.458587	0.048517
583.670056	0.048684
583.881506	0.048826
584.092939	0.049044
584.304353	0.049061
584.515749	0.049251
584.727127	0.049443
584.938486	0.049146
585.149828	0.048939
585.361151	0.048922
585.572456	0.049093
585.783742	0.049160
585.995011	0.049245
586.206261	0.049377
586.417493	0.049405
586.628706	0.049226
586.839902	0.049461
587.051079	0.049768
587.262238	0.049573
587.473379	0.049564
587.684502	0.050064
587.895606	0.049909
588.106692	0.050038
588.317760	0.050167
588.528810	0.050136
588.739841	0.050257
588.950855	0.050333
589.161850	0.050538
589.372827	0.050770
589.583785	0.050624
589.794726	0.050867
590.005648	0.050793
590.216552	0.050917
590.427437	0.051015
590.638305	0.050857
590.849154	0.051017
591.059985	0.051190
591.270798	0.051452
591.481592	0.051553
591.692369	0.051671
591.903127	0.051776
592.113867	0.051530
592.324588	0.051639
592.535292	0.051817
592.745977	0.051792
592.956644	0.051801
593.167293	0.051675
593.377923	0.051454
593.588536	0.051627
593.799130	0.051805
594.009706	0.051986
594.220263	0.052063
594.430803	0.052571
594.641324	0.052591
594.851827	0.052728
595.062312	0.052951
595.272778	0.053407
595.483227	0.053280
595.693657	0.053177
595.904069	0.053265
596.114462	0.053195
596.324838	0.052953
596.535195	0.052864
596.745534	0.053197
596.955855	0.053277
597.166157	0.053142
597.376441	0.053450
597.586707	0.053468
597.796955	0.053551
598.007185	0.053742
598.217396	0.053738
598.427589	0.053887
598.637764	0.053750
598.847921	0.053675
599.058060	0.053894
599.268180	0.054108
599.478282	0.054452
599.688366	0.054481
599.898431	0.054488
600.108479	0.054521
600.318508	0.054603
600.528519	0.054316
600.738511	0.054166
600.948486	0.054020
601.158442	0.053692
601.368380	0.053563
601.578300	0.053430
601.788202	0.053579
601.998085	0.053627
602.207950	0.053764
602.417797	0.053883
602.627626	0.054031
602.837436	0.054291
603.047228	0.054479
603.257002	0.054475
603.466758	0.054903
603.676496	0.055147
603.886215	0.055440
604.095916	0.055544
604.305599	0.055396
604.515264	0.055438
604.724910	0.055242
604.934538	0.055178
605.144148	0.055292
605.353740	0.055103
605.563314	0.055013
605.772869	0.054767
605.982406	0.054877
606.191925	0.055344
606.401425	0.055613
606.610908	0.055779
606.820372	0.055887
607.029818	0.056113
607.239246	0.056356
607.448655	0.056443
607.658047	0.056582
607.867420	0.056496
608.076775	0.056441
608.286111	0.056168
608.495430	0.056213
608.704730	0.056221
608.914012	0.056242
609.123275	0.056275
609.332521	0.056218
609.541748	0.056191
609.750957	0.056208
609.960148	0.056232
610.169321	0.056591
610.378475	0.056255
610.587611	0.056416
610.796729	0.056309
611.005829	0.056173
611.214910	0.056215
611.423974	0.056374
611.633019	0.056435
611.842045	0.056621
612.051054	0.056716
612.260044	0.057057
612.469017	0.057107
612.677970	0.057287
612.886906	0.057415
613.095824	0.057441
613.304723	0.057557
613.513604	0.057662
613.722467	0.057634
613.931311	0.057534
614.140138	0.057716
614.348946	0.057575
614.557736	0.057418
614.766507	0.057367
614.975261	0.057379
615.183996	0.057364
615.392713	0.057301
615.601412	0.057444
615.810092	0.057475
616.018754	0.057411
616.227399	0.057521
616.436024	0.057616
616.644632	0.057623
616.853222	0.057483
617.061793	0.057424
617.270346	0.057400
617.478880	0.057182
617.687397	0.057392
617.895895	0.057546
618.104375	0.057497
618.312837	0.057687
618.521281	0.057772
618.729706	0.057840
618.938113	0.057954
619.146502	0.058173
619.354873	0.058322
619.563226	0.058306
619.771560	0.058484
619.979876	0.058652
620.188174	0.058823
620.396453	0.059026
620.604715	0.059038
620.812958	0.059217
621.021183	0.059238
621.229390	0.059385
621.437578	0.059268
621.645748	0.058932
621.853900	0.058921
622.062034	0.058941
622.270150	0.058863
622.478247	0.059074
622.686326	0.059124
622.894387	0.059126
623.102430	0.059071
623.310454	0.059151
623.518461	0.059303
623.726449	0.059529
623.934418	0.059385
624.142370	0.059454
624.350303	0.059460
624.558218	0.059441
624.766115	0.059443
624.973994	0.059537
625.181855	0.059804
625.389697	0.059849
625.597521	0.059697
625.805327	0.059973
626.013114	0.060069
626.220883	0.060267
626.428634	0.060235
626.636367	0.060458
626.844082	0.060615
627.051778	0.060657
627.259457	0.060593
627.467117	0.061096
627.674758	0.061081
627.882382	0.061196
628.089987	0.061500
628.297574	0.061708
628.505143	0.061946
628.712694	0.062143
628.920226	0.062091
629.127740	0.062426
629.335236	0.062220
629.542714	0.062319
629.750174	0.062323
629.957615	0.062147
630.165038	0.062291
630.372443	0.062241
630.579829	0.062136
630.787198	0.062138
630.994548	0.062186
631.201880	0.062227
631.409194	0.062226
631.616489	0.062430
631.823766	0.062429
632.031025	0.062344
632.238266	0.062398
632.445489	0.062374
632.652693	0.062601
632.859879	0.062885
633.067047	0.062844
633.274197	0.062961
633.481329	0.062955
633.688442	0.063001
633.895537	0.063077
634.102614	0.063135
634.309672	0.063477
634.516713	0.063668
634.723735	0.063332
634.930739	0.063581
635.137724	0.063484
635.344692	0.063321
635.551641	0.063518
635.758572	0.063577
635.965485	0.063536
636.172379	0.063446
636.379256	0.063244
636.586114	0.063426
636.792954	0.063377
636.999775	0.063688
637.206579	0.063857
637.413364	0.063588
637.620131	0.063654
637.826880	0.063588
638.033610	0.063462
638.240323	0.063697
638.447017	0.063665
638.653692	0.063796
638.860350	0.063717
639.066990	0.063869
639.273611	0.064200
639.480214	0.064282
639.686798	0.064379
639.893365	0.064656
640.099913	0.064564
640.306443	0.064795
640.512955	0.064715
640.719449	0.064852
640.925924	0.064923
641.132381	0.064983
641.338820	0.064834
641.545241	0.064949
641.751644	0.064967
641.958028	0.065087
642.164394	0.064954
642.370742	0.064870
642.577071	0.064943
642.783383	0.064906
642.989676	0.065000
643.195951	0.065252
643.402207	0.065238
643.608446	0.065325
643.814666	0.065358
644.020868	0.065455
644.227052	0.065808
644.433218	0.065594
644.639365	0.065654
644.845494	0.065649
645.051605	0.065583
645.257698	0.065782
645.463772	0.065705
645.669828	0.065838
645.875866	0.065782
646.081886	0.065788
646.287888	0.066036
646.493871	0.066126
646.699836	0.066189
646.905783	0.066245
647.111712	0.066360
647.317622	0.066607
647.523514	0.066637
647.729388	0.066954
647.935244	0.067175
648.141082	0.067275
648.346901	0.067349
648.552702	0.067599
648.758485	0.067958
648.964250	0.068145
649.169996	0.068226
649.375724	0.068227
649.581434	0.068396
649.787126	0.068328
649.992800	0.068487
650.198455	0.068812
650.404092	0.068702
650.609711	0.068808
650.815311	0.068862
651.020894	0.069011
651.226458	0.069200
651.432004	0.069273
651.637532	0.069472
651.843041	0.069724
652.048532	0.069668
652.254006	0.069727
652.459460	0.069929
652.664897	0.069930
652.870315	0.069958
653.075716	0.070098
653.281097	0.069972
653.486461	0.070095
653.691807	0.070048
653.897134	0.070153
654.102443	0.070450
654.307734	0.070366
654.513006	0.070478
654.718261	0.070520
654.923497	0.070716
655.128715	0.071043
655.333915	0.071203
655.539096	0.071273
655.744259	0.071403
655.949404	0.071475
656.154531	0.071522
656.359640	0.071613
656.564730	0.071686
656.769802	0.071741
656.974856	0.071813
657.179892	0.071842
657.384909	0.071806
657.589908	0.071616
657.794889	0.071638
657.999852	0.071849
658.204797	0.072109
658.409723	0.072352
658.614631	0.072369
658.819521	0.072410
659.024393	0.072544
659.229246	0.072758
659.434081	0.073163
659.638898	0.073217
659.843697	0.073303
660.048478	0.073294
660.253240	0.073359
660.457984	0.073415
660.662710	0.073602
660.867417	0.073764
661.072107	0.073531
661.276778	0.073523
661.481431	0.073500
661.686066	0.073456
661.890682	0.073428
662.095281	0.073322
662.299861	0.073143
662.504422	0.073011
662.708966	0.072957
662.913491	0.073075
663.117999	0.073177
663.322488	0.073557
663.526958	0.073573
663.731411	0.073495
663.935845	0.073622
664.140261	0.073848
664.344659	0.073908
664.549038	0.073787
664.753400	0.073961
664.957743	0.073989
665.162068	0.073809
665.366375	0.073761
665.570663	0.073967
665.774933	0.073926
665.979185	0.073811
666.183419	0.073725
666.387635	0.073870
666.591832	0.073954
666.796011	0.073987
667.000172	0.074231
667.204315	0.074388
667.408439	0.074453
667.612545	0.074494
667.816634	0.074700
668.020703	0.074867
668.224755	0.074860
668.428788	0.074956
668.632803	0.075016
668.836800	0.075010
669.040779	0.075089
669.244739	0.075082
669.448681	0.075434
669.652605	0.075621
669.856511	0.075761
670.060399	0.075950
670.264268	0.075971
670.468119	0.076156
670.671952	0.076221
670.875767	0.076430
671.079563	0.076810
671.283341	0.076741
671.487101	0.076918
671.690843	0.076980
671.894567	0.077239
672.098272	0.077400
672.301959	0.077475
672.505628	0.077642
672.709278	0.077611
672.912911	0.077593
673.116525	0.077703
673.320121	0.077968
673.523699	0.078311
673.727258	0.078247
673.930799	0.078334
674.134322	0.078455
674.337827	0.078473
674.541314	0.078478
674.744782	0.078441
674.948232	0.078472
675.151664	0.078308
675.355078	0.078240
675.558474	0.078165
675.761851	0.078219
675.965210	0.078125
676.168551	0.078111
676.371873	0.078420
676.575178	0.078578
676.778464	0.078705
676.981732	0.078716
677.184981	0.078732
677.388213	0.078969
677.591426	0.079074
677.794621	0.079241
677.997798	0.079424
678.200956	0.079443
678.404097	0.079433
678.607219	0.079524
678.810323	0.079784
679.013408	0.080047
679.216476	0.080076
679.419525	0.080009
679.622556	0.080086
679.825569	0.080430
680.028563	0.080452
680.231540	0.080583
680.434498	0.080637
680.637438	0.080657
680.840359	0.080749
681.043263	0.080839
681.246148	0.081012
681.449015	0.081154
681.651864	0.081105
681.854694	0.081332
682.057506	0.081342
682.260301	0.081494
682.463076	0.081619
682.665834	0.081634
682.868573	0.081633
683.071295	0.081802
683.273998	0.081802
683.476682	0.081805
683.679349	0.081767
683.881997	0.082057
684.084627	0.082195
684.287239	0.082131
684.489833	0.081994
684.692408	0.082153
684.894965	0.082191
685.097504	0.082100
685.300025	0.082052
685.502527	0.082249
685.705012	0.082245
685.907478	0.082260
686.109925	0.082334
686.312355	0.082583
686.514766	0.082584
686.717159	0.082760
686.919534	0.083015
687.121891	0.083176
687.324230	0.083063
687.526550	0.083144
687.728852	0.083386
687.931136	0.083595
688.133401	0.083754
688.335649	0.083870
688.537878	0.083843
688.740089	0.084120
688.942281	0.084116
689.144456	0.084256
689.346612	0.084362
689.548750	0.084242
689.750870	0.084434
689.952971	0.084419
690.155055	0.084501
690.357120	0.084516
690.559167	0.084460
690.761195	0.084662
690.963206	0.084813
691.165198	0.084909
691.367172	0.085145
691.569128	0.084969
691.771065	0.085126
691.972984	0.085282
692.174885	0.085401
692.376768	0.085546
692.578633	0.085590
692.780479	0.085560
692.982308	0.085609
693.184118	0.085451
693.385909	0.085572
693.587683	0.085485
693.789438	0.085482
693.991175	0.085641
694.192894	0.085674
694.394595	0.085630
694.596277	0.085714
694.797941	0.085452
694.999587	0.085456
695.201215	0.085411
695.402824	0.085484
695.604416	0.085546
695.805989	0.085659
696.007543	0.085591
696.209080	0.085518
696.410598	0.085367
696.612099	0.085544
696.813580	0.085542
697.015044	0.085588
697.216490	0.085598
697.417917	0.085468
697.619326	0.085515
697.820717	0.085444
698.022089	0.085578
698.223444	0.085708
698.424780	0.085859
698.626098	0.086107
698.827397	0.086061
699.028679	0.086179
699.229942	0.086191
699.431187	0.086024
699.632414	0.086062
699.833622	0.086235
700.034813	0.086255
700.235985	0.086226
700.437139	0.086056
700.638274	0.086241
700.839392	0.086285
701.040491	0.086503
701.241572	0.086668
701.442635	0.086787
701.643679	0.086699
701.844706	0.086815
702.045714	0.086856
702.246704	0.086981
702.447675	0.087047
702.648629	0.086910
702.849564	0.086801
703.050481	0.086747
703.251380	0.086654
703.452260	0.086642
703.653122	0.086812
703.853966	0.086666
704.054792	0.086718
704.255600	0.086465
704.456389	0.086585
704.657160	0.086718
704.857913	0.086651
705.058648	0.086851
705.259365	0.086977
705.460063	0.086820
705.660743	0.086966
705.861405	0.086927
706.062048	0.087393
706.262674	0.087534
706.463281	0.087509
706.663870	0.087525
706.864441	0.087534
707.064993	0.087622
707.265527	0.087665
707.466043	0.087784
707.666541	0.087772
707.867021	0.087608
708.067482	0.087518
708.267925	0.087750
708.468350	0.087961
708.668757	0.087868
708.869145	0.087959
709.069516	0.088141
709.269868	0.088216
709.470201	0.088251
709.670517	0.088188
709.870814	0.088284
710.071093	0.088163
710.271354	0.088108
710.471597	0.088386
710.671821	0.088257
710.872028	0.087994
711.072216	0.088014
711.272385	0.088105
711.472537	0.088129
711.672670	0.087905
711.872785	0.087783
712.072882	0.087723
712.272961	0.087275
712.473021	0.087263
712.673063	0.087253
712.873087	0.087137
713.073093	0.087053
713.273081	0.086953
713.473050	0.086886
713.673001	0.086945
713.872934	0.087044
714.072849	0.087282
714.272745	0.087326
714.472623	0.087342
714.672483	0.087186
714.872325	0.087201
715.072148	0.087119
715.271954	0.087247
715.471741	0.087126
715.671509	0.087031
715.871260	0.086988
716.070992	0.086823
716.270707	0.086654
716.470403	0.086607
716.670080	0.086530
716.869740	0.086542
717.069381	0.086326
717.269004	0.086369
717.468609	0.085964
717.668195	0.085814
717.867764	0.085661
718.067314	0.085539
718.266846	0.085466
718.466360	0.085289
718.665855	0.085304
718.865332	0.085384
719.064791	0.085310
719.264232	0.085667
719.463655	0.085793
719.663059	0.085828
719.862445	0.085981
720.061813	0.086168
720.261163	0.086248
720.460494	0.085924
720.659807	0.085719
720.859102	0.085633
721.058379	0.085482
721.257638	0.085342
721.456878	0.085167
721.656100	0.085175
721.855304	0.085027
722.054490	0.084993
722.253657	0.085095
722.452806	0.085273
722.651937	0.085263
722.851050	0.085113
723.050145	0.085135
723.249221	0.085234
723.448279	0.085248
723.647319	0.085143
723.846340	0.085076
724.045344	0.085201
724.244329	0.085282
724.443296	0.085161
724.642245	0.085153
724.841175	0.085010
725.040088	0.084990
725.238982	0.085007
725.437857	0.084948
725.636715	0.084910
725.835554	0.084751
726.034376	0.084419
726.233179	0.084436
726.431963	0.084331
726.630730	0.084268
726.829478	0.084136
727.028208	0.084055
727.226920	0.084127
727.425614	0.084135
727.624289	0.083897
727.822946	0.084087
728.021585	0.084066
728.220206	0.084014
728.418808	0.083943
728.617392	0.083910
728.815958	0.083633
729.014506	0.083587
729.213036	0.083499
729.411547	0.083654
729.610040	0.083407
729.808515	0.083277
730.006972	0.083355
730.205410	0.083295
730.403831	0.083226
730.602233	0.083375
730.800616	0.083142
730.998982	0.083124
731.197329	0.083105
731.395658	0.083069
731.593969	0.083030
731.792262	0.082939
731.990536	0.082800
732.188793	0.082675
732.387031	0.082337
732.585250	0.082146
732.783452	0.081733
732.981635	0.081467
733.179800	0.081249
733.377947	0.081224
733.576076	0.080923
733.774186	0.080893
733.972278	0.080782
734.170352	0.080735
734.368408	0.080565
734.566446	0.080581
734.764465	0.080626
734.962466	0.080566
735.160449	0.080287
735.358413	0.080235
735.556360	0.080154
735.754288	0.079995
735.952198	0.079716
736.150090	0.079900
736.347963	0.079920
736.545818	0.079789
736.743655	0.079623
736.941474	0.079504
737.139275	0.079434
737.337057	0.079063
737.534821	0.079012
737.732567	0.078979
737.930295	0.078732
738.128005	0.078742
738.325696	0.078395
738.523369	0.078163
738.721024	0.078067
738.918660	0.077904
739.116279	0.078063
739.313879	0.077886
739.511461	0.077951
739.709024	0.077733
739.906570	0.077594
740.104097	0.077584
740.301606	0.077694
740.499097	0.077735
740.696569	0.077767
740.894024	0.077831
741.091460	0.077789
741.288878	0.077711
741.486277	0.077837
741.683659	0.077712
741.881022	0.077825
742.078367	0.077983
742.275694	0.078021
742.473002	0.077893
742.670293	0.077688
742.867565	0.077825
743.064819	0.077818
743.262054	0.077908
743.459272	0.077821
743.656471	0.077624
743.853652	0.077412
744.050815	0.077320
744.247959	0.077341
744.445085	0.077235
744.642194	0.077207
744.839283	0.077210
745.036355	0.076825
745.233408	0.076880
745.430444	0.076852
745.627461	0.076763
745.824459	0.076685
746.021440	0.076739
746.218402	0.076881
746.415346	0.076610
746.612272	0.076614
746.809180	0.076677
747.006069	0.076391
747.202940	0.076397
747.399793	0.076500
747.596628	0.076549
747.793444	0.076305
747.990243	0.076161
748.187023	0.076292
748.383784	0.076214
748.580528	0.076258
748.777253	0.076318
748.973960	0.076297
749.170649	0.076224
749.367320	0.076066
749.563973	0.076035
749.760607	0.075963
749.957223	0.075934
750.153821	0.075700
750.350400	0.075586
750.546962	0.075383
750.743505	0.075373
750.940030	0.075115
751.136536	0.074950
751.333025	0.075081
751.529495	0.074758
751.725947	0.074614
751.922381	0.074454
752.118796	0.074370
752.315194	0.074525
752.511573	0.074476
752.707934	0.074410
752.904276	0.074288
753.100601	0.073864
753.296907	0.073815
753.493195	0.073399
753.689465	0.073464
753.885716	0.073690
754.081949	0.073493
754.278164	0.073322
754.474361	0.073444
754.670540	0.073363
754.866700	0.073622
755.062843	0.073761
755.258967	0.074086
755.455072	0.074079
755.651160	0.073929
755.847229	0.074057
756.043280	0.074175
756.239313	0.073935
756.435328	0.074319
756.631324	0.074345
756.827302	0.074441
757.023262	0.074377
757.219204	0.074430
757.415127	0.074277
757.611033	0.074019
757.806920	0.073971
758.002788	0.073814
758.198639	0.073267
758.394471	0.073059
758.590286	0.072778
758.786081	0.072482
758.981859	0.072061
759.177619	0.071842
759.373360	0.071809
759.569083	0.071606
759.764788	0.071649
759.960474	0.071577
760.156143	0.071485
760.351793	0.071512
760.547425	0.071422
760.743038	0.071554
760.938634	0.071522
761.134211	0.071324
761.329770	0.071067
761.525311	0.071047
761.720833	0.070915
761.916338	0.070628
762.111824	0.070326
762.307292	0.070268
762.502741	0.070012
762.698173	0.069753
762.893586	0.069790
763.088981	0.069826
763.284358	0.069656
763.479716	0.069622
763.675057	0.069521
763.870379	0.069513
764.065683	0.069652
764.260968	0.069619
764.456236	0.069787
764.651485	0.069719
764.846716	0.069556
765.041929	0.069503
765.237123	0.069546
765.432299	0.069755
765.627457	0.069727
765.822597	0.069764
766.017719	0.069752
766.212822	0.069566
766.407907	0.069442
766.602974	0.069648
766.798023	0.069757
766.993054	0.069951
767.188066	0.069782
767.383060	0.069991
767.578036	0.069821
767.772993	0.069702
767.967933	0.069815
768.162854	0.070033
768.357757	0.069853
768.552642	0.069667
768.747508	0.069408
768.942356	0.069541
769.137186	0.069457
769.331998	0.069327
769.526792	0.069497
769.721567	0.069566
769.916324	0.069508
770.111063	0.069469
770.305784	0.069705
770.500486	0.069670
770.695171	0.069514
770.889837	0.069549
771.084484	0.069759
771.279114	0.069778
771.473725	0.069631
771.668318	0.069507
771.862893	0.069775
772.057450	0.069492
772.251988	0.069408
772.446509	0.069522
772.641011	0.069245
772.835494	0.069187
773.029960	0.069192
773.224407	0.069187
773.418836	0.069217
773.613247	0.069127
773.807640	0.069283
774.002014	0.069402
774.196370	0.069549
774.390708	0.069629
774.585028	0.069503
774.779330	0.069460
774.973613	0.069479
775.167878	0.069425
775.362125	0.069170
775.556354	0.069031
775.750564	0.068884
775.944756	0.068571
776.138930	0.068669
776.333086	0.068686
776.527223	0.068549
776.721343	0.068587
776.915444	0.068607
777.109526	0.068651
777.303591	0.068923
777.497637	0.069050
777.691666	0.069203
777.885676	0.069171
778.079667	0.069325
778.273641	0.069472
778.467596	0.069531
778.661533	0.069542
778.855452	0.069821
779.049352	0.069624
779.243235	0.069837
779.437099	0.069940
779.630945	0.070063
779.824773	0.069885
780.018582	0.070085
780.212373	0.070168
780.406146	0.070333
780.599901	0.070298
780.793638	0.070615
780.987356	0.070516
781.181056	0.070569
781.374738	0.070513
781.568402	0.070658
781.762047	0.070526
781.955674	0.070517
782.149283	0.070422
782.342874	0.070273
782.536447	0.069901
782.730001	0.070043
782.923537	0.069960
783.117055	0.069859
783.310555	0.069864
783.504036	0.069850
783.697499	0.069808
783.890944	0.069794
784.084371	0.069815
784.277780	0.070117
784.471170	0.070089
784.664542	0.069979
784.857896	0.069995
785.051231	0.070086
785.244549	0.070180
785.437848	0.070220
785.631129	0.070280
785.824392	0.070368
786.017636	0.070380
786.210863	0.070602
786.404071	0.070818
786.597260	0.071204
786.790432	0.071154
786.983585	0.071177
787.176721	0.070977
787.369838	0.071141
787.562936	0.071347
787.756017	0.071458
787.949079	0.071130
788.142123	0.071047
788.335149	0.070748
788.528156	0.070897
788.721146	0.070929
788.914117	0.071105
789.107070	0.071185
789.300005	0.071211
789.492921	0.071249
789.685819	0.071333
789.878699	0.071549
790.071561	0.071578
790.264405	0.071435
790.457230	0.071489
790.650037	0.071884
790.842826	0.071917
791.035597	0.071935
791.228349	0.071925
791.421084	0.072402
791.613800	0.072456
791.806497	0.072722
791.999177	0.072961
792.191838	0.073211
792.384481	0.073177
792.577106	0.073379
792.769713	0.073438
792.962301	0.073424
793.154871	0.073124
793.347423	0.073118
793.539957	0.073240
793.732473	0.073187
793.924970	0.073189
794.117449	0.073263
794.309910	0.073215
794.502353	0.073429
794.694777	0.073827
794.887183	0.073959
795.079571	0.074203
795.271941	0.074198
795.464293	0.074502
795.656626	0.074621
795.848941	0.074600
796.041238	0.074533
796.233516	0.074661
796.425777	0.074563
796.618019	0.074742
796.810243	0.074791
797.002449	0.074959
797.194636	0.075013
797.386805	0.075108
797.578956	0.075317
797.771089	0.075526
797.963204	0.075251
798.155300	0.075288
798.347378	0.075339
798.539438	0.075296
798.731480	0.075386
798.923503	0.075569
799.115509	0.075727
799.307496	0.075896
799.499465	0.075934
799.691415	0.076126
799.883348	0.076193
800.075262	0.076299
800.267158	0.076336
800.459035	0.076440
800.650895	0.076302
800.842736	0.076311
801.034559	0.076369
801.226364	0.076548
801.418150	0.076658
801.609919	0.076909
801.801669	0.076992
801.993401	0.077287
802.185114	0.077370
802.376810	0.077612
802.568487	0.077743
802.760146	0.077533
802.951787	0.077503
803.143409	0.077662
803.335014	0.077864
803.526600	0.078036
803.718168	0.078146
803.909717	0.078115
804.101249	0.078148
804.292762	0.078310
804.484257	0.078702
804.675734	0.078958
804.867192	0.079216
805.058632	0.079214
805.250054	0.079394
805.441458	0.079596
805.632844	0.079955
805.824211	0.080202
806.015561	0.080245
806.206891	0.080279
806.398204	0.080349
806.589499	0.080386
806.780775	0.080488
806.972033	0.080421
807.163273	0.080495
807.354495	0.080620
807.545698	0.080632
807.736883	0.080787
807.928050	0.080880
808.119199	0.081131
808.310329	0.081321
808.501441	0.081408
808.692535	0.081660
808.883611	0.081895
809.074669	0.082072
809.265708	0.082208
809.456729	0.082400
809.647732	0.082743
809.838717	0.082775
810.029683	0.082957
810.220632	0.083199
810.411562	0.083643
810.602474	0.083591
810.793367	0.083592
810.984242	0.083895
811.175100	0.083872
811.365938	0.083954
811.556759	0.084130
811.747562	0.084028
811.938346	0.084162
812.129112	0.084265
812.319860	0.084646
812.510589	0.084990
812.701300	0.085091
812.891994	0.085339
813.082668	0.085498
813.273325	0.085842
813.463964	0.086147
813.654584	0.086374
813.845186	0.086406
814.035769	0.086772
814.226335	0.086601
814.416882	0.086597
814.607411	0.086838
814.797922	0.087022
814.988415	0.087048
815.178889	0.087168
815.369345	0.087216
815.559783	0.087238
815.750203	0.087151
815.940605	0.087366
816.130988	0.087580
816.321353	0.087461
816.511700	0.087575
816.702028	0.087655
816.892339	0.087831
817.082631	0.087926
817.272905	0.088046
817.463161	0.088082
817.653398	0.088412
817.843617	0.088619
818.033819	0.089019
818.224001	0.089098
818.414166	0.089172
818.604312	0.089182
818.794440	0.089216
818.984550	0.089380
819.174642	0.089643
819.364716	0.089634
819.554771	0.089588
819.744808	0.089644
819.934827	0.089670
820.124827	0.089820
820.314810	0.090181
820.504774	0.090557
820.694720	0.090794
820.884647	0.090663
821.074557	0.090927
821.264448	0.091330
821.454321	0.091534
821.644176	0.091720
821.834012	0.091797
822.023831	0.092129
822.213631	0.092276
822.403413	0.092484
822.593176	0.092800
822.782922	0.092996
822.972649	0.093218
823.162358	0.093355
823.352049	0.093879
823.541721	0.094252
823.731376	0.094441
823.921012	0.094614
824.110629	0.094779
824.300229	0.094877
824.489811	0.095174
824.679374	0.095780
824.868919	0.095980
825.058445	0.096131
825.247954	0.096502
825.437444	0.096639
825.626916	0.097002
825.816370	0.097187
826.005806	0.097677
826.195223	0.098033
826.384622	0.098025
826.574003	0.098462
826.763366	0.098574
826.952711	0.098784
827.142037	0.098901
827.331345	0.099113
827.520635	0.099449
827.709906	0.099742
827.899160	0.099845
828.088395	0.100094
828.277612	0.100423
828.466810	0.100776
828.655991	0.100900
828.845153	0.101280
829.034297	0.101385
829.223423	0.101399
829.412531	0.101243
829.601620	0.101379
829.790691	0.101313
829.979744	0.101461
830.168779	0.101765
830.357795	0.101949
830.546793	0.102140
830.735773	0.102443
830.924735	0.102920
831.113679	0.103282
831.302604	0.103632
831.491511	0.103925
831.680400	0.103837
831.869271	0.104059
832.058123	0.104570
832.246957	0.104591
832.435773	0.104699
832.624571	0.104849
832.813351	0.105247
833.002112	0.105429
833.190855	0.105560
833.379580	0.105840
833.568287	0.105923
833.756975	0.105944
833.945645	0.106618
834.134297	0.106976
834.322931	0.107296
834.511547	0.107625
834.700144	0.107911
834.888723	0.108137
835.077284	0.108479
835.265826	0.108826
835.454351	0.109192
835.642857	0.109251
835.831345	0.109517
836.019815	0.109809
836.208266	0.109870
836.396699	0.110112
836.585114	0.110655
836.773511	0.111031
836.961890	0.111249
837.150250	0.111467
837.338592	0.111869
837.526916	0.112201
837.715222	0.112530
837.903510	0.113066
838.091779	0.113500
838.280030	0.113859
838.468263	0.114305
838.656477	0.114650
838.844674	0.115158
839.032852	0.115598
839.221012	0.115723
839.409153	0.115947
839.597277	0.116120
839.785382	0.116061
839.973469	0.116183
840.161538	0.116461
840.349589	0.116811
840.537621	0.117024
840.725635	0.117060
840.913631	0.117172
841.101609	0.117172
841.289568	0.117311
841.477509	0.117758
841.665432	0.117943
841.853337	0.118023
842.041224	0.118055
842.229092	0.118104
842.416942	0.118203
842.604774	0.118743
842.792588	0.119227
842.980383	0.119183
843.168160	0.119386
843.355919	0.119562
843.543660	0.119727
843.731382	0.119902
843.919087	0.120247
844.106773	0.120394
844.294441	0.120317
844.482090	0.120424
844.669722	0.120591
844.857335	0.120840
845.044930	0.121252
845.232507	0.121476
845.420065	0.122007
845.607605	0.122093
845.795127	0.122635
845.982631	0.123379
846.170117	0.123691
846.357584	0.124347
846.545033	0.124388
846.732464	0.124356
846.919877	0.124737
847.107272	0.124900
847.294648	0.125264
847.482006	0.125163
847.669346	0.125436
847.856667	0.125783
848.043971	0.125963
848.231256	0.126196
848.418523	0.126502
848.605771	0.126499
848.793002	0.126587
848.980214	0.126775
849.167408	0.127134
849.354584	0.127233
849.541742	0.127668
849.728881	0.128030
849.916002	0.128500
850.103105	0.128871
850.290190	0.129182
850.477256	0.129511
850.664304	0.129894
850.851334	0.130113
851.038346	0.130155
851.225340	0.129926
851.412315	0.130113
851.599272	0.130172
851.786211	0.130393
851.973132	0.130824
852.160034	0.130933
852.346918	0.131085
852.533784	0.131300
852.720632	0.131830
852.907462	0.132303
853.094273	0.132457
853.281066	0.133022
853.467841	0.133291
853.654598	0.133532
853.841336	0.134082
854.028056	0.134470
854.214758	0.134860
854.401442	0.134808
854.588107	0.134995
854.774755	0.135336
854.961384	0.135495
855.147995	0.135566
855.334587	0.135846
855.521162	0.135766
855.707718	0.135788
855.894256	0.136052
856.080775	0.136451
856.267277	0.136716
856.453760	0.136722
856.640225	0.137063
856.826672	0.137550
857.013101	0.137806
857.199511	0.138254
857.385903	0.138557
857.572277	0.138577
857.758633	0.138694
857.944970	0.138786
858.131290	0.138993
858.317591	0.138875
858.503873	0.138817
858.690138	0.138814
858.876384	0.138769
859.062612	0.138748
859.248822	0.139158
859.435014	0.139051
859.621188	0.139130
859.807343	0.139552
859.993480	0.139697
860.179599	0.139918
860.365699	0.140356
860.551781	0.140609
860.737846	0.141240
860.923891	0.141771
861.109919	0.142282
861.295929	0.142952
861.481920	0.143287
861.667893	0.143792
861.853848	0.144256
862.039784	0.144380
862.225702	0.144778
862.411603	0.144940
862.597484	0.144638
862.783348	0.144884
862.969193	0.144829
863.155021	0.145176
863.340830	0.145305
863.526620	0.145600
863.712393	0.145682
863.898147	0.145773
864.083883	0.145765
864.269601	0.145936
864.455301	0.146130
864.640982	0.146264
864.826645	0.146306
865.012290	0.146478
865.197917	0.146444
865.383526	0.146657
865.569116	0.146820
865.754688	0.147031
865.940242	0.147239
866.125777	0.147223
866.311295	0.147439
866.496794	0.147451
866.682275	0.147598
866.867737	0.147800
867.053182	0.147780
867.238608	0.147997
867.424016	0.148312
867.609406	0.148666
867.794778	0.148926
867.980131	0.149006
868.165466	0.149302
868.350783	0.149368
868.536082	0.149678
868.721362	0.149946
868.906625	0.150293
869.091869	0.150279
869.277094	0.150339
869.462302	0.150730
869.647491	0.151059
869.832662	0.151178
870.017815	0.151875
870.202950	0.152136
870.388066	0.152582
870.573165	0.152835
870.758245	0.153200
870.943306	0.153484
871.128350	0.153716
871.313375	0.154166
871.498382	0.154220
871.683371	0.154142
871.868342	0.154045
872.053294	0.154326
872.238229	0.154361
872.423144	0.154611
872.608042	0.155070
872.792922	0.155060
872.977783	0.154992
873.162626	0.155247
873.347451	0.155284
873.532258	0.155610
873.717046	0.155528
873.901816	0.155821
874.086568	0.155801
874.271302	0.155662
874.456017	0.156100
874.640715	0.156064
874.825394	0.156199
875.010055	0.156759
875.194697	0.156928
875.379322	0.157326
875.563928	0.157445
875.748516	0.157646
875.933085	0.157711
876.117637	0.157533
876.302170	0.157888
876.486685	0.158496
876.671182	0.158118
876.855661	0.158578
877.040121	0.158809
877.224563	0.158890
877.408987	0.158957
877.593393	0.159025
877.777780	0.159123
877.962150	0.159137
878.146501	0.159104
878.330833	0.159272
878.515148	0.159183
878.699444	0.158979
878.883722	0.158996
879.067982	0.158866
879.252224	0.159217
879.436447	0.159448
879.620653	0.159726
879.804840	0.159614
879.989008	0.159951
880.173159	0.159796
880.357291	0.159975
880.541405	0.159982
880.725501	0.160139
880.909579	0.160018
881.093638	0.160358
881.277680	0.160378
881.461703	0.160151
881.645707	0.160135
881.829694	0.160160
882.013662	0.160046
882.197612	0.159919
882.381544	0.160275
882.565458	0.160159
882.749353	0.159837
882.933230	0.159671
883.117089	0.160179
883.300930	0.160043
883.484753	0.160318
883.668557	0.160459
883.852343	0.160765
884.036111	0.160785
884.219861	0.160955
884.403592	0.161167
884.587305	0.161557
884.771000	0.161393
884.954677	0.161724
885.138335	0.161953
885.321976	0.161997
885.505598	0.162080
885.689201	0.161811
885.872787	0.162087
886.056354	0.162051
886.239904	0.162072
886.423434	0.162062
886.606947	0.162065
886.790442	0.162010
886.973918	0.161470
887.157376	0.161244
887.340816	0.161439
887.524237	0.161501
887.707641	0.161947
887.891026	0.161966
888.074393	0.162313
888.257741	0.162424
888.441072	0.162601
888.624384	0.163223
888.807678	0.163278
888.990954	0.163232
889.174211	0.162784
889.357451	0.162214
889.540672	0.161985
889.723875	0.161759
889.907059	0.161472
890.090226	0.161536
890.273374	0.161476
890.456504	0.161671
890.639616	0.161884
890.822709	0.162174
891.005785	0.162307
891.188842	0.162510
891.371881	0.162405
891.554901	0.162257
891.737904	0.161577
891.920888	0.161311
892.103854	0.161330
892.286802	0.161307
892.469731	0.161173
892.652643	0.161141
892.835536	0.161243
893.018410	0.161290
893.201267	0.161323
893.384106	0.161729
893.566926	0.161815
893.749728	0.161776
893.932511	0.161745
894.115277	0.162072
894.298024	0.162126
894.480753	0.161703
894.663464	0.161553
894.846157	0.161754
895.028831	0.161483
895.211487	0.161545
895.394125	0.161292
895.576745	0.161003
895.759346	0.160796
895.941930	0.160658
896.124495	0.160719
896.307041	0.160758
896.489570	0.160897
896.672080	0.160852
896.854573	0.161057
897.037046	0.161159
897.219502	0.161110
897.401940	0.160619
897.584359	0.160830
897.766760	0.160844
897.949143	0.161009
898.131507	0.160765
898.313854	0.160435
898.496182	0.160084
898.678492	0.159775
898.860783	0.159801
899.043057	0.160162
899.225312	0.159990
899.407549	0.159522
899.589768	0.159414
899.771968	0.159022
899.954151	0.159362
900.136315	0.159231
900.318461	0.159401
900.500588	0.159517
900.682698	0.158975
900.864789	0.158553
901.046862	0.158711
901.228917	0.158398
901.410953	0.158352
901.592971	0.158017
901.774972	0.157981
901.956953	0.157665
902.138917	0.157563
902.320862	0.157563
902.502790	0.157314
902.684699	0.156966
902.866589	0.156613
903.048462	0.156256
903.230316	0.155904
903.412152	0.155490
903.593970	0.155357
903.775770	0.155080
903.957551	0.154825
904.139314	0.154477
904.321059	0.154267
904.502786	0.154369
904.684494	0.154292
904.866185	0.154542
905.047857	0.154576
905.229510	0.154474
905.411146	0.154175
905.592763	0.154007
905.774363	0.153843
905.955943	0.153802
906.137506	0.153516
906.319051	0.153207
906.500577	0.152636
906.682085	0.152391
906.863575	0.152278
907.045046	0.151764
907.226500	0.151843
907.407935	0.152066
907.589352	0.152042
907.770750	0.151562
907.952131	0.151550
908.133493	0.151424
908.314837	0.150859
908.496163	0.150629
908.677470	0.150411
908.858760	0.149603
909.040031	0.149157
909.221284	0.148960
909.402518	0.148867
909.583735	0.148237
909.764933	0.147888
909.946113	0.147865
910.127275	0.147402
910.308418	0.147711
910.489544	0.147938
910.670651	0.148245
910.851740	0.148226
911.032810	0.148283
911.213863	0.148250
911.394897	0.148056
911.575913	0.147410
911.756911	0.147350
911.937890	0.146955
912.118851	0.146502
912.299794	0.145987
912.480719	0.145422
912.661626	0.144564
912.842514	0.144607
913.023384	0.144619
913.204236	0.144791
913.385070	0.144534
913.565886	0.143880
913.746683	0.143736
913.927462	0.143351
914.108223	0.142858
914.288965	0.143385
914.469690	0.143312
914.650396	0.143050
914.831084	0.143125
915.011754	0.142552
915.192405	0.142737
915.373038	0.142783
915.553653	0.142378
915.734250	0.142186
915.914829	0.141067
916.095389	0.140576
916.275931	0.140070
916.456455	0.139217
916.636961	0.139033
916.817448	0.138348
916.997917	0.137668
917.178368	0.137458
917.358801	0.136894
917.539216	0.136972
917.719612	0.136362
917.899990	0.135961
918.080350	0.135765
918.260692	0.135453
918.441015	0.135283
918.621320	0.135063
918.801607	0.134728
918.981876	0.134537
919.162127	0.133591
919.342359	0.133294
919.522573	0.132838
919.702769	0.132741
919.882947	0.132254
920.063106	0.131499
920.243247	0.130817
920.423370	0.130078
920.603475	0.129828
920.783562	0.129667
920.963630	0.129383
921.143680	0.129450
921.323712	0.129020
921.503725	0.128724
921.683721	0.128233
921.863698	0.127506
922.043657	0.127179
922.223598	0.126655
922.403520	0.126466
922.583424	0.126069
922.763311	0.125511
922.943178	0.125110
923.123028	0.124849
923.302859	0.124804
923.482673	0.124927
923.662467	0.124572
923.842244	0.124092
924.022003	0.124180
924.201743	0.123731
924.381465	0.123253
924.561169	0.122503
924.740854	0.122149
924.920522	0.121349
925.100171	0.121158
925.279802	0.120688
925.459414	0.120209
925.639009	0.119399
925.818585	0.119578
925.998143	0.118546
926.177683	0.118182
926.357205	0.117791
926.536708	0.117942
926.716193	0.117754
926.895660	0.117773
927.075109	0.117707
927.254539	0.117530
927.433951	0.116560
927.613345	0.116466
927.792721	0.116476
927.972079	0.115478
928.151418	0.114663
928.330739	0.113963
928.510042	0.113151
928.689327	0.112451
928.868593	0.111650
929.047841	0.110844
929.227071	0.110474
929.406283	0.109899
929.585476	0.109849
929.764652	0.109453
929.943809	0.109067
930.122948	0.108886
930.302068	0.108882
930.481171	0.108487
930.660255	0.108476
930.839321	0.108319
931.018369	0.107410
931.197398	0.107080
931.376409	0.106895
931.555402	0.105609
931.734377	0.105306
931.913334	0.104259
932.092272	0.103652
932.271192	0.103354
932.450094	0.102555
932.628978	0.102548
932.807844	0.101927
932.986691	0.101529
933.165520	0.101667
933.344331	0.101179
933.523123	0.100637
933.701898	0.100660
933.880654	0.099586
934.059392	0.098900
934.238111	0.098265
934.416813	0.097482
934.595496	0.096900
934.774161	0.095900
934.952808	0.095499
935.131437	0.095620
935.310047	0.094977
935.488639	0.094177
935.667213	0.094179
935.845769	0.093854
936.024306	0.093258
936.202825	0.093208
936.381326	0.093711
936.559809	0.092686
936.738274	0.091826
936.916720	0.091281
937.095148	0.091677
937.273558	0.090393
937.451950	0.089915
937.630323	0.089109
937.808678	0.087727
937.987015	0.086575
938.165334	0.086141
938.343635	0.085358
938.521917	0.084756
938.700181	0.084220
938.878427	0.083947
939.056655	0.082511
939.234864	0.082571
939.413055	0.081764
939.591228	0.081923
939.769383	0.082354
939.947519	0.081841
940.125638	0.081437
940.303738	0.080681
940.481820	0.080283
940.659883	0.080357
940.837929	0.080163
941.015956	0.080844
941.193965	0.079983
941.371955	0.078115
941.549928	0.078431
941.727882	0.077175
941.905818	0.077070
942.083736	0.077031
942.261636	0.076511
942.439517	0.075859
942.617380	0.075291
942.795225	0.074992
942.973052	0.073655
943.150860	0.072241
943.328651	0.071700
943.506423	0.069908
943.684176	0.068785
943.861912	0.068248
944.039629	0.066932
944.217328	0.065456
944.395009	0.064638
944.572672	0.065265
944.750317	0.065717
944.927943	0.066544
945.105551	0.066968
945.283141	0.066641
945.460712	0.066040
945.638265	0.066492
945.815801	0.065880
945.993317	0.065062
946.170816	0.064458
946.348297	0.063817
946.525759	0.061594
946.703203	0.061073
946.880629	0.061339
947.058036	0.060905
947.235425	0.059656
947.412797	0.060209
947.590149	0.059741
947.767484	0.059812
947.944800	0.059479
948.122099	0.061218
948.299379	0.059914
948.476640	0.059952
948.653884	0.059707
948.831109	0.059920
949.008316	0.057165
949.185505	0.056891
949.362676	0.056666
949.539828	0.054770
949.716962	0.052089
949.894078	0.052355
950.071176	0.050401
950.248256	0.050473
950.425317	0.050839
950.602360	0.051628
950.779385	0.051679
950.956391	0.051142
951.133380	0.051803
951.310350	0.051741
951.487302	0.050465
951.664235	0.050571
951.841151	0.048950
952.018048	0.047395
952.194927	0.047911
952.371788	0.047145
952.548631	0.045952
952.725455	0.045312
952.902261	0.044836
953.079049	0.045221
953.255819	0.045104
953.432570	0.045492
953.609303	0.045398
953.786018	0.046661
953.962715	0.045817
954.139394	0.046003
954.316054	0.045766
954.492696	0.048314
954.669320	0.048515
954.845926	0.048734
955.022513	0.049658
955.199083	0.050907
955.375634	0.050383
955.552166	0.050401
955.728681	0.049641
955.905177	0.050723
956.081655	0.049238
956.258115	0.047917
956.434557	0.046532
956.610980	0.043907
956.787385	0.043074
956.963772	0.041154
957.140141	0.041522
957.316492	0.042544
957.492824	0.041980
957.669138	0.041279
957.845434	0.040281
958.021712	0.040357
958.197971	0.041523
958.374212	0.040934
958.550435	0.041868
958.726640	0.041322
958.902826	0.040504
959.078995	0.040366
959.255145	0.041119
959.431277	0.043104
959.607390	0.044452
959.783486	0.045091
959.959563	0.045244
960.135622	0.045138
960.311662	0.044721
960.487685	0.045089
960.663689	0.042582
960.839675	0.041167
961.015643	0.040364
961.191593	0.039539
961.367524	0.039197
961.543437	0.040724
961.719332	0.040441
961.895209	0.040676
962.071067	0.040214
962.246907	0.041084
962.422730	0.042569
962.598533	0.042301
962.774319	0.040648
962.950086	0.038316
963.125835	0.035007
963.301566	0.034162
963.477279	0.034573
963.652973	0.034628
963.828650	0.035364
964.004308	0.035324
964.179947	0.036280
964.355569	0.037256
964.531172	0.040027
964.706757	0.042499
964.882324	0.044271
965.057873	0.044478
965.233403	0.045336
965.408916	0.045637
965.584410	0.043350
965.759885	0.042621
965.935343	0.041568
966.110782	0.039659
966.286203	0.038462
966.461606	0.038561
966.636991	0.039385
966.812357	0.037901
966.987705	0.036758
967.163035	0.037264
967.338347	0.038584
967.513641	0.038771
967.688916	0.038736
967.864173	0.039093
968.039412	0.037957
968.214632	0.036710
968.389835	0.038292
968.565019	0.035643
968.740185	0.035471
968.915333	0.033882
969.090462	0.034315
969.265573	0.035461
969.440667	0.034853
969.615741	0.035599
969.790798	0.034881
969.965836	0.035746
970.140856	0.037995
970.315858	0.038012
970.490842	0.039340
970.665808	0.039757
970.840755	0.039533
971.015684	0.038238
971.190595	0.036701
971.365487	0.038496
971.540362	0.037101
971.715218	0.038533
971.890056	0.038670
972.064875	0.037921
972.239677	0.037568
972.414460	0.037022
972.589225	0.038057
972.763972	0.039621
972.938700	0.038238
973.113411	0.037666
973.288103	0.038132
973.462777	0.038920
973.637432	0.040310
973.812070	0.040713
973.986689	0.040355
974.161290	0.040196
974.335873	0.038707
974.510437	0.039988
974.684984	0.040853
974.859512	0.040532
975.034022	0.039217
975.208513	0.036828
975.382987	0.036507
975.557442	0.036368
975.731879	0.036546
975.906298	0.036373
976.080698	0.035456
976.255080	0.033773
976.429445	0.033560
976.603790	0.034021
976.778118	0.034641
976.952427	0.036577
977.126719	0.039311
977.300992	0.038249
977.475246	0.039866
977.649483	0.040025
977.823701	0.040494
977.997901	0.039797
978.172083	0.039756
978.346247	0.039434
978.520392	0.037887
978.694519	0.035877
978.868628	0.035388
979.042719	0.033139
979.216791	0.034100
979.390845	0.036639
979.564882	0.035951
979.738899	0.037853
979.912899	0.038325
980.086880	0.039005
980.260843	0.038857
980.434788	0.040018
980.608715	0.039496
980.782623	0.039978
980.956514	0.038103
981.130386	0.039644
981.304240	0.037912
981.478075	0.038197
981.651892	0.037721
981.825692	0.037901
981.999472	0.038829
982.173235	0.040188
982.346980	0.039602
982.520706	0.039642
982.694414	0.038175
982.868104	0.038318
983.041775	0.037209
983.215428	0.038599
983.389064	0.039717
983.562680	0.038487
983.736279	0.039477
983.909860	0.038496
984.083422	0.037353
984.256966	0.038589
984.430491	0.037490
984.603999	0.039533
984.777488	0.038477
984.950959	0.036607
985.124412	0.037374
985.297847	0.035965
985.471263	0.035568
985.644661	0.036351
985.818041	0.035175
985.991403	0.035255
986.164747	0.033877
986.338072	0.032482
986.511379	0.032946
986.684668	0.031487
986.857938	0.031678
987.031191	0.031249
987.204425	0.032449
987.377641	0.033174
987.550839	0.034344
987.724018	0.035878
987.897179	0.036978
988.070322	0.037003
988.243447	0.038297
988.416554	0.038313
988.589642	0.038740
988.762712	0.038328
988.935764	0.037675
989.108798	0.036177
989.281813	0.033984
989.454811	0.033183
989.627790	0.033900
989.800751	0.032857
989.973693	0.033025
990.146617	0.032835
990.319524	0.033082
990.492412	0.032662
990.665281	0.034248
990.838133	0.034522
991.010966	0.034891
991.183781	0.033343
991.356578	0.032434
991.529356	0.032867
991.702117	0.033183
991.874859	0.031950
992.047583	0.032500
992.220288	0.032620
992.392976	0.032011
992.565645	0.032529
992.738296	0.034095
992.910929	0.036525
993.083543	0.034913
993.256139	0.034752
993.428718	0.034433
993.601277	0.034232
993.773819	0.034103
993.946342	0.034800
994.118848	0.034545
994.291335	0.032646
994.463803	0.030852
994.636254	0.031848
994.808686	0.033068
994.981100	0.033013
995.153496	0.033047
995.325874	0.032744
995.498233	0.032928
995.670574	0.031518
995.842897	0.031681
996.015202	0.031334
996.187488	0.030460
996.359757	0.029766
996.532007	0.028259
996.704239	0.028022
996.876452	0.027307
997.048648	0.026136
997.220825	0.026202
997.392984	0.026166
997.565124	0.027304
997.737247	0.028024
997.909351	0.026813
998.081437	0.027800
998.253505	0.026731
998.425554	0.027790
998.597586	0.028376
998.769599	0.028978
998.941594	0.029655
999.113571	0.029283
999.285529	0.028884
999.457469	0.029598
999.629391	0.031464
999.801295	0.031799
999.973181	0.031131
1000.145048	0.031830
1000.316897	0.032367
1000.488728	0.032360
1000.660541	0.033111
1000.832335	0.032232
1001.004111	0.033205
1001.175869	0.031022
1001.347609	0.030848
1001.519331	0.029228
1001.691034	0.029241
1001.862719	0.029720
1002.034386	0.029507
1002.206035	0.027822
1002.377665	0.029624
1002.549277	0.027469
1002.720871	0.027444
1002.892447	0.027830
1003.064004	0.028227
1003.235544	0.027331
1003.407065	0.026111
1003.578568	0.025367
1003.750052	0.026462
1003.921519	0.025092
1004.092967	0.025240
1004.264397	0.025058
1004.435809	0.025789
1004.607202	0.024249
1004.778577	0.023804
1004.949934	0.023124
1005.121273	0.023167
1005.292594	0.022958
1005.463896	0.023352
1005.635180	0.023030
1005.806446	0.024196
1005.977694	0.024816
1006.148923	0.026577
1006.320135	0.027259
1006.491328	0.028070
1006.662503	0.030246
1006.833659	0.030681
1007.004798	0.030699
1007.175918	0.030992
1007.347020	0.031289
1007.518103	0.030299
1007.689169	0.030981
1007.860216	0.032519
1008.031245	0.031510
1008.202256	0.030326
1008.373248	0.030236
1008.544223	0.029226
1008.715179	0.030232
1008.886117	0.029102
1009.057036	0.028921
1009.227938	0.028376
1009.398821	0.026414
1009.569686	0.026155
1009.740533	0.025457
1009.911361	0.025170
1010.082172	0.025365
1010.252964	0.025009
1010.423738	0.024387
1010.594493	0.025463
1010.765231	0.024874
1010.935950	0.023887
1011.106651	0.024851
1011.277334	0.024288
1011.447998	0.023455
1011.618645	0.023401
1011.789273	0.022991
1011.959882	0.022971
1012.130474	0.022164
1012.301048	0.021178
1012.471603	0.022109
1012.642140	0.022709
1012.812658	0.023469
1012.983159	0.022999
1013.153641	0.023581
1013.324105	0.024457
1013.494551	0.024789
1013.664979	0.023880
1013.835388	0.026500
1014.005779	0.026314
1014.176152	0.025954
1014.346507	0.026303
1014.516843	0.026200
1014.687162	0.026917
1014.857462	0.026587
1015.027744	0.026665
1015.198007	0.027072
1015.368252	0.025111
1015.538480	0.025207
1015.708689	0.026734
1015.878879	0.027276
1016.049052	0.027547
1016.219206	0.027007
1016.389342	0.027092
1016.559460	0.028261
1016.729559	0.028567
1016.899641	0.030021
1017.069704	0.030730
1017.239749	0.028593
1017.409775	0.028139
1017.579784	0.027569
1017.749774	0.026774
1017.919746	0.026727
1018.089700	0.026690
1018.259635	0.026635
1018.429553	0.025462
1018.599452	0.024793
1018.769333	0.025471
1018.939195	0.023586
1019.109040	0.024251
1019.278866	0.025448
1019.448674	0.025104
1019.618464	0.024230
1019.788235	0.025073
1019.957989	0.025403
1020.127724	0.025837
1020.297441	0.025350
1020.467139	0.026185
1020.636820	0.026229
1020.806482	0.025969
1020.976126	0.025570
1021.145752	0.026547
1021.315359	0.025850
1021.484948	0.026341
1021.654519	0.026236
1021.824072	0.026798
1021.993607	0.027105
1022.163123	0.027806
1022.332621	0.027910
1022.502101	0.027542
1022.671563	0.026886
1022.841007	0.026599
1023.010432	0.025064
1023.179839	0.024113
1023.349228	0.023709
1023.518598	0.023801
1023.687951	0.024044
1023.857285	0.023877
1024.026601	0.023799
1024.195899	0.021587
1024.365178	0.021276
1024.534439	0.022159
1024.703682	0.023477
1024.872907	0.023154
1025.042114	0.022512
1025.211302	0.022365
1025.380472	0.021566
1025.549624	0.021852
1025.718758	0.023495
1025.887873	0.023891
1026.056970	0.023706
1026.226049	0.023326
1026.395110	0.023107
1026.564153	0.022822
1026.733177	0.021341
1026.902183	0.021144
1027.071171	0.020773
1027.240141	0.021074
1027.409092	0.021886
1027.578026	0.022527
1027.746940	0.021052
1027.915837	0.021686
1028.084716	0.022350
1028.253576	0.024026
1028.422418	0.023916
1028.591242	0.024123
1028.760048	0.024387
1028.928835	0.022739
1029.097604	0.022487
1029.266355	0.023361
1029.435088	0.022348
1029.603803	0.020866
1029.772499	0.019204
1029.941177	0.019746
1030.109837	0.020645
1030.278478	0.019668
1030.447102	0.019921
1030.615707	0.018556
1030.784294	0.018646
1030.952863	0.018998
1031.121413	0.021356
1031.289945	0.023684
1031.458460	0.025081
1031.626955	0.024221
1031.795433	0.023701
1031.963892	0.022951
1032.132334	0.024941
1032.300756	0.025248
1032.469161	0.023855
1032.637548	0.023643
1032.805916	0.023205
1032.974266	0.021225
1033.142598	0.021766
1033.310911	0.021995
1033.479207	0.024398
1033.647484	0.023005
1033.815743	0.022105
1033.983983	0.023429
1034.152206	0.022732
1034.320410	0.021152
1034.488596	0.019959
1034.656764	0.019326
1034.824914	0.019266
1034.993045	0.018242
1035.161158	0.019417
1035.329253	0.019580
1035.497330	0.018814
1035.665388	0.018774
1035.833428	0.020330
1036.001450	0.021712
1036.169454	0.022135
1036.337440	0.023485
1036.505407	0.022266
1036.673356	0.021550
1036.841287	0.022230
1037.009200	0.023003
1037.177094	0.022921
1037.344970	0.022254
1037.512828	0.022003
1037.680668	0.022772
1037.848489	0.022505
1038.016293	0.023349
1038.184078	0.024139
1038.351845	0.024876
1038.519593	0.025381
1038.687324	0.026457
1038.855036	0.026744
1039.022730	0.028933
1039.190406	0.027803
1039.358063	0.026895
1039.525702	0.028805
1039.693323	0.030196
1039.860926	0.028239
1040.028511	0.027513
1040.196077	0.027822
1040.363625	0.026707
1040.531155	0.024237
1040.698667	0.024221
1040.866161	0.024390
1041.033636	0.023269
1041.201093	0.021154
1041.368532	0.021801
1041.535952	0.022677
1041.703355	0.021416
1041.870739	0.021210
1042.038105	0.023761
1042.205452	0.024748
1042.372782	0.024579
1042.540093	0.024657
1042.707386	0.023828
1042.874661	0.024999
1043.041918	0.024994
1043.209156	0.026020
1043.376376	0.027847
1043.543578	0.025952
1043.710762	0.026132
1043.877927	0.027077
1044.045074	0.026269
1044.212203	0.026228
1044.379314	0.024893
1044.546407	0.022455
1044.713481	0.021719
1044.880537	0.019168
1045.047575	0.019623
1045.214595	0.018225
1045.381596	0.018029
1045.548579	0.018930
1045.715544	0.019272
1045.882491	0.018540
1046.049420	0.019731
1046.216330	0.020061
1046.383222	0.021554
1046.550096	0.020878
1046.716951	0.020317
1046.883789	0.019830
1047.050608	0.018726
1047.217409	0.020279
1047.384192	0.020791
1047.550956	0.021512
1047.717703	0.019856
1047.884431	0.019134
1048.051140	0.019664
1048.217832	0.020135
1048.384505	0.020352
1048.551161	0.021078
1048.717798	0.018612
1048.884416	0.019349
1049.051017	0.019807
1049.217599	0.019731
1049.384163	0.020770
1049.550709	0.020357
1049.717237	0.020626
1049.883746	0.020366
1050.050237	0.018674
1050.216710	0.019140
1050.383165	0.018261
1050.549601	0.016883
1050.716019	0.019893
1050.882420	0.020815
1051.048801	0.019893
1051.215165	0.020562
1051.381510	0.020876
1051.547837	0.021763
1051.714146	0.022451
1051.880437	0.022686
1052.046709	0.023241
1052.212964	0.021614
1052.379200	0.020387
1052.545417	0.019929
1052.711617	0.019196
1052.877798	0.020112
1053.043961	0.018961
1053.210106	0.019020
1053.376233	0.019627
1053.542341	0.019769
1053.708432	0.019316
1053.874504	0.019125
1054.040557	0.022458
1054.206593	0.022559
1054.372610	0.020379
1054.538609	0.020624
1054.704590	0.020905
1054.870553	0.020396
1055.036497	0.021236
1055.202424	0.024196
1055.368331	0.024431
1055.534221	0.023104
1055.700093	0.024388
1055.865946	0.026168
1056.031781	0.026796
1056.197598	0.026202
1056.363397	0.025648
1056.529177	0.023664
1056.694939	0.023355
1056.860683	0.023893
1057.026409	0.023453
1057.192116	0.020690
1057.357806	0.019740
1057.523477	0.020586
1057.689130	0.019076
1057.854764	0.020698
1058.020381	0.022774
1058.185979	0.020278
1058.351559	0.018930
1058.517120	0.019518
1058.682664	0.022333
1058.848189	0.023008
1059.013696	0.023650
1059.179185	0.025500
1059.344656	0.024896
1059.510108	0.024683
1059.675542	0.023450
1059.840958	0.024605
1060.006356	0.023510
1060.171735	0.023102
1060.337096	0.022393
1060.502439	0.022537
1060.667764	0.022040
1060.833071	0.023876
1060.998359	0.021820
1061.163629	0.022126
1061.328881	0.023516
1061.494115	0.024403
1061.659330	0.025121
1061.824527	0.026555
1061.989706	0.026095
1062.154867	0.025791
1062.320010	0.025038
1062.485134	0.025955
1062.650240	0.026952
1062.815328	0.024597
1062.980398	0.024978
1063.145449	0.023257
1063.310482	0.022358
1063.475497	0.022170
1063.640494	0.021527
1063.805473	0.019752
1063.970433	0.018679
1064.135375	0.017698
1064.300299	0.017424
1064.465204	0.016698
1064.630092	0.017394
1064.794961	0.016671
1064.959812	0.015985
1065.124645	0.015839
1065.289459	0.016148
1065.454256	0.018297
1065.619034	0.017782
1065.783793	0.018505
1065.948535	0.018582
1066.113258	0.017845
1066.277964	0.017294
1066.442651	0.018829
1066.607319	0.019111
1066.771970	0.019114
1066.936602	0.020408
1067.101216	0.021295
1067.265812	0.021578
1067.430389	0.020178
1067.594949	0.021637
1067.759490	0.022907
1067.924013	0.021851
1068.088518	0.022454
1068.253004	0.022264
1068.417472	0.021572
1068.581922	0.022374
1068.746354	0.020780
1068.910768	0.021494
1069.075163	0.019454
1069.239540	0.019175
1069.403899	0.017884
1069.568240	0.019737
1069.732562	0.019399
1069.896866	0.019559
1070.061152	0.020635
1070.225420	0.022172
1070.389670	0.021945
1070.553901	0.022897
1070.718114	0.022552
1070.882309	0.022668
1071.046486	0.022062
1071.210644	0.022196
1071.374784	0.020284
1071.538906	0.019837
1071.703010	0.018768
1071.867096	0.019063
1072.031163	0.018527
1072.195212	0.019478
1072.359243	0.019449
1072.523256	0.020707
1072.687250	0.023797
1072.851226	0.024572
1073.015184	0.024342
1073.179124	0.025235
1073.343045	0.026653
1073.506949	0.026972
1073.670834	0.028390
1073.834701	0.029133
1073.998549	0.028515
1074.162380	0.028721
1074.326192	0.027530
1074.489986	0.026941
1074.653761	0.025946
1074.817519	0.026008
1074.981258	0.028739
1075.144979	0.026811
1075.308682	0.027318
1075.472367	0.027343
1075.636033	0.024675
1075.799681	0.024864
1075.963311	0.024512
1076.126923	0.025153
1076.290516	0.023322
1076.454092	0.020880
1076.617649	0.021656
1076.781187	0.022074
1076.944708	0.020856
1077.108210	0.023621
1077.271695	0.022940
1077.435160	0.022684
1077.598608	0.022672
1077.762038	0.023571
1077.925449	0.023526
1078.088842	0.024821
1078.252217	0.024413
1078.415573	0.024560
1078.578912	0.021286
1078.742232	0.022795
1078.905534	0.024060
1079.068817	0.025978
1079.232083	0.026997
1079.395330	0.028281
1079.558559	0.027242
1079.721770	0.028237
1079.884962	0.028661
1080.048136	0.028358
1080.211293	0.028841
1080.374430	0.027054
1080.537550	0.025586
1080.700651	0.022958
1080.863735	0.021063
1081.026800	0.020292
1081.189846	0.020194
1081.352875	0.020778
1081.515885	0.021000
1081.678877	0.021210
1081.841851	0.022853
1082.004807	0.023271
1082.167744	0.027837
1082.330663	0.030343
1082.493564	0.028828
1082.656447	0.027963
1082.819312	0.026121
1082.982158	0.027323
1083.144986	0.027337
1083.307796	0.027290
1083.470587	0.027519
1083.633361	0.024482
1083.796116	0.022304
1083.958853	0.025101
1084.121571	0.025428
1084.284272	0.028198
1084.446954	0.030208
1084.609618	0.032740
1084.772264	0.032347
1084.934892	0.031646
1085.097501	0.032883
1085.260092	0.031645
1085.422665	0.028208
1085.585220	0.028126
1085.747756	0.024691
1085.910274	0.020728
1086.072774	0.018197
1086.235256	0.017224
1086.397720	0.017481
1086.560165	0.016732
1086.722592	0.019030
1086.885001	0.022790
1087.047392	0.019628
1087.209764	0.023656
1087.372119	0.027376
1087.534455	0.028695
1087.696772	0.032413
1087.859072	0.032619
1088.021353	0.033643
1088.183616	0.034183
1088.345861	0.033248
1088.508088	0.035660
1088.670296	0.034240
1088.832486	0.032206
1088.994658	0.030291
1089.156812	0.025982
1089.318948	0.024502
1089.481065	0.024312
1089.643164	0.023439
1089.805245	0.024115
1089.967308	0.022481
1090.129352	0.022234
1090.291378	0.022777
1090.453386	0.022709
1090.615376	0.024995
1090.777347	0.026687
1090.939301	0.025449
1091.101236	0.025584
1091.263153	0.023373
1091.425051	0.023267
1091.586932	0.023863
1091.748794	0.022839
1091.910638	0.022989
1092.072463	0.021066
1092.234271	0.020921
1092.396060	0.022732
1092.557831	0.021330
1092.719584	0.023988
1092.881319	0.026022
1093.043035	0.022703
1093.204733	0.023292
1093.366413	0.024230
1093.528075	0.025397
1093.689718	0.023744
1093.851343	0.022314
1094.012950	0.023651
1094.174539	0.022798
1094.336110	0.022233
1094.497662	0.023232
1094.659196	0.024118
1094.820712	0.025255
1094.982210	0.025576
1095.143689	0.030205
1095.305151	0.030065
1095.466594	0.030083
1095.628018	0.030897
1095.789425	0.032254
1095.950813	0.033068
1096.112183	0.034352
1096.273535	0.033669
1096.434869	0.034830
1096.596184	0.034045
1096.757482	0.034471
1096.918761	0.035739
1097.080021	0.029742
1097.241264	0.025507
1097.402488	0.025149
1097.563694	0.025270
1097.724882	0.024880
1097.886052	0.024922
1098.047203	0.023654
1098.208336	0.025402
1098.369451	0.024300
1098.530548	0.024691
1098.691627	0.032422
1098.852687	0.031926
1099.013729	0.031966
1099.174753	0.029750
1099.335758	0.028149
1099.496746	0.025220
1099.657715	0.022800
1099.818666	0.020198
1099.979599	0.024059
1100.140513	0.019630
1100.301409	0.021191
1100.462287	0.016737
1100.623147	0.018650
1100.783989	0.019024
1100.944812	0.022631
1101.105617	0.020831
1101.266404	0.021269
1101.427173	0.024408
1101.587923	0.024559
1101.748656	0.026871
1101.909370	0.029811
1102.070066	0.030137
1102.230743	0.031305
1102.391403	0.026850
1102.552044	0.029221
1102.712667	0.028309
1102.873271	0.025954
1103.033858	0.023770
1103.194426	0.024171
1103.354976	0.022389
1103.515508	0.021170
1103.676021	0.025158
1103.836517	0.029306
1103.996994	0.029841
1104.157453	0.032085
1104.317893	0.035162
1104.478316	0.042326
1104.638720	0.039988
1104.799106	0.045566
1104.959474	0.045251
1105.119823	0.041204
1105.280155	0.036741
1105.440468	0.038087
1105.600763	0.040931
1105.761039	0.037649
1105.921298	0.033928
1106.081538	0.032670
1106.241760	0.032955
1106.401964	0.036284
1106.562149	0.035040
1106.722316	0.039725
1106.882465	0.036773
1107.042596	0.034583
1107.202709	0.034135
1107.362803	0.034494
1107.522879	0.036073
1107.682937	0.030614
1107.842977	0.026721
1108.002999	0.026164
1108.163002	0.023888
1108.322987	0.026334
1108.482954	0.025487
1108.642902	0.023104
1108.802833	0.023548
1108.962745	0.025444
1109.122639	0.022515
1109.282515	0.022627
1109.442372	0.020850
1109.602211	0.018396
1109.762032	0.017414
1109.921835	0.019844
1110.081620	0.023603
1110.241386	0.023156
1110.401134	0.018872
1110.560864	0.024292
1110.720576	0.023797
1110.880269	0.026891
1111.039945	0.029350
1111.199602	0.031867
1111.359240	0.028404
1111.518861	0.026159
1111.678463	0.023627
1111.838047	0.030124
1111.997613	0.030173
1112.157161	0.028375
1112.316690	0.028677
1112.476202	0.030413
1112.635695	0.027677
1112.795169	0.035426
1112.954626	0.034522
1113.114064	0.033416
1113.273484	0.026672
1113.432886	0.026833
1113.592270	0.028945
1113.751635	0.029176
1113.910983	0.027516
1114.070312	0.024563
1114.229622	0.017914
1114.388915	0.020196
1114.548189	0.025094
1114.707445	0.026977
1114.866683	0.025299
1115.025903	0.032237
1115.185104	0.037037
1115.344287	0.038621
1115.503452	0.042571
1115.662599	0.045579
1115.821727	0.044124
1115.980838	0.046777
1116.139930	0.040022
1116.299004	0.039688
1116.458059	0.033428
1116.617097	0.029205
1116.776116	0.031837
1116.935117	0.033467
1117.094099	0.032428
1117.253064	0.031797
1117.412010	0.026201
1117.570938	0.036346
1117.729848	0.035295
1117.888740	0.036445
1118.047613	0.039638
1118.206468	0.033770
1118.365305	0.037088
1118.524124	0.037970
1118.682924	0.040860
1118.841707	0.042840
1119.000471	0.040467
1119.159216	0.045201
1119.317944	0.046867
1119.476653	0.045774
1119.635344	0.052117
1119.794017	0.044373
1119.952672	0.043899
1120.111308	0.045727
1120.269927	0.044903
1120.428527	0.041496
1120.587108	0.039340
1120.745672	0.038439
1120.904217	0.033361
1121.062744	0.029726
1121.221253	0.031876
1121.379744	0.034403
1121.538216	0.031870
1121.696671	0.029534
1121.855107	0.029852
1122.013524	0.031309
1122.171924	0.028812
1122.330305	0.028932
1122.488668	0.031153
1122.647013	0.027742
1122.805340	0.027082
1122.963648	0.024678
1123.121938	0.027422
1123.280210	0.031250
1123.438464	0.027544
1123.596700	0.028942
1123.754917	0.030313
1123.913116	0.028900
1124.071297	0.036787
1124.229459	0.038008
1124.387604	0.039939
1124.545730	0.038929
1124.703838	0.037042
1124.861928	0.036378
1125.019999	0.036855
1125.178052	0.033706
1125.336088	0.028161
1125.494104	0.021197
1125.652103	0.018244
1125.810083	0.016767
1125.968045	0.020763
1126.125989	0.023718
1126.283915	0.028710
1126.441823	0.029464
1126.599712	0.032628
1126.757583	0.037865
1126.915436	0.043053
1127.073270	0.042115
1127.231087	0.044990
1127.388885	0.045483
1127.546665	0.042582
1127.704426	0.037008
1127.862170	0.035412
1128.019895	0.038931
1128.177602	0.033380
1128.335291	0.035169
1128.492961	0.035231
1128.650614	0.035336
1128.808248	0.025835
1128.965864	0.025151
1129.123461	0.028724
1129.281041	0.026694
1129.438602	0.027271
1129.596145	0.029867
1129.753670	0.027954
1129.911176	0.031293
1130.068665	0.033444
1130.226135	0.033319
1130.383587	0.035697
1130.541020	0.038255
1130.698436	0.047048
1130.855833	0.048727
1131.013212	0.054019
1131.170573	0.051955
1131.327915	0.050085
1131.485239	0.047540
1131.642545	0.058543
1131.799833	0.060788
1131.957103	0.056598
1132.114354	0.047971
1132.271588	0.034524
1132.428803	0.035343
1132.585999	0.034100
1132.743178	0.034285
1132.900338	0.036021
1133.057480	0.034171
1133.214604	0.029499
1133.371710	0.027583
1133.528797	0.031955
1133.685866	0.046102
1133.842917	0.047024
1133.999950	0.050049
1134.156964	0.046847
1134.313960	0.041287
1134.470938	0.039072
1134.627898	0.036166
1134.784840	0.041077
1134.941763	0.037046
1135.098668	0.029581
1135.255555	0.024218
1135.412424	0.024661
1135.569274	0.023556
1135.726107	0.024872
1135.882921	0.025557
1136.039716	0.027707
1136.196494	0.025303
1136.353253	0.025998
1136.509995	0.025873
1136.666717	0.028042
1136.823422	0.025725
1136.980109	0.031418
1137.136777	0.034892
1137.293427	0.034775
1137.450059	0.044869
1137.606672	0.044055
1137.763267	0.044956
1137.919844	0.048127
1138.076403	0.044203
1138.232944	0.044430
1138.389466	0.041349
1138.545971	0.048398
1138.702457	0.047291
1138.858924	0.039649
1139.015374	0.041390
1139.171805	0.042739
1139.328218	0.037186
1139.484613	0.043933
1139.640990	0.044864
1139.797348	0.040003
1139.953688	0.031567
1140.110010	0.025681
1140.266314	0.024798
1140.422600	0.023987
1140.578867	0.022212
1140.735116	0.026568
1140.891347	0.018879
1141.047559	0.012878
1141.203754	0.015919
1141.359930	0.013475
1141.516088	0.022548
1141.672228	0.020176
1141.828349	0.023959
1141.984452	0.018259
1142.140537	0.016914
1142.296604	0.022101
1142.452653	0.028897
1142.608683	0.032889
1142.764695	0.033243
1142.920689	0.023444
1143.076665	0.028909
1143.232622	0.021474
1143.388562	0.032962
1143.544483	0.038461
1143.700385	0.039457
1143.856270	0.038712
1144.012136	0.031582
1144.167985	0.032583
1144.323814	0.036433
1144.479626	0.030786
1144.635420	0.026974
1144.791195	0.024143
1144.946952	0.019757
1145.102691	0.020436
1145.258411	0.016011
1145.414113	0.024904
1145.569798	0.022904
1145.725463	0.029996
1145.881111	0.032302
1146.036741	0.040538
1146.192352	0.032817
1146.347945	0.030705
1146.503519	0.022327
1146.659076	0.022182
1146.814614	0.017962
1146.970134	0.027008
1147.125636	0.016478
1147.281120	0.021322
1147.436585	0.014184
1147.592032	0.029501
1147.747461	0.031782
1147.902872	0.043009
1148.058265	0.053413
1148.213639	0.054957
1148.368995	0.048161
1148.524333	0.056204
1148.679653	0.053277
1148.834954	0.056741
1148.990237	0.044437
1149.145502	0.036764
1149.300749	0.027787
1149.455977	0.017692
1149.611188	0.019655
1149.766380	0.014563
1149.921553	0.018421
1150.076709	0.013872
1150.231846	0.018324
1150.386966	0.024869
1150.542066	0.033400
1150.697149	0.036961
1150.852214	0.029417
1151.007260	0.029918
1151.162288	0.043773
1151.317298	0.034813
1151.472289	0.049168
1151.627263	0.054882
1151.782218	0.045728
1151.937155	0.049911
1152.092073	0.055386
1152.246974	0.072256
1152.401856	0.064298
1152.556720	0.053638
1152.711566	0.054129
1152.866393	0.051290
1153.021203	0.042737
1153.175994	0.042535
1153.330767	0.033721
1153.485521	0.038974
1153.640258	0.035316
1153.794976	0.041470
1153.949676	0.045238
1154.104358	0.040482
1154.259021	0.030668
1154.413667	0.037554
1154.568294	0.044044
1154.722903	0.041173
1154.877493	0.031047
1155.032066	0.029548
1155.186620	0.029571
1155.341156	0.031017
1155.495674	0.040192
1155.650173	0.046809
1155.804654	0.034565
1155.959118	0.027121
1156.113562	0.029163
1156.267989	0.027566
1156.422397	0.031453
1156.576788	0.028332
1156.731160	0.023996
1156.885513	0.017228
1157.039849	0.006654
1157.194166	0.015140
1157.348465	0.022984
1157.502746	0.022234
1157.657009	0.023448
1157.811253	0.023292
1157.965479	0.013636
1158.119687	0.018834
1158.273877	0.022649
1158.428048	0.023552
1158.582201	0.021735
1158.736337	0.016174
1158.890453	0.029734
1159.044552	0.024036
1159.198632	0.024083
1159.352694	0.026444
1159.506738	0.022231
1159.660764	0.033379
1159.814771	0.035749
1159.968761	0.031464
1160.122732	0.032548
1160.276685	0.022274
1160.430619	0.032017
1160.584535	0.021051
1160.738434	0.032369
1160.892313	0.035457
1161.046175	0.024610
1161.200019	0.029574
1161.353844	0.037731
1161.507651	0.031923
1161.661440	0.037648
1161.815210	0.032602
1161.968962	0.050485
1162.122697	0.047437
1162.276412	0.047858
1162.430110	0.056239
1162.583789	0.053625
1162.737451	0.055976
1162.891094	0.072445
1163.044718	0.052525
1163.198325	0.051419
1163.351913	0.042953
1163.505483	0.037508
1163.659035	0.042473
1163.812569	0.031611
1163.966084	0.036604
1164.119581	0.038394
1164.273060	0.039175
1164.426521	0.053820
1164.579964	0.054171
1164.733388	0.056125
1164.886794	0.063830
1165.040182	0.050860
1165.193551	0.056953
1165.346903	0.068427
1165.500236	0.053967
1165.653551	0.036685
1165.806848	0.035264
1165.960126	0.028190
1166.113386	0.034509
1166.266628	0.030852
1166.419852	0.038793
1166.573058	0.035350
1166.726245	0.020410
1166.879414	0.021819
1167.032565	0.025403
1167.185698	0.030528
1167.338812	0.038696
1167.491909	0.029520
1167.644987	0.021432
1167.798046	0.019894
1167.951088	0.012162
1168.104111	0.007816
1168.257117	0.008637
1168.410103	0.029268
1168.563072	0.027992
1168.716023	0.030577
1168.868955	0.030260
1169.021869	0.033614
1169.174765	0.031874
1169.327642	0.054072
1169.480501	0.051054
1169.633343	0.061477
1169.786165	0.044043
1169.938970	0.041574
1170.091757	0.035030
1170.244525	0.025734
1170.397275	0.031783
1170.550007	0.022898
1170.702720	0.015940
1170.855415	0.026193
1171.008092	0.016962
1171.160751	0.015104
1171.313392	0.013108
1171.466014	0.067814
1171.618619	0.014985
1171.771205	0.014985
1171.923772	0.014985
