sample name	sample
index	776
start time	 03-31-2021  01:35:56 PM


Wavelength (nm)	Absorbance
494.344910	-0.369338
494.563924	-0.369338
494.782919	-0.369338
495.001897	-0.014313
495.220856	-0.146316
495.439797	-0.220340
495.658719	-0.137086
495.877624	-0.184806
496.096510	-0.261139
496.315378	-0.211890
496.534227	-0.232778
496.753059	-0.292808
496.971872	-0.211322
497.190667	0.000511
497.409444	0.027692
497.628203	0.028851
497.846943	0.033819
498.065665	0.034882
498.284369	0.036385
498.503055	0.037485
498.721723	0.037165
498.940372	0.037176
499.159003	0.038296
499.377616	0.037739
499.596210	0.038108
499.814787	0.037493
500.033345	0.037158
500.251885	0.036679
500.470406	0.036251
500.688910	0.036646
500.907395	0.036612
501.125862	0.036324
501.344311	0.036412
501.562742	0.036454
501.781154	0.036907
501.999548	0.037472
502.217924	0.038029
502.436282	0.037418
502.654621	0.037557
502.872942	0.037896
503.091245	0.037076
503.309530	0.037380
503.527797	0.037370
503.746045	0.036528
503.964275	0.036550
504.182487	0.035488
504.400681	0.035327
504.618856	0.034542
504.837013	0.035453
505.055152	0.036355
505.273273	0.036427
505.491376	0.036122
505.709460	0.035869
505.927526	0.035989
506.145574	0.035768
506.363604	0.035765
506.581615	0.035967
506.799608	0.035567
507.017583	0.035012
507.235540	0.033940
507.453478	0.034160
507.671399	0.034172
507.889301	0.033337
508.107185	0.033616
508.325050	0.034281
508.542898	0.034385
508.760727	0.033982
508.978538	0.033633
509.196330	0.034543
509.414105	0.034935
509.631861	0.035960
509.849599	0.036389
510.067319	0.036922
510.285021	0.036609
510.502704	0.036142
510.720369	0.036049
510.938016	0.037229
511.155645	0.037215
511.373255	0.037468
511.590848	0.037584
511.808422	0.037591
512.025977	0.037036
512.243515	0.036569
512.461034	0.036570
512.678536	0.036308
512.896018	0.035887
513.113483	0.035900
513.330930	0.034550
513.548358	0.034239
513.765768	0.034463
513.983160	0.034091
514.200533	0.035039
514.417889	0.034943
514.635226	0.035727
514.852545	0.035651
515.069845	0.035682
515.287128	0.036051
515.504392	0.035409
515.721638	0.035033
515.938866	0.035698
516.156075	0.035543
516.373267	0.036486
516.590440	0.036229
516.807594	0.036334
517.024731	0.036197
517.241850	0.037014
517.458950	0.037169
517.676032	0.037850
517.893095	0.037379
518.110141	0.037543
518.327168	0.037830
518.544177	0.038119
518.761168	0.038432
518.978141	0.038149
519.195095	0.037760
519.412031	0.037981
519.628949	0.037106
519.845849	0.037289
520.062731	0.036845
520.279594	0.036307
520.496439	0.036269
520.713266	0.035481
520.930074	0.035967
521.146865	0.035792
521.363637	0.035196
521.580391	0.035129
521.797127	0.035436
522.013844	0.035557
522.230543	0.035199
522.447224	0.034243
522.663887	0.034234
522.880532	0.033748
523.097158	0.033706
523.313766	0.034158
523.530356	0.034239
523.746928	0.033599
523.963481	0.033212
524.180017	0.033436
524.396534	0.033706
524.613032	0.033780
524.829513	0.034277
525.045975	0.034637
525.262420	0.034485
525.478845	0.034350
525.695253	0.034578
525.911643	0.035050
526.128014	0.035144
526.344367	0.035343
526.560702	0.035433
526.777018	0.035169
526.993316	0.034766
527.209597	0.034315
527.425858	0.034889
527.642102	0.035344
527.858328	0.035427
528.074535	0.035681
528.290724	0.036187
528.506894	0.036802
528.723047	0.037105
528.939181	0.037433
529.155297	0.038313
529.371395	0.037962
529.587475	0.037925
529.803536	0.038210
530.019579	0.037994
530.235604	0.038191
530.451611	0.037557
530.667600	0.037695
530.883570	0.037836
531.099522	0.037248
531.315456	0.038007
531.531372	0.037868
531.747269	0.037431
531.963148	0.037356
532.179009	0.037176
532.394852	0.037277
532.610676	0.036788
532.826482	0.036382
533.042271	0.036427
533.258040	0.036026
533.473792	0.036257
533.689525	0.036915
533.905240	0.037177
534.120937	0.036927
534.336616	0.037167
534.552277	0.037556
534.767919	0.037853
534.983543	0.038462
535.199149	0.038542
535.414736	0.038322
535.630306	0.037542
535.845857	0.037733
536.061390	0.037516
536.276904	0.037588
536.492401	0.037676
536.707879	0.037538
536.923339	0.036938
537.138781	0.037033
537.354204	0.036832
537.569610	0.037060
537.784997	0.036427
538.000366	0.036517
538.215716	0.036817
538.431049	0.037373
538.646363	0.037713
538.861659	0.038176
539.076937	0.037941
539.292196	0.038420
539.507438	0.038383
539.722661	0.038381
539.937866	0.038656
540.153052	0.038181
540.368221	0.037506
540.583371	0.037187
540.798503	0.037068
541.013617	0.037462
541.228712	0.037658
541.443789	0.038177
541.658848	0.038917
541.873889	0.039020
542.088912	0.039190
542.303916	0.039417
542.518902	0.039326
542.733870	0.039394
542.948820	0.039259
543.163752	0.038726
543.378665	0.038140
543.593560	0.037498
543.808437	0.037681
544.023295	0.037933
544.238136	0.038242
544.452958	0.038659
544.667762	0.038668
544.882548	0.038907
545.097315	0.038878
545.312064	0.039570
545.526795	0.039569
545.741508	0.039484
545.956203	0.039419
546.170879	0.038829
546.385537	0.038976
546.600177	0.039775
546.814799	0.039656
547.029402	0.040421
547.243988	0.040409
547.458555	0.041260
547.673103	0.041254
547.887634	0.041473
548.102146	0.041762
548.316640	0.041817
548.531116	0.041436
548.745574	0.041509
548.960013	0.041363
549.174435	0.040905
549.388838	0.040512
549.603222	0.040804
549.817589	0.040705
550.031937	0.040288
550.246267	0.040114
550.460579	0.040067
550.674873	0.040312
550.889148	0.040545
551.103405	0.040947
551.317644	0.041196
551.531865	0.041111
551.746068	0.041426
551.960252	0.041994
552.174418	0.042233
552.388566	0.042082
552.602696	0.041872
552.816807	0.041574
553.030900	0.041549
553.244975	0.041544
553.459032	0.041385
553.673070	0.041036
553.887091	0.041342
554.101093	0.041252
554.315077	0.041668
554.529042	0.041614
554.742990	0.041978
554.956919	0.041850
555.170830	0.041750
555.384722	0.041802
555.598597	0.041973
555.812453	0.041636
556.026291	0.041966
556.240111	0.041977
556.453913	0.042054
556.667696	0.041759
556.881461	0.041671
557.095208	0.041712
557.308937	0.042010
557.522647	0.042225
557.736339	0.042154
557.950013	0.042526
558.163669	0.042383
558.377307	0.042493
558.590926	0.042588
558.804527	0.042632
559.018110	0.042966
559.231675	0.042549
559.445221	0.042511
559.658749	0.042405
559.872259	0.041707
560.085751	0.041575
560.299225	0.041582
560.512680	0.041596
560.726117	0.041679
560.939536	0.041333
561.152937	0.041503
561.366319	0.041334
561.579683	0.041669
561.793029	0.041598
562.006357	0.041873
562.219667	0.041869
562.432958	0.041649
562.646231	0.041664
562.859486	0.041687
563.072723	0.041795
563.285941	0.041702
563.499141	0.041813
563.712323	0.042279
563.925487	0.041956
564.138632	0.042143
564.351760	0.042460
564.564869	0.042726
564.777960	0.043019
564.991032	0.043026
565.204087	0.043230
565.417123	0.043102
565.630141	0.042821
565.843140	0.043301
566.056122	0.043087
566.269085	0.043136
566.482030	0.043106
566.694957	0.043403
566.907866	0.043436
567.120756	0.043640
567.333628	0.043711
567.546482	0.044049
567.759318	0.044245
567.972135	0.044754
568.184935	0.044605
568.397716	0.045090
568.610478	0.044787
568.823223	0.044996
569.035949	0.044803
569.248657	0.045173
569.461347	0.045187
569.674019	0.044849
569.886672	0.044454
570.099308	0.044664
570.311925	0.044532
570.524523	0.044486
570.737104	0.044418
570.949666	0.044907
571.162210	0.044907
571.374736	0.044866
571.587244	0.044984
571.799733	0.045154
572.012205	0.045256
572.224658	0.044867
572.437092	0.045148
572.649509	0.045204
572.861907	0.044836
573.074287	0.044512
573.286649	0.044439
573.498993	0.044775
573.711318	0.045235
573.923625	0.045347
574.135914	0.045368
574.348185	0.045112
574.560438	0.045135
574.772672	0.045352
574.984888	0.045568
575.197086	0.045474
575.409266	0.045217
575.621427	0.045016
575.833570	0.044723
576.045695	0.044728
576.257802	0.044954
576.469890	0.045062
576.681961	0.044745
576.894013	0.045041
577.106046	0.045395
577.318062	0.045419
577.530059	0.045218
577.742039	0.045254
577.954000	0.045521
578.165942	0.045136
578.377867	0.045214
578.589773	0.045512
578.801661	0.045216
579.013531	0.044834
579.225382	0.044879
579.437216	0.044840
579.649031	0.045019
579.860828	0.044884
580.072606	0.045163
580.284367	0.044924
580.496109	0.045023
580.707833	0.044955
580.919539	0.045330
581.131227	0.045075
581.342896	0.045242
581.554547	0.045503
581.766180	0.045806
581.977795	0.046215
582.189391	0.046463
582.400969	0.046129
582.612529	0.046252
582.824071	0.046136
583.035595	0.046490
583.247100	0.046787
583.458587	0.046429
583.670056	0.046176
583.881506	0.045911
584.092939	0.046067
584.304353	0.046312
584.515749	0.046330
584.727127	0.046642
584.938486	0.046338
585.149828	0.045850
585.361151	0.045932
585.572456	0.046100
585.783742	0.046043
585.995011	0.045667
586.206261	0.045571
586.417493	0.045509
586.628706	0.045012
586.839902	0.045269
587.051079	0.045439
587.262238	0.045749
587.473379	0.045497
587.684502	0.045815
587.895606	0.046156
588.106692	0.046484
588.317760	0.046486
588.528810	0.046683
588.739841	0.046509
588.950855	0.046636
589.161850	0.046349
589.372827	0.046580
589.583785	0.046224
589.794726	0.045966
590.005648	0.045798
590.216552	0.046148
590.427437	0.046226
590.638305	0.046354
590.849154	0.046152
591.059985	0.046113
591.270798	0.046198
591.481592	0.046409
591.692369	0.046703
591.903127	0.046784
592.113867	0.046636
592.324588	0.046428
592.535292	0.046548
592.745977	0.046516
592.956644	0.046919
593.167293	0.046991
593.377923	0.046997
593.588536	0.046915
593.799130	0.046727
594.009706	0.046923
594.220263	0.047250
594.430803	0.047049
594.641324	0.047380
594.851827	0.047115
595.062312	0.046978
595.272778	0.046781
595.483227	0.046530
595.693657	0.046770
595.904069	0.046556
596.114462	0.046438
596.324838	0.046578
596.535195	0.046520
596.745534	0.046599
596.955855	0.046791
597.166157	0.047106
597.376441	0.047429
597.586707	0.047446
597.796955	0.047608
598.007185	0.047808
598.217396	0.047908
598.427589	0.047799
598.637764	0.047821
598.847921	0.047483
599.058060	0.047350
599.268180	0.047257
599.478282	0.047231
599.688366	0.047092
599.898431	0.047255
600.108479	0.047104
600.318508	0.047364
600.528519	0.047464
600.738511	0.047680
600.948486	0.047810
601.158442	0.047913
601.368380	0.047866
601.578300	0.048096
601.788202	0.047697
601.998085	0.047867
602.207950	0.047880
602.417797	0.047549
602.627626	0.047871
602.837436	0.047606
603.047228	0.047808
603.257002	0.047964
603.466758	0.047790
603.676496	0.047924
603.886215	0.047819
604.095916	0.048049
604.305599	0.048270
604.515264	0.047941
604.724910	0.048197
604.934538	0.048085
605.144148	0.047970
605.353740	0.047955
605.563314	0.047897
605.772869	0.048160
605.982406	0.047881
606.191925	0.047885
606.401425	0.047905
606.610908	0.048092
606.820372	0.047964
607.029818	0.048000
607.239246	0.048211
607.448655	0.048350
607.658047	0.048260
607.867420	0.048257
608.076775	0.048181
608.286111	0.048403
608.495430	0.048121
608.704730	0.048373
608.914012	0.048558
609.123275	0.048470
609.332521	0.048291
609.541748	0.048472
609.750957	0.048468
609.960148	0.048678
610.169321	0.048616
610.378475	0.048715
610.587611	0.048502
610.796729	0.048226
611.005829	0.048154
611.214910	0.048534
611.423974	0.048381
611.633019	0.048466
611.842045	0.048199
612.051054	0.048316
612.260044	0.048190
612.469017	0.048400
612.677970	0.048334
612.886906	0.048212
613.095824	0.048031
613.304723	0.048077
613.513604	0.048081
613.722467	0.047863
613.931311	0.047921
614.140138	0.047996
614.348946	0.047790
614.557736	0.048020
614.766507	0.048213
614.975261	0.048253
615.183996	0.048416
615.392713	0.048468
615.601412	0.049010
615.810092	0.048723
616.018754	0.048893
616.227399	0.049270
616.436024	0.049356
616.644632	0.049350
616.853222	0.049170
617.061793	0.048835
617.270346	0.048953
617.478880	0.048919
617.687397	0.048899
617.895895	0.049003
618.104375	0.048648
618.312837	0.048590
618.521281	0.048464
618.729706	0.048787
618.938113	0.049185
619.146502	0.048977
619.354873	0.049031
619.563226	0.049201
619.771560	0.049148
619.979876	0.049251
620.188174	0.049256
620.396453	0.049584
620.604715	0.049586
620.812958	0.049715
621.021183	0.049892
621.229390	0.050086
621.437578	0.050088
621.645748	0.050097
621.853900	0.050119
622.062034	0.050388
622.270150	0.050472
622.478247	0.050639
622.686326	0.050372
622.894387	0.050314
623.102430	0.050187
623.310454	0.050327
623.518461	0.050667
623.726449	0.050677
623.934418	0.050448
624.142370	0.050218
624.350303	0.049960
624.558218	0.050163
624.766115	0.050461
624.973994	0.050335
625.181855	0.050298
625.389697	0.049906
625.597521	0.049947
625.805327	0.049975
626.013114	0.050106
626.220883	0.050167
626.428634	0.049907
626.636367	0.049707
626.844082	0.049703
627.051778	0.049812
627.259457	0.049922
627.467117	0.049931
627.674758	0.050038
627.882382	0.050126
628.089987	0.050372
628.297574	0.050468
628.505143	0.050714
628.712694	0.051036
628.920226	0.050855
629.127740	0.051005
629.335236	0.051032
629.542714	0.051218
629.750174	0.051249
629.957615	0.051169
630.165038	0.051155
630.372443	0.050818
630.579829	0.050729
630.787198	0.051085
630.994548	0.051011
631.201880	0.051142
631.409194	0.050943
631.616489	0.051089
631.823766	0.051158
632.031025	0.051484
632.238266	0.051730
632.445489	0.051995
632.652693	0.052078
632.859879	0.052117
633.067047	0.052037
633.274197	0.052168
633.481329	0.052126
633.688442	0.052195
633.895537	0.052102
634.102614	0.052302
634.309672	0.052161
634.516713	0.052057
634.723735	0.052078
634.930739	0.052214
635.137724	0.052203
635.344692	0.052193
635.551641	0.052150
635.758572	0.052078
635.965485	0.051897
636.172379	0.051802
636.379256	0.051792
636.586114	0.051611
636.792954	0.051479
636.999775	0.051647
637.206579	0.051633
637.413364	0.051739
637.620131	0.051772
637.826880	0.051845
638.033610	0.051884
638.240323	0.051894
638.447017	0.052139
638.653692	0.052377
638.860350	0.051971
639.066990	0.052015
639.273611	0.051943
639.480214	0.052085
639.686798	0.052059
639.893365	0.052111
640.099913	0.052123
640.306443	0.052078
640.512955	0.051935
640.719449	0.052301
640.925924	0.052405
641.132381	0.052453
641.338820	0.052390
641.545241	0.052468
641.751644	0.052643
641.958028	0.052822
642.164394	0.052888
642.370742	0.053051
642.577071	0.053217
642.783383	0.053380
642.989676	0.053370
643.195951	0.053481
643.402207	0.053227
643.608446	0.053162
643.814666	0.053086
644.020868	0.053080
644.227052	0.052934
644.433218	0.052868
644.639365	0.052663
644.845494	0.052878
645.051605	0.052975
645.257698	0.053180
645.463772	0.053099
645.669828	0.053044
645.875866	0.053350
646.081886	0.053501
646.287888	0.053593
646.493871	0.053820
646.699836	0.053686
646.905783	0.053662
647.111712	0.053840
647.317622	0.053992
647.523514	0.054087
647.729388	0.053882
647.935244	0.053838
648.141082	0.053812
648.346901	0.053419
648.552702	0.053577
648.758485	0.053544
648.964250	0.053563
649.169996	0.053584
649.375724	0.053776
649.581434	0.054055
649.787126	0.054224
649.992800	0.054261
650.198455	0.054507
650.404092	0.054442
650.609711	0.054551
650.815311	0.054503
651.020894	0.054399
651.226458	0.054060
651.432004	0.053890
651.637532	0.053933
651.843041	0.053844
652.048532	0.053862
652.254006	0.053937
652.459460	0.053841
652.664897	0.053889
652.870315	0.054176
653.075716	0.054245
653.281097	0.054155
653.486461	0.054324
653.691807	0.054476
653.897134	0.054567
654.102443	0.054526
654.307734	0.054542
654.513006	0.054565
654.718261	0.054606
654.923497	0.054836
655.128715	0.055028
655.333915	0.054748
655.539096	0.054924
655.744259	0.055147
655.949404	0.055249
656.154531	0.055421
656.359640	0.055495
656.564730	0.055391
656.769802	0.055417
656.974856	0.055526
657.179892	0.055644
657.384909	0.055460
657.589908	0.055236
657.794889	0.055333
657.999852	0.055411
658.204797	0.055501
658.409723	0.055712
658.614631	0.055748
658.819521	0.055634
659.024393	0.055952
659.229246	0.056131
659.434081	0.056220
659.638898	0.056133
659.843697	0.056031
660.048478	0.055865
660.253240	0.055797
660.457984	0.055752
660.662710	0.055869
660.867417	0.055765
661.072107	0.055695
661.276778	0.055579
661.481431	0.055825
661.686066	0.055954
661.890682	0.056127
662.095281	0.056170
662.299861	0.056353
662.504422	0.056299
662.708966	0.056277
662.913491	0.056296
663.117999	0.056624
663.322488	0.056437
663.526958	0.056467
663.731411	0.056582
663.935845	0.056464
664.140261	0.056449
664.344659	0.056495
664.549038	0.056608
664.753400	0.056731
664.957743	0.056461
665.162068	0.056582
665.366375	0.056547
665.570663	0.056407
665.774933	0.056484
665.979185	0.056588
666.183419	0.056710
666.387635	0.056643
666.591832	0.056717
666.796011	0.057032
667.000172	0.057103
667.204315	0.057215
667.408439	0.057407
667.612545	0.057616
667.816634	0.057605
668.020703	0.057642
668.224755	0.057710
668.428788	0.057658
668.632803	0.057630
668.836800	0.057798
669.040779	0.057880
669.244739	0.057806
669.448681	0.057816
669.652605	0.057784
669.856511	0.057883
670.060399	0.057987
670.264268	0.058065
670.468119	0.058148
670.671952	0.058075
670.875767	0.058268
671.079563	0.058426
671.283341	0.058729
671.487101	0.059069
671.690843	0.059185
671.894567	0.059264
672.098272	0.059583
672.301959	0.059727
672.505628	0.059706
672.709278	0.059610
672.912911	0.059677
673.116525	0.059382
673.320121	0.059226
673.523699	0.059279
673.727258	0.059320
673.930799	0.059100
674.134322	0.059093
674.337827	0.059221
674.541314	0.059012
674.744782	0.058869
674.948232	0.058845
675.151664	0.058787
675.355078	0.058771
675.558474	0.058346
675.761851	0.058359
675.965210	0.058275
676.168551	0.058177
676.371873	0.058251
676.575178	0.058488
676.778464	0.058654
676.981732	0.058818
677.184981	0.058872
677.388213	0.059297
677.591426	0.059350
677.794621	0.059483
677.997798	0.059705
678.200956	0.059797
678.404097	0.059846
678.607219	0.059857
678.810323	0.060051
679.013408	0.060094
679.216476	0.060202
679.419525	0.060362
679.622556	0.060402
679.825569	0.060382
680.028563	0.060686
680.231540	0.060771
680.434498	0.060830
680.637438	0.060576
680.840359	0.060502
681.043263	0.060557
681.246148	0.060402
681.449015	0.060270
681.651864	0.060275
681.854694	0.060194
682.057506	0.060078
682.260301	0.060118
682.463076	0.060258
682.665834	0.060258
682.868573	0.060238
683.071295	0.060366
683.273998	0.060618
683.476682	0.060498
683.679349	0.060629
683.881997	0.060668
684.084627	0.060703
684.287239	0.060879
684.489833	0.061079
684.692408	0.061100
684.894965	0.061359
685.097504	0.061430
685.300025	0.061774
685.502527	0.061833
685.705012	0.062072
685.907478	0.062185
686.109925	0.062069
686.312355	0.062065
686.514766	0.062276
686.717159	0.062070
686.919534	0.062079
687.121891	0.062068
687.324230	0.061966
687.526550	0.061894
687.728852	0.061801
687.931136	0.061932
688.133401	0.062005
688.335649	0.061853
688.537878	0.061884
688.740089	0.061836
688.942281	0.061835
689.144456	0.061859
689.346612	0.061817
689.548750	0.061849
689.750870	0.061742
689.952971	0.061667
690.155055	0.061838
690.357120	0.061863
690.559167	0.061751
690.761195	0.061623
690.963206	0.061595
691.165198	0.061654
691.367172	0.061762
691.569128	0.061630
691.771065	0.061701
691.972984	0.061552
692.174885	0.061594
692.376768	0.061916
692.578633	0.061865
692.780479	0.061936
692.982308	0.062081
693.184118	0.062105
693.385909	0.062463
693.587683	0.062562
693.789438	0.062787
693.991175	0.062893
694.192894	0.062758
694.394595	0.063008
694.596277	0.062922
694.797941	0.063048
694.999587	0.063226
695.201215	0.063208
695.402824	0.063262
695.604416	0.063180
695.805989	0.063190
696.007543	0.063251
696.209080	0.063354
696.410598	0.063498
696.612099	0.063346
696.813580	0.063226
697.015044	0.063354
697.216490	0.063564
697.417917	0.063791
697.619326	0.064081
697.820717	0.064083
698.022089	0.064076
698.223444	0.064515
698.424780	0.064674
698.626098	0.064719
698.827397	0.064799
699.028679	0.064764
699.229942	0.064739
699.431187	0.064532
699.632414	0.064905
699.833622	0.064837
700.034813	0.064760
700.235985	0.064734
700.437139	0.064892
700.638274	0.064887
700.839392	0.064782
701.040491	0.064768
701.241572	0.064825
701.442635	0.064560
701.643679	0.064746
701.844706	0.064646
702.045714	0.064701
702.246704	0.064834
702.447675	0.064826
702.648629	0.064969
702.849564	0.065048
703.050481	0.065064
703.251380	0.065206
703.452260	0.065008
703.653122	0.064981
703.853966	0.064884
704.054792	0.064613
704.255600	0.064585
704.456389	0.064464
704.657160	0.064498
704.857913	0.064333
705.058648	0.064293
705.259365	0.064346
705.460063	0.064231
705.660743	0.064166
705.861405	0.064296
706.062048	0.064089
706.262674	0.064138
706.463281	0.064081
706.663870	0.064275
706.864441	0.064193
707.064993	0.064334
707.265527	0.064391
707.466043	0.064585
707.666541	0.064662
707.867021	0.064952
708.067482	0.064914
708.267925	0.065026
708.468350	0.065183
708.668757	0.065178
708.869145	0.065224
709.069516	0.065347
709.269868	0.065392
709.470201	0.065323
709.670517	0.065189
709.870814	0.065193
710.071093	0.065114
710.271354	0.064877
710.471597	0.065011
710.671821	0.065046
710.872028	0.064980
711.072216	0.064884
711.272385	0.064855
711.472537	0.065028
711.672670	0.065159
711.872785	0.065181
712.072882	0.065290
712.272961	0.065300
712.473021	0.065357
712.673063	0.065382
712.873087	0.065474
713.073093	0.065441
713.273081	0.065318
713.473050	0.065205
713.673001	0.065096
713.872934	0.065017
714.072849	0.064993
714.272745	0.064900
714.472623	0.064958
714.672483	0.064647
714.872325	0.064737
715.072148	0.064732
715.271954	0.064716
715.471741	0.064613
715.671509	0.064616
715.871260	0.064638
716.070992	0.064657
716.270707	0.064573
716.470403	0.064810
716.670080	0.064688
716.869740	0.064607
717.069381	0.064587
717.269004	0.064762
717.468609	0.064618
717.668195	0.064533
717.867764	0.064281
718.067314	0.064397
718.266846	0.064373
718.466360	0.064538
718.665855	0.064736
718.865332	0.064872
719.064791	0.064979
719.264232	0.065223
719.463655	0.065248
719.663059	0.065387
719.862445	0.065323
720.061813	0.065369
720.261163	0.065268
720.460494	0.065246
720.659807	0.065127
720.859102	0.064908
721.058379	0.064829
721.257638	0.064816
721.456878	0.065043
721.656100	0.064997
721.855304	0.064948
722.054490	0.064952
722.253657	0.064844
722.452806	0.064928
722.651937	0.065276
722.851050	0.065448
723.050145	0.065563
723.249221	0.065507
723.448279	0.065534
723.647319	0.065653
723.846340	0.065840
724.045344	0.065897
724.244329	0.065913
724.443296	0.065809
724.642245	0.065837
724.841175	0.065865
725.040088	0.065799
725.238982	0.065888
725.437857	0.065819
725.636715	0.065560
725.835554	0.065531
726.034376	0.065592
726.233179	0.065448
726.431963	0.065362
726.630730	0.065173
726.829478	0.065205
727.028208	0.065395
727.226920	0.065223
727.425614	0.065295
727.624289	0.065312
727.822946	0.065205
728.021585	0.065313
728.220206	0.065359
728.418808	0.065517
728.617392	0.065479
728.815958	0.065266
729.014506	0.065468
729.213036	0.065355
729.411547	0.065427
729.610040	0.065540
729.808515	0.065431
730.006972	0.065398
730.205410	0.065227
730.403831	0.065230
730.602233	0.065207
730.800616	0.065268
730.998982	0.065514
731.197329	0.065239
731.395658	0.065285
731.593969	0.065339
731.792262	0.065432
731.990536	0.065615
732.188793	0.065684
732.387031	0.065721
732.585250	0.065758
732.783452	0.065760
732.981635	0.065962
733.179800	0.066064
733.377947	0.066068
733.576076	0.065730
733.774186	0.065647
733.972278	0.065589
734.170352	0.065630
734.368408	0.065460
734.566446	0.065409
734.764465	0.065368
734.962466	0.065296
735.160449	0.065325
735.358413	0.065593
735.556360	0.065545
735.754288	0.065522
735.952198	0.065293
736.150090	0.065315
736.347963	0.065353
736.545818	0.065598
736.743655	0.065391
736.941474	0.065513
737.139275	0.065361
737.337057	0.065494
737.534821	0.065464
737.732567	0.065550
737.930295	0.065574
738.128005	0.065555
738.325696	0.065588
738.523369	0.065566
738.721024	0.065268
738.918660	0.065214
739.116279	0.065161
739.313879	0.065104
739.511461	0.065168
739.709024	0.065159
739.906570	0.065008
740.104097	0.064833
740.301606	0.064660
740.499097	0.064735
740.696569	0.064760
740.894024	0.064554
741.091460	0.064808
741.288878	0.064700
741.486277	0.064719
741.683659	0.064908
741.881022	0.065009
742.078367	0.065332
742.275694	0.065446
742.473002	0.065759
742.670293	0.065900
742.867565	0.065842
743.064819	0.066103
743.262054	0.066043
743.459272	0.066162
743.656471	0.066008
743.853652	0.066044
744.050815	0.066015
744.247959	0.065711
744.445085	0.065857
744.642194	0.065745
744.839283	0.065666
745.036355	0.065656
745.233408	0.065350
745.430444	0.065432
745.627461	0.065288
745.824459	0.065109
746.021440	0.065264
746.218402	0.065154
746.415346	0.065115
746.612272	0.064961
746.809180	0.064956
747.006069	0.065128
747.202940	0.065066
747.399793	0.064969
747.596628	0.065050
747.793444	0.065042
747.990243	0.064875
748.187023	0.064831
748.383784	0.064761
748.580528	0.064851
748.777253	0.064803
748.973960	0.064855
749.170649	0.064919
749.367320	0.064925
749.563973	0.064887
749.760607	0.065064
749.957223	0.065049
750.153821	0.065202
750.350400	0.065065
750.546962	0.065109
750.743505	0.064930
750.940030	0.064961
751.136536	0.064942
751.333025	0.065083
751.529495	0.065180
751.725947	0.065454
751.922381	0.065187
752.118796	0.065502
752.315194	0.065341
752.511573	0.065377
752.707934	0.065323
752.904276	0.065303
753.100601	0.065173
753.296907	0.065065
753.493195	0.064938
753.689465	0.065151
753.885716	0.064921
754.081949	0.065169
754.278164	0.065244
754.474361	0.065461
754.670540	0.065586
754.866700	0.065581
755.062843	0.065716
755.258967	0.065605
755.455072	0.065795
755.651160	0.065653
755.847229	0.065569
756.043280	0.065738
756.239313	0.065648
756.435328	0.065770
756.631324	0.066024
756.827302	0.066057
757.023262	0.066343
757.219204	0.066348
757.415127	0.066595
757.611033	0.066766
757.806920	0.066684
758.002788	0.066669
758.198639	0.066694
758.394471	0.066481
758.590286	0.066402
758.786081	0.066089
758.981859	0.065943
759.177619	0.065806
759.373360	0.065585
759.569083	0.065387
759.764788	0.065323
759.960474	0.065031
760.156143	0.064837
760.351793	0.064602
760.547425	0.064508
760.743038	0.064431
760.938634	0.064548
761.134211	0.064570
761.329770	0.064690
761.525311	0.064529
761.720833	0.064625
761.916338	0.064652
762.111824	0.064772
762.307292	0.065086
762.502741	0.065074
762.698173	0.065345
762.893586	0.065359
763.088981	0.065497
763.284358	0.065696
763.479716	0.065679
763.675057	0.065786
763.870379	0.065755
764.065683	0.065536
764.260968	0.065568
764.456236	0.065103
764.651485	0.064786
764.846716	0.064461
765.041929	0.064394
765.237123	0.064346
765.432299	0.064293
765.627457	0.064229
765.822597	0.064256
766.017719	0.064120
766.212822	0.064235
766.407907	0.064276
766.602974	0.064637
766.798023	0.064719
766.993054	0.064706
767.188066	0.064670
767.383060	0.064698
767.578036	0.064643
767.772993	0.064839
767.967933	0.064845
768.162854	0.064995
768.357757	0.064715
768.552642	0.064494
768.747508	0.064350
768.942356	0.064196
769.137186	0.064204
769.331998	0.064155
769.526792	0.064091
769.721567	0.064084
769.916324	0.063893
770.111063	0.064100
770.305784	0.064149
770.500486	0.064357
770.695171	0.064476
770.889837	0.064633
771.084484	0.064738
771.279114	0.064911
771.473725	0.064992
771.668318	0.065189
771.862893	0.064927
772.057450	0.064996
772.251988	0.064995
772.446509	0.065093
772.641011	0.065023
772.835494	0.064926
773.029960	0.064673
773.224407	0.064327
773.418836	0.064267
773.613247	0.064209
773.807640	0.064135
774.002014	0.063897
774.196370	0.063751
774.390708	0.063714
774.585028	0.063716
774.779330	0.063785
774.973613	0.063862
775.167878	0.063959
775.362125	0.064033
775.556354	0.064204
775.750564	0.064482
775.944756	0.064647
776.138930	0.064621
776.333086	0.064564
776.527223	0.064571
776.721343	0.064667
776.915444	0.064647
777.109526	0.064936
777.303591	0.064937
777.497637	0.064742
777.691666	0.064594
777.885676	0.064673
778.079667	0.064830
778.273641	0.064633
778.467596	0.064852
778.661533	0.064931
778.855452	0.064624
779.049352	0.064555
779.243235	0.064837
779.437099	0.065007
779.630945	0.065054
779.824773	0.065020
780.018582	0.065258
780.212373	0.065110
780.406146	0.064894
780.599901	0.065129
780.793638	0.065191
780.987356	0.064859
781.181056	0.065058
781.374738	0.064991
781.568402	0.065304
781.762047	0.065511
781.955674	0.065931
782.149283	0.066152
782.342874	0.066150
782.536447	0.066389
782.730001	0.066468
782.923537	0.066377
783.117055	0.066422
783.310555	0.066115
783.504036	0.065917
783.697499	0.065690
783.890944	0.065797
784.084371	0.065907
784.277780	0.065693
784.471170	0.066079
784.664542	0.066054
784.857896	0.066086
785.051231	0.066324
785.244549	0.066380
785.437848	0.066403
785.631129	0.066448
785.824392	0.066413
786.017636	0.066421
786.210863	0.065999
786.404071	0.066155
786.597260	0.066259
786.790432	0.065963
786.983585	0.065805
787.176721	0.065574
787.369838	0.065319
787.562936	0.065107
787.756017	0.065006
787.949079	0.065205
788.142123	0.064879
788.335149	0.064664
788.528156	0.064697
788.721146	0.064868
788.914117	0.064882
789.107070	0.065130
789.300005	0.065208
789.492921	0.065503
789.685819	0.065558
789.878699	0.065664
790.071561	0.065760
790.264405	0.065912
790.457230	0.066006
790.650037	0.065764
790.842826	0.065656
791.035597	0.065657
791.228349	0.065397
791.421084	0.065229
791.613800	0.065391
791.806497	0.065081
791.999177	0.065100
792.191838	0.064782
792.384481	0.065092
792.577106	0.064972
792.769713	0.064988
792.962301	0.065187
793.154871	0.065524
793.347423	0.065449
793.539957	0.065736
793.732473	0.065579
793.924970	0.065931
794.117449	0.065790
794.309910	0.066075
794.502353	0.066388
794.694777	0.066198
794.887183	0.066267
795.079571	0.066402
795.271941	0.066576
795.464293	0.066899
795.656626	0.067013
795.848941	0.067216
796.041238	0.067444
796.233516	0.067429
796.425777	0.067611
796.618019	0.067401
796.810243	0.067361
797.002449	0.067245
797.194636	0.067130
797.386805	0.066882
797.578956	0.066915
797.771089	0.066511
797.963204	0.066159
798.155300	0.066119
798.347378	0.066003
798.539438	0.065821
798.731480	0.065904
798.923503	0.065986
799.115509	0.065978
799.307496	0.066154
799.499465	0.066128
799.691415	0.066343
799.883348	0.066476
800.075262	0.066870
800.267158	0.067041
800.459035	0.067086
800.650895	0.067151
800.842736	0.067306
801.034559	0.067155
801.226364	0.067281
801.418150	0.067381
801.609919	0.067251
801.801669	0.067038
801.993401	0.066830
802.185114	0.066703
802.376810	0.066444
802.568487	0.066388
802.760146	0.066329
802.951787	0.066356
803.143409	0.066235
803.335014	0.066269
803.526600	0.066405
803.718168	0.066648
803.909717	0.066786
804.101249	0.067123
804.292762	0.067073
804.484257	0.067254
804.675734	0.067282
804.867192	0.067592
805.058632	0.067706
805.250054	0.067707
805.441458	0.067741
805.632844	0.067777
805.824211	0.067746
806.015561	0.067962
806.206891	0.067771
806.398204	0.068023
806.589499	0.067976
806.780775	0.067879
806.972033	0.067838
807.163273	0.067877
807.354495	0.067791
807.545698	0.067736
807.736883	0.067720
807.928050	0.068071
808.119199	0.067958
808.310329	0.067913
808.501441	0.067850
808.692535	0.067742
808.883611	0.067724
809.074669	0.067865
809.265708	0.067947
809.456729	0.067895
809.647732	0.067883
809.838717	0.067761
810.029683	0.067685
810.220632	0.067816
810.411562	0.068083
810.602474	0.068120
810.793367	0.068109
810.984242	0.068101
811.175100	0.068274
811.365938	0.068079
811.556759	0.068135
811.747562	0.068141
811.938346	0.068258
812.129112	0.068230
812.319860	0.068054
812.510589	0.068118
812.701300	0.067959
812.891994	0.067851
813.082668	0.068099
813.273325	0.068142
813.463964	0.068054
813.654584	0.067861
813.845186	0.067721
814.035769	0.067812
814.226335	0.067646
814.416882	0.067848
814.607411	0.067897
814.797922	0.067785
814.988415	0.067787
815.178889	0.067868
815.369345	0.068249
815.559783	0.068452
815.750203	0.068534
815.940605	0.068665
816.130988	0.068647
816.321353	0.068885
816.511700	0.068926
816.702028	0.068952
816.892339	0.069095
817.082631	0.069069
817.272905	0.069308
817.463161	0.069426
817.653398	0.069485
817.843617	0.069451
818.033819	0.069367
818.224001	0.069312
818.414166	0.069211
818.604312	0.069264
818.794440	0.069103
818.984550	0.068893
819.174642	0.068882
819.364716	0.069106
819.554771	0.069240
819.744808	0.069222
819.934827	0.069115
820.124827	0.069353
820.314810	0.069313
820.504774	0.069487
820.694720	0.069473
820.884647	0.069512
821.074557	0.069424
821.264448	0.069428
821.454321	0.069448
821.644176	0.069624
821.834012	0.069317
822.023831	0.069144
822.213631	0.069050
822.403413	0.068897
822.593176	0.068748
822.782922	0.068546
822.972649	0.068456
823.162358	0.068387
823.352049	0.068527
823.541721	0.068627
823.731376	0.068779
823.921012	0.068561
824.110629	0.068594
824.300229	0.068711
824.489811	0.068791
824.679374	0.068878
824.868919	0.068547
825.058445	0.068144
825.247954	0.068262
825.437444	0.068452
825.626916	0.068515
825.816370	0.068695
826.005806	0.068713
826.195223	0.068769
826.384622	0.068514
826.574003	0.068729
826.763366	0.069045
826.952711	0.068957
827.142037	0.068824
827.331345	0.068976
827.520635	0.068882
827.709906	0.068746
827.899160	0.068478
828.088395	0.068716
828.277612	0.068912
828.466810	0.068876
828.655991	0.069049
828.845153	0.069145
829.034297	0.069367
829.223423	0.069268
829.412531	0.069349
829.601620	0.069690
829.790691	0.069529
829.979744	0.069699
830.168779	0.069873
830.357795	0.069921
830.546793	0.069896
830.735773	0.069788
830.924735	0.069947
831.113679	0.070103
831.302604	0.070225
831.491511	0.070724
831.680400	0.070558
831.869271	0.070450
832.058123	0.070469
832.246957	0.070492
832.435773	0.070328
832.624571	0.070417
832.813351	0.070507
833.002112	0.070586
833.190855	0.070422
833.379580	0.070369
833.568287	0.070601
833.756975	0.070635
833.945645	0.070563
834.134297	0.070505
834.322931	0.070396
834.511547	0.070117
834.700144	0.069894
834.888723	0.069727
835.077284	0.069766
835.265826	0.069573
835.454351	0.069637
835.642857	0.069643
835.831345	0.069849
836.019815	0.070127
836.208266	0.070368
836.396699	0.070292
836.585114	0.070633
836.773511	0.070675
836.961890	0.070914
837.150250	0.071026
837.338592	0.070995
837.526916	0.071155
837.715222	0.071033
837.903510	0.070881
838.091779	0.071056
838.280030	0.070977
838.468263	0.070975
838.656477	0.070781
838.844674	0.070561
839.032852	0.070538
839.221012	0.070543
839.409153	0.070324
839.597277	0.070640
839.785382	0.070751
839.973469	0.070824
840.161538	0.070848
840.349589	0.071094
840.537621	0.071247
840.725635	0.071545
840.913631	0.071416
841.101609	0.071712
841.289568	0.071747
841.477509	0.071861
841.665432	0.071924
841.853337	0.071972
842.041224	0.071909
842.229092	0.071999
842.416942	0.071926
842.604774	0.072126
842.792588	0.071884
842.980383	0.071708
843.168160	0.071444
843.355919	0.071510
843.543660	0.071792
843.731382	0.071856
843.919087	0.071609
844.106773	0.071656
844.294441	0.071525
844.482090	0.071573
844.669722	0.071862
844.857335	0.072082
845.044930	0.071847
845.232507	0.071693
845.420065	0.071552
845.607605	0.071953
845.795127	0.072008
845.982631	0.072247
846.170117	0.072643
846.357584	0.072508
846.545033	0.072684
846.732464	0.072811
846.919877	0.072878
847.107272	0.072777
847.294648	0.072523
847.482006	0.072556
847.669346	0.072414
847.856667	0.072197
848.043971	0.072284
848.231256	0.072015
848.418523	0.072131
848.605771	0.071891
848.793002	0.072048
848.980214	0.072271
849.167408	0.072275
849.354584	0.072220
849.541742	0.072383
849.728881	0.072127
849.916002	0.072262
850.103105	0.072060
850.290190	0.072428
850.477256	0.072283
850.664304	0.072007
850.851334	0.072183
851.038346	0.072359
851.225340	0.072215
851.412315	0.072592
851.599272	0.072582
851.786211	0.072713
851.973132	0.072710
852.160034	0.072979
852.346918	0.073322
852.533784	0.073056
852.720632	0.073103
852.907462	0.072912
853.094273	0.072665
853.281066	0.072752
853.467841	0.072925
853.654598	0.072863
853.841336	0.072823
854.028056	0.072502
854.214758	0.072627
854.401442	0.072452
854.588107	0.072575
854.774755	0.072566
854.961384	0.072832
855.147995	0.072402
855.334587	0.072237
855.521162	0.072233
855.707718	0.072326
855.894256	0.072257
856.080775	0.072309
856.267277	0.072533
856.453760	0.072746
856.640225	0.072606
856.826672	0.072836
857.013101	0.073081
857.199511	0.073153
857.385903	0.073259
857.572277	0.073391
857.758633	0.073604
857.944970	0.073732
858.131290	0.073906
858.317591	0.073890
858.503873	0.073922
858.690138	0.073720
858.876384	0.073760
859.062612	0.073970
859.248822	0.074057
859.435014	0.074058
859.621188	0.073837
859.807343	0.073538
859.993480	0.073258
860.179599	0.072880
860.365699	0.072780
860.551781	0.072638
860.737846	0.072208
860.923891	0.072050
861.109919	0.071835
861.295929	0.071670
861.481920	0.071544
861.667893	0.071503
861.853848	0.071744
862.039784	0.072023
862.225702	0.072304
862.411603	0.072479
862.597484	0.072302
862.783348	0.072008
862.969193	0.072195
863.155021	0.072326
863.340830	0.072557
863.526620	0.072730
863.712393	0.072541
863.898147	0.072204
864.083883	0.071998
864.269601	0.072132
864.455301	0.072536
864.640982	0.072449
864.826645	0.072273
865.012290	0.072139
865.197917	0.072088
865.383526	0.071981
865.569116	0.071881
865.754688	0.072059
865.940242	0.072065
866.125777	0.071732
866.311295	0.071740
866.496794	0.071816
866.682275	0.071793
866.867737	0.071627
867.053182	0.071729
867.238608	0.071997
867.424016	0.071721
867.609406	0.071732
867.794778	0.071681
867.980131	0.071560
868.165466	0.071205
868.350783	0.071277
868.536082	0.071177
868.721362	0.071070
868.906625	0.070919
869.091869	0.070994
869.277094	0.071074
869.462302	0.071230
869.647491	0.071344
869.832662	0.071858
870.017815	0.071784
870.202950	0.072032
870.388066	0.072189
870.573165	0.072132
870.758245	0.072428
870.943306	0.072129
871.128350	0.072248
871.313375	0.072103
871.498382	0.071912
871.683371	0.071847
871.868342	0.071859
872.053294	0.071655
872.238229	0.071767
872.423144	0.071749
872.608042	0.072019
872.792922	0.071701
872.977783	0.071773
873.162626	0.071946
873.347451	0.071969
873.532258	0.071776
873.717046	0.071987
873.901816	0.072037
874.086568	0.071796
874.271302	0.071324
874.456017	0.071522
874.640715	0.071547
874.825394	0.071397
875.010055	0.071398
875.194697	0.071452
875.379322	0.071462
875.563928	0.071330
875.748516	0.071437
875.933085	0.071696
876.117637	0.071668
876.302170	0.071579
876.486685	0.071592
876.671182	0.071334
876.855661	0.071259
877.040121	0.070945
877.224563	0.070977
877.408987	0.070623
877.593393	0.070501
877.777780	0.070460
877.962150	0.070615
878.146501	0.070604
878.330833	0.070709
878.515148	0.070701
878.699444	0.070721
878.883722	0.070569
879.067982	0.071041
879.252224	0.071091
879.436447	0.071016
879.620653	0.070847
879.804840	0.070367
879.989008	0.070127
880.173159	0.070226
880.357291	0.070485
880.541405	0.070408
880.725501	0.070065
880.909579	0.070149
881.093638	0.070174
881.277680	0.070131
881.461703	0.070437
881.645707	0.070577
881.829694	0.070495
882.013662	0.070281
882.197612	0.070061
882.381544	0.069934
882.565458	0.069398
882.749353	0.069382
882.933230	0.069259
883.117089	0.069001
883.300930	0.069207
883.484753	0.069010
883.668557	0.069085
883.852343	0.069053
884.036111	0.069178
884.219861	0.069399
884.403592	0.069310
884.587305	0.069572
884.771000	0.069450
884.954677	0.069054
885.138335	0.069252
885.321976	0.069482
885.505598	0.069586
885.689201	0.069639
885.872787	0.069762
886.056354	0.069866
886.239904	0.069693
886.423434	0.070010
886.606947	0.070566
886.790442	0.070521
886.973918	0.070002
887.157376	0.069921
887.340816	0.070038
887.524237	0.069702
887.707641	0.069591
887.891026	0.069331
888.074393	0.068857
888.257741	0.068411
888.441072	0.068256
888.624384	0.068250
888.807678	0.068326
888.990954	0.067602
889.174211	0.068007
889.357451	0.067706
889.540672	0.067467
889.723875	0.067481
889.907059	0.067153
890.090226	0.066859
890.273374	0.067041
890.456504	0.066511
890.639616	0.066768
890.822709	0.066441
891.005785	0.066154
891.188842	0.066485
891.371881	0.066619
891.554901	0.066603
891.737904	0.066585
891.920888	0.066025
892.103854	0.066127
892.286802	0.065863
892.469731	0.065834
892.652643	0.066081
892.835536	0.065673
893.018410	0.065588
893.201267	0.065953
893.384106	0.065564
893.566926	0.065679
893.749728	0.065899
893.932511	0.066253
894.115277	0.066234
894.298024	0.066245
894.480753	0.066422
894.663464	0.066179
894.846157	0.066098
895.028831	0.066505
895.211487	0.066519
895.394125	0.066557
895.576745	0.066676
895.759346	0.066558
895.941930	0.066583
896.124495	0.066706
896.307041	0.067170
896.489570	0.067126
896.672080	0.067117
896.854573	0.066790
897.037046	0.066614
897.219502	0.066195
897.401940	0.066225
897.584359	0.066146
897.766760	0.065604
897.949143	0.065135
898.131507	0.064640
898.313854	0.064407
898.496182	0.064657
898.678492	0.064352
898.860783	0.063830
899.043057	0.063232
899.225312	0.062906
899.407549	0.062993
899.589768	0.062902
899.771968	0.062899
899.954151	0.062640
900.136315	0.062193
900.318461	0.062067
900.500588	0.062545
900.682698	0.063026
900.864789	0.063116
901.046862	0.062806
901.228917	0.062855
901.410953	0.062751
901.592971	0.062462
901.774972	0.062836
901.956953	0.063030
902.138917	0.063002
902.320862	0.062780
902.502790	0.062515
902.684699	0.062942
902.866589	0.063062
903.048462	0.063009
903.230316	0.063619
903.412152	0.063416
903.593970	0.063137
903.775770	0.063053
903.957551	0.063013
904.139314	0.063078
904.321059	0.062481
904.502786	0.062265
904.684494	0.062274
904.866185	0.062265
905.047857	0.061883
905.229510	0.062045
905.411146	0.061788
905.592763	0.061419
905.774363	0.061627
905.955943	0.061458
906.137506	0.061119
906.319051	0.060976
906.500577	0.060492
906.682085	0.060252
906.863575	0.059825
907.045046	0.059634
907.226500	0.059601
907.407935	0.059262
907.589352	0.059660
907.770750	0.059919
907.952131	0.059841
908.133493	0.059997
908.314837	0.059997
908.496163	0.060071
908.677470	0.060071
908.858760	0.060102
909.040031	0.060049
909.221284	0.059978
909.402518	0.059980
909.583735	0.059918
909.764933	0.059764
909.946113	0.059904
910.127275	0.059985
910.308418	0.059687
910.489544	0.059447
910.670651	0.058946
910.851740	0.058421
911.032810	0.058111
911.213863	0.057942
911.394897	0.057417
911.575913	0.057151
911.756911	0.056395
911.937890	0.055898
912.118851	0.056115
912.299794	0.056070
912.480719	0.056193
912.661626	0.055585
912.842514	0.055308
913.023384	0.055688
913.204236	0.055912
913.385070	0.056158
913.565886	0.056697
913.746683	0.056186
913.927462	0.056015
914.108223	0.055536
914.288965	0.055435
914.469690	0.055249
914.650396	0.054774
914.831084	0.054290
915.011754	0.054139
915.192405	0.053800
915.373038	0.053884
915.553653	0.053936
915.734250	0.054416
915.914829	0.054655
916.095389	0.054687
916.275931	0.054765
916.456455	0.054632
916.636961	0.054514
916.817448	0.054420
916.997917	0.054175
917.178368	0.054292
917.358801	0.053590
917.539216	0.053393
917.719612	0.053210
917.899990	0.052733
918.080350	0.052306
918.260692	0.052328
918.441015	0.052489
918.621320	0.052126
918.801607	0.051712
918.981876	0.051951
919.162127	0.051672
919.342359	0.051744
919.522573	0.051442
919.702769	0.051441
919.882947	0.051014
920.063106	0.050775
920.243247	0.050903
920.423370	0.050515
920.603475	0.050034
920.783562	0.050158
920.963630	0.050034
921.143680	0.050274
921.323712	0.050423
921.503725	0.050557
921.683721	0.050095
921.863698	0.049587
922.043657	0.049586
922.223598	0.049706
922.403520	0.049359
922.583424	0.048961
922.763311	0.048570
922.943178	0.048186
923.123028	0.047964
923.302859	0.047821
923.482673	0.047955
923.662467	0.048048
923.842244	0.047941
924.022003	0.047984
924.201743	0.047452
924.381465	0.047216
924.561169	0.047349
924.740854	0.046884
924.920522	0.046957
925.100171	0.046838
925.279802	0.046476
925.459414	0.046482
925.639009	0.045980
925.818585	0.046305
925.998143	0.046244
926.177683	0.045942
926.357205	0.045933
926.536708	0.045701
926.716193	0.045758
926.895660	0.045403
927.075109	0.044639
927.254539	0.044668
927.433951	0.043870
927.613345	0.043735
927.792721	0.043454
927.972079	0.043780
928.151418	0.043265
928.330739	0.042636
928.510042	0.042247
928.689327	0.042178
928.868593	0.041642
929.047841	0.042079
929.227071	0.041577
929.406283	0.041594
929.585476	0.041132
929.764652	0.041397
929.943809	0.041468
930.122948	0.041783
930.302068	0.041792
930.481171	0.041758
930.660255	0.041465
930.839321	0.041177
931.018369	0.040318
931.197398	0.040317
931.376409	0.039527
931.555402	0.039162
931.734377	0.038794
931.913334	0.038440
932.092272	0.038233
932.271192	0.037868
932.450094	0.038109
932.628978	0.038965
932.807844	0.037842
932.986691	0.037794
933.165520	0.037561
933.344331	0.037225
933.523123	0.037154
933.701898	0.037169
933.880654	0.037001
934.059392	0.036847
934.238111	0.036379
934.416813	0.036943
934.595496	0.036750
934.774161	0.035895
934.952808	0.036092
935.131437	0.035296
935.310047	0.034928
935.488639	0.034179
935.667213	0.034579
935.845769	0.034452
936.024306	0.034050
936.202825	0.033781
936.381326	0.034605
936.559809	0.034563
936.738274	0.035473
936.916720	0.035576
937.095148	0.036036
937.273558	0.035129
937.451950	0.034219
937.630323	0.033511
937.808678	0.034023
937.987015	0.033401
938.165334	0.032948
938.343635	0.031806
938.521917	0.031663
938.700181	0.031852
938.878427	0.031548
939.056655	0.031404
939.234864	0.031547
939.413055	0.030024
939.591228	0.030194
939.769383	0.029393
939.947519	0.029696
940.125638	0.028738
940.303738	0.028140
940.481820	0.027984
940.659883	0.027053
940.837929	0.026650
941.015956	0.027429
941.193965	0.027290
941.371955	0.027878
941.549928	0.027060
941.727882	0.027523
941.905818	0.026793
942.083736	0.026712
942.261636	0.027016
942.439517	0.027062
942.617380	0.026596
942.795225	0.025412
942.973052	0.023972
943.150860	0.024150
943.328651	0.022771
943.506423	0.023335
943.684176	0.022684
943.861912	0.023247
944.039629	0.023504
944.217328	0.023096
944.395009	0.023228
944.572672	0.023122
944.750317	0.022048
944.927943	0.022208
945.105551	0.021393
945.283141	0.021533
945.460712	0.020203
945.638265	0.019415
945.815801	0.019180
945.993317	0.019965
946.170816	0.019956
946.348297	0.021185
946.525759	0.020858
946.703203	0.020651
946.880629	0.019351
947.058036	0.020543
947.235425	0.020108
947.412797	0.019167
947.590149	0.018077
947.767484	0.018750
947.944800	0.018241
948.122099	0.018521
948.299379	0.018886
948.476640	0.020463
948.653884	0.020481
948.831109	0.020530
949.008316	0.021136
949.185505	0.020400
949.362676	0.020481
949.539828	0.020457
949.716962	0.021071
949.894078	0.020894
950.071176	0.019565
950.248256	0.017384
950.425317	0.016649
950.602360	0.017269
950.779385	0.017645
950.956391	0.016255
951.133380	0.016522
951.310350	0.015687
951.487302	0.015299
951.664235	0.015812
951.841151	0.018253
952.018048	0.018800
952.194927	0.018662
952.371788	0.019501
952.548631	0.020856
952.725455	0.019917
952.902261	0.019639
953.079049	0.019810
953.255819	0.019529
953.432570	0.018870
953.609303	0.020770
953.786018	0.019770
953.962715	0.018976
954.139394	0.017260
954.316054	0.016710
954.492696	0.018889
954.669320	0.017593
954.845926	0.017928
955.022513	0.018430
955.199083	0.016786
955.375634	0.017982
955.552166	0.018669
955.728681	0.017883
955.905177	0.018463
956.081655	0.016301
956.258115	0.017736
956.434557	0.017623
956.610980	0.017987
956.787385	0.016593
956.963772	0.015742
957.140141	0.015238
957.316492	0.015118
957.492824	0.014802
957.669138	0.015235
957.845434	0.014442
958.021712	0.014544
958.197971	0.012930
958.374212	0.013392
958.550435	0.013298
958.726640	0.012881
958.902826	0.016124
959.078995	0.015934
959.255145	0.015124
959.431277	0.015738
959.607390	0.014518
959.783486	0.015115
959.959563	0.016302
960.135622	0.017227
960.311662	0.019437
960.487685	0.019009
960.663689	0.020388
960.839675	0.020863
961.015643	0.021022
961.191593	0.022740
961.367524	0.019530
961.543437	0.020204
961.719332	0.018806
961.895209	0.018258
962.071067	0.018473
962.246907	0.018615
962.422730	0.018993
962.598533	0.018028
962.774319	0.018038
962.950086	0.020822
963.125835	0.020409
963.301566	0.021741
963.477279	0.021622
963.652973	0.022595
963.828650	0.023986
964.004308	0.025760
964.179947	0.029713
964.355569	0.029511
964.531172	0.030031
964.706757	0.029074
964.882324	0.028374
965.057873	0.027988
965.233403	0.025720
965.408916	0.024420
965.584410	0.023766
965.759885	0.020145
965.935343	0.021471
966.110782	0.021185
966.286203	0.022988
966.461606	0.023188
966.636991	0.022991
966.812357	0.023517
966.987705	0.025521
967.163035	0.026056
967.338347	0.025655
967.513641	0.025443
967.688916	0.025977
967.864173	0.024587
968.039412	0.024708
968.214632	0.025973
968.389835	0.026073
968.565019	0.024458
968.740185	0.023530
968.915333	0.025512
969.090462	0.024234
969.265573	0.023807
969.440667	0.025707
969.615741	0.026973
969.790798	0.026610
969.965836	0.026750
970.140856	0.024809
970.315858	0.025138
970.490842	0.024958
970.665808	0.024754
970.840755	0.025715
971.015684	0.024054
971.190595	0.022582
971.365487	0.023095
971.540362	0.022585
971.715218	0.024838
971.890056	0.024405
972.064875	0.023340
972.239677	0.023843
972.414460	0.023237
972.589225	0.024790
972.763972	0.024949
972.938700	0.023405
973.113411	0.024550
973.288103	0.023608
973.462777	0.025119
973.637432	0.026319
973.812070	0.026959
973.986689	0.026675
974.161290	0.024451
974.335873	0.026709
974.510437	0.025608
974.684984	0.025109
974.859512	0.025180
975.034022	0.023391
975.208513	0.023682
975.382987	0.024313
975.557442	0.025761
975.731879	0.027653
975.906298	0.027893
976.080698	0.028435
976.255080	0.028037
976.429445	0.027681
976.603790	0.026786
976.778118	0.025453
976.952427	0.025423
977.126719	0.024351
977.300992	0.024978
977.475246	0.022382
977.649483	0.023474
977.823701	0.023489
977.997901	0.023350
978.172083	0.023640
978.346247	0.024777
978.520392	0.023312
978.694519	0.021650
978.868628	0.019963
979.042719	0.020274
979.216791	0.021119
979.390845	0.019811
979.564882	0.020985
979.738899	0.019476
979.912899	0.019338
980.086880	0.018522
980.260843	0.019335
980.434788	0.020864
980.608715	0.020278
980.782623	0.020289
980.956514	0.022015
981.130386	0.022986
981.304240	0.024378
981.478075	0.024499
981.651892	0.025975
981.825692	0.024855
981.999472	0.024322
982.173235	0.025481
982.346980	0.024563
982.520706	0.024585
982.694414	0.022943
982.868104	0.024394
983.041775	0.022432
983.215428	0.022166
983.389064	0.023598
983.562680	0.023562
983.736279	0.022158
983.909860	0.021662
984.083422	0.020985
984.256966	0.019808
984.430491	0.018672
984.603999	0.021956
984.777488	0.023024
984.950959	0.024399
985.124412	0.024515
985.297847	0.025937
985.471263	0.025920
985.644661	0.026573
985.818041	0.029221
985.991403	0.027367
986.164747	0.026561
986.338072	0.025340
986.511379	0.024996
986.684668	0.024463
986.857938	0.025795
987.031191	0.026947
987.204425	0.027020
987.377641	0.025550
987.550839	0.029148
987.724018	0.028130
987.897179	0.027777
988.070322	0.026711
988.243447	0.025955
988.416554	0.024590
988.589642	0.024335
988.762712	0.024079
988.935764	0.023380
989.108798	0.021042
989.281813	0.020579
989.454811	0.020831
989.627790	0.022292
989.800751	0.023307
989.973693	0.022655
990.146617	0.019917
990.319524	0.019644
990.492412	0.018179
990.665281	0.018812
990.838133	0.019046
991.010966	0.019879
991.183781	0.020043
991.356578	0.020283
991.529356	0.018705
991.702117	0.020761
991.874859	0.019773
992.047583	0.021895
992.220288	0.022076
992.392976	0.021146
992.565645	0.019428
992.738296	0.016838
992.910929	0.016990
993.083543	0.017574
993.256139	0.017589
993.428718	0.018734
993.601277	0.017816
993.773819	0.018406
993.946342	0.019057
994.118848	0.020710
994.291335	0.021462
994.463803	0.019894
994.636254	0.020315
994.808686	0.019781
994.981100	0.021019
995.153496	0.023329
995.325874	0.023988
995.498233	0.024235
995.670574	0.024580
995.842897	0.023699
996.015202	0.022976
996.187488	0.024410
996.359757	0.024899
996.532007	0.024438
996.704239	0.021894
996.876452	0.019074
997.048648	0.018693
997.220825	0.016962
997.392984	0.018895
997.565124	0.017972
997.737247	0.017668
997.909351	0.016122
998.081437	0.015673
998.253505	0.016465
998.425554	0.017577
998.597586	0.017817
998.769599	0.018717
998.941594	0.018199
999.113571	0.019372
999.285529	0.017711
999.457469	0.018039
999.629391	0.017968
999.801295	0.018843
999.973181	0.020609
1000.145048	0.021989
1000.316897	0.021272
1000.488728	0.021783
1000.660541	0.022515
1000.832335	0.025275
1001.004111	0.024696
1001.175869	0.024518
1001.347609	0.023635
1001.519331	0.024196
1001.691034	0.022924
1001.862719	0.024172
1002.034386	0.022054
1002.206035	0.023030
1002.377665	0.020469
1002.549277	0.022506
1002.720871	0.022455
1002.892447	0.022876
1003.064004	0.021632
1003.235544	0.021144
1003.407065	0.021342
1003.578568	0.022415
1003.750052	0.021504
1003.921519	0.023527
1004.092967	0.021838
1004.264397	0.023356
1004.435809	0.023010
1004.607202	0.020183
1004.778577	0.020754
1004.949934	0.020768
1005.121273	0.020280
1005.292594	0.020258
1005.463896	0.018610
1005.635180	0.019739
1005.806446	0.017332
1005.977694	0.017252
1006.148923	0.019903
1006.320135	0.018786
1006.491328	0.017152
1006.662503	0.017333
1006.833659	0.017264
1007.004798	0.016929
1007.175918	0.015953
1007.347020	0.017448
1007.518103	0.017351
1007.689169	0.015532
1007.860216	0.015740
1008.031245	0.015994
1008.202256	0.015596
1008.373248	0.013713
1008.544223	0.014278
1008.715179	0.016805
1008.886117	0.016073
1009.057036	0.015278
1009.227938	0.015775
1009.398821	0.018205
1009.569686	0.018744
1009.740533	0.021144
1009.911361	0.023986
1010.082172	0.024739
1010.252964	0.023256
1010.423738	0.023084
1010.594493	0.023838
1010.765231	0.024481
1010.935950	0.021230
1011.106651	0.019838
1011.277334	0.019261
1011.447998	0.017535
1011.618645	0.018362
1011.789273	0.017844
1011.959882	0.018472
1012.130474	0.018026
1012.301048	0.018190
1012.471603	0.019408
1012.642140	0.020701
1012.812658	0.018104
1012.983159	0.018399
1013.153641	0.017134
1013.324105	0.016716
1013.494551	0.015863
1013.664979	0.015221
1013.835388	0.015910
1014.005779	0.015386
1014.176152	0.014121
1014.346507	0.013799
1014.516843	0.013053
1014.687162	0.012407
1014.857462	0.013380
1015.027744	0.013638
1015.198007	0.015262
1015.368252	0.013709
1015.538480	0.014259
1015.708689	0.016013
1015.878879	0.017241
1016.049052	0.018184
1016.219206	0.018028
1016.389342	0.015234
1016.559460	0.014446
1016.729559	0.013115
1016.899641	0.013707
1017.069704	0.013268
1017.239749	0.013053
1017.409775	0.011786
1017.579784	0.012363
1017.749774	0.012506
1017.919746	0.014658
1018.089700	0.014066
1018.259635	0.014433
1018.429553	0.012978
1018.599452	0.011613
1018.769333	0.010350
1018.939195	0.011446
1019.109040	0.010680
1019.278866	0.011899
1019.448674	0.012315
1019.618464	0.013663
1019.788235	0.013350
1019.957989	0.012769
1020.127724	0.014459
1020.297441	0.015899
1020.467139	0.015793
1020.636820	0.016140
1020.806482	0.014832
1020.976126	0.013119
1021.145752	0.012240
1021.315359	0.011329
1021.484948	0.012100
1021.654519	0.010727
1021.824072	0.009911
1021.993607	0.009329
1022.163123	0.009483
1022.332621	0.008888
1022.502101	0.009743
1022.671563	0.010638
1022.841007	0.011405
1023.010432	0.012154
1023.179839	0.012168
1023.349228	0.011670
1023.518598	0.013097
1023.687951	0.013096
1023.857285	0.012990
1024.026601	0.012470
1024.195899	0.012329
1024.365178	0.012929
1024.534439	0.012892
1024.703682	0.013543
1024.872907	0.014889
1025.042114	0.014527
1025.211302	0.013929
1025.380472	0.013259
1025.549624	0.013763
1025.718758	0.011922
1025.887873	0.013327
1026.056970	0.013951
1026.226049	0.014724
1026.395110	0.012576
1026.564153	0.012050
1026.733177	0.011544
1026.902183	0.013212
1027.071171	0.012570
1027.240141	0.014325
1027.409092	0.014091
1027.578026	0.013169
1027.746940	0.012829
1027.915837	0.014028
1028.084716	0.012757
1028.253576	0.014229
1028.422418	0.012898
1028.591242	0.012355
1028.760048	0.012497
1028.928835	0.011703
1029.097604	0.011586
1029.266355	0.011696
1029.435088	0.010943
1029.603803	0.013552
1029.772499	0.011409
1029.941177	0.013799
1030.109837	0.014568
1030.278478	0.014203
1030.447102	0.013588
1030.615707	0.013654
1030.784294	0.013914
1030.952863	0.013872
1031.121413	0.012306
1031.289945	0.012587
1031.458460	0.012123
1031.626955	0.011546
1031.795433	0.010458
1031.963892	0.013916
1032.132334	0.014397
1032.300756	0.013942
1032.469161	0.012959
1032.637548	0.013679
1032.805916	0.014356
1032.974266	0.012865
1033.142598	0.013781
1033.310911	0.014255
1033.479207	0.010101
1033.647484	0.009593
1033.815743	0.009161
1033.983983	0.010073
1034.152206	0.010918
1034.320410	0.010509
1034.488596	0.011232
1034.656764	0.011062
1034.824914	0.010549
1034.993045	0.012578
1035.161158	0.013543
1035.329253	0.014015
1035.497330	0.013740
1035.665388	0.011525
1035.833428	0.012496
1036.001450	0.013131
1036.169454	0.013241
1036.337440	0.013758
1036.505407	0.011037
1036.673356	0.010756
1036.841287	0.010172
1037.009200	0.010078
1037.177094	0.011363
1037.344970	0.010946
1037.512828	0.011452
1037.680668	0.010531
1037.848489	0.009707
1038.016293	0.010827
1038.184078	0.009828
1038.351845	0.010252
1038.519593	0.011403
1038.687324	0.011892
1038.855036	0.011843
1039.022730	0.010095
1039.190406	0.011990
1039.358063	0.012207
1039.525702	0.012810
1039.693323	0.013344
1039.860926	0.013041
1040.028511	0.012184
1040.196077	0.010970
1040.363625	0.010705
1040.531155	0.011916
1040.698667	0.011529
1040.866161	0.013159
1041.033636	0.012891
1041.201093	0.012876
1041.368532	0.011705
1041.535952	0.011895
1041.703355	0.011165
1041.870739	0.011928
1042.038105	0.010878
1042.205452	0.011330
1042.372782	0.010822
1042.540093	0.012258
1042.707386	0.011960
1042.874661	0.013251
1043.041918	0.013497
1043.209156	0.014236
1043.376376	0.014683
1043.543578	0.014975
1043.710762	0.013806
1043.877927	0.011971
1044.045074	0.009561
1044.212203	0.011099
1044.379314	0.011515
1044.546407	0.010524
1044.713481	0.011836
1044.880537	0.010667
1045.047575	0.010479
1045.214595	0.011533
1045.381596	0.013090
1045.548579	0.013077
1045.715544	0.011304
1045.882491	0.010220
1046.049420	0.011288
1046.216330	0.011252
1046.383222	0.011331
1046.550096	0.011593
1046.716951	0.010026
1046.883789	0.008847
1047.050608	0.010154
1047.217409	0.011328
1047.384192	0.012838
1047.550956	0.012868
1047.717703	0.012780
1047.884431	0.014861
1048.051140	0.014256
1048.217832	0.016590
1048.384505	0.018946
1048.551161	0.018504
1048.717798	0.017802
1048.884416	0.018134
1049.051017	0.018641
1049.217599	0.018565
1049.384163	0.019414
1049.550709	0.019789
1049.717237	0.016553
1049.883746	0.014937
1050.050237	0.015723
1050.216710	0.017091
1050.383165	0.016403
1050.549601	0.015551
1050.716019	0.014568
1050.882420	0.012285
1051.048801	0.013271
1051.215165	0.014933
1051.381510	0.014100
1051.547837	0.012895
1051.714146	0.011507
1051.880437	0.011189
1052.046709	0.012457
1052.212964	0.013028
1052.379200	0.013637
1052.545417	0.013211
1052.711617	0.014303
1052.877798	0.016831
1053.043961	0.017219
1053.210106	0.017211
1053.376233	0.017324
1053.542341	0.016473
1053.708432	0.017000
1053.874504	0.015911
1054.040557	0.015183
1054.206593	0.015578
1054.372610	0.013640
1054.538609	0.012688
1054.704590	0.012637
1054.870553	0.013527
1055.036497	0.014539
1055.202424	0.015176
1055.368331	0.014959
1055.534221	0.015519
1055.700093	0.015336
1055.865946	0.017098
1056.031781	0.018983
1056.197598	0.019166
1056.363397	0.019830
1056.529177	0.018906
1056.694939	0.017612
1056.860683	0.020804
1057.026409	0.020122
1057.192116	0.018992
1057.357806	0.015670
1057.523477	0.013863
1057.689130	0.015313
1057.854764	0.014013
1058.020381	0.012971
1058.185979	0.012218
1058.351559	0.009258
1058.517120	0.009486
1058.682664	0.009960
1058.848189	0.012277
1059.013696	0.011542
1059.179185	0.010121
1059.344656	0.009867
1059.510108	0.010754
1059.675542	0.012736
1059.840958	0.012338
1060.006356	0.014506
1060.171735	0.011368
1060.337096	0.011441
1060.502439	0.013599
1060.667764	0.012997
1060.833071	0.013574
1060.998359	0.014671
1061.163629	0.013210
1061.328881	0.014326
1061.494115	0.012456
1061.659330	0.014336
1061.824527	0.012961
1061.989706	0.012023
1062.154867	0.013192
1062.320010	0.012304
1062.485134	0.012225
1062.650240	0.012609
1062.815328	0.011996
1062.980398	0.011135
1063.145449	0.011691
1063.310482	0.014370
1063.475497	0.014039
1063.640494	0.012317
1063.805473	0.012470
1063.970433	0.010684
1064.135375	0.011564
1064.300299	0.011042
1064.465204	0.011675
1064.630092	0.014319
1064.794961	0.013814
1064.959812	0.012952
1065.124645	0.013353
1065.289459	0.013490
1065.454256	0.013695
1065.619034	0.012499
1065.783793	0.014429
1065.948535	0.013658
1066.113258	0.008904
1066.277964	0.007934
1066.442651	0.010690
1066.607319	0.011811
1066.771970	0.013196
1066.936602	0.013201
1067.101216	0.013808
1067.265812	0.013376
1067.430389	0.015022
1067.594949	0.017096
1067.759490	0.016162
1067.924013	0.014105
1068.088518	0.014645
1068.253004	0.011020
1068.417472	0.012266
1068.581922	0.012210
1068.746354	0.010388
1068.910768	0.010249
1069.075163	0.008889
1069.239540	0.010796
1069.403899	0.012394
1069.568240	0.011693
1069.732562	0.013568
1069.896866	0.013732
1070.061152	0.013056
1070.225420	0.013467
1070.389670	0.012349
1070.553901	0.014570
1070.718114	0.013666
1070.882309	0.012890
1071.046486	0.014500
1071.210644	0.014568
1071.374784	0.013664
1071.538906	0.012756
1071.703010	0.013123
1071.867096	0.014229
1072.031163	0.014566
1072.195212	0.013925
1072.359243	0.011988
1072.523256	0.010581
1072.687250	0.011036
1072.851226	0.010057
1073.015184	0.011137
1073.179124	0.010253
1073.343045	0.010325
1073.506949	0.009086
1073.670834	0.012184
1073.834701	0.015163
1073.998549	0.015222
1074.162380	0.015674
1074.326192	0.018108
1074.489986	0.016778
1074.653761	0.018009
1074.817519	0.017022
1074.981258	0.017735
1075.144979	0.016040
1075.308682	0.015069
1075.472367	0.014066
1075.636033	0.013349
1075.799681	0.010187
1075.963311	0.011345
1076.126923	0.012246
1076.290516	0.014179
1076.454092	0.016230
1076.617649	0.015553
1076.781187	0.016634
1076.944708	0.015690
1077.108210	0.013197
1077.271695	0.017764
1077.435160	0.019050
1077.598608	0.018557
1077.762038	0.017897
1077.925449	0.015723
1078.088842	0.015160
1078.252217	0.014912
1078.415573	0.015141
1078.578912	0.018775
1078.742232	0.015296
1078.905534	0.013014
1079.068817	0.012721
1079.232083	0.011123
1079.395330	0.010030
1079.558559	0.012117
1079.721770	0.013750
1079.884962	0.014541
1080.048136	0.012539
1080.211293	0.013081
1080.374430	0.015415
1080.537550	0.014128
1080.700651	0.014381
1080.863735	0.014418
1081.026800	0.012081
1081.189846	0.009670
1081.352875	0.007894
1081.515885	0.006339
1081.678877	0.006401
1081.841851	0.004610
1082.004807	0.005059
1082.167744	0.004384
1082.330663	0.003175
1082.493564	0.002023
1082.656447	0.000805
1082.819312	0.002327
1082.982158	0.002667
1083.144986	0.003845
1083.307796	0.004944
1083.470587	0.005523
1083.633361	0.007404
1083.796116	0.008584
1083.958853	0.011532
1084.121571	0.013383
1084.284272	0.014626
1084.446954	0.017668
1084.609618	0.016630
1084.772264	0.014780
1084.934892	0.012994
1085.097501	0.013206
1085.260092	0.013191
1085.422665	0.012884
1085.585220	0.009626
1085.747756	0.009551
1085.910274	0.006554
1086.072774	0.008488
1086.235256	0.010153
1086.397720	0.011049
1086.560165	0.008173
1086.722592	0.009420
1086.885001	0.008910
1087.047392	0.011130
1087.209764	0.010387
1087.372119	0.013886
1087.534455	0.014432
1087.696772	0.013025
1087.859072	0.013972
1088.021353	0.013799
1088.183616	0.015701
1088.345861	0.015470
1088.508088	0.018073
1088.670296	0.017755
1088.832486	0.014165
1088.994658	0.011039
1089.156812	0.014313
1089.318948	0.013731
1089.481065	0.015131
1089.643164	0.012385
1089.805245	0.013586
1089.967308	0.011323
1090.129352	0.012992
1090.291378	0.013470
1090.453386	0.014062
1090.615376	0.012387
1090.777347	0.011299
1090.939301	0.013875
1091.101236	0.015106
1091.263153	0.015949
1091.425051	0.014085
1091.586932	0.014667
1091.748794	0.016147
1091.910638	0.016935
1092.072463	0.016187
1092.234271	0.019899
1092.396060	0.019533
1092.557831	0.020019
1092.719584	0.020920
1092.881319	0.023925
1093.043035	0.019349
1093.204733	0.021387
1093.366413	0.018112
1093.528075	0.019804
1093.689718	0.019031
1093.851343	0.015298
1094.012950	0.012846
1094.174539	0.008317
1094.336110	0.009505
1094.497662	0.013429
1094.659196	0.011415
1094.820712	0.015381
1094.982210	0.013932
1095.143689	0.011469
1095.305151	0.013610
1095.466594	0.019056
1095.628018	0.020658
1095.789425	0.019926
1095.950813	0.022897
1096.112183	0.025722
1096.273535	0.023441
1096.434869	0.023991
1096.596184	0.025145
1096.757482	0.025411
1096.918761	0.020224
1097.080021	0.021987
1097.241264	0.021578
1097.402488	0.015152
1097.563694	0.016574
1097.724882	0.015156
1097.886052	0.016576
1098.047203	0.013377
1098.208336	0.014720
1098.369451	0.013438
1098.530548	0.012499
1098.691627	0.011224
1098.852687	0.013105
1099.013729	0.009475
1099.174753	0.010242
1099.335758	0.006972
1099.496746	0.009379
1099.657715	0.007659
1099.818666	0.013769
1099.979599	0.013518
1100.140513	0.016128
1100.301409	0.018918
1100.462287	0.020293
1100.623147	0.020606
1100.783989	0.022245
1100.944812	0.023089
1101.105617	0.024446
1101.266404	0.018978
1101.427173	0.016911
1101.587923	0.017056
1101.748656	0.016744
1101.909370	0.016617
1102.070066	0.018435
1102.230743	0.014896
1102.391403	0.012425
1102.552044	0.006512
1102.712667	0.009955
1102.873271	0.012545
1103.033858	0.010181
1103.194426	0.010207
1103.354976	0.011307
1103.515508	0.013758
1103.676021	0.015897
1103.836517	0.018267
1103.996994	0.023897
1104.157453	0.019184
1104.317893	0.014671
1104.478316	0.016784
1104.638720	0.016303
1104.799106	0.012439
1104.959474	0.009353
1105.119823	0.010507
1105.280155	0.011627
1105.440468	0.010185
1105.600763	0.010744
1105.761039	0.011652
1105.921298	0.010420
1106.081538	0.011222
1106.241760	0.012893
1106.401964	0.015546
1106.562149	0.014659
1106.722316	0.014961
1106.882465	0.015622
1107.042596	0.019334
1107.202709	0.023191
1107.362803	0.022469
1107.522879	0.023963
1107.682937	0.022469
1107.842977	0.017624
1108.002999	0.020124
1108.163002	0.019220
1108.322987	0.016877
1108.482954	0.014913
1108.642902	0.012390
1108.802833	0.007910
1108.962745	0.004863
1109.122639	0.004486
1109.282515	0.007091
1109.442372	0.007514
1109.602211	0.007199
1109.762032	0.007655
1109.921835	0.005641
1110.081620	0.006759
1110.241386	0.012545
1110.401134	0.011258
1110.560864	0.010885
1110.720576	0.012507
1110.880269	0.011465
1111.039945	0.012261
1111.199602	0.012584
1111.359240	0.013939
1111.518861	0.012969
1111.678463	0.010858
1111.838047	0.010946
1111.997613	0.014451
1112.157161	0.012959
1112.316690	0.014168
1112.476202	0.015804
1112.635695	0.023151
1112.795169	0.025868
1112.954626	0.027006
1113.114064	0.026071
1113.273484	0.026096
1113.432886	0.022843
1113.592270	0.025323
1113.751635	0.024887
1113.910983	0.024228
1114.070312	0.016018
1114.229622	0.018631
1114.388915	0.020556
1114.548189	0.023448
1114.707445	0.023578
1114.866683	0.024852
1115.025903	0.024755
1115.185104	0.022000
1115.344287	0.020062
1115.503452	0.026515
1115.662599	0.025312
1115.821727	0.025441
1115.980838	0.026195
1116.139930	0.026041
1116.299004	0.026138
1116.458059	0.023209
1116.617097	0.025987
1116.776116	0.027681
1116.935117	0.026238
1117.094099	0.022757
1117.253064	0.019427
1117.412010	0.014359
1117.570938	0.018583
1117.729848	0.021214
1117.888740	0.022343
1118.047613	0.021197
1118.206468	0.024975
1118.365305	0.020246
1118.524124	0.019961
1118.682924	0.025860
1118.841707	0.029372
1119.000471	0.027029
1119.159216	0.022496
1119.317944	0.019721
1119.476653	0.020207
1119.635344	0.017706
1119.794017	0.022143
1119.952672	0.021192
1120.111308	0.019497
1120.269927	0.023729
1120.428527	0.025167
1120.587108	0.030773
1120.745672	0.032292
1120.904217	0.035668
1121.062744	0.031213
1121.221253	0.032648
1121.379744	0.034347
1121.538216	0.029193
1121.696671	0.025578
1121.855107	0.021250
1122.013524	0.021666
1122.171924	0.023695
1122.330305	0.020774
1122.488668	0.023970
1122.647013	0.023128
1122.805340	0.021793
1122.963648	0.025046
1123.121938	0.024013
1123.280210	0.024951
1123.438464	0.019963
1123.596700	0.016939
1123.754917	0.017591
1123.913116	0.015151
1124.071297	0.011141
1124.229459	0.016040
1124.387604	0.015864
1124.545730	0.014367
1124.703838	0.019738
1124.861928	0.022275
1125.019999	0.026171
1125.178052	0.023433
1125.336088	0.030022
1125.494104	0.033463
1125.652103	0.029652
1125.810083	0.029851
1125.968045	0.032921
1126.125989	0.024684
1126.283915	0.022620
1126.441823	0.016000
1126.599712	0.014596
1126.757583	0.009664
1126.915436	0.006694
1127.073270	0.005650
1127.231087	0.002379
1127.388885	0.000642
1127.546665	0.006658
1127.704426	0.007779
1127.862170	0.010705
1128.019895	0.015321
1128.177602	0.016648
1128.335291	0.015716
1128.492961	0.017863
1128.650614	0.019748
1128.808248	0.020922
1128.965864	0.017202
1129.123461	0.015886
1129.281041	0.014900
1129.438602	0.014188
1129.596145	0.011168
1129.753670	0.015533
1129.911176	0.016535
1130.068665	0.015276
1130.226135	0.016946
1130.383587	0.018330
1130.541020	0.017642
1130.698436	0.019508
1130.855833	0.018562
1131.013212	0.026986
1131.170573	0.025154
1131.327915	0.023695
1131.485239	0.024747
1131.642545	0.023807
1131.799833	0.023141
1131.957103	0.026171
1132.114354	0.032433
1132.271588	0.032432
1132.428803	0.026963
1132.585999	0.023265
1132.743178	0.023428
1132.900338	0.024910
1133.057480	0.024717
1133.214604	0.027492
1133.371710	0.023272
1133.528797	0.013890
1133.685866	0.012064
1133.842917	0.015001
1133.999950	0.017723
1134.156964	0.015038
1134.313960	0.015739
1134.470938	0.013150
1134.627898	0.012489
1134.784840	0.011919
1134.941763	0.013835
1135.098668	0.011437
1135.255555	0.005456
1135.412424	0.008813
1135.569274	0.007161
1135.726107	0.001718
1135.882921	0.001766
1136.039716	-0.000344
1136.196494	0.004995
1136.353253	0.005011
1136.509995	0.011633
1136.666717	0.014260
1136.823422	0.008568
1136.980109	0.016086
1137.136777	0.020339
1137.293427	0.023284
1137.450059	0.020667
1137.606672	0.017041
1137.763267	0.016778
1137.919844	0.016285
1138.076403	0.013887
1138.232944	0.022126
1138.389466	0.018152
1138.545971	0.018135
1138.702457	0.021460
1138.858924	0.021654
1139.015374	0.026153
1139.171805	0.029789
1139.328218	0.022003
1139.484613	0.023127
1139.640990	0.021718
1139.797348	0.026967
1139.953688	0.030348
1140.110010	0.022353
1140.266314	0.025845
1140.422600	0.022781
1140.578867	0.019952
1140.735116	0.025890
1140.891347	0.026292
1141.047559	0.022756
1141.203754	0.021731
1141.359930	0.023278
1141.516088	0.025822
1141.672228	0.027875
1141.828349	0.025464
1141.984452	0.027643
1142.140537	0.029166
1142.296604	0.028782
1142.452653	0.034303
1142.608683	0.033235
1142.764695	0.026871
1142.920689	0.030514
1143.076665	0.027898
1143.232622	0.033132
1143.388562	0.036085
1143.544483	0.034546
1143.700385	0.030691
1143.856270	0.021060
1144.012136	0.015535
1144.167985	0.015496
1144.323814	0.013219
1144.479626	0.016722
1144.635420	0.009634
1144.791195	0.003905
1144.946952	0.003198
1145.102691	0.006400
1145.258411	0.008196
1145.414113	0.010142
1145.569798	0.014658
1145.725463	0.012336
1145.881111	0.012189
1146.036741	0.016599
1146.192352	0.015360
1146.347945	0.015561
1146.503519	0.012802
1146.659076	0.022203
1146.814614	0.025033
1146.970134	0.018215
1147.125636	0.021676
1147.281120	0.019973
1147.436585	0.024782
1147.592032	0.027620
1147.747461	0.030004
1147.902872	0.033071
1148.058265	0.024371
1148.213639	0.026210
1148.368995	0.029101
1148.524333	0.024136
1148.679653	0.021947
1148.834954	0.015110
1148.990237	0.017612
1149.145502	0.019228
1149.300749	0.015841
1149.455977	0.019741
1149.611188	0.016079
1149.766380	0.019731
1149.921553	0.024464
1150.076709	0.027871
1150.231846	0.028580
1150.386966	0.030976
1150.542066	0.024401
1150.697149	0.028226
1150.852214	0.025104
1151.007260	0.018751
1151.162288	0.015515
1151.317298	0.015549
1151.472289	0.013255
1151.627263	0.013520
1151.782218	0.010326
1151.937155	0.008174
1152.092073	0.010962
1152.246974	0.015238
1152.401856	0.018759
1152.556720	0.024660
1152.711566	0.023023
1152.866393	0.028472
1153.021203	0.029282
1153.175994	0.036383
1153.330767	0.038376
1153.485521	0.037957
1153.640258	0.040287
1153.794976	0.044933
1153.949676	0.049037
1154.104358	0.051288
1154.259021	0.045549
1154.413667	0.050111
1154.568294	0.053690
1154.722903	0.054946
1154.877493	0.057325
1155.032066	0.048906
1155.186620	0.045626
1155.341156	0.037912
1155.495674	0.032755
1155.650173	0.035609
1155.804654	0.025895
1155.959118	0.012095
1156.113562	0.009078
1156.267989	0.002811
1156.422397	0.009413
1156.576788	0.013728
1156.731160	0.011465
1156.885513	0.013586
1157.039849	0.006930
1157.194166	0.015698
1157.348465	0.016476
1157.502746	0.015612
1157.657009	0.017951
1157.811253	0.012607
1157.965479	0.014102
1158.119687	0.012594
1158.273877	0.014511
1158.428048	0.020856
1158.582201	0.020693
1158.736337	0.014187
1158.890453	0.020839
1159.044552	0.015616
1159.198632	0.012836
1159.352694	0.014195
1159.506738	0.025605
1159.660764	0.018440
1159.814771	0.018989
1159.968761	0.015131
1160.122732	0.022237
1160.276685	0.016179
1160.430619	0.019932
1160.584535	0.024961
1160.738434	0.019674
1160.892313	0.015268
1161.046175	0.028768
1161.200019	0.018666
1161.353844	0.017013
1161.507651	0.010514
1161.661440	0.009229
1161.815210	0.009366
1161.968962	0.004654
1162.122697	0.002013
1162.276412	-0.003224
1162.430110	-0.010934
1162.583789	-0.010627
1162.737451	-0.009452
1162.891094	-0.007852
1163.044718	-0.004349
1163.198325	-0.000811
1163.351913	0.005467
1163.505483	0.006817
1163.659035	0.009313
1163.812569	0.015081
1163.966084	0.019647
1164.119581	0.024469
1164.273060	0.026874
1164.426521	0.032584
1164.579964	0.030332
1164.733388	0.030827
1164.886794	0.038079
1165.040182	0.037696
1165.193551	0.028384
1165.346903	0.024521
1165.500236	0.017570
1165.653551	0.022526
1165.806848	0.016436
1165.960126	0.024702
1166.113386	0.023056
1166.266628	0.019305
1166.419852	0.021837
1166.573058	0.035270
1166.726245	0.031244
1166.879414	0.036258
1167.032565	0.033843
1167.185698	0.041070
1167.338812	0.029107
1167.491909	0.027993
1167.644987	0.024641
1167.798046	0.014596
1167.951088	0.012730
1168.104111	0.030003
1168.257117	0.032515
1168.410103	0.029603
1168.563072	0.031879
1168.716023	0.030671
1168.868955	0.033823
1169.021869	0.038214
1169.174765	0.039209
1169.327642	0.032330
1169.480501	0.022762
1169.633343	0.015932
1169.786165	0.017928
1169.938970	0.009025
1170.091757	0.018104
1170.244525	0.011145
1170.397275	0.006046
1170.550007	0.012855
1170.702720	0.009187
1170.855415	0.011050
1171.008092	0.011281
1171.160751	0.009673
1171.313392	0.009702
1171.466014	0.014476
1171.618619	-0.015431
1171.771205	-0.015431
1171.923772	-0.015431
