sample name	sample
index	308
start time	 02-25-2021  02:38:18 PM
880	-0.012721
Peak Time (s)	92.537
Peak Height 	-0.01272
calc peak height	90,93
Baseline Time (s)	11.037
Baseline Value 	-0.004279
subtract baseline	10,4
Abs	-0.005288
Peak Time (s)	91.035
Peak Height 	-0.005288
calc peak height	90,93
Baseline Time (s)	10.537
Baseline Value 	0.003537
subtract baseline	10,3
PK_550	-0.001041
Peak Time (s)	90.035
Peak Height 	-0.001041
calc peak height	90,93
Baseline Time (s)	10.036
Baseline Value 	3.7141E-4
subtract baseline	10,2
PK_880	-0.007131
Peak Time (s)	90.035
Peak Height 	-0.007131
calc peak height	90,93
Baseline Time (s)	8.535
Baseline Value 	0.00215
subtract baseline	10,1


Time (s)	A880-A510	A880-A775	A880-A975	A880	I510	I775	I975	I880	
0.035500	-0.002307	-0.000481	0.000821	0.001407	6823.564099	44969.861801	4002.716743	23866.123919
0.536000	-0.002197	0.000309	-0.006036	0.003972	6801.809162	44798.522447	3979.865326	23742.935835
1.036500	-0.004337	-0.001029	-0.008436	0.004398	6779.199311	44629.003889	3973.107906	23722.559580
1.541500	-0.002065	-0.000606	-0.005787	0.000996	6829.368505	44997.442627	3987.630355	23885.885475
2.036500	0.000536	-0.000474	-0.002738	0.000850	6853.893230	45024.328580	3995.382231	23892.941578
2.537000	-0.000145	0.000300	0.001715	0.002069	6836.914658	44981.270709	4003.283627	23834.242183
3.034500	-0.000589	-0.000376	-0.004834	0.001368	6839.211706	44983.692588	3989.037735	23867.990419
3.535000	-0.001263	-0.000269	-0.000333	-0.000071	6846.042820	45133.565730	4003.510608	23937.406252
4.035500	-0.000580	0.000774	0.001802	0.000781	6844.535961	45152.045525	4006.662191	23896.288770
4.536000	-0.000089	0.000381	-0.001985	0.000565	6850.851794	45134.873826	3997.909385	23906.674498
5.036000	-0.000474	0.000565	0.002026	0.000487	6848.106315	45160.289286	4007.936285	23910.456203
5.536500	-0.001860	-0.000062	-0.001782	0.000666	6834.132172	45082.010403	3998.158382	23901.791509
6.037000	0.000095	0.000291	-0.000783	0.000587	6852.303266	45124.045971	4000.794482	23905.640417
6.537000	-0.002005	-0.000618	-0.002414	0.000134	6837.588046	45079.818999	3997.916236	23927.500068
7.037000	0.000004	0.000282	-0.001473	0.000282	6854.212458	45152.690922	3999.851718	23920.339467
7.537500	0.000508	0.000065	0.000709	0.000088	6860.478488	45150.500745	4005.680128	23929.730906
8.034500	-0.000406	0.000278	-0.001454	0.000230	6851.008864	45157.299702	4000.024458	23922.835193
8.535000	0.000000	-0.000182	0.003865	0.000421	6852.940289	45094.244775	4012.641084	23913.654018
9.035500	-0.000271	0.000736	-0.000647	0.000090	6853.474543	45215.522641	4002.344616	23929.621596
9.535500	0.000531	-0.000142	-0.001578	-0.000314	6864.287879	45169.378377	4001.053239	23949.128642
10.036000	0.000459	0.000000	0.004459	-0.000366	6864.103833	45188.244473	4016.061426	23951.638781
10.536500	0.000683	-0.000143	0.000000	-0.000380	6866.243960	45175.731029	4005.085151	23952.317400
11.036500	-0.000059	0.000263	-0.002921	0.000000	6856.176247	45178.264879	3997.006299	23933.964307
11.537000	-0.000363	0.000050	0.000925	0.000134	6852.249955	45144.527179	4006.095015	23927.476246
12.037000	-0.000569	0.000212	0.003880	0.000505	6847.093689	45124.190186	4012.468964	23909.561096
12.534500	-0.003010	0.000045	0.005088	0.000725	6823.373630	45086.706817	4014.917071	23898.961101
13.037500	-0.001472	-0.000275	-0.001208	-0.000809	6850.770962	45204.644396	4003.174389	23973.091079
13.535000	-0.002239	-0.000431	-0.000283	-0.000571	6841.780699	45166.249503	4004.858257	23961.544995
14.035500	-0.002166	-0.000068	-0.002069	0.002323	6816.680662	44921.171638	3993.425404	23822.021475
14.538500	-0.002937	-0.000758	0.000006	0.001731	6815.089462	44911.731732	3999.924533	23850.490114
15.054500	-0.000662	0.000204	0.002559	-0.000028	6851.037323	45175.283736	4010.522052	23935.336164
15.539500	-0.001186	0.000020	0.002158	-0.000166	6847.571024	45170.722656	4009.871251	23941.961152
16.036500	0.000449	0.000373	-0.002832	-0.000040	6861.094561	45192.843457	3997.321104	23935.891992
16.537000	0.000193	-0.000018	0.001080	0.000944	6849.982107	45059.395543	4004.486353	23888.398019
17.035500	0.004462	0.000536	0.004022	-0.002773	6922.093890	45475.187270	4020.962547	24068.340247
17.535000	0.000445	0.000353	0.002536	0.000095	6859.847937	45177.775032	4010.160511	23929.360197
18.035500	-0.002355	-0.000182	-0.000232	0.000775	6828.755939	45059.891580	4001.685105	23896.575922
18.535500	0.000020	0.001071	0.000832	0.001769	6841.061954	45084.961352	4001.853180	23848.659137
19.035500	-0.000792	-0.000039	0.003182	0.001376	6837.331221	45015.562984	4008.595194	23867.610623
19.536000	-0.000560	0.000250	-0.002345	0.001389	6839.284386	45042.276103	3995.026784	23866.987774
20.039000	-0.000743	0.000021	-0.001883	0.001041	6840.755622	45053.816371	3996.999913	23883.745090
20.536500	-0.000750	0.000105	-0.001944	0.001212	6839.169116	45045.362002	3996.434991	23875.504742
21.037000	-0.001750	0.000685	-0.002400	0.001726	6825.682190	45051.763964	3994.072901	23850.755393
21.537000	0.000026	0.000185	-0.007984	0.001187	6846.314616	45055.453950	3981.874449	23876.683298
22.037000	-0.001032	-0.000532	0.000741	0.000830	6840.056789	45020.721377	4003.935478	23893.911740
22.535000	0.001038	0.000232	-0.001003	0.001127	6855.913937	45065.942526	3998.935481	23879.589118
23.035000	0.000383	0.001364	0.001938	0.002514	6837.654895	45041.203610	4002.739362	23812.862045
23.535000	0.001799	0.001353	-0.004830	0.001847	6856.279263	45104.810421	3987.886633	23844.931904
24.036000	-0.001429	-0.000242	-0.003991	0.000795	6836.824389	45052.115199	3992.467768	23895.577546
24.539000	-0.000182	0.000478	0.005262	0.001562	6841.107410	45047.549285	4013.274757	23858.630800
25.036500	-0.001153	-0.000187	-0.001422	0.000893	6838.408325	45047.956936	3998.483550	23890.857955
25.537000	-0.000770	-0.000176	0.000584	0.000505	6845.302583	45086.634472	4004.346973	23909.596710
26.036500	-0.001139	0.000457	-0.001895	0.001440	6833.668622	45057.381644	3995.998243	23864.530274
26.537500	0.000662	0.000599	0.001928	0.001327	6850.751594	45082.060336	4005.629572	23869.946111
27.039500	-0.000415	-0.000401	0.002829	0.000405	6849.363908	45074.519157	4010.118957	23914.405042
27.535000	0.000503	-0.000227	0.007867	-0.002725	6885.747255	45395.955957	4030.472002	24065.997717
28.035500	-0.002358	-0.000014	-0.002355	-0.000751	6842.329232	45224.342383	4000.222192	23970.275955
28.535500	0.000196	0.000253	0.000883	0.000040	6858.104164	45173.405976	4006.222964	23932.027686
29.036000	0.000878	0.000507	-0.002270	0.000528	6859.851346	45150.661641	3997.305629	23908.485022
29.536000	0.000579	0.000478	0.001938	0.000172	6860.354473	45182.395603	4008.497231	23925.646682
30.036500	-0.000832	0.000100	0.000955	-0.000456	6853.341338	45206.738478	4007.622530	23956.015815
30.536500	-0.000102	0.000729	0.002418	0.000849	6848.190853	45141.075250	4008.009840	23892.973526
31.037000	-0.002592	0.000643	-0.000628	0.002587	6810.573431	44964.404907	3996.290516	23809.381476
31.537500	-0.000646	0.000133	-0.001216	-0.000465	6855.089854	45210.837030	4002.311634	23956.437421
32.035500	0.000739	0.000069	-0.005078	-0.000237	6865.469482	45182.470311	3992.335084	23945.427821
32.535500	0.002213	0.000620	-0.003763	-0.000053	6877.071575	45218.165147	3995.085535	23936.531896
33.035500	-0.000552	0.000184	0.005460	0.000085	6851.004120	45162.339056	4017.430196	23929.868772
33.536000	0.001076	0.000746	0.000737	0.000199	6864.573855	45205.838362	4005.472909	23924.346956
34.036000	-0.002554	0.001451	0.002705	0.001538	6820.206647	45144.310765	4007.022148	23859.791131
34.536000	-0.001048	0.000367	0.003643	0.001311	6835.624554	45061.197461	4009.893267	23870.740814
35.036000	-0.003524	-0.000562	0.002459	0.000821	6817.964936	45018.640020	4008.183251	23894.357924
35.537000	-0.000596	0.001127	0.000076	0.002271	6831.092564	45041.746924	3998.776425	23824.517056
36.037000	-0.001648	0.000365	-0.002240	0.001589	6827.803591	45033.971112	3994.794846	23857.328162
36.537500	-0.000230	0.001154	-0.002672	0.002313	6833.984984	45040.338101	3991.984887	23822.524214
37.035000	-0.001271	0.000043	-0.000918	0.001751	6829.721874	44987.234276	3997.621485	23849.565885
37.535500	-0.000805	0.000094	0.000536	0.001276	6838.102339	45038.106725	4002.338006	23872.431916
38.035500	-0.000295	-0.000177	-0.001088	0.001639	6839.411959	44976.738468	3997.480762	23854.948123
38.538500	0.000372	0.000204	0.002951	0.001579	6845.910949	45019.383397	4007.526667	23857.830719
39.036000	0.000462	0.000813	0.004825	0.002362	6839.720614	45002.543249	4010.215354	23820.171756
39.536500	-0.002533	0.000109	-0.002735	0.001890	6817.272674	44980.147275	3992.858762	23842.863290
40.037000	0.000796	0.000396	-0.002388	0.001990	6846.024737	44998.282519	3993.460796	23838.071118
40.537500	-0.000850	0.000138	-0.000499	0.001720	6833.745304	44999.436806	3998.718794	23851.048891
41.034500	0.000797	0.000913	0.001188	0.002197	6844.174143	45028.192463	4001.677290	23828.076826
41.534500	-0.002386	-0.000598	0.000768	0.001151	6825.138351	44983.211805	4003.213601	23878.447170
42.035500	0.002674	0.000620	0.000876	0.001820	6864.371923	45036.316270	4001.837774	23846.228018
42.535500	-0.001306	0.000005	0.001813	0.001667	6830.150641	44991.652881	4004.510091	23853.574251
43.038000	0.001379	0.000706	0.000922	0.002202	6849.337178	45007.715173	4001.013269	23827.844391
43.536000	-0.001961	0.000572	0.002689	0.001925	6822.042319	45021.568099	4006.030015	23841.197782
44.036500	0.001383	0.000547	0.002906	-0.002676	6893.257389	45466.814163	4017.943493	24063.645380
44.537000	-0.000454	0.000626	-0.001213	0.000415	6848.929410	45173.218859	4000.163821	23913.920381
45.037000	-0.001667	0.000191	-0.001198	-0.000222	6843.786188	45192.846313	4001.760914	23944.708775
45.537000	0.001420	0.000413	-0.000499	-0.000273	6871.911752	45219.312622	4003.596401	23947.140491
46.037500	0.000028	0.000510	0.004634	-0.000085	6857.717000	45210.554021	4015.798313	23938.057108
46.534500	-0.000852	0.000335	-0.000982	0.001510	6835.599109	45038.831059	3998.054928	23861.165576
47.035000	0.001421	0.001646	0.005195	0.001528	6855.751433	45164.230861	4013.193767	23860.299255
47.536000	-0.002550	0.000109	-0.002075	0.001546	6820.172159	45013.356712	3995.299812	23859.407034
48.035500	-0.001699	-0.000541	0.000334	0.001512	6828.037046	44953.802951	4001.263987	23861.033041
48.539000	-0.000719	0.000129	0.000582	0.002263	6830.076479	44946.064731	4000.035492	23824.937462
49.036500	-0.001247	0.000374	-0.000538	0.000259	6843.229552	45163.878051	4002.197507	23921.438522
49.536500	0.001093	-0.000001	0.003646	-0.000035	6866.834144	45156.026248	4013.225767	23935.646443
50.037000	0.001819	0.000434	0.000682	-0.002397	6894.677832	45428.537777	4011.736793	24050.087231
50.534000	-0.000687	0.000342	0.000434	0.003804	6816.668359	44817.911222	3995.913500	23751.009927
51.035000	0.001117	-0.000604	0.006484	-0.002122	6885.847900	45300.441141	4025.490716	24036.747764
51.535500	-0.038136	-0.021798	0.002571	0.203113	5197.699586	28106.414818	3609.875935	16096.695267
52.035500	-0.021865	-0.017441	-0.002364	-0.063475	7248.092142	49868.288770	4165.235798	27235.827167
52.536000	-0.028978	-0.027385	-0.000653	-0.133391	7914.618385	56811.362208	4385.279812	31477.291886
53.036000	-0.020404	-0.022862	-0.001081	-0.117368	7830.428655	55404.578695	4331.484889	30444.085132
53.536000	-0.031645	-0.016255	-0.015567	-0.085291	7368.480232	52418.450187	4189.814153	28486.757596
54.036500	-0.014560	-0.015742	-0.010726	-0.134589	8095.850366	58426.649105	4356.004630	31556.073776
54.537000	-0.011156	-0.014285	-0.007254	-0.134322	8133.045493	58578.737380	4366.507267	31538.471250
55.037000	-0.006573	-0.012253	-0.009341	-0.124449	8070.467169	57584.014518	4327.705795	30895.953226
55.534500	-0.005519	-0.008943	-0.003111	-0.108142	7894.248219	55974.106950	4295.831849	29866.209590
56.035000	-0.006344	-0.010092	-0.006477	-0.096652	7756.424528	54454.191954	4250.172205	29163.552685
56.535500	-0.009419	-0.009385	-0.011702	-0.079895	7542.501544	52586.674637	4185.412127	28171.502841
57.038500	-0.007841	-0.007813	-0.005685	-0.071059	7466.628739	51763.801923	4177.341313	27663.591651
57.536000	-0.009109	-0.007387	-0.008076	-0.059358	7334.167397	50513.715318	4137.774999	27006.753228
58.036000	-0.004398	-0.003272	-0.005876	-0.053396	7321.599764	50311.949439	4127.427130	26678.808058
58.536500	-0.007769	-0.004701	-0.010302	-0.038211	7139.342014	48535.471644	4074.913445	25863.573923
59.037000	-0.005960	-0.004549	-0.009081	-0.029277	7071.404306	47623.551592	4054.902490	25397.104364
59.537000	-0.009761	-0.005976	-0.003885	-0.040466	7141.865946	48638.419515	4097.842255	25982.826435
60.037500	-0.010217	-0.004984	-0.011762	-0.043805	7169.691452	49095.939941	4085.783855	26160.545700
60.535000	-0.011289	-0.004572	-0.009774	-0.020620	6941.248658	46740.179444	4031.112285	24954.136525
61.035500	-0.010659	-0.005943	-0.008256	-0.012904	6876.877795	45834.092387	4015.622423	24566.685287
61.538000	-0.014595	-0.005463	-0.007498	-0.014382	6854.792661	46027.646951	4021.185310	24640.360987
62.035500	-0.011304	-0.004162	-0.007988	-0.021535	6949.496362	46873.853275	4037.931090	25000.537186
62.536000	-0.010781	-0.002670	-0.008382	-0.027680	7011.152774	47652.603168	4052.594347	25314.718335
63.036500	-0.009123	-0.002308	-0.009229	-0.028087	7030.448207	47731.730696	4051.466070	25335.699032
63.536500	-0.009128	-0.001555	-0.007875	-0.030793	7055.817767	48089.557040	4061.922798	25475.588029
64.037000	-0.010616	-0.001416	-0.007126	-0.031752	7050.826130	48203.738329	4066.350507	25525.339373
64.537000	-0.005617	-0.001390	-0.012362	-0.032438	7104.680404	48277.988184	4054.594226	25561.063335
65.037000	-0.009153	-0.001330	-0.013240	-0.033065	7077.029211	48349.637210	4053.945301	25593.685777
65.534500	-0.008281	-0.000980	-0.006409	-0.032294	7077.993318	48305.710478	4069.627268	25553.533584
66.038000	-0.007870	-0.001420	-0.008517	-0.032648	7085.236449	48296.713142	4065.064535	25571.947502
66.535500	-0.008247	-0.001577	-0.013232	-0.031113	7067.144556	48120.563885	4048.963704	25492.164921
67.036000	-0.008398	-0.002496	-0.005803	-0.031736	7071.605843	48089.819596	4069.750416	25524.521780
67.536000	-0.009389	-0.002105	-0.009400	-0.030767	7053.107615	48029.750446	4057.915226	25474.227545
68.036500	-0.010921	-0.002460	-0.010650	-0.030139	7032.813982	47927.842493	4053.081875	25441.657023
68.537000	-0.009142	-0.001799	-0.006148	-0.028407	7033.263352	47817.212890	4060.217516	25352.179515
69.037000	-0.007394	-0.001881	-0.010942	-0.028469	7050.250127	47815.175405	4048.057227	25355.354646
69.537500	-0.008021	-0.002363	-0.006002	-0.027879	7038.823977	47704.623751	4059.232080	25324.948095
70.037000	-0.008238	-0.002940	-0.008246	-0.027585	7034.030863	47614.997448	4052.697044	25309.797355
70.535500	-0.015961	-0.003898	-0.015285	-0.021984	6911.063404	46945.946206	4020.723104	25023.334005
71.035500	-0.009756	-0.002708	-0.009459	-0.026203	7006.945595	47496.996991	4046.058709	25238.794950
71.535500	-0.009128	-0.002280	-0.004825	-0.026357	7014.225090	47556.666566	4058.340475	25246.675985
72.036000	-0.009891	-0.002358	-0.009958	-0.026284	7006.446026	47541.191644	4044.994071	25242.962470
72.536000	-0.014504	-0.002704	-0.011219	-0.020152	6907.655160	46881.432229	4026.306356	24930.420027
73.036500	-0.009092	-0.002787	-0.008360	-0.026047	7011.674972	47472.919565	4048.466553	25230.778498
73.537000	-0.010451	-0.002868	-0.007732	-0.026096	6999.485363	47469.577995	4050.198878	25233.277562
74.037000	-0.008597	-0.002611	-0.013563	-0.026015	7015.995247	47487.625585	4035.162754	25229.136003
74.534500	-0.011164	-0.002319	-0.009420	-0.019631	6933.339155	46867.795388	4029.516844	24904.109493
75.035000	-0.012039	-0.003765	-0.012654	-0.026678	6990.152403	47437.381633	4039.140271	25263.182824
75.535500	-0.010005	-0.003047	-0.007002	-0.025668	6999.651968	47407.404049	4050.970503	25211.326526
76.035500	-0.009738	-0.002946	-0.009510	-0.026070	7005.873234	47458.993599	4045.588377	25231.956122
76.536000	-0.013396	-0.002945	-0.011274	-0.019316	6910.134772	46772.745425	4024.079496	24888.186764
77.036000	-0.009214	-0.002421	-0.007862	-0.024974	7000.560442	47400.573837	4046.998839	25175.829341
77.536500	-0.009463	-0.003219	-0.009074	-0.025592	7003.984991	47382.073259	4045.479965	25207.440201
78.037000	-0.009836	-0.001978	-0.006250	-0.023978	6985.553118	47344.093689	4048.571437	25124.926869
78.537000	-0.013816	-0.003793	-0.015227	-0.019323	6906.382349	46688.051543	4014.256063	24888.540363
79.037000	-0.011978	-0.003059	-0.010749	-0.024640	6971.866137	47301.194571	4038.803088	25158.721733
79.537500	-0.010528	-0.002355	-0.005828	-0.024138	6980.619684	47321.857421	4050.061771	25133.081552
80.038000	-0.009936	-0.003134	-0.009625	-0.024708	6991.386428	47300.489390	4041.828063	25162.210878
80.535000	-0.007949	-0.002517	-0.012587	-0.023883	7002.170960	47279.319957	4032.246104	25120.048874
81.035500	-0.009299	-0.002258	-0.011400	-0.023226	6983.554744	47238.680322	4033.580464	25086.535807
81.536000	-0.009104	-0.003273	-0.007623	-0.023898	6991.591869	47203.830834	4044.863798	25120.825949
82.036500	-0.011006	-0.003635	-0.007111	-0.023515	6970.451672	47127.966086	4045.191376	25101.283738
82.536500	-0.008140	-0.003001	-0.013640	-0.023111	6993.228227	47151.340473	4027.656259	25080.678483
83.036500	-0.009269	-0.002763	-0.007234	-0.022830	6980.166708	47146.919085	4043.133126	25066.352730
83.537000	-0.008206	-0.002571	-0.005307	-0.022494	6986.903501	47132.374199	4047.190496	25049.299540
84.037500	-0.007782	-0.002271	-0.006460	-0.021668	6983.177955	47078.962408	4042.146552	25007.296995
84.540000	-0.009127	-0.002740	-0.010023	-0.021982	6973.640938	47063.194900	4033.916907	25023.220388
85.035000	-0.008941	-0.002869	-0.008602	-0.022288	6978.196348	47081.155331	4038.284592	25038.807115
85.535500	-0.007968	-0.001981	-0.012034	-0.020684	6972.365706	47008.529449	4025.599885	24957.389476
86.036000	-0.008316	-0.001974	-0.007529	-0.021036	6972.400292	47044.954131	4037.831387	24975.239920
86.535500	-0.008290	-0.001767	-0.001127	-0.020441	6967.151978	47005.526993	4052.632355	24945.044894
87.036000	-0.008652	-0.001663	-0.010966	-0.020463	6964.015579	47018.395847	4027.723359	24946.184711
87.536500	-0.009288	-0.002804	-0.008501	-0.020866	6961.870066	46943.540054	4034.941643	24966.576310
88.037000	-0.009276	-0.002118	-0.011686	-0.020510	6958.710396	46977.011041	4026.035497	24948.574916
88.537000	-0.011741	-0.002292	-0.013299	-0.014260	6879.346785	46330.938711	4006.513946	24634.272725
89.037500	-0.008462	-0.002158	-0.009576	-0.019514	6957.031744	46872.136832	4028.827502	24898.153797
89.535000	-0.007299	-0.002552	-0.007346	-0.019493	6967.554014	46830.235591	4034.391439	24897.131599
90.035500	-0.007131	-0.001041	-0.011751	-0.018524	6960.171058	46884.990855	4020.908754	24848.213429
90.535500	-0.011599	-0.001649	-0.012159	-0.014330	6881.261511	46402.196785	4009.496335	24637.786295
91.035500	-0.009744	-0.001361	-0.005288	-0.018485	6935.845202	46848.697515	4037.043995	24846.226813
91.536500	-0.009417	-0.001653	-0.008066	-0.018371	6937.793772	46807.700858	4029.749901	24840.478318
92.036000	-0.008543	-0.002350	-0.009341	-0.018595	6947.858422	46760.106590	4027.114181	24851.815497
92.537000	-0.012513	-0.002545	-0.014271	-0.012721	6858.573594	46152.515542	4000.352776	24557.581353
93.037000	-0.006774	-0.001512	-0.006978	-0.017849	6957.245682	46769.276266	4031.174651	24814.183937
93.537500	-0.007852	-0.001390	-0.010012	-0.017416	6943.381670	46737.988114	4022.483831	24792.423284
94.034500	-0.009468	-0.001791	-0.008271	-0.017146	6926.135008	46670.355920	4026.163447	24778.841276
94.535000	-0.007976	-0.001976	-0.009302	-0.017226	6940.501800	46659.841947	4023.782042	24782.846603
95.035000	-0.004448	-0.001227	-0.001563	-0.016497	6966.216577	46661.930390	4041.450445	24746.280171
95.535500	-0.008731	-0.002055	-0.007062	-0.017244	6933.766489	46653.733285	4029.442687	24783.794593
96.036000	-0.008153	-0.001923	-0.009282	-0.016939	6936.253562	46636.242980	4023.114268	24768.427242
96.536500	-0.008264	-0.001854	-0.008128	-0.016655	6932.650254	46614.725937	4025.290485	24754.189841
