sample name	sample
index	644
start time	 03-19-2021  03:51:37 PM


Wavelength (nm)	Absorbance
494.344910	-1.221849
494.563924	-1.221849
494.782919	-1.221849
495.001897	NaN
495.220856	NaN
495.439797	-0.293184
495.658719	-0.419709
495.877624	-0.690569
496.096510	-0.476463
496.315378	-0.352183
496.534227	-0.211875
496.753059	-0.148893
496.971872	-0.234967
497.190667	-0.006857
497.409444	0.010208
497.628203	0.009746
497.846943	0.008464
498.065665	0.006892
498.284369	0.006987
498.503055	0.007404
498.721723	0.007374
498.940372	0.007001
499.159003	0.007176
499.377616	0.005691
499.596210	0.004948
499.814787	0.005787
500.033345	0.006913
500.251885	0.005941
500.470406	0.005080
500.688910	0.004645
500.907395	0.004607
501.125862	0.005100
501.344311	0.005694
501.562742	0.006186
501.781154	0.006497
501.999548	0.005956
502.217924	0.005939
502.436282	0.006821
502.654621	0.007212
502.872942	0.007404
503.091245	0.007011
503.309530	0.006828
503.527797	0.007356
503.746045	0.006882
503.964275	0.006915
504.182487	0.007527
504.400681	0.007126
504.618856	0.006512
504.837013	0.006999
505.055152	0.007313
505.273273	0.007387
505.491376	0.007373
505.709460	0.006915
505.927526	0.007737
506.145574	0.007644
506.363604	0.007935
506.581615	0.009097
506.799608	0.009090
507.017583	0.008584
507.235540	0.008541
507.453478	0.007962
507.671399	0.008532
507.889301	0.007630
508.107185	0.007846
508.325050	0.007548
508.542898	0.007034
508.760727	0.006862
508.978538	0.007148
509.196330	0.006964
509.414105	0.006790
509.631861	0.006073
509.849599	0.006496
510.067319	0.006108
510.285021	0.005682
510.502704	0.005275
510.720369	0.004703
510.938016	0.004249
511.155645	0.004179
511.373255	0.004250
511.590848	0.004132
511.808422	0.003275
512.025977	0.003577
512.243515	0.003493
512.461034	0.003551
512.678536	0.003705
512.896018	0.004117
513.113483	0.003471
513.330930	0.003575
513.548358	0.004083
513.765768	0.004175
513.983160	0.003740
514.200533	0.004023
514.417889	0.004995
514.635226	0.004978
514.852545	0.004923
515.069845	0.005416
515.287128	0.005605
515.504392	0.005030
515.721638	0.005259
515.938866	0.004662
516.156075	0.004560
516.373267	0.003519
516.590440	0.003175
516.807594	0.003204
517.024731	0.002870
517.241850	0.002808
517.458950	0.003050
517.676032	0.003188
517.893095	0.003272
518.110141	0.003859
518.327168	0.004119
518.544177	0.004473
518.761168	0.004006
518.978141	0.003950
519.195095	0.003656
519.412031	0.003591
519.628949	0.003687
519.845849	0.004474
520.062731	0.004262
520.279594	0.003917
520.496439	0.003650
520.713266	0.003633
520.930074	0.003918
521.146865	0.004082
521.363637	0.003647
521.580391	0.002994
521.797127	0.002760
522.013844	0.002802
522.230543	0.003167
522.447224	0.003744
522.663887	0.004543
522.880532	0.004315
523.097158	0.003708
523.313766	0.003845
523.530356	0.003973
523.746928	0.003830
523.963481	0.003624
524.180017	0.003799
524.396534	0.003967
524.613032	0.003361
524.829513	0.003658
525.045975	0.004066
525.262420	0.004068
525.478845	0.004489
525.695253	0.004294
525.911643	0.004334
526.128014	0.004282
526.344367	0.004379
526.560702	0.004767
526.777018	0.004259
526.993316	0.004246
527.209597	0.004643
527.425858	0.004298
527.642102	0.004587
527.858328	0.004210
528.074535	0.003823
528.290724	0.003279
528.506894	0.002891
528.723047	0.003058
528.939181	0.002990
529.155297	0.002720
529.371395	0.002973
529.587475	0.002307
529.803536	0.002726
530.019579	0.001938
530.235604	0.001905
530.451611	0.001420
530.667600	0.001911
530.883570	0.002097
531.099522	0.001977
531.315456	0.001535
531.531372	0.002208
531.747269	0.002219
531.963148	0.002817
532.179009	0.002829
532.394852	0.003433
532.610676	0.003311
532.826482	0.003053
533.042271	0.003004
533.258040	0.003108
533.473792	0.003133
533.689525	0.002350
533.905240	0.002453
534.120937	0.002227
534.336616	0.001999
534.552277	0.001824
534.767919	0.001648
534.983543	0.001448
535.199149	0.001205
535.414736	0.000713
535.630306	0.001360
535.845857	0.001174
536.061390	0.001290
536.276904	0.001078
536.492401	0.000934
536.707879	0.001126
536.923339	0.001346
537.138781	0.001890
537.354204	0.002187
537.569610	0.002148
537.784997	0.002285
538.000366	0.002105
538.215716	0.002731
538.431049	0.002883
538.646363	0.002582
538.861659	0.002704
539.076937	0.002457
539.292196	0.002638
539.507438	0.002750
539.722661	0.002969
539.937866	0.003269
540.153052	0.002807
540.368221	0.002703
540.583371	0.002714
540.798503	0.002985
541.013617	0.002712
541.228712	0.002444
541.443789	0.002139
541.658848	0.002203
541.873889	0.002162
542.088912	0.002446
542.303916	0.002342
542.518902	0.002550
542.733870	0.002274
542.948820	0.002598
543.163752	0.002269
543.378665	0.002215
543.593560	0.002020
543.808437	0.001811
544.023295	0.001624
544.238136	0.001489
544.452958	0.001254
544.667762	0.001006
544.882548	0.000938
545.097315	0.001467
545.312064	0.001187
545.526795	0.001040
545.741508	0.001111
545.956203	0.001046
546.170879	0.001231
546.385537	0.001219
546.600177	0.001284
546.814799	0.000967
547.029402	0.000684
547.243988	0.001151
547.458555	0.001204
547.673103	0.001345
547.887634	0.001219
548.102146	0.001080
548.316640	0.001323
548.531116	0.001225
548.745574	0.001576
548.960013	0.001323
549.174435	0.001074
549.388838	0.000954
549.603222	0.000825
549.817589	0.000875
550.031937	0.000697
550.246267	0.000543
550.460579	0.000720
550.674873	0.000268
550.889148	0.000575
551.103405	0.000957
551.317644	0.001080
551.531865	0.000802
551.746068	0.000642
551.960252	0.000746
552.174418	0.000982
552.388566	0.000730
552.602696	0.001150
552.816807	0.001162
553.030900	0.000742
553.244975	0.000566
553.459032	0.000503
553.673070	0.000912
553.887091	0.001146
554.101093	0.001179
554.315077	0.001290
554.529042	0.000833
554.742990	0.000570
554.956919	0.000614
555.170830	0.000750
555.384722	0.000935
555.598597	0.000576
555.812453	0.000436
556.026291	0.000220
556.240111	0.000141
556.453913	0.000741
556.667696	0.000849
556.881461	0.000526
557.095208	0.000369
557.308937	0.000187
557.522647	0.000166
557.736339	-0.000027
557.950013	0.000061
558.163669	0.000116
558.377307	-0.000159
558.590926	0.000046
558.804527	0.000306
559.018110	0.000301
559.231675	0.000432
559.445221	0.000491
559.658749	0.000769
559.872259	0.000523
560.085751	0.000598
560.299225	0.000519
560.512680	0.000456
560.726117	0.000752
560.939536	0.000864
561.152937	0.001046
561.366319	0.000734
561.579683	0.000654
561.793029	0.000632
562.006357	0.000563
562.219667	0.000868
562.432958	0.000618
562.646231	0.000397
562.859486	0.000200
563.072723	0.000027
563.285941	0.000206
563.499141	-0.000096
563.712323	-0.000161
563.925487	-0.000146
564.138632	-0.000382
564.351760	-0.000311
564.564869	-0.000412
564.777960	-0.000327
564.991032	-0.000062
565.204087	0.000139
565.417123	0.000218
565.630141	0.000585
565.843140	0.000606
566.056122	0.000699
566.269085	0.000623
566.482030	0.000742
566.694957	0.000825
566.907866	0.000792
567.120756	0.000398
567.333628	0.000579
567.546482	0.000374
567.759318	0.000546
567.972135	0.000155
568.184935	0.000479
568.397716	0.000395
568.610478	0.000678
568.823223	0.000189
569.035949	0.000322
569.248657	0.000108
569.461347	0.000088
569.674019	-0.000145
569.886672	0.000009
570.099308	-0.000257
570.311925	-0.000399
570.524523	-0.000861
570.737104	-0.000550
570.949666	-0.000415
571.162210	-0.000399
571.374736	-0.000337
571.587244	-0.000352
571.799733	-0.000096
572.012205	-0.000340
572.224658	-0.000462
572.437092	-0.000527
572.649509	-0.000565
572.861907	-0.000375
573.074287	-0.000446
573.286649	-0.000751
573.498993	-0.000723
573.711318	-0.000737
573.923625	-0.000252
574.135914	0.000137
574.348185	0.000531
574.560438	0.000655
574.772672	0.000705
574.984888	0.001114
575.197086	0.001327
575.409266	0.001353
575.621427	0.001538
575.833570	0.001527
576.045695	0.001635
576.257802	0.001385
576.469890	0.001181
576.681961	0.001107
576.894013	0.001003
577.106046	0.000900
577.318062	0.000833
577.530059	0.000994
577.742039	0.000649
577.954000	0.000599
578.165942	0.000508
578.377867	0.000715
578.589773	0.000459
578.801661	0.000127
579.013531	0.000587
579.225382	0.000777
579.437216	0.000126
579.649031	0.000254
579.860828	0.000245
580.072606	0.000507
580.284367	0.000426
580.496109	0.000464
580.707833	0.000598
580.919539	0.000089
581.131227	0.000030
581.342896	0.000089
581.554547	0.000143
581.766180	0.000106
581.977795	-0.000026
582.189391	0.000006
582.400969	0.000049
582.612529	0.000231
582.824071	0.000401
583.035595	0.000101
583.247100	0.000186
583.458587	0.000412
583.670056	0.000247
583.881506	0.000241
584.092939	0.000201
584.304353	0.000163
584.515749	0.000165
584.727127	-0.000217
584.938486	-0.000186
585.149828	-0.000203
585.361151	-0.000524
585.572456	-0.000918
585.783742	-0.000962
585.995011	-0.001018
586.206261	-0.001044
586.417493	-0.001155
586.628706	-0.000811
586.839902	-0.000538
587.051079	-0.000513
587.262238	-0.000320
587.473379	-0.000006
587.684502	-0.000084
587.895606	0.000027
588.106692	0.000153
588.317760	-0.000001
588.528810	-0.000160
588.739841	-0.000594
588.950855	-0.000369
589.161850	-0.000555
589.372827	-0.000510
589.583785	-0.000174
589.794726	-0.000190
590.005648	-0.000162
590.216552	-0.000194
590.427437	-0.000103
590.638305	0.000142
590.849154	0.000074
591.059985	0.000050
591.270798	-0.000042
591.481592	-0.000317
591.692369	-0.000212
591.903127	-0.000049
592.113867	-0.000068
592.324588	0.000074
592.535292	0.000390
592.745977	0.000261
592.956644	0.000369
593.167293	0.000486
593.377923	0.000567
593.588536	0.000368
593.799130	-0.000138
594.009706	-0.000018
594.220263	-0.000277
594.430803	-0.000351
594.641324	-0.000340
594.851827	-0.000335
595.062312	-0.000465
595.272778	-0.000367
595.483227	-0.000418
595.693657	-0.000244
595.904069	-0.000251
596.114462	-0.000155
596.324838	-0.000249
596.535195	-0.000378
596.745534	-0.000598
596.955855	-0.000432
597.166157	-0.000402
597.376441	-0.000306
597.586707	-0.000049
597.796955	0.000032
598.007185	-0.000001
598.217396	-0.000142
598.427589	0.000173
598.637764	0.000289
598.847921	0.000307
599.058060	0.000026
599.268180	-0.000034
599.478282	-0.000243
599.688366	-0.000598
599.898431	-0.000428
600.108479	-0.000243
600.318508	-0.000429
600.528519	-0.000340
600.738511	-0.000670
600.948486	-0.000549
601.158442	-0.000742
601.368380	-0.000639
601.578300	-0.000607
601.788202	-0.000711
601.998085	-0.000829
602.207950	-0.001070
602.417797	-0.001138
602.627626	-0.000922
602.837436	-0.001045
603.047228	-0.000685
603.257002	-0.000719
603.466758	-0.000612
603.676496	-0.000433
603.886215	-0.000446
604.095916	-0.000641
604.305599	-0.000711
604.515264	-0.000788
604.724910	-0.000881
604.934538	-0.001182
605.144148	-0.000948
605.353740	-0.000971
605.563314	-0.001267
605.772869	-0.001300
605.982406	-0.001250
606.191925	-0.001107
606.401425	-0.001215
606.610908	-0.001182
606.820372	-0.001136
607.029818	-0.001609
607.239246	-0.001312
607.448655	-0.001184
607.658047	-0.001045
607.867420	-0.000780
608.076775	-0.001045
608.286111	-0.000933
608.495430	-0.000828
608.704730	-0.000585
608.914012	-0.000517
609.123275	-0.000797
609.332521	-0.001125
609.541748	-0.001296
609.750957	-0.001386
609.960148	-0.001212
610.169321	-0.001144
610.378475	-0.001133
610.587611	-0.001513
610.796729	-0.001430
611.005829	-0.001162
611.214910	-0.000693
611.423974	-0.000662
611.633019	-0.000815
611.842045	-0.000959
612.051054	-0.000949
612.260044	-0.000970
612.469017	-0.000939
612.677970	-0.001007
612.886906	-0.001183
613.095824	-0.001455
613.304723	-0.001573
613.513604	-0.001338
613.722467	-0.001389
613.931311	-0.001430
614.140138	-0.001379
614.348946	-0.001206
614.557736	-0.001210
614.766507	-0.001341
614.975261	-0.001342
615.183996	-0.001126
615.392713	-0.001038
615.601412	-0.000737
615.810092	-0.000799
616.018754	-0.001039
616.227399	-0.001171
616.436024	-0.001084
616.644632	-0.000945
616.853222	-0.000899
617.061793	-0.000995
617.270346	-0.001195
617.478880	-0.001342
617.687397	-0.001340
617.895895	-0.001158
618.104375	-0.001023
618.312837	-0.001092
618.521281	-0.001297
618.729706	-0.001180
618.938113	-0.001153
619.146502	-0.001148
619.354873	-0.001383
619.563226	-0.001374
619.771560	-0.001353
619.979876	-0.001447
620.188174	-0.001348
620.396453	-0.000952
620.604715	-0.000962
620.812958	-0.000936
621.021183	-0.000700
621.229390	-0.000475
621.437578	-0.000378
621.645748	-0.000321
621.853900	-0.000302
622.062034	-0.000345
622.270150	-0.000664
622.478247	-0.000688
622.686326	-0.000696
622.894387	-0.000783
623.102430	-0.000792
623.310454	-0.000908
623.518461	-0.001148
623.726449	-0.001206
623.934418	-0.001163
624.142370	-0.001083
624.350303	-0.001040
624.558218	-0.000999
624.766115	-0.001042
624.973994	-0.001101
625.181855	-0.001149
625.389697	-0.000976
625.597521	-0.001021
625.805327	-0.001197
626.013114	-0.001334
626.220883	-0.001557
626.428634	-0.001850
626.636367	-0.002011
626.844082	-0.001921
627.051778	-0.001889
627.259457	-0.001966
627.467117	-0.001838
627.674758	-0.001807
627.882382	-0.001585
628.089987	-0.001542
628.297574	-0.001543
628.505143	-0.001446
628.712694	-0.001327
628.920226	-0.001348
629.127740	-0.001297
629.335236	-0.001358
629.542714	-0.001330
629.750174	-0.001320
629.957615	-0.001358
630.165038	-0.001161
630.372443	-0.001223
630.579829	-0.001365
630.787198	-0.001281
630.994548	-0.001434
631.201880	-0.001608
631.409194	-0.001411
631.616489	-0.001417
631.823766	-0.001255
632.031025	-0.001449
632.238266	-0.001519
632.445489	-0.001692
632.652693	-0.001565
632.859879	-0.001327
633.067047	-0.001166
633.274197	-0.001349
633.481329	-0.001599
633.688442	-0.001699
633.895537	-0.001750
634.102614	-0.001805
634.309672	-0.001595
634.516713	-0.001621
634.723735	-0.001752
634.930739	-0.001869
635.137724	-0.001794
635.344692	-0.001555
635.551641	-0.001709
635.758572	-0.001554
635.965485	-0.001446
636.172379	-0.001415
636.379256	-0.001646
636.586114	-0.001837
636.792954	-0.001696
636.999775	-0.001696
637.206579	-0.001823
637.413364	-0.001623
637.620131	-0.001471
637.826880	-0.001475
638.033610	-0.001538
638.240323	-0.001435
638.447017	-0.001394
638.653692	-0.001295
638.860350	-0.001279
639.066990	-0.001187
639.273611	-0.001208
639.480214	-0.001250
639.686798	-0.001134
639.893365	-0.001133
640.099913	-0.001203
640.306443	-0.001143
640.512955	-0.001215
640.719449	-0.001323
640.925924	-0.001308
641.132381	-0.001310
641.338820	-0.001561
641.545241	-0.001721
641.751644	-0.001852
641.958028	-0.001836
642.164394	-0.001889
642.370742	-0.001938
642.577071	-0.001970
642.783383	-0.002070
642.989676	-0.002113
643.195951	-0.001889
643.402207	-0.001833
643.608446	-0.001500
643.814666	-0.001359
644.020868	-0.001260
644.227052	-0.001155
644.433218	-0.001089
644.639365	-0.000956
644.845494	-0.001097
645.051605	-0.001063
645.257698	-0.001094
645.463772	-0.001261
645.669828	-0.001353
645.875866	-0.001303
646.081886	-0.001427
646.287888	-0.001372
646.493871	-0.001426
646.699836	-0.001262
646.905783	-0.001335
647.111712	-0.001202
647.317622	-0.001227
647.523514	-0.001116
647.729388	-0.001083
647.935244	-0.001027
648.141082	-0.001106
648.346901	-0.000994
648.552702	-0.000905
648.758485	-0.000947
648.964250	-0.001094
649.169996	-0.001027
649.375724	-0.001061
649.581434	-0.001043
649.787126	-0.001006
649.992800	-0.000967
650.198455	-0.001119
650.404092	-0.001129
650.609711	-0.001176
650.815311	-0.001120
651.020894	-0.001206
651.226458	-0.001142
651.432004	-0.001218
651.637532	-0.001324
651.843041	-0.001295
652.048532	-0.001178
652.254006	-0.001161
652.459460	-0.001152
652.664897	-0.001105
652.870315	-0.001188
653.075716	-0.001350
653.281097	-0.001317
653.486461	-0.001314
653.691807	-0.001385
653.897134	-0.001511
654.102443	-0.001546
654.307734	-0.001405
654.513006	-0.001389
654.718261	-0.001630
654.923497	-0.001557
655.128715	-0.001599
655.333915	-0.001466
655.539096	-0.001541
655.744259	-0.001321
655.949404	-0.001522
656.154531	-0.001638
656.359640	-0.001654
656.564730	-0.001308
656.769802	-0.001498
656.974856	-0.001553
657.179892	-0.001682
657.384909	-0.001527
657.589908	-0.001628
657.794889	-0.001430
657.999852	-0.001335
658.204797	-0.001287
658.409723	-0.001438
658.614631	-0.001381
658.819521	-0.001292
659.024393	-0.001347
659.229246	-0.001393
659.434081	-0.001447
659.638898	-0.001394
659.843697	-0.001420
660.048478	-0.001378
660.253240	-0.001306
660.457984	-0.001197
660.662710	-0.001080
660.867417	-0.000972
661.072107	-0.000959
661.276778	-0.000951
661.481431	-0.001033
661.686066	-0.001131
661.890682	-0.001176
662.095281	-0.001194
662.299861	-0.001163
662.504422	-0.001369
662.708966	-0.001393
662.913491	-0.001420
663.117999	-0.001495
663.322488	-0.001532
663.526958	-0.001544
663.731411	-0.001674
663.935845	-0.001612
664.140261	-0.001687
664.344659	-0.001690
664.549038	-0.001663
664.753400	-0.001606
664.957743	-0.001660
665.162068	-0.001717
665.366375	-0.001558
665.570663	-0.001583
665.774933	-0.001663
665.979185	-0.001614
666.183419	-0.001628
666.387635	-0.001547
666.591832	-0.001733
666.796011	-0.001686
667.000172	-0.001626
667.204315	-0.001620
667.408439	-0.001391
667.612545	-0.001143
667.816634	-0.001160
668.020703	-0.001041
668.224755	-0.001126
668.428788	-0.001064
668.632803	-0.001133
668.836800	-0.001160
669.040779	-0.001298
669.244739	-0.001499
669.448681	-0.001829
669.652605	-0.001890
669.856511	-0.001936
670.060399	-0.001837
670.264268	-0.001776
670.468119	-0.001711
670.671952	-0.001763
670.875767	-0.001739
671.079563	-0.001699
671.283341	-0.001641
671.487101	-0.001548
671.690843	-0.001447
671.894567	-0.001373
672.098272	-0.001424
672.301959	-0.001275
672.505628	-0.001058
672.709278	-0.000998
672.912911	-0.001045
673.116525	-0.000882
673.320121	-0.000896
673.523699	-0.000916
673.727258	-0.001157
673.930799	-0.001131
674.134322	-0.001236
674.337827	-0.001442
674.541314	-0.001547
674.744782	-0.001470
674.948232	-0.001322
675.151664	-0.001410
675.355078	-0.001344
675.558474	-0.001348
675.761851	-0.001371
675.965210	-0.001370
676.168551	-0.001245
676.371873	-0.001091
676.575178	-0.001182
676.778464	-0.001346
676.981732	-0.001193
677.184981	-0.001542
677.388213	-0.001595
677.591426	-0.001651
677.794621	-0.001708
677.997798	-0.001766
678.200956	-0.001915
678.404097	-0.001775
678.607219	-0.001818
678.810323	-0.001906
679.013408	-0.001794
679.216476	-0.001732
679.419525	-0.001586
679.622556	-0.001563
679.825569	-0.001567
680.028563	-0.001350
680.231540	-0.001452
680.434498	-0.001563
680.637438	-0.001761
680.840359	-0.001653
681.043263	-0.001656
681.246148	-0.001713
681.449015	-0.001601
681.651864	-0.001489
681.854694	-0.001711
682.057506	-0.001577
682.260301	-0.001350
682.463076	-0.001203
682.665834	-0.001166
682.868573	-0.001038
683.071295	-0.001063
683.273998	-0.001218
683.476682	-0.001258
683.679349	-0.001182
683.881997	-0.001206
684.084627	-0.001439
684.287239	-0.001397
684.489833	-0.001567
684.692408	-0.001625
684.894965	-0.001706
685.097504	-0.001583
685.300025	-0.001637
685.502527	-0.001593
685.705012	-0.001754
685.907478	-0.001714
686.109925	-0.001655
686.312355	-0.001504
686.514766	-0.001413
686.717159	-0.001312
686.919534	-0.001409
687.121891	-0.001398
687.324230	-0.001466
687.526550	-0.001355
687.728852	-0.001201
687.931136	-0.001467
688.133401	-0.001481
688.335649	-0.001620
688.537878	-0.001687
688.740089	-0.001798
688.942281	-0.001886
689.144456	-0.001985
689.346612	-0.002043
689.548750	-0.002265
689.750870	-0.002166
689.952971	-0.002250
690.155055	-0.002202
690.357120	-0.002190
690.559167	-0.001976
690.761195	-0.001937
690.963206	-0.001781
691.165198	-0.001731
691.367172	-0.001634
691.569128	-0.001580
691.771065	-0.001514
691.972984	-0.001480
692.174885	-0.001470
692.376768	-0.001599
692.578633	-0.001577
692.780479	-0.001576
692.982308	-0.001486
693.184118	-0.001572
693.385909	-0.001578
693.587683	-0.001621
693.789438	-0.001673
693.991175	-0.001650
694.192894	-0.001595
694.394595	-0.001539
694.596277	-0.001631
694.797941	-0.001763
694.999587	-0.001697
695.201215	-0.001596
695.402824	-0.001654
695.604416	-0.001600
695.805989	-0.001562
696.007543	-0.001476
696.209080	-0.001440
696.410598	-0.001440
696.612099	-0.001324
696.813580	-0.001354
697.015044	-0.001468
697.216490	-0.001280
697.417917	-0.001249
697.619326	-0.001241
697.820717	-0.001368
698.022089	-0.001439
698.223444	-0.001286
698.424780	-0.001384
698.626098	-0.001266
698.827397	-0.001124
699.028679	-0.001148
699.229942	-0.001197
699.431187	-0.001203
699.632414	-0.001272
699.833622	-0.001281
700.034813	-0.001334
700.235985	-0.001200
700.437139	-0.001303
700.638274	-0.001192
700.839392	-0.001233
701.040491	-0.001313
701.241572	-0.001222
701.442635	-0.001012
701.643679	-0.001088
701.844706	-0.001063
702.045714	-0.001116
702.246704	-0.000980
702.447675	-0.001060
702.648629	-0.001091
702.849564	-0.000976
703.050481	-0.001049
703.251380	-0.001097
703.452260	-0.000996
703.653122	-0.001103
703.853966	-0.001152
704.054792	-0.001172
704.255600	-0.001219
704.456389	-0.001089
704.657160	-0.001188
704.857913	-0.001170
705.058648	-0.001212
705.259365	-0.001241
705.460063	-0.001127
705.660743	-0.001090
705.861405	-0.001093
706.062048	-0.001114
706.262674	-0.001151
706.463281	-0.001212
706.663870	-0.001213
706.864441	-0.001211
707.064993	-0.001274
707.265527	-0.001335
707.466043	-0.001294
707.666541	-0.001189
707.867021	-0.001269
708.067482	-0.001381
708.267925	-0.001263
708.468350	-0.001290
708.668757	-0.001228
708.869145	-0.001001
709.069516	-0.001134
709.269868	-0.001156
709.470201	-0.001244
709.670517	-0.001127
709.870814	-0.001168
710.071093	-0.001368
710.271354	-0.001472
710.471597	-0.001442
710.671821	-0.001605
710.872028	-0.001396
711.072216	-0.001444
711.272385	-0.001526
711.472537	-0.001687
711.672670	-0.001695
711.872785	-0.001689
712.072882	-0.001612
712.272961	-0.001757
712.473021	-0.001737
712.673063	-0.001856
712.873087	-0.001806
713.073093	-0.002062
713.273081	-0.002112
713.473050	-0.001997
713.673001	-0.001895
713.872934	-0.001954
714.072849	-0.001906
714.272745	-0.001856
714.472623	-0.001779
714.672483	-0.001866
714.872325	-0.001741
715.072148	-0.001611
715.271954	-0.001628
715.471741	-0.001523
715.671509	-0.001533
715.871260	-0.001590
716.070992	-0.001655
716.270707	-0.001812
716.470403	-0.001747
716.670080	-0.001709
716.869740	-0.001805
717.069381	-0.001923
717.269004	-0.001905
717.468609	-0.001927
717.668195	-0.001960
717.867764	-0.001895
718.067314	-0.001822
718.266846	-0.001936
718.466360	-0.002007
718.665855	-0.002043
718.865332	-0.001861
719.064791	-0.001991
719.264232	-0.001964
719.463655	-0.002028
719.663059	-0.002290
719.862445	-0.002396
720.061813	-0.002486
720.261163	-0.002371
720.460494	-0.002366
720.659807	-0.002619
720.859102	-0.002703
721.058379	-0.002728
721.257638	-0.002682
721.456878	-0.002588
721.656100	-0.002587
721.855304	-0.002564
722.054490	-0.002468
722.253657	-0.002455
722.452806	-0.002458
722.651937	-0.002388
722.851050	-0.002443
723.050145	-0.002514
723.249221	-0.002487
723.448279	-0.002647
723.647319	-0.002583
723.846340	-0.002740
724.045344	-0.002561
724.244329	-0.002366
724.443296	-0.002492
724.642245	-0.002441
724.841175	-0.002238
725.040088	-0.002324
725.238982	-0.002128
725.437857	-0.002083
725.636715	-0.002042
725.835554	-0.002135
726.034376	-0.002300
726.233179	-0.002118
726.431963	-0.002143
726.630730	-0.002303
726.829478	-0.002237
727.028208	-0.002154
727.226920	-0.002165
727.425614	-0.002302
727.624289	-0.002251
727.822946	-0.002292
728.021585	-0.002472
728.220206	-0.002415
728.418808	-0.002351
728.617392	-0.002405
728.815958	-0.002481
729.014506	-0.002453
729.213036	-0.002356
729.411547	-0.002432
729.610040	-0.002469
729.808515	-0.002375
730.006972	-0.002349
730.205410	-0.002423
730.403831	-0.002398
730.602233	-0.002433
730.800616	-0.002394
730.998982	-0.002340
731.197329	-0.002356
731.395658	-0.002169
731.593969	-0.001991
731.792262	-0.002213
731.990536	-0.002238
732.188793	-0.002185
732.387031	-0.002199
732.585250	-0.002372
732.783452	-0.002497
732.981635	-0.002472
733.179800	-0.002444
733.377947	-0.002593
733.576076	-0.002504
733.774186	-0.002497
733.972278	-0.002478
734.170352	-0.002556
734.368408	-0.002633
734.566446	-0.002658
734.764465	-0.002692
734.962466	-0.002987
735.160449	-0.003242
735.358413	-0.003180
735.556360	-0.003188
735.754288	-0.003264
735.952198	-0.003205
736.150090	-0.003135
736.347963	-0.003135
736.545818	-0.003379
736.743655	-0.003194
736.941474	-0.003065
737.139275	-0.003275
737.337057	-0.003274
737.534821	-0.003290
737.732567	-0.003324
737.930295	-0.003209
738.128005	-0.003129
738.325696	-0.003008
738.523369	-0.003115
738.721024	-0.002934
738.918660	-0.002748
739.116279	-0.002795
739.313879	-0.002810
739.511461	-0.002838
739.709024	-0.002955
739.906570	-0.002879
740.104097	-0.002825
740.301606	-0.002755
740.499097	-0.002719
740.696569	-0.002710
740.894024	-0.002673
741.091460	-0.002611
741.288878	-0.002551
741.486277	-0.002461
741.683659	-0.002646
741.881022	-0.002794
742.078367	-0.002901
742.275694	-0.003160
742.473002	-0.003033
742.670293	-0.002971
742.867565	-0.003043
743.064819	-0.003011
743.262054	-0.003230
743.459272	-0.003220
743.656471	-0.003282
743.853652	-0.003298
744.050815	-0.003130
744.247959	-0.003187
744.445085	-0.003380
744.642194	-0.003348
744.839283	-0.003441
745.036355	-0.003407
745.233408	-0.003244
745.430444	-0.003125
745.627461	-0.003057
745.824459	-0.003202
746.021440	-0.003202
746.218402	-0.003161
746.415346	-0.003121
746.612272	-0.003124
746.809180	-0.003041
747.006069	-0.003246
747.202940	-0.003285
747.399793	-0.003284
747.596628	-0.003319
747.793444	-0.003408
747.990243	-0.003329
748.187023	-0.003423
748.383784	-0.003459
748.580528	-0.003464
748.777253	-0.003243
748.973960	-0.003042
749.170649	-0.002907
749.367320	-0.002789
749.563973	-0.002835
749.760607	-0.002732
749.957223	-0.002653
750.153821	-0.002544
750.350400	-0.002710
750.546962	-0.002821
750.743505	-0.002852
750.940030	-0.002816
751.136536	-0.002688
751.333025	-0.002573
751.529495	-0.002649
751.725947	-0.002670
751.922381	-0.002688
752.118796	-0.002564
752.315194	-0.002620
752.511573	-0.002431
752.707934	-0.002388
752.904276	-0.002458
753.100601	-0.002601
753.296907	-0.002462
753.493195	-0.002442
753.689465	-0.002295
753.885716	-0.002101
754.081949	-0.001964
754.278164	-0.002238
754.474361	-0.002298
754.670540	-0.002295
754.866700	-0.002071
755.062843	-0.002172
755.258967	-0.001998
755.455072	-0.001924
755.651160	-0.002029
755.847229	-0.002096
756.043280	-0.002012
756.239313	-0.002100
756.435328	-0.002168
756.631324	-0.002232
756.827302	-0.002072
757.023262	-0.002324
757.219204	-0.002492
757.415127	-0.002433
757.611033	-0.002177
757.806920	-0.002122
758.002788	-0.002062
758.198639	-0.001956
758.394471	-0.001778
758.590286	-0.001624
758.786081	-0.001430
758.981859	-0.001438
759.177619	-0.001475
759.373360	-0.001513
759.569083	-0.001475
759.764788	-0.001421
759.960474	-0.001449
760.156143	-0.001632
760.351793	-0.002110
760.547425	-0.002120
760.743038	-0.002088
760.938634	-0.002088
761.134211	-0.002380
761.329770	-0.002358
761.525311	-0.002407
761.720833	-0.002405
761.916338	-0.002353
762.111824	-0.002202
762.307292	-0.002266
762.502741	-0.002262
762.698173	-0.002201
762.893586	-0.002043
763.088981	-0.002150
763.284358	-0.002224
763.479716	-0.002176
763.675057	-0.002126
763.870379	-0.002148
764.065683	-0.002284
764.260968	-0.002103
764.456236	-0.002166
764.651485	-0.002127
764.846716	-0.002079
765.041929	-0.001966
765.237123	-0.002032
765.432299	-0.002145
765.627457	-0.002000
765.822597	-0.001662
766.017719	-0.001758
766.212822	-0.001752
766.407907	-0.001701
766.602974	-0.001703
766.798023	-0.001715
766.993054	-0.001670
767.188066	-0.001613
767.383060	-0.001648
767.578036	-0.001824
767.772993	-0.001892
767.967933	-0.001754
768.162854	-0.001803
768.357757	-0.001751
768.552642	-0.001922
768.747508	-0.001981
768.942356	-0.001952
769.137186	-0.001857
769.331998	-0.001847
769.526792	-0.001854
769.721567	-0.002018
769.916324	-0.001872
770.111063	-0.001907
770.305784	-0.001805
770.500486	-0.001839
770.695171	-0.001811
770.889837	-0.001826
771.084484	-0.001840
771.279114	-0.001795
771.473725	-0.001669
771.668318	-0.001845
771.862893	-0.001659
772.057450	-0.001586
772.251988	-0.001425
772.446509	-0.001325
772.641011	-0.001459
772.835494	-0.001275
773.029960	-0.001261
773.224407	-0.001211
773.418836	-0.001160
773.613247	-0.001349
773.807640	-0.001209
774.002014	-0.001103
774.196370	-0.001193
774.390708	-0.000904
774.585028	-0.000930
774.779330	-0.001009
774.973613	-0.001114
775.167878	-0.000970
775.362125	-0.000912
775.556354	-0.000987
775.750564	-0.001141
775.944756	-0.001039
776.138930	-0.001176
776.333086	-0.001302
776.527223	-0.001186
776.721343	-0.001119
776.915444	-0.001154
777.109526	-0.001106
777.303591	-0.001012
777.497637	-0.000991
777.691666	-0.001054
777.885676	-0.001170
778.079667	-0.001042
778.273641	-0.001068
778.467596	-0.000995
778.661533	-0.001019
778.855452	-0.000891
779.049352	-0.000978
779.243235	-0.000846
779.437099	-0.000837
779.630945	-0.000680
779.824773	-0.000788
780.018582	-0.000791
780.212373	-0.000894
780.406146	-0.000759
780.599901	-0.000812
780.793638	-0.000723
780.987356	-0.000776
781.181056	-0.000819
781.374738	-0.000728
781.568402	-0.000700
781.762047	-0.000677
781.955674	-0.000626
782.149283	-0.000867
782.342874	-0.000925
782.536447	-0.001141
782.730001	-0.001155
782.923537	-0.001141
783.117055	-0.001371
783.310555	-0.001492
783.504036	-0.001491
783.697499	-0.001471
783.890944	-0.001411
784.084371	-0.001360
784.277780	-0.001281
784.471170	-0.001474
784.664542	-0.001489
784.857896	-0.001376
785.051231	-0.001389
785.244549	-0.001408
785.437848	-0.001371
785.631129	-0.001478
785.824392	-0.001544
786.017636	-0.001563
786.210863	-0.001359
786.404071	-0.001304
786.597260	-0.001369
786.790432	-0.001377
786.983585	-0.001389
787.176721	-0.001519
787.369838	-0.001411
787.562936	-0.001462
787.756017	-0.001462
787.949079	-0.001471
788.142123	-0.001389
788.335149	-0.001191
788.528156	-0.000886
788.721146	-0.000889
788.914117	-0.000686
789.107070	-0.000672
789.300005	-0.000835
789.492921	-0.000647
789.685819	-0.000746
789.878699	-0.000904
790.071561	-0.001039
790.264405	-0.001148
790.457230	-0.001051
790.650037	-0.001130
790.842826	-0.001130
791.035597	-0.000933
791.228349	-0.000896
791.421084	-0.000742
791.613800	-0.000592
791.806497	-0.000587
791.999177	-0.000438
792.191838	-0.000351
792.384481	-0.000288
792.577106	-0.000252
792.769713	-0.000094
792.962301	-0.000056
793.154871	0.000020
793.347423	-0.000004
793.539957	0.000039
793.732473	0.000038
793.924970	-0.000007
794.117449	-0.000154
794.309910	-0.000036
794.502353	-0.000052
794.694777	-0.000249
794.887183	-0.000163
795.079571	-0.000183
795.271941	-0.000147
795.464293	-0.000381
795.656626	-0.000428
795.848941	-0.000317
796.041238	-0.000469
796.233516	-0.000588
796.425777	-0.000498
796.618019	-0.000610
796.810243	-0.000592
797.002449	-0.000584
797.194636	-0.000470
797.386805	-0.000346
797.578956	-0.000532
797.771089	-0.000429
797.963204	-0.000486
798.155300	-0.000665
798.347378	-0.000826
798.539438	-0.000939
798.731480	-0.001119
798.923503	-0.001173
799.115509	-0.001086
799.307496	-0.000859
799.499465	-0.001043
799.691415	-0.000946
799.883348	-0.000746
800.075262	-0.000685
800.267158	-0.000670
800.459035	-0.000624
800.650895	-0.000625
800.842736	-0.000876
801.034559	-0.000955
801.226364	-0.000928
801.418150	-0.000907
801.609919	-0.000859
801.801669	-0.000834
801.993401	-0.000846
802.185114	-0.000694
802.376810	-0.000665
802.568487	-0.000689
802.760146	-0.000694
802.951787	-0.000509
803.143409	-0.000665
803.335014	-0.000835
803.526600	-0.000847
803.718168	-0.000867
803.909717	-0.001090
804.101249	-0.001216
804.292762	-0.001263
804.484257	-0.001232
804.675734	-0.001423
804.867192	-0.001443
805.058632	-0.001367
805.250054	-0.001479
805.441458	-0.001561
805.632844	-0.001736
805.824211	-0.001594
806.015561	-0.001470
806.206891	-0.001588
806.398204	-0.001513
806.589499	-0.001543
806.780775	-0.001738
806.972033	-0.001590
807.163273	-0.001377
807.354495	-0.001233
807.545698	-0.001418
807.736883	-0.001514
807.928050	-0.001553
808.119199	-0.001535
808.310329	-0.001523
808.501441	-0.001480
808.692535	-0.001494
808.883611	-0.001441
809.074669	-0.001268
809.265708	-0.001211
809.456729	-0.000938
809.647732	-0.000846
809.838717	-0.000727
810.029683	-0.000476
810.220632	-0.000361
810.411562	-0.000421
810.602474	-0.000532
810.793367	-0.000659
810.984242	-0.000580
811.175100	-0.000773
811.365938	-0.000851
811.556759	-0.001120
811.747562	-0.001177
811.938346	-0.001215
812.129112	-0.001045
812.319860	-0.001137
812.510589	-0.001152
812.701300	-0.001244
812.891994	-0.001204
813.082668	-0.001207
813.273325	-0.000885
813.463964	-0.000939
813.654584	-0.000801
813.845186	-0.001127
814.035769	-0.001152
814.226335	-0.001126
814.416882	-0.000891
814.607411	-0.000961
814.797922	-0.001016
814.988415	-0.001112
815.178889	-0.001143
815.369345	-0.001354
815.559783	-0.001290
815.750203	-0.001256
815.940605	-0.001026
816.130988	-0.001249
816.321353	-0.001240
816.511700	-0.001075
816.702028	-0.001254
816.892339	-0.001430
817.082631	-0.001251
817.272905	-0.001191
817.463161	-0.001219
817.653398	-0.001377
817.843617	-0.001321
818.033819	-0.001504
818.224001	-0.001231
818.414166	-0.001317
818.604312	-0.001069
818.794440	-0.000995
818.984550	-0.001048
819.174642	-0.001115
819.364716	-0.001303
819.554771	-0.001331
819.744808	-0.001285
819.934827	-0.001527
820.124827	-0.001536
820.314810	-0.001588
820.504774	-0.001963
820.694720	-0.001853
820.884647	-0.001827
821.074557	-0.001706
821.264448	-0.001655
821.454321	-0.001503
821.644176	-0.001503
821.834012	-0.001544
822.023831	-0.001526
822.213631	-0.001504
822.403413	-0.001648
822.593176	-0.001689
822.782922	-0.001806
822.972649	-0.002074
823.162358	-0.002219
823.352049	-0.002393
823.541721	-0.002172
823.731376	-0.002362
823.921012	-0.002413
824.110629	-0.002527
824.300229	-0.002446
824.489811	-0.002404
824.679374	-0.002144
824.868919	-0.002070
825.058445	-0.002090
825.247954	-0.002211
825.437444	-0.002179
825.626916	-0.002051
825.816370	-0.001866
826.005806	-0.001905
826.195223	-0.001906
826.384622	-0.002054
826.574003	-0.002023
826.763366	-0.002106
826.952711	-0.002095
827.142037	-0.002103
827.331345	-0.002173
827.520635	-0.002212
827.709906	-0.002261
827.899160	-0.002129
828.088395	-0.002068
828.277612	-0.002375
828.466810	-0.002218
828.655991	-0.002133
828.845153	-0.002155
829.034297	-0.002079
829.223423	-0.002212
829.412531	-0.002159
829.601620	-0.002282
829.790691	-0.002547
829.979744	-0.002522
830.168779	-0.002537
830.357795	-0.002660
830.546793	-0.002769
830.735773	-0.002624
830.924735	-0.002690
831.113679	-0.002806
831.302604	-0.002774
831.491511	-0.002666
831.680400	-0.002532
831.869271	-0.002740
832.058123	-0.002866
832.246957	-0.002634
832.435773	-0.002954
832.624571	-0.002825
832.813351	-0.002912
833.002112	-0.002768
833.190855	-0.002751
833.379580	-0.002700
833.568287	-0.002737
833.756975	-0.002612
833.945645	-0.002804
834.134297	-0.002687
834.322931	-0.002667
834.511547	-0.002652
834.700144	-0.002949
834.888723	-0.002843
835.077284	-0.002878
835.265826	-0.002838
835.454351	-0.003136
835.642857	-0.003229
835.831345	-0.003397
836.019815	-0.003495
836.208266	-0.003443
836.396699	-0.003356
836.585114	-0.003503
836.773511	-0.003644
836.961890	-0.003510
837.150250	-0.003343
837.338592	-0.003252
837.526916	-0.003027
837.715222	-0.003065
837.903510	-0.003016
838.091779	-0.003071
838.280030	-0.002911
838.468263	-0.002967
838.656477	-0.003213
838.844674	-0.003081
839.032852	-0.003166
839.221012	-0.003135
839.409153	-0.003249
839.597277	-0.003323
839.785382	-0.003354
839.973469	-0.003590
840.161538	-0.003638
840.349589	-0.003554
840.537621	-0.003706
840.725635	-0.003800
840.913631	-0.004095
841.101609	-0.004008
841.289568	-0.003954
841.477509	-0.003918
841.665432	-0.003884
841.853337	-0.003675
842.041224	-0.003707
842.229092	-0.003730
842.416942	-0.003668
842.604774	-0.003581
842.792588	-0.003573
842.980383	-0.003676
843.168160	-0.003718
843.355919	-0.003963
843.543660	-0.004048
843.731382	-0.003995
843.919087	-0.004016
844.106773	-0.004113
844.294441	-0.004082
844.482090	-0.004122
844.669722	-0.004059
844.857335	-0.004299
845.044930	-0.003999
845.232507	-0.003995
845.420065	-0.003971
845.607605	-0.003914
845.795127	-0.003810
845.982631	-0.003828
846.170117	-0.003553
846.357584	-0.003674
846.545033	-0.003320
846.732464	-0.003324
846.919877	-0.003481
847.107272	-0.003438
847.294648	-0.003576
847.482006	-0.003484
847.669346	-0.003267
847.856667	-0.003423
848.043971	-0.003080
848.231256	-0.003441
848.418523	-0.003418
848.605771	-0.003206
848.793002	-0.003062
848.980214	-0.002964
849.167408	-0.002788
849.354584	-0.002983
849.541742	-0.002879
849.728881	-0.003086
849.916002	-0.002729
850.103105	-0.002667
850.290190	-0.002539
850.477256	-0.002481
850.664304	-0.002422
850.851334	-0.002519
851.038346	-0.002475
851.225340	-0.002569
851.412315	-0.002582
851.599272	-0.002688
851.786211	-0.002833
851.973132	-0.002882
852.160034	-0.002987
852.346918	-0.002913
852.533784	-0.002846
852.720632	-0.002684
852.907462	-0.002867
853.094273	-0.002836
853.281066	-0.002614
853.467841	-0.002538
853.654598	-0.002662
853.841336	-0.002841
854.028056	-0.002900
854.214758	-0.002960
854.401442	-0.002975
854.588107	-0.002982
854.774755	-0.002951
854.961384	-0.003064
855.147995	-0.002873
855.334587	-0.002931
855.521162	-0.002816
855.707718	-0.002878
855.894256	-0.002863
856.080775	-0.003026
856.267277	-0.003120
856.453760	-0.003208
856.640225	-0.003223
856.826672	-0.003186
857.013101	-0.002916
857.199511	-0.003021
857.385903	-0.002977
857.572277	-0.003023
857.758633	-0.003097
857.944970	-0.003091
858.131290	-0.003060
858.317591	-0.003097
858.503873	-0.003218
858.690138	-0.003504
858.876384	-0.003131
859.062612	-0.003119
859.248822	-0.003318
859.435014	-0.002888
859.621188	-0.002621
859.807343	-0.002399
859.993480	-0.002419
860.179599	-0.002283
860.365699	-0.001916
860.551781	-0.002160
860.737846	-0.002104
860.923891	-0.001966
861.109919	-0.002130
861.295929	-0.002104
861.481920	-0.002329
861.667893	-0.002121
861.853848	-0.002220
862.039784	-0.002313
862.225702	-0.002207
862.411603	-0.002101
862.597484	-0.001981
862.783348	-0.001877
862.969193	-0.001865
863.155021	-0.001792
863.340830	-0.001928
863.526620	-0.001948
863.712393	-0.002045
863.898147	-0.002145
864.083883	-0.002112
864.269601	-0.002209
864.455301	-0.002047
864.640982	-0.001927
864.826645	-0.001953
865.012290	-0.002016
865.197917	-0.002056
865.383526	-0.002089
865.569116	-0.002294
865.754688	-0.002542
865.940242	-0.002450
866.125777	-0.002677
866.311295	-0.002791
866.496794	-0.002771
866.682275	-0.002947
866.867737	-0.002823
867.053182	-0.002937
867.238608	-0.002606
867.424016	-0.002410
867.609406	-0.002468
867.794778	-0.002556
867.980131	-0.002498
868.165466	-0.002275
868.350783	-0.002016
868.536082	-0.002243
868.721362	-0.002302
868.906625	-0.002617
869.091869	-0.002529
869.277094	-0.002378
869.462302	-0.002356
869.647491	-0.002558
869.832662	-0.002788
870.017815	-0.002708
870.202950	-0.002490
870.388066	-0.002068
870.573165	-0.002058
870.758245	-0.002079
870.943306	-0.001992
871.128350	-0.002107
871.313375	-0.001919
871.498382	-0.001677
871.683371	-0.001651
871.868342	-0.001692
872.053294	-0.001583
872.238229	-0.001365
872.423144	-0.001426
872.608042	-0.001557
872.792922	-0.001281
872.977783	-0.001280
873.162626	-0.001457
873.347451	-0.001517
873.532258	-0.001736
873.717046	-0.001889
873.901816	-0.001728
874.086568	-0.001660
874.271302	-0.001560
874.456017	-0.001618
874.640715	-0.001550
874.825394	-0.001400
875.010055	-0.001311
875.194697	-0.001037
875.379322	-0.001201
875.563928	-0.001251
875.748516	-0.001249
875.933085	-0.001441
876.117637	-0.001499
876.302170	-0.001363
876.486685	-0.001400
876.671182	-0.001549
876.855661	-0.001612
877.040121	-0.001659
877.224563	-0.001760
877.408987	-0.001835
877.593393	-0.001738
877.777780	-0.001814
877.962150	-0.002154
878.146501	-0.002294
878.330833	-0.002387
878.515148	-0.002532
878.699444	-0.002384
878.883722	-0.002529
879.067982	-0.002386
879.252224	-0.002342
879.436447	-0.002218
879.620653	-0.002052
879.804840	-0.002124
879.989008	-0.001922
880.173159	-0.001664
880.357291	-0.001501
880.541405	-0.001397
880.725501	-0.001439
880.909579	-0.001160
881.093638	-0.001177
881.277680	-0.001101
881.461703	-0.001080
881.645707	-0.001161
881.829694	-0.001387
882.013662	-0.001851
882.197612	-0.001913
882.381544	-0.002043
882.565458	-0.002491
882.749353	-0.002577
882.933230	-0.002585
883.117089	-0.002569
883.300930	-0.002614
883.484753	-0.002619
883.668557	-0.002344
883.852343	-0.002533
884.036111	-0.002363
884.219861	-0.002166
884.403592	-0.002039
884.587305	-0.002144
884.771000	-0.001935
884.954677	-0.001741
885.138335	-0.001700
885.321976	-0.001477
885.505598	-0.001160
885.689201	-0.001337
885.872787	-0.001433
886.056354	-0.001671
886.239904	-0.001355
886.423434	-0.001708
886.606947	-0.001989
886.790442	-0.001665
886.973918	-0.001703
887.157376	-0.001518
887.340816	-0.001335
887.524237	-0.001582
887.707641	-0.001506
887.891026	-0.002081
888.074393	-0.001742
888.257741	-0.001557
888.441072	-0.001846
888.624384	-0.002249
888.807678	-0.002388
888.990954	-0.002661
889.174211	-0.002332
889.357451	-0.002455
889.540672	-0.002154
889.723875	-0.002130
889.907059	-0.002468
890.090226	-0.002381
890.273374	-0.002111
890.456504	-0.002062
890.639616	-0.001898
890.822709	-0.002166
891.005785	-0.002073
891.188842	-0.002317
891.371881	-0.002644
891.554901	-0.002296
891.737904	-0.002422
891.920888	-0.002182
892.103854	-0.002288
892.286802	-0.002397
892.469731	-0.002230
892.652643	-0.002048
892.835536	-0.001937
893.018410	-0.001974
893.201267	-0.001805
893.384106	-0.001561
893.566926	-0.002130
893.749728	-0.002082
893.932511	-0.002149
894.115277	-0.002054
894.298024	-0.002236
894.480753	-0.002098
894.663464	-0.001861
894.846157	-0.002175
895.028831	-0.002511
895.211487	-0.002415
895.394125	-0.002546
895.576745	-0.002246
895.759346	-0.002481
895.941930	-0.002761
896.124495	-0.002745
896.307041	-0.002852
896.489570	-0.002929
896.672080	-0.002770
896.854573	-0.002791
897.037046	-0.002735
897.219502	-0.003078
897.401940	-0.002791
897.584359	-0.002558
897.766760	-0.002669
897.949143	-0.002481
898.131507	-0.002418
898.313854	-0.002543
898.496182	-0.002395
898.678492	-0.002336
898.860783	-0.002106
899.043057	-0.002419
899.225312	-0.002354
899.407549	-0.002222
899.589768	-0.001917
899.771968	-0.001614
899.954151	-0.001458
900.136315	-0.001280
900.318461	-0.001086
900.500588	-0.001132
900.682698	-0.000960
900.864789	-0.000954
901.046862	-0.001036
901.228917	-0.001557
901.410953	-0.001651
901.592971	-0.001657
901.774972	-0.001992
901.956953	-0.002479
902.138917	-0.002586
902.320862	-0.002468
902.502790	-0.002351
902.684699	-0.002210
902.866589	-0.002108
903.048462	-0.002415
903.230316	-0.002306
903.412152	-0.002117
903.593970	-0.001819
903.775770	-0.001721
903.957551	-0.001861
904.139314	-0.001817
904.321059	-0.002046
904.502786	-0.002144
904.684494	-0.002012
904.866185	-0.001922
905.047857	-0.001942
905.229510	-0.002220
905.411146	-0.002330
905.592763	-0.002102
905.774363	-0.002231
905.955943	-0.001982
906.137506	-0.001789
906.319051	-0.002085
906.500577	-0.002244
906.682085	-0.002138
906.863575	-0.002011
907.045046	-0.001914
907.226500	-0.002135
907.407935	-0.002083
907.589352	-0.001972
907.770750	-0.002172
907.952131	-0.001968
908.133493	-0.002112
908.314837	-0.002214
908.496163	-0.002038
908.677470	-0.002204
908.858760	-0.002187
909.040031	-0.002184
909.221284	-0.002539
909.402518	-0.002338
909.583735	-0.002189
909.764933	-0.002201
909.946113	-0.002206
910.127275	-0.002013
910.308418	-0.001685
910.489544	-0.001807
910.670651	-0.002021
910.851740	-0.001979
911.032810	-0.002387
911.213863	-0.002555
911.394897	-0.002539
911.575913	-0.002411
911.756911	-0.002515
911.937890	-0.002839
912.118851	-0.003041
912.299794	-0.003057
912.480719	-0.003120
912.661626	-0.002984
912.842514	-0.002683
913.023384	-0.002535
913.204236	-0.002561
913.385070	-0.002831
913.565886	-0.002928
913.746683	-0.002825
913.927462	-0.002920
914.108223	-0.002972
914.288965	-0.003215
914.469690	-0.003431
914.650396	-0.003890
914.831084	-0.004197
915.011754	-0.004261
915.192405	-0.004172
915.373038	-0.004284
915.553653	-0.004498
915.734250	-0.004426
915.914829	-0.004234
916.095389	-0.004166
916.275931	-0.003667
916.456455	-0.003726
916.636961	-0.003611
916.817448	-0.003535
916.997917	-0.003251
917.178368	-0.003019
917.358801	-0.002851
917.539216	-0.002693
917.719612	-0.002539
917.899990	-0.002672
918.080350	-0.002664
918.260692	-0.002614
918.441015	-0.002634
918.621320	-0.003151
918.801607	-0.002804
918.981876	-0.003016
919.162127	-0.003100
919.342359	-0.003334
919.522573	-0.003384
919.702769	-0.003291
919.882947	-0.003688
920.063106	-0.003944
920.243247	-0.003625
920.423370	-0.003914
920.603475	-0.004092
920.783562	-0.004365
920.963630	-0.004380
921.143680	-0.004763
921.323712	-0.005085
921.503725	-0.005165
921.683721	-0.005387
921.863698	-0.005584
922.043657	-0.005689
922.223598	-0.006094
922.403520	-0.005992
922.583424	-0.006507
922.763311	-0.006170
922.943178	-0.006113
923.123028	-0.005977
923.302859	-0.005580
923.482673	-0.005163
923.662467	-0.005313
923.842244	-0.005068
924.022003	-0.005105
924.201743	-0.005103
924.381465	-0.005434
924.561169	-0.005289
924.740854	-0.005413
924.920522	-0.005547
925.100171	-0.006141
925.279802	-0.005752
925.459414	-0.005331
925.639009	-0.005329
925.818585	-0.004722
925.998143	-0.004890
926.177683	-0.004897
926.357205	-0.005079
926.536708	-0.005037
926.716193	-0.005188
926.895660	-0.005118
927.075109	-0.005506
927.254539	-0.005698
927.433951	-0.006201
927.613345	-0.006002
927.792721	-0.006167
927.972079	-0.006119
928.151418	-0.006345
928.330739	-0.006343
928.510042	-0.006941
928.689327	-0.007037
928.868593	-0.007425
929.047841	-0.007869
929.227071	-0.008639
929.406283	-0.008754
929.585476	-0.009102
929.764652	-0.009327
929.943809	-0.009269
930.122948	-0.009602
930.302068	-0.010242
930.481171	-0.009931
930.660255	-0.009773
930.839321	-0.009068
931.018369	-0.009125
931.197398	-0.008582
931.376409	-0.008361
931.555402	-0.007903
931.734377	-0.007686
931.913334	-0.007239
932.092272	-0.006848
932.271192	-0.006241
932.450094	-0.006718
932.628978	-0.006385
932.807844	-0.006421
932.986691	-0.006827
933.165520	-0.007124
933.344331	-0.007436
933.523123	-0.007599
933.701898	-0.007717
933.880654	-0.008267
934.059392	-0.008384
934.238111	-0.009488
934.416813	-0.009612
934.595496	-0.010021
934.774161	-0.010487
934.952808	-0.010507
935.131437	-0.010606
935.310047	-0.010890
935.488639	-0.010694
935.667213	-0.010392
935.845769	-0.009204
936.024306	-0.009416
936.202825	-0.009020
936.381326	-0.008849
936.559809	-0.008963
936.738274	-0.009231
936.916720	-0.009921
937.095148	-0.010441
937.273558	-0.010524
937.451950	-0.011787
937.630323	-0.011737
937.808678	-0.012015
937.987015	-0.012433
938.165334	-0.012519
938.343635	-0.012406
938.521917	-0.012059
938.700181	-0.012531
938.878427	-0.012746
939.056655	-0.012734
939.234864	-0.012985
939.413055	-0.012679
939.591228	-0.012475
939.769383	-0.012538
939.947519	-0.012732
940.125638	-0.012975
940.303738	-0.012202
940.481820	-0.012304
940.659883	-0.012233
940.837929	-0.012323
941.015956	-0.012355
941.193965	-0.012969
941.371955	-0.013660
941.549928	-0.013233
941.727882	-0.013931
941.905818	-0.014648
942.083736	-0.014577
942.261636	-0.014192
942.439517	-0.013870
942.617380	-0.013878
942.795225	-0.013137
942.973052	-0.011914
943.150860	-0.011955
943.328651	-0.011579
943.506423	-0.011156
943.684176	-0.011292
943.861912	-0.011748
944.039629	-0.012620
944.217328	-0.012373
944.395009	-0.012407
944.572672	-0.013167
944.750317	-0.013108
944.927943	-0.012221
945.105551	-0.012832
945.283141	-0.013051
945.460712	-0.013356
945.638265	-0.013100
945.815801	-0.013055
945.993317	-0.012919
946.170816	-0.012585
946.348297	-0.012220
946.525759	-0.012452
946.703203	-0.012481
946.880629	-0.011614
947.058036	-0.010953
947.235425	-0.010120
947.412797	-0.009908
947.590149	-0.011057
947.767484	-0.010119
947.944800	-0.011027
948.122099	-0.010867
948.299379	-0.008781
948.476640	-0.008544
948.653884	-0.009122
948.831109	-0.009514
949.008316	-0.010712
949.185505	-0.009419
949.362676	-0.009484
949.539828	-0.008305
949.716962	-0.007926
949.894078	-0.009066
950.071176	-0.009502
950.248256	-0.009436
950.425317	-0.009416
950.602360	-0.010051
950.779385	-0.010350
950.956391	-0.011616
951.133380	-0.012527
951.310350	-0.013569
951.487302	-0.013395
951.664235	-0.014175
951.841151	-0.012494
952.018048	-0.013147
952.194927	-0.011658
952.371788	-0.010871
952.548631	-0.009555
952.725455	-0.009705
952.902261	-0.008836
953.079049	-0.009494
953.255819	-0.008709
953.432570	-0.009402
953.609303	-0.009187
953.786018	-0.008928
953.962715	-0.008731
954.139394	-0.009743
954.316054	-0.008910
954.492696	-0.009292
954.669320	-0.008459
954.845926	-0.007248
955.022513	-0.006385
955.199083	-0.005589
955.375634	-0.005350
955.552166	-0.006364
955.728681	-0.005158
955.905177	-0.004699
956.081655	-0.003920
956.258115	-0.004197
956.434557	-0.005721
956.610980	-0.007894
956.787385	-0.006848
956.963772	-0.007118
957.140141	-0.006229
957.316492	-0.007285
957.492824	-0.007903
957.669138	-0.008119
957.845434	-0.007426
958.021712	-0.006379
958.197971	-0.005078
958.374212	-0.004276
958.550435	-0.005737
958.726640	-0.005842
958.902826	-0.004634
959.078995	-0.003358
959.255145	-0.003237
959.431277	-0.004366
959.607390	-0.004992
959.783486	-0.002756
959.959563	-0.003982
960.135622	-0.001618
960.311662	-0.001669
960.487685	-0.002990
960.663689	-0.003078
960.839675	-0.001775
961.015643	-0.001198
961.191593	-0.000388
961.367524	-0.001247
961.543437	-0.001443
961.719332	-0.002151
961.895209	0.000386
962.071067	0.001680
962.246907	0.002385
962.422730	0.002257
962.598533	0.002229
962.774319	0.001737
962.950086	0.001738
963.125835	0.002780
963.301566	0.003479
963.477279	0.000607
963.652973	-0.000013
963.828650	-0.001547
964.004308	-0.004594
964.179947	-0.002023
964.355569	-0.001150
964.531172	-0.002141
964.706757	-0.003751
964.882324	-0.004724
965.057873	-0.002428
965.233403	-0.002104
965.408916	-0.001897
965.584410	0.001231
965.759885	-0.000556
965.935343	-0.000009
966.110782	0.002346
966.286203	0.003219
966.461606	0.004258
966.636991	0.002518
966.812357	0.004429
966.987705	0.004202
967.163035	0.003230
967.338347	0.003018
967.513641	0.002701
967.688916	0.000492
967.864173	0.000730
968.039412	0.000303
968.214632	0.002262
968.389835	0.001465
968.565019	0.001305
968.740185	0.000922
968.915333	0.001397
969.090462	0.001045
969.265573	0.002277
969.440667	0.000670
969.615741	0.001016
969.790798	-0.001478
969.965836	-0.001634
970.140856	-0.000992
970.315858	-0.000127
970.490842	0.000709
970.665808	-0.000593
970.840755	-0.000093
971.015684	0.000759
971.190595	0.000611
971.365487	0.002585
971.540362	0.003013
971.715218	0.003897
971.890056	0.003757
972.064875	0.003944
972.239677	0.005392
972.414460	0.005318
972.589225	0.006719
972.763972	0.006630
972.938700	0.005786
973.113411	0.006674
973.288103	0.005432
973.462777	0.006018
973.637432	0.005015
973.812070	0.005015
973.986689	0.003565
974.161290	0.003861
974.335873	0.002347
974.510437	0.001911
974.684984	0.003150
974.859512	0.004841
975.034022	0.004779
975.208513	0.005534
975.382987	0.006216
975.557442	0.006792
975.731879	0.007001
975.906298	0.008076
976.080698	0.007600
976.255080	0.004239
976.429445	0.005296
976.603790	0.004363
976.778118	0.004131
976.952427	0.001846
977.126719	0.003919
977.300992	0.002942
977.475246	0.004041
977.649483	0.005133
977.823701	0.005744
977.997901	0.003934
978.172083	0.005720
978.346247	0.007339
978.520392	0.007259
978.694519	0.006683
978.868628	0.006386
979.042719	0.007046
979.216791	0.008489
979.390845	0.008924
979.564882	0.007961
979.738899	0.005687
979.912899	0.004583
980.086880	0.006535
980.260843	0.006618
980.434788	0.007578
980.608715	0.006942
980.782623	0.006167
980.956514	0.005867
981.130386	0.007003
981.304240	0.008340
981.478075	0.007734
981.651892	0.006279
981.825692	0.005985
981.999472	0.004980
982.173235	0.004441
982.346980	0.003036
982.520706	0.004452
982.694414	0.003105
982.868104	0.004396
983.041775	0.006407
983.215428	0.007358
983.389064	0.005688
983.562680	0.007430
983.736279	0.008567
983.909860	0.009134
984.083422	0.009093
984.256966	0.008729
984.430491	0.007066
984.603999	0.004943
984.777488	0.005518
984.950959	0.007556
985.124412	0.006033
985.297847	0.005621
985.471263	0.005935
985.644661	0.006301
985.818041	0.008261
985.991403	0.008853
986.164747	0.010544
986.338072	0.010886
986.511379	0.009044
986.684668	0.007012
986.857938	0.007813
987.031191	0.007835
987.204425	0.005638
987.377641	0.004410
987.550839	0.004187
987.724018	0.004211
987.897179	0.002564
988.070322	0.002856
988.243447	0.006219
988.416554	0.004854
988.589642	0.003955
988.762712	0.005439
988.935764	0.008081
989.108798	0.009251
989.281813	0.007526
989.454811	0.009172
989.627790	0.007234
989.800751	0.006073
989.973693	0.007612
990.146617	0.009361
990.319524	0.010052
990.492412	0.008362
990.665281	0.007342
990.838133	0.007476
991.010966	0.004168
991.183781	0.007015
991.356578	0.007575
991.529356	0.007813
991.702117	0.007821
991.874859	0.007271
992.047583	0.007519
992.220288	0.007302
992.392976	0.007627
992.565645	0.009885
992.738296	0.009013
992.910929	0.009088
993.083543	0.007363
993.256139	0.006166
993.428718	0.005046
993.601277	0.003651
993.773819	0.004252
993.946342	0.004547
994.118848	0.005560
994.291335	0.005982
994.463803	0.004263
994.636254	0.005124
994.808686	0.004912
994.981100	0.004539
995.153496	0.003551
995.325874	0.003285
995.498233	0.003756
995.670574	0.003573
995.842897	0.002996
996.015202	0.004343
996.187488	0.004715
996.359757	0.005132
996.532007	0.005766
996.704239	0.006971
996.876452	0.007570
997.048648	0.006803
997.220825	0.005370
997.392984	0.006350
997.565124	0.005455
997.737247	0.005369
997.909351	0.005429
998.081437	0.005629
998.253505	0.007059
998.425554	0.006666
998.597586	0.005879
998.769599	0.006614
998.941594	0.007389
999.113571	0.008006
999.285529	0.008288
999.457469	0.006836
999.629391	0.005767
999.801295	0.004752
999.973181	0.004784
1000.145048	0.004674
1000.316897	0.003739
1000.488728	0.003358
1000.660541	0.003519
1000.832335	0.002640
1001.004111	0.005185
1001.175869	0.005061
1001.347609	0.005652
1001.519331	0.004803
1001.691034	0.004901
1001.862719	0.006778
1002.034386	0.005645
1002.206035	0.006610
1002.377665	0.006578
1002.549277	0.005023
1002.720871	0.007354
1002.892447	0.007513
1003.064004	0.008152
1003.235544	0.007902
1003.407065	0.007214
1003.578568	0.006400
1003.750052	0.004844
1003.921519	0.004386
1004.092967	0.004797
1004.264397	0.002719
1004.435809	0.000597
1004.607202	0.000955
1004.778577	0.003125
1004.949934	0.003082
1005.121273	0.003106
1005.292594	0.002431
1005.463896	0.003009
1005.635180	0.003575
1005.806446	0.005406
1005.977694	0.006571
1006.148923	0.005202
1006.320135	0.006239
1006.491328	0.006171
1006.662503	0.007147
1006.833659	0.008623
1007.004798	0.007569
1007.175918	0.005498
1007.347020	0.004970
1007.518103	0.004661
1007.689169	0.004561
1007.860216	0.002430
1008.031245	0.001721
1008.202256	0.001318
1008.373248	0.000169
1008.544223	-0.000108
1008.715179	0.002667
1008.886117	0.000642
1009.057036	0.002283
1009.227938	0.002961
1009.398821	0.003751
1009.569686	0.004946
1009.740533	0.005862
1009.911361	0.006129
1010.082172	0.006887
1010.252964	0.005813
1010.423738	0.006480
1010.594493	0.006879
1010.765231	0.007808
1010.935950	0.006295
1011.106651	0.004999
1011.277334	0.004211
1011.447998	0.005335
1011.618645	0.005312
1011.789273	0.004709
1011.959882	0.004767
1012.130474	0.002833
1012.301048	0.003668
1012.471603	0.004039
1012.642140	0.006374
1012.812658	0.006059
1012.983159	0.005000
1013.153641	0.004789
1013.324105	0.005548
1013.494551	0.006557
1013.664979	0.008756
1013.835388	0.009092
1014.005779	0.008801
1014.176152	0.007661
1014.346507	0.007414
1014.516843	0.007977
1014.687162	0.008454
1014.857462	0.007114
1015.027744	0.006662
1015.198007	0.004957
1015.368252	0.003044
1015.538480	0.002692
1015.708689	0.001962
1015.878879	0.001822
1016.049052	0.003012
1016.219206	0.003190
1016.389342	0.003628
1016.559460	0.005310
1016.729559	0.005029
1016.899641	0.005138
1017.069704	0.005692
1017.239749	0.004605
1017.409775	0.005103
1017.579784	0.005111
1017.749774	0.005589
1017.919746	0.006668
1018.089700	0.006035
1018.259635	0.006002
1018.429553	0.005887
1018.599452	0.005616
1018.769333	0.006352
1018.939195	0.007465
1019.109040	0.006364
1019.278866	0.006160
1019.448674	0.005547
1019.618464	0.004843
1019.788235	0.006285
1019.957989	0.006007
1020.127724	0.006309
1020.297441	0.006848
1020.467139	0.005299
1020.636820	0.005115
1020.806482	0.006224
1020.976126	0.006285
1021.145752	0.007485
1021.315359	0.005879
1021.484948	0.005658
1021.654519	0.005867
1021.824072	0.006748
1021.993607	0.006831
1022.163123	0.007007
1022.332621	0.005679
1022.502101	0.004378
1022.671563	0.003648
1022.841007	0.004492
1023.010432	0.004768
1023.179839	0.004547
1023.349228	0.005090
1023.518598	0.006134
1023.687951	0.006498
1023.857285	0.005977
1024.026601	0.007267
1024.195899	0.005516
1024.365178	0.005498
1024.534439	0.006040
1024.703682	0.005721
1024.872907	0.002829
1025.042114	0.003883
1025.211302	0.003194
1025.380472	0.003692
1025.549624	0.004345
1025.718758	0.005111
1025.887873	0.004218
1026.056970	0.003693
1026.226049	0.003455
1026.395110	0.006492
1026.564153	0.005316
1026.733177	0.005741
1026.902183	0.006428
1027.071171	0.004901
1027.240141	0.005732
1027.409092	0.007260
1027.578026	0.008465
1027.746940	0.009548
1027.915837	0.008057
1028.084716	0.008273
1028.253576	0.006223
1028.422418	0.005052
1028.591242	0.006566
1028.760048	0.007584
1028.928835	0.006834
1029.097604	0.005468
1029.266355	0.006210
1029.435088	0.005379
1029.603803	0.005010
1029.772499	0.006729
1029.941177	0.006783
1030.109837	0.005754
1030.278478	0.003586
1030.447102	0.005275
1030.615707	0.005308
1030.784294	0.005290
1030.952863	0.006154
1031.121413	0.005717
1031.289945	0.005509
1031.458460	0.006519
1031.626955	0.007237
1031.795433	0.007591
1031.963892	0.004615
1032.132334	0.005403
1032.300756	0.003588
1032.469161	0.004229
1032.637548	0.003928
1032.805916	0.003213
1032.974266	0.002271
1033.142598	0.002432
1033.310911	0.002911
1033.479207	0.003993
1033.647484	0.003777
1033.815743	0.004845
1033.983983	0.003261
1034.152206	0.004708
1034.320410	0.005942
1034.488596	0.005330
1034.656764	0.003519
1034.824914	0.004038
1034.993045	0.004076
1035.161158	0.003561
1035.329253	0.004885
1035.497330	0.005435
1035.665388	0.004382
1035.833428	0.004567
1036.001450	0.006408
1036.169454	0.007947
1036.337440	0.006715
1036.505407	0.008282
1036.673356	0.008969
1036.841287	0.008114
1037.009200	0.007849
1037.177094	0.009445
1037.344970	0.009214
1037.512828	0.005648
1037.680668	0.004951
1037.848489	0.004278
1038.016293	0.002750
1038.184078	0.002846
1038.351845	0.002817
1038.519593	0.002839
1038.687324	0.000877
1038.855036	0.000530
1039.022730	0.003243
1039.190406	0.002021
1039.358063	0.002265
1039.525702	0.002191
1039.693323	0.002746
1039.860926	0.002707
1040.028511	0.003948
1040.196077	0.004437
1040.363625	0.004685
1040.531155	0.004108
1040.698667	0.005205
1040.866161	0.006451
1041.033636	0.005983
1041.201093	0.005185
1041.368532	0.005843
1041.535952	0.004124
1041.703355	0.004455
1041.870739	0.004075
1042.038105	0.003164
1042.205452	0.002709
1042.372782	0.001886
1042.540093	0.003383
1042.707386	0.002953
1042.874661	0.001092
1043.041918	0.002958
1043.209156	0.003529
1043.376376	0.002943
1043.543578	0.004846
1043.710762	0.005936
1043.877927	0.006578
1044.045074	0.006265
1044.212203	0.006284
1044.379314	0.006000
1044.546407	0.005721
1044.713481	0.006478
1044.880537	0.007510
1045.047575	0.006366
1045.214595	0.005903
1045.381596	0.004072
1045.548579	0.003109
1045.715544	0.003771
1045.882491	0.006052
1046.049420	0.005211
1046.216330	0.002677
1046.383222	0.000751
1046.550096	-0.000172
1046.716951	0.000984
1046.883789	0.003949
1047.050608	0.004492
1047.217409	0.004984
1047.384192	0.003304
1047.550956	0.004028
1047.717703	0.004622
1047.884431	0.006436
1048.051140	0.008247
1048.217832	0.007043
1048.384505	0.005524
1048.551161	0.006161
1048.717798	0.004658
1048.884416	0.005773
1049.051017	0.004840
1049.217599	0.005008
1049.384163	0.004742
1049.550709	0.005999
1049.717237	0.006665
1049.883746	0.007398
1050.050237	0.006033
1050.216710	0.006203
1050.383165	0.006144
1050.549601	0.006451
1050.716019	0.007338
1050.882420	0.007342
1051.048801	0.004183
1051.215165	0.005135
1051.381510	0.004335
1051.547837	0.005002
1051.714146	0.005763
1051.880437	0.004706
1052.046709	0.004725
1052.212964	0.003238
1052.379200	0.002988
1052.545417	0.003711
1052.711617	0.000675
1052.877798	0.001464
1053.043961	0.000195
1053.210106	-0.001202
1053.376233	-0.000894
1053.542341	-0.000810
1053.708432	-0.000562
1053.874504	-0.000277
1054.040557	-0.001112
1054.206593	0.001122
1054.372610	0.000501
1054.538609	0.003481
1054.704590	0.004680
1054.870553	0.004936
1055.036497	0.004975
1055.202424	0.006790
1055.368331	0.006396
1055.534221	0.008201
1055.700093	0.007751
1055.865946	0.009011
1056.031781	0.007152
1056.197598	0.007333
1056.363397	0.006455
1056.529177	0.005700
1056.694939	0.003418
1056.860683	0.004682
1057.026409	0.004574
1057.192116	0.004612
1057.357806	0.002221
1057.523477	0.001154
1057.689130	0.000611
1057.854764	0.000975
1058.020381	0.000927
1058.185979	0.001355
1058.351559	0.001413
1058.517120	0.001368
1058.682664	0.001291
1058.848189	0.004056
1059.013696	0.003794
1059.179185	0.003610
1059.344656	0.003719
1059.510108	0.005645
1059.675542	0.004844
1059.840958	0.003915
1060.006356	0.003917
1060.171735	0.003718
1060.337096	0.002493
1060.502439	0.003891
1060.667764	0.004272
1060.833071	0.004112
1060.998359	0.004465
1061.163629	0.006433
1061.328881	0.005744
1061.494115	0.005525
1061.659330	0.004524
1061.824527	0.005298
1061.989706	0.004430
1062.154867	0.004511
1062.320010	0.005143
1062.485134	0.005024
1062.650240	0.005289
1062.815328	0.007209
1062.980398	0.008059
1063.145449	0.008443
1063.310482	0.008124
1063.475497	0.008290
1063.640494	0.007193
1063.805473	0.006382
1063.970433	0.002260
1064.135375	0.000164
1064.300299	-0.000206
1064.465204	-0.001532
1064.630092	-0.000234
1064.794961	-0.001062
1064.959812	-0.001281
1065.124645	-0.001346
1065.289459	-0.001764
1065.454256	-0.000135
1065.619034	0.000914
1065.783793	0.000705
1065.948535	0.001786
1066.113258	0.000365
1066.277964	0.000789
1066.442651	0.000936
1066.607319	0.003250
1066.771970	0.003898
1066.936602	0.004325
1067.101216	0.003727
1067.265812	0.003466
1067.430389	0.001895
1067.594949	0.003327
1067.759490	0.004003
1067.924013	0.004511
1068.088518	0.003081
1068.253004	0.003205
1068.417472	0.005248
1068.581922	0.004380
1068.746354	0.002434
1068.910768	0.003422
1069.075163	0.001558
1069.239540	0.000420
1069.403899	0.002327
1069.568240	0.003056
1069.732562	0.003697
1069.896866	0.000905
1070.061152	0.004532
1070.225420	0.004669
1070.389670	0.004662
1070.553901	0.006717
1070.718114	0.006865
1070.882309	0.005337
1071.046486	0.004759
1071.210644	0.004341
1071.374784	0.005581
1071.538906	0.004733
1071.703010	0.006669
1071.867096	0.005281
1072.031163	0.004103
1072.195212	0.005330
1072.359243	0.006976
1072.523256	0.006313
1072.687250	0.004916
1072.851226	0.003372
1073.015184	0.002139
1073.179124	0.003346
1073.343045	0.003189
1073.506949	0.002567
1073.670834	0.001469
1073.834701	0.000980
1073.998549	0.001750
1074.162380	0.003393
1074.326192	0.002802
1074.489986	0.001983
1074.653761	-0.000948
1074.817519	0.001315
1074.981258	0.002168
1075.144979	0.002627
1075.308682	0.000624
1075.472367	0.000541
1075.636033	0.001885
1075.799681	0.004842
1075.963311	0.005661
1076.126923	0.005825
1076.290516	0.005452
1076.454092	0.005423
1076.617649	0.003579
1076.781187	0.005520
1076.944708	0.005521
1077.108210	0.004753
1077.271695	0.003946
1077.435160	0.004929
1077.598608	0.004779
1077.762038	0.002226
1077.925449	0.002090
1078.088842	0.004836
1078.252217	0.004475
1078.415573	0.002741
1078.578912	0.003180
1078.742232	0.005820
1078.905534	0.005988
1079.068817	0.008945
1079.232083	0.013766
1079.395330	0.012889
1079.558559	0.012967
1079.721770	0.010144
1079.884962	0.012637
1080.048136	0.008003
1080.211293	0.005046
1080.374430	0.003718
1080.537550	0.001353
1080.700651	-0.000906
1080.863735	0.000871
1081.026800	-0.000164
1081.189846	0.001845
1081.352875	0.002482
1081.515885	0.005652
1081.678877	0.005782
1081.841851	0.006711
1082.004807	0.007937
1082.167744	0.008442
1082.330663	0.007198
1082.493564	0.008078
1082.656447	0.008616
1082.819312	0.007815
1082.982158	0.006726
1083.144986	0.006862
1083.307796	0.004811
1083.470587	0.004373
1083.633361	0.002602
1083.796116	0.004107
1083.958853	0.003451
1084.121571	0.002836
1084.284272	0.001404
1084.446954	0.002718
1084.609618	0.002893
1084.772264	0.001768
1084.934892	0.001821
1085.097501	0.003502
1085.260092	0.003391
1085.422665	0.000622
1085.585220	0.001386
1085.747756	0.001727
1085.910274	0.000631
1086.072774	-0.002807
1086.235256	-0.000472
1086.397720	-0.000559
1086.560165	-0.000948
1086.722592	-0.001652
1086.885001	0.001109
1087.047392	-0.000709
1087.209764	0.000771
1087.372119	-0.000665
1087.534455	0.001460
1087.696772	0.003430
1087.859072	0.001741
1088.021353	0.001219
1088.183616	0.000557
1088.345861	-0.000146
1088.508088	0.000194
1088.670296	-0.000085
1088.832486	0.001250
1088.994658	0.002119
1089.156812	0.000073
1089.318948	0.000828
1089.481065	0.001286
1089.643164	0.002922
1089.805245	0.000893
1089.967308	0.001008
1090.129352	0.001811
1090.291378	0.001836
1090.453386	0.000287
1090.615376	0.000641
1090.777347	0.003300
1090.939301	0.002257
1091.101236	0.001413
1091.263153	0.001808
1091.425051	0.002033
1091.586932	0.000713
1091.748794	0.004677
1091.910638	0.006584
1092.072463	0.006201
1092.234271	0.004985
1092.396060	0.006491
1092.557831	0.005481
1092.719584	0.005302
1092.881319	0.006993
1093.043035	0.005817
1093.204733	0.000577
1093.366413	0.000635
1093.528075	0.003409
1093.689718	0.003215
1093.851343	0.003554
1094.012950	0.005926
1094.174539	0.010922
1094.336110	0.008071
1094.497662	0.008224
1094.659196	0.012229
1094.820712	0.012500
1094.982210	0.010679
1095.143689	0.007528
1095.305151	0.006005
1095.466594	0.001018
1095.628018	-0.004065
1095.789425	-0.002986
1095.950813	-0.002002
1096.112183	-0.002147
1096.273535	-0.001279
1096.434869	-0.000658
1096.596184	0.001763
1096.757482	0.002174
1096.918761	0.004553
1097.080021	0.006787
1097.241264	0.007888
1097.402488	0.007284
1097.563694	0.001906
1097.724882	-0.000572
1097.886052	-0.000731
1098.047203	-0.001558
1098.208336	-0.001787
1098.369451	0.001420
1098.530548	0.000587
1098.691627	-0.000944
1098.852687	0.000946
1099.013729	0.006630
1099.174753	0.008613
1099.335758	0.006260
1099.496746	0.005658
1099.657715	0.004722
1099.818666	0.003073
1099.979599	0.002613
1100.140513	0.001137
1100.301409	-0.000558
1100.462287	-0.003221
1100.623147	-0.001147
1100.783989	0.001585
1100.944812	0.003014
1101.105617	0.007277
1101.266404	0.007512
1101.427173	0.006514
1101.587923	0.009448
1101.748656	0.008988
1101.909370	0.008836
1102.070066	0.006137
1102.230743	0.004967
1102.391403	0.003685
1102.552044	0.001451
1102.712667	0.001111
1102.873271	0.001421
1103.033858	0.000254
1103.194426	0.000402
1103.354976	-0.001244
1103.515508	0.001202
1103.676021	-0.004099
1103.836517	-0.002267
1103.996994	-0.004158
1104.157453	-0.005875
1104.317893	-0.005449
1104.478316	-0.005626
1104.638720	-0.006740
1104.799106	-0.005783
1104.959474	-0.009894
1105.119823	-0.009940
1105.280155	-0.011131
1105.440468	-0.010864
1105.600763	-0.011983
1105.761039	-0.012790
1105.921298	-0.015046
1106.081538	-0.012129
1106.241760	-0.013961
1106.401964	-0.011230
1106.562149	-0.005658
1106.722316	-0.005143
1106.882465	-0.005424
1107.042596	-0.003381
1107.202709	-0.001226
1107.362803	0.003024
1107.522879	-0.001189
1107.682937	0.001421
1107.842977	0.001245
1108.002999	0.000912
1108.163002	-0.000339
1108.322987	-0.000857
1108.482954	0.000063
1108.642902	-0.000779
1108.802833	-0.007766
1108.962745	-0.004761
1109.122639	-0.002698
1109.282515	-0.006642
1109.442372	-0.005731
1109.602211	-0.005979
1109.762032	-0.003069
1109.921835	-0.003052
1110.081620	-0.004886
1110.241386	0.001198
1110.401134	0.000530
1110.560864	-0.004443
1110.720576	-0.000932
1110.880269	-0.004842
1111.039945	-0.000607
1111.199602	-0.000089
1111.359240	-0.000440
1111.518861	0.002032
1111.678463	-0.000686
1111.838047	-0.002858
1111.997613	-0.001008
1112.157161	-0.003747
1112.316690	0.000653
1112.476202	-0.006156
1112.635695	-0.009072
1112.795169	-0.013199
1112.954626	-0.012962
1113.114064	-0.009333
1113.273484	-0.005390
1113.432886	-0.005206
1113.592270	-0.004066
1113.751635	-0.009399
1113.910983	-0.003588
1114.070312	-0.005192
1114.229622	-0.001311
1114.388915	-0.000426
1114.548189	-0.003418
1114.707445	-0.004857
1114.866683	-0.004320
1115.025903	-0.005049
1115.185104	-0.001162
1115.344287	-0.005663
1115.503452	-0.002780
1115.662599	-0.004448
1115.821727	-0.006983
1115.980838	-0.005631
1116.139930	-0.006388
1116.299004	-0.007040
1116.458059	-0.002283
1116.617097	-0.003841
1116.776116	-0.001122
1116.935117	0.000750
1117.094099	0.001067
1117.253064	0.002821
1117.412010	0.002992
1117.570938	0.002364
1117.729848	0.006046
1117.888740	0.002997
1118.047613	0.001099
1118.206468	0.002470
1118.365305	0.000308
1118.524124	-0.001494
1118.682924	-0.006533
1118.841707	-0.010159
1119.000471	-0.010554
1119.159216	-0.013231
1119.317944	-0.013431
1119.476653	-0.012389
1119.635344	-0.010038
1119.794017	-0.008182
1119.952672	-0.003501
1120.111308	0.000697
1120.269927	0.005770
1120.428527	0.004767
1120.587108	0.008145
1120.745672	0.009749
1120.904217	0.011474
1121.062744	0.001585
1121.221253	-0.002524
1121.379744	-0.004072
1121.538216	-0.001700
1121.696671	-0.000905
1121.855107	0.001173
1122.013524	0.000610
1122.171924	-0.001196
1122.330305	-0.004216
1122.488668	0.001705
1122.647013	0.002628
1122.805340	0.002965
1122.963648	0.000610
1123.121938	-0.006960
1123.280210	-0.007496
1123.438464	-0.014254
1123.596700	-0.013347
1123.754917	-0.011041
1123.913116	-0.010625
1124.071297	-0.006702
1124.229459	-0.006648
1124.387604	-0.005171
1124.545730	0.000872
1124.703838	0.001333
1124.861928	0.003202
1125.019999	0.003791
1125.178052	0.005204
1125.336088	0.001161
1125.494104	-0.004541
1125.652103	-0.008677
1125.810083	-0.010851
1125.968045	-0.010189
1126.125989	-0.007708
1126.283915	-0.001702
1126.441823	-0.005815
1126.599712	-0.009723
1126.757583	-0.002869
1126.915436	-0.001374
1127.073270	0.003461
1127.231087	0.004281
1127.388885	0.005916
1127.546665	0.003787
1127.704426	0.001483
1127.862170	0.000286
1128.019895	0.004107
1128.177602	-0.000469
1128.335291	0.005965
1128.492961	0.010947
1128.650614	0.012000
1128.808248	0.013543
1128.965864	0.012086
1129.123461	0.009651
1129.281041	0.012104
1129.438602	0.009633
1129.596145	0.012134
1129.753670	0.008498
1129.911176	0.004819
1130.068665	0.001506
1130.226135	-0.001814
1130.383587	-0.004015
1130.541020	-0.001955
1130.698436	-0.000087
1130.855833	0.002047
1131.013212	-0.002293
1131.170573	-0.000599
1131.327915	-0.005127
1131.485239	-0.003899
1131.642545	-0.007757
1131.799833	-0.005944
1131.957103	-0.009140
1132.114354	-0.010248
1132.271588	-0.011381
1132.428803	-0.006838
1132.585999	-0.009208
1132.743178	-0.010443
1132.900338	-0.009760
1133.057480	-0.008887
1133.214604	-0.007248
1133.371710	-0.000725
1133.528797	0.004570
1133.685866	0.009375
1133.842917	0.008285
1133.999950	0.006455
1134.156964	0.010348
1134.313960	0.012536
1134.470938	0.015309
1134.627898	0.015149
1134.784840	0.017335
1134.941763	0.011675
1135.098668	0.004487
1135.255555	0.002991
1135.412424	0.004286
1135.569274	0.004956
1135.726107	-0.002061
1135.882921	0.001111
1136.039716	-0.001410
1136.196494	-0.009966
1136.353253	-0.006590
1136.509995	-0.003388
1136.666717	0.000535
1136.823422	-0.003012
1136.980109	-0.001358
1137.136777	0.002991
1137.293427	0.001430
1137.450059	0.000370
1137.606672	-0.002770
1137.763267	-0.005765
1137.919844	-0.004596
1138.076403	-0.009727
1138.232944	-0.011559
1138.389466	-0.012322
1138.545971	-0.014206
1138.702457	-0.017562
1138.858924	-0.010985
1139.015374	-0.011696
1139.171805	-0.008521
1139.328218	-0.007012
1139.484613	-0.006183
1139.640990	-0.002310
1139.797348	-0.006437
1139.953688	-0.002932
1140.110010	-0.002746
1140.266314	-0.005878
1140.422600	0.000301
1140.578867	0.002388
1140.735116	-0.003075
1140.891347	0.002269
1141.047559	0.002474
1141.203754	0.004137
1141.359930	-0.000114
1141.516088	-0.000483
1141.672228	-0.001315
1141.828349	0.001041
1141.984452	-0.005162
1142.140537	-0.001540
1142.296604	-0.001187
1142.452653	-0.002029
1142.608683	-0.001244
1142.764695	-0.002889
1142.920689	0.000180
1143.076665	0.002303
1143.232622	0.002541
1143.388562	-0.002283
1143.544483	-0.006026
1143.700385	-0.008521
1143.856270	-0.006638
1144.012136	-0.007847
1144.167985	-0.004959
1144.323814	-0.007051
1144.479626	-0.008658
1144.635420	-0.012093
1144.791195	-0.009283
1144.946952	-0.005766
1145.102691	-0.011731
1145.258411	-0.014619
1145.414113	-0.016365
1145.569798	-0.011845
1145.725463	-0.013027
1145.881111	-0.015839
1146.036741	-0.017416
1146.192352	-0.011502
1146.347945	-0.011495
1146.503519	-0.008442
1146.659076	-0.005798
1146.814614	-0.000768
1146.970134	-0.000176
1147.125636	-0.001999
1147.281120	0.002927
1147.436585	0.008971
1147.592032	0.002446
1147.747461	-0.002115
1147.902872	-0.001705
1148.058265	-0.003449
1148.213639	-0.007361
1148.368995	-0.007667
1148.524333	-0.007602
1148.679653	-0.011289
1148.834954	-0.015439
1148.990237	-0.010419
1149.145502	-0.006519
1149.300749	-0.009058
1149.455977	-0.007561
1149.611188	-0.006547
1149.766380	-0.006820
1149.921553	-0.014068
1150.076709	-0.013872
1150.231846	-0.013405
1150.386966	-0.012503
1150.542066	-0.012259
1150.697149	-0.006861
1150.852214	-0.007579
1151.007260	-0.005543
1151.162288	-0.003848
1151.317298	0.005056
1151.472289	0.007372
1151.627263	0.003076
1151.782218	-0.003675
1151.937155	0.000373
1152.092073	-0.002416
1152.246974	-0.002489
1152.401856	-0.004315
1152.556720	-0.005585
1152.711566	-0.005940
1152.866393	-0.007746
1153.021203	0.005177
1153.175994	0.008740
1153.330767	0.005982
1153.485521	0.009887
1153.640258	0.010240
1153.794976	0.016346
1153.949676	0.016548
1154.104358	0.019024
1154.259021	0.022018
1154.413667	0.012558
1154.568294	0.010110
1154.722903	0.012812
1154.877493	0.013027
1155.032066	0.009299
1155.186620	-0.000679
1155.341156	-0.014118
1155.495674	-0.015931
1155.650173	-0.015052
1155.804654	-0.015782
1155.959118	-0.011216
1156.113562	-0.018565
1156.267989	-0.024263
1156.422397	-0.017954
1156.576788	-0.015463
1156.731160	-0.004898
1156.885513	-0.006862
1157.039849	-0.011997
1157.194166	-0.004451
1157.348465	-0.013468
1157.502746	-0.001264
1157.657009	0.001382
1157.811253	0.001608
1157.965479	-0.001033
1158.119687	0.003027
1158.273877	0.001225
1158.428048	0.000476
1158.582201	-0.006829
1158.736337	0.007079
1158.890453	0.005109
1159.044552	0.002936
1159.198632	0.004286
1159.352694	0.006202
1159.506738	-0.004044
1159.660764	0.000751
1159.814771	0.007296
1159.968761	0.006070
1160.122732	0.005521
1160.276685	-0.002686
1160.430619	0.001756
1160.584535	0.000522
1160.738434	0.002289
1160.892313	0.012403
1161.046175	0.004132
1161.200019	0.000730
1161.353844	-0.000044
1161.507651	-0.000983
1161.661440	-0.000777
1161.815210	-0.009232
1161.968962	-0.009342
1162.122697	-0.004961
1162.276412	-0.013596
1162.430110	-0.010062
1162.583789	-0.009487
1162.737451	-0.009226
1162.891094	-0.022520
1163.044718	-0.025157
1163.198325	-0.006080
1163.351913	-0.013450
1163.505483	-0.022113
1163.659035	-0.024765
1163.812569	-0.022894
1163.966084	-0.026169
1164.119581	-0.019242
1164.273060	-0.013702
1164.426521	-0.002161
1164.579964	-0.007959
1164.733388	-0.002771
1164.886794	0.002577
1165.040182	0.008760
1165.193551	0.000200
1165.346903	0.012354
1165.500236	0.007904
1165.653551	0.008867
1165.806848	-0.007778
1165.960126	-0.024105
1166.113386	-0.029963
1166.266628	-0.040064
1166.419852	-0.037295
1166.573058	-0.031870
1166.726245	-0.048473
1166.879414	-0.049269
1167.032565	-0.043262
1167.185698	-0.029501
1167.338812	-0.026344
1167.491909	-0.023053
1167.644987	-0.016513
1167.798046	-0.019477
1167.951088	-0.017150
1168.104111	-0.003615
1168.257117	-0.006032
1168.410103	-0.012071
1168.563072	-0.013413
1168.716023	0.001238
1168.868955	-0.008618
1169.021869	-0.007014
1169.174765	-0.009677
1169.327642	-0.003851
1169.480501	-0.006321
1169.633343	0.005781
1169.786165	0.008579
1169.938970	-0.004481
1170.091757	-0.005244
1170.244525	0.008904
1170.397275	0.012560
1170.550007	0.030220
1170.702720	0.021966
1170.855415	0.021603
1171.008092	0.009101
1171.160751	0.004862
1171.313392	0.007860
1171.466014	0.011293
1171.618619	-0.026343
1171.771205	-0.026343
1171.923772	-0.026343
