sample name	sample
index	633
start time	 03-19-2021  03:13:41 PM
880	0.026025
Peak Time (s)	91.036
Peak Height 	0.02602
calc peak height	90,93
Baseline Time (s)	11.534
Baseline Value 	-0.005451
subtract baseline	10,4
Abs	0.002819
Peak Time (s)	92.538
Peak Height 	0.002819
calc peak height	90,93
Baseline Time (s)	11.534
Baseline Value 	0.003763
subtract baseline	10,3
PK_550	0.007047
Peak Time (s)	91.036
Peak Height 	0.007047
calc peak height	90,93
Baseline Time (s)	9.036
Baseline Value 	-4.2694E-4
subtract baseline	10,2
PK_880	0.007856
Peak Time (s)	90.035
Peak Height 	0.007856
calc peak height	90,93
Baseline Time (s)	10.037
Baseline Value 	0.00308
subtract baseline	10,1


Time (s)	A880-A510	A880-A775	A880-A975	A880	I510	I775	I975	I880	
0.036000	-0.001354	0.000555	-0.003475	0.003196	7354.162552	45336.760445	4046.766676	24115.138211
0.536500	-0.001122	0.000483	-0.005661	0.004836	7339.955992	45170.237313	4037.129427	24035.438085
1.036500	-0.001557	0.000647	-0.002550	0.003524	7348.791113	45313.700526	4048.276393	24099.147201
1.537000	-0.005684	0.000263	-0.004643	0.007312	7269.681659	44909.333656	4033.478954	23915.711498
2.037500	-0.002805	-0.000449	-0.008192	0.000748	7364.233428	45477.680397	4041.039707	24234.632966
2.535000	-0.000981	0.000417	-0.004316	0.001350	7376.621955	45503.508194	4049.311354	24205.172748
3.037500	0.000794	0.000755	-0.001907	-0.001051	7419.226616	45772.305639	4061.573961	24322.887843
3.535500	-0.002190	-0.000023	-0.004529	0.004218	7335.432796	45181.147474	4041.526788	24065.442759
4.041000	-0.001675	-0.000198	-0.000143	-0.000065	7383.958715	45581.889177	4063.574064	24274.500114
4.542500	-0.000602	0.000390	-0.006432	0.000477	7389.354958	45586.368976	4046.164040	24247.894461
5.036500	-0.000954	0.000650	-0.001765	0.000270	7387.875866	45632.189911	4058.555578	24258.036954
5.555500	0.001066	0.001072	-0.004699	0.000747	7403.606282	45626.711301	4049.868150	24234.674086
6.036500	0.000182	-0.000517	-0.002413	-0.000209	7404.350027	45564.767686	4058.125595	24281.555194
6.636000	-0.000486	0.000641	0.000656	-0.000392	7399.398016	45696.300064	4066.468094	24290.529388
7.642500	-0.001075	0.000363	-0.005065	-0.000230	7391.735407	45653.121617	4051.420471	24282.579049
7.775500	-0.001516	0.000496	0.000469	0.000091	7383.983567	45634.602142	4064.744324	24266.836140
8.038000	0.001036	0.000411	-0.000986	-0.000357	7414.585976	45670.277697	4062.157818	24288.787000
8.535500	-0.001566	-0.000123	0.001463	-0.000457	7389.055937	45627.682976	4068.715610	24293.728043
9.035500	0.000849	0.000000	-0.003224	0.000215	7406.830431	45573.873403	4054.973342	24260.771677
9.536500	-0.001033	0.000366	-0.002971	-0.000241	7392.269463	45654.455843	4056.780649	24283.095742
10.036500	0.000000	-0.000181	0.001244	-0.000321	7403.636273	45608.693502	4067.802299	24287.066058
10.536500	0.001620	0.000691	0.000607	0.000169	7415.184165	45646.067922	4064.898353	24262.984467
11.037000	-0.004586	-0.000267	-0.004445	0.004488	7308.697982	45131.201125	4041.056525	24052.312295
11.534500	0.000125	0.000615	0.000000	0.000000	7401.632464	45655.249006	4063.772710	24271.295234
12.034500	-0.000799	0.000522	-0.001163	-0.000529	7397.600487	45698.088944	4062.143617	24297.244677
12.538000	0.000510	-0.000036	-0.001403	-0.000622	7411.915795	45652.365551	4061.766290	24301.806076
13.035500	-0.002715	0.000309	-0.000627	0.005637	7315.931033	45075.699280	4047.796972	23996.648125
13.535500	-0.000720	0.000678	-0.002603	0.000720	7385.688307	45590.786794	4055.270038	24236.030270
14.035500	-0.001332	0.000140	-0.001407	0.002154	7364.919760	45397.897017	4054.663941	24165.936781
14.536000	-0.001454	0.001294	-0.001341	0.003100	7354.112452	45418.173347	4052.421159	24119.785549
15.037000	-0.003388	-0.000074	-0.007123	0.004712	7318.449382	45128.235894	4033.780092	24041.456226
15.536000	-0.000531	0.000319	-0.002762	0.000248	7392.415663	45601.927010	4056.067190	24259.159174
16.037500	-0.002178	-0.000480	-0.005175	-0.000057	7378.755264	45553.382527	4050.701676	24274.072368
16.534500	0.000480	0.000699	-0.003363	0.001038	7394.660190	45561.653827	4052.524098	24220.451602
17.037500	-0.000385	0.000020	-0.002735	0.002222	7373.832749	45379.603368	4051.111518	24162.616183
17.535500	-0.000128	0.001464	0.002288	0.002181	7376.849579	45524.687991	4064.045893	24164.592688
18.035500	0.000425	0.000878	-0.005267	0.001643	7387.941085	45519.956109	4046.159908	24190.861559
18.536000	-0.000738	0.000699	-0.001937	0.001685	7375.694953	45498.320523	4054.506762	24188.804646
19.036500	-0.003568	0.000217	-0.006952	0.002657	7337.275386	45356.309420	4039.359058	24141.386446
19.536500	-0.001096	0.000703	-0.001855	0.002031	7368.550985	45464.878614	4053.833273	24171.930948
20.037000	-0.001578	-0.000212	-0.001607	0.000992	7374.208006	45477.091855	4057.117764	24222.713754
20.537000	-0.000414	0.001492	-0.003227	0.002054	7375.236344	45539.836837	4050.289647	24170.817481
21.034000	-0.002652	-0.000013	-0.005329	0.003204	7340.984676	45280.707961	4042.065183	24114.749058
21.534000	-0.000664	0.000279	0.003246	0.001368	7379.657413	45488.240476	4068.607422	24204.293374
22.035000	-0.001140	0.000214	-0.001701	0.000975	7378.816629	45520.314577	4056.917464	24223.508938
22.538000	-0.000849	0.000195	-0.003740	0.001405	7377.409278	45476.474107	4050.632700	24202.504778
23.035500	-0.000289	-0.000304	-0.001820	0.001106	7386.137973	45456.902666	4056.281243	24217.137411
23.536000	-0.001877	0.000386	0.000738	0.001455	7366.483736	45490.257251	4061.932111	24200.070023
24.036500	0.000018	-0.000251	-0.000775	0.001352	7386.761508	45438.075351	4058.320937	24205.093942
24.536000	0.000298	0.000693	-0.000867	0.001791	7385.137156	45487.347940	4056.965852	24183.638811
25.037000	-0.002050	0.000590	-0.003535	0.003872	7340.329668	45274.340276	4044.904818	24082.257136
25.537500	-0.001188	0.000295	-0.005943	0.001617	7371.815105	45465.469866	4044.518782	24192.130842
26.034500	-0.000783	-0.000738	-0.002057	0.001152	7380.651856	45410.017185	4055.559367	24214.874083
26.535000	0.000247	-0.000362	-0.000047	0.000976	7392.922347	45463.956799	4061.148334	24223.480152
27.035000	-0.003867	-0.000310	-0.008352	0.004593	7314.842763	45116.863791	4031.007626	24047.233331
27.536000	0.000614	-0.000028	-0.000473	-0.000270	7409.385687	45618.686390	4063.250841	24284.549962
28.036000	0.000601	0.001097	-0.005344	0.001471	7391.490490	45558.294971	4046.403191	24199.290725
28.536000	-0.000424	0.000172	-0.000722	0.000459	7391.347996	45566.738410	4060.742760	24248.783856
29.036500	0.000482	0.000636	-0.002004	0.000528	7399.894818	45605.509806	4057.288025	24245.440842
29.536500	0.000436	0.000912	-0.005614	0.002536	7378.977009	45435.938989	4043.029739	24147.287212
30.037000	-0.000023	0.000025	-0.003319	0.000230	7397.765956	45574.835428	4054.693239	24260.009494
30.537000	-0.000846	0.000547	-0.000613	0.002517	7366.165694	45402.233498	4055.761181	24148.233430
31.037000	-0.002792	0.000009	-0.005616	0.005407	7317.460423	45068.915082	4035.810697	24007.766073
31.538000	-0.001716	0.000972	-0.002902	0.002206	7360.507388	45474.144183	4050.728650	24163.388233
32.035500	0.001022	0.000091	0.000102	0.000744	7403.192338	45530.882695	4062.123631	24234.821119
32.535500	-0.000431	0.000546	-0.004664	0.000976	7386.015144	45552.698367	4049.376181	24223.465953
33.036000	-0.000562	0.000666	-0.007085	0.006434	7329.523694	45033.120251	4029.577247	23958.075494
33.536000	-0.001695	0.000388	0.000428	0.002264	7360.132180	45411.412660	4059.066930	24160.562516
34.036500	-0.001079	0.000553	0.002849	0.001671	7372.373322	45485.415706	4066.802058	24189.505826
34.537000	-0.001047	0.001234	0.002994	0.002781	7361.452424	45443.499999	4064.319454	24135.335310
35.037000	-0.000673	0.000208	0.000617	0.003982	7353.094243	45226.427035	4055.161316	24076.878723
35.534500	-0.002082	0.000094	0.000721	0.001580	7363.128457	45449.461664	4061.567420	24193.927350
36.037500	-0.000914	0.001034	-0.001229	0.002308	7367.591868	45470.215462	4054.723897	24158.404052
36.535000	-0.001343	0.000655	-0.002039	0.001901	7367.371260	45472.926029	4053.696682	24178.286443
37.035000	-0.000474	0.000721	-0.003563	0.002079	7374.377378	45462.007847	4049.373702	24169.598797
37.536000	0.000390	0.001188	-0.003252	0.002520	7378.662129	45464.447654	4049.042371	24148.050600
38.036500	-0.000547	0.001010	0.001105	0.002705	7367.295615	45429.114545	4059.670772	24139.063170
38.535500	0.000272	0.000872	-0.000447	0.001743	7385.374119	45509.635918	4058.163019	24186.008111
39.036500	-0.000148	0.000273	-0.003779	0.001838	7380.135390	45441.760284	4049.435912	24181.369709
39.537000	-0.000081	0.000606	0.000162	0.002237	7376.762818	45435.296999	4058.454826	24161.866840
40.037000	-0.000570	0.000900	-0.006487	0.002605	7368.072761	45428.060857	4040.658629	24143.927058
40.534500	-0.000351	0.000677	-0.004802	0.002363	7372.742107	45429.930212	4045.517525	24155.728078
41.037500	-0.000703	0.000880	-0.000436	0.004427	7348.307700	45248.626187	4051.350222	24055.306491
41.535000	0.000430	0.001058	-0.001747	0.002273	7381.593235	45475.965254	4053.493233	24160.136427
42.036000	0.001275	0.000454	-0.005514	0.001997	7392.996262	45443.914499	4044.642911	24173.594798
42.535500	-0.000950	0.001676	0.000492	0.002431	7365.976607	45520.942322	4058.802476	24152.409946
43.036000	-0.001844	-0.000074	-0.000348	0.002710	7354.115713	45322.801263	4055.943595	24138.813442
43.536500	-0.000075	0.000726	0.002073	0.001934	7379.893684	45476.617150	4064.131325	24176.664316
44.036500	0.001239	0.000416	0.001782	-0.002676	7440.493941	45899.108552	4075.283851	24402.926468
44.538000	-0.000093	0.001310	-0.001705	0.001464	7384.497069	45579.823312	4055.661324	24199.631959
45.034500	-0.003076	0.000842	-0.005651	0.005948	7309.200713	45097.206490	4034.368149	23981.581789
45.539500	0.000007	0.000408	-0.002206	0.000865	7391.611738	45550.125241	4055.911440	24228.927784
46.035500	-0.000304	0.000624	-0.002723	0.001065	7386.406310	45551.745516	4054.083166	24219.134431
46.535500	-0.000166	0.001119	-0.001308	0.001577	7382.599933	45550.065932	4056.386953	24194.106568
47.035500	-0.002201	0.001828	-0.001803	0.005613	7321.311910	45225.401436	4044.882354	23997.783727
47.536000	-0.000579	0.001087	-0.006708	0.002972	7364.254525	45410.502363	4039.178967	24126.032300
48.036000	-0.001551	-0.000085	-0.005281	0.000843	7375.989774	45504.055427	4048.150251	24229.993387
48.536500	0.000069	0.001020	-0.000956	0.001246	7388.355672	45572.736878	4058.130708	24210.287930
49.037000	-0.003432	0.000688	0.002012	0.004509	7320.046955	45221.899335	4057.376297	24051.302455
49.537500	0.002727	0.000097	-0.000073	-0.001592	7444.655664	45760.874155	4067.684196	24349.537687
50.034500	0.001673	0.000959	0.004105	-0.001315	7430.951933	45818.446718	4077.785167	24335.883725
50.535000	0.002809	0.000803	0.002862	0.002631	7402.164840	45416.008805	4064.365208	24142.640598
51.034500	-0.046028	-0.012494	-0.007307	0.130719	5918.398886	33633.731614	3760.008323	18735.420941
51.535500	-0.060693	-0.021336	-0.003202	-0.018435	6989.381137	45311.488321	4103.601018	25194.859517
52.035500	-0.041449	-0.018690	-0.008210	-0.101235	8054.534227	54508.435196	4330.279684	29862.436486
52.536000	-0.027055	-0.013101	-0.009014	-0.085799	8042.350696	53354.000407	4279.545437	28923.472575
53.036500	-0.046388	-0.014250	-0.028689	-0.064733	7591.590224	50843.685077	4160.319425	27694.711114
53.536500	-0.029974	-0.010737	-0.023255	-0.084517	7993.505945	53479.563742	4232.797417	28846.998325
54.039500	0.005894	-0.011200	-0.004330	-0.135024	9099.354900	59643.062427	4455.518103	32038.059254
54.537500	0.015604	-0.005354	-0.005998	-0.119395	9016.353444	58381.654476	4396.657443	31010.647409
55.037500	0.009302	-0.002816	-0.001466	-0.095113	8605.053971	55677.819189	4332.259353	29486.032626
55.535000	0.000838	-0.000815	0.001399	-0.062380	8094.888680	52079.890064	4240.261239	27561.130479
56.035000	0.001009	0.002340	-0.003249	-0.049068	7942.075847	50945.648053	4187.915319	26818.883978
56.535500	0.007666	0.004298	-0.000675	-0.045621	7978.983220	50781.688032	4185.424228	26630.362458
57.036500	0.001735	0.003624	0.003221	-0.019631	7623.873509	47937.149719	4124.050374	25256.132191
57.539000	0.000017	0.004887	0.005192	0.000656	7393.837589	46011.773900	4075.487387	24239.156040
58.036500	-0.005861	0.005365	-0.001817	0.014863	7193.805692	44673.799133	4021.735583	23554.716926
58.536500	-0.005370	0.005710	0.001327	0.028587	7066.990550	43410.040732	3995.895839	22914.496303
59.036500	-0.009262	0.004443	-0.000655	0.040525	6920.261924	42200.126016	3962.841407	22373.760564
59.537500	-0.006943	0.005434	0.001814	0.037331	6970.762649	42579.647291	3976.163092	22517.004452
60.035000	-0.006759	0.005547	0.002202	0.038198	6964.459267	42510.956428	3975.026260	22478.000043
60.535000	-0.009426	0.005049	-0.001714	0.039020	6932.488095	42391.151601	3963.885010	22441.132506
61.035500	-0.004941	0.005065	-0.002368	0.041013	6955.302398	42212.276634	3957.712031	22351.978122
61.535500	-0.004126	0.004493	0.000960	0.032900	7038.119759	42898.849145	3984.663441	22717.420514
62.036000	-0.000718	0.007485	-0.000281	0.031102	7087.211255	43341.231326	3985.995167	22799.341044
62.536500	0.004135	0.007329	-0.001756	0.021670	7224.949124	44211.759980	4005.184475	23234.625747
63.037000	0.005538	0.008523	-0.001746	0.018784	7267.199527	44600.585991	4012.258508	23369.714775
63.555000	0.005526	0.008114	0.000077	0.015486	7299.857426	44878.247654	4024.881693	23525.221606
64.043500	0.006694	0.007146	-0.002471	0.014326	7323.147385	44896.770810	4021.447373	23580.200901
64.540000	0.007122	0.007307	-0.004528	0.014346	7327.231537	44910.278322	4016.323041	23579.209445
65.038000	0.005532	0.006896	-0.000965	0.014637	7308.400345	44842.655961	4024.403167	23565.438413
65.535500	0.005398	0.007304	0.000271	0.013415	7319.283644	44999.905285	4030.511525	23623.451429
66.035500	0.005454	0.008031	-0.000721	0.012895	7325.052575	45120.680304	4029.335170	23648.186007
66.536000	0.006033	0.007327	-0.003364	0.011570	7344.205218	45180.962738	4026.058787	23711.372564
67.036500	0.004414	0.006786	-0.004108	0.010618	7337.483840	45220.823162	4026.575699	23756.884404
67.536000	0.002680	0.006695	-0.004008	0.010394	7322.325228	45233.813966	4027.382698	23767.622013
68.036500	0.006196	0.006532	-0.009288	0.009659	7365.157761	45289.458506	4016.145050	23802.846733
68.536500	0.007080	0.007586	0.001333	0.010410	7366.499497	45318.939009	4040.695139	23766.846083
69.040000	0.003312	0.007370	-0.002570	0.014616	7286.473467	44890.313421	4020.485227	23566.423796
69.535000	0.007964	0.008063	-0.001733	0.010758	7371.935958	45331.557209	4032.141445	23750.190531
70.035500	0.006288	0.008259	0.002353	0.010603	7356.527340	45365.712685	4042.776990	23757.583537
70.535000	0.008425	0.008846	-0.001144	0.011151	7372.619821	45369.433909	4032.629885	23731.370978
71.035500	0.005701	0.007691	-0.003751	0.012552	7330.984208	45120.969521	4022.667829	23664.552910
71.536000	0.004710	0.008364	0.005663	0.010959	7337.024144	45341.202286	4050.249074	23740.550503
72.036500	0.005932	0.008688	0.002421	0.011535	7343.537413	45316.703862	4040.603854	23713.062856
72.536500	0.007222	0.007944	0.000683	0.011202	7359.914684	45276.623361	4037.073603	23728.940072
73.037000	0.005766	0.007243	-0.001930	0.013308	7324.039603	45004.359595	4025.304531	23628.519563
73.537000	0.008081	0.009823	0.001378	0.013448	7345.916133	45240.946744	4033.192105	23621.882752
74.035000	0.006954	0.008234	-0.002069	0.012254	7346.588138	45202.537422	4027.576698	23678.727202
74.535000	0.007982	0.008415	0.004453	0.012740	7352.062446	45172.961886	4042.686308	23655.591470
75.035500	0.003581	0.007903	-0.002426	0.017479	7260.749698	44666.239716	4013.789793	23431.102601
75.535500	0.008639	0.008530	0.002024	0.014031	7345.660544	45058.940010	4033.349352	23594.187162
76.036000	0.009225	0.008192	0.002292	0.013632	7355.607750	45064.835975	4035.018348	23613.140335
76.536000	0.007864	0.008593	0.008034	0.014550	7332.639341	45014.824661	4047.158720	23569.548238
77.036000	0.005535	0.008488	-0.004888	0.018377	7271.209418	44636.367108	4005.579978	23388.872888
77.537000	0.005811	0.007841	0.003151	0.014776	7309.801816	44920.356025	4034.305646	23558.856470
78.037000	0.007505	0.008984	-0.001294	0.015851	7315.986717	44926.835222	4020.585084	23507.923890
78.537000	0.004956	0.007991	0.001660	0.015105	7297.971703	44903.153417	4029.762898	23543.266466
79.037500	0.004785	0.007026	0.001574	0.019551	7252.179308	44384.402651	4018.532755	23333.738136
79.535500	0.007029	0.007485	-0.000035	0.015575	7313.979054	44809.042225	4024.381305	23520.981200
80.035500	0.006674	0.008950	0.000549	0.016864	7297.562107	44825.968946	4022.637550	23460.095931
80.536000	0.008591	0.007436	0.001476	0.016384	7321.522390	44726.528669	4026.124147	23482.755402
81.036500	0.002405	0.007494	-0.002518	0.020917	7215.383845	44298.985808	4005.164576	23269.787022
81.536000	0.006310	0.007609	-0.001661	0.016981	7292.766819	44685.829853	4016.893367	23454.562359
82.037000	0.007658	0.007150	0.002356	0.017384	7302.197015	44603.238824	4025.828054	23435.600379
82.536500	0.007500	0.007845	-0.001298	0.017589	7298.568854	44650.197328	4016.291780	23425.928670
83.037000	0.003030	0.007598	-0.004393	0.022176	7209.198550	44189.381127	3997.564455	23211.060101
83.537000	0.007859	0.007959	-0.001831	0.018244	7295.624752	44598.356062	4013.375509	23395.115820
84.035000	0.009271	0.007410	0.002101	0.018336	7308.796799	44537.066614	4022.836800	23390.797205
84.535000	0.006628	0.007123	0.003343	0.018319	7282.625043	44511.184818	4025.955556	23391.571570
85.035500	0.007361	0.006850	-0.002691	0.018093	7292.172288	44506.715456	4011.636265	23402.224897
85.536000	0.006665	0.007238	0.001270	0.018386	7282.332841	44515.823059	4020.658638	23388.446976
86.036500	0.006373	0.007390	-0.000486	0.018671	7276.597607	44503.067474	4015.627088	23375.019858
86.536500	0.007488	0.008306	-0.003713	0.019781	7276.645731	44484.520570	4005.019188	23322.955343
87.037000	0.007650	0.007852	-0.001989	0.019646	7279.590326	44454.043013	4009.551867	23329.259375
87.537000	0.007214	0.007328	-0.000133	0.019787	7273.874658	44390.681877	4013.754470	23322.669306
88.037500	0.006984	0.007884	0.000882	0.019984	7269.646925	44425.014912	4015.765624	23313.466922
88.534500	0.008340	0.007708	-0.001002	0.020478	7278.180604	44361.072503	4009.932256	23290.300777
89.035000	0.007953	0.006740	0.001235	0.019846	7280.618269	44329.076735	4016.970227	23319.902642
89.535500	0.006107	0.007020	-0.003021	0.019989	7260.909633	44342.199852	4006.199364	23313.215117
90.035500	0.007856	0.006635	-0.002061	0.020119	7276.944454	44293.187237	4008.224340	23307.130826
90.536000	0.005219	0.006877	-0.010006	0.020381	7248.274162	44291.225816	3988.375900	23294.839944
91.036000	0.001199	0.007047	-0.010968	0.026025	7154.087720	43774.250379	3972.673413	23032.476585
91.536000	0.006750	0.007029	-0.003222	0.021051	7256.770983	44242.052086	4003.126672	23263.534581
92.037000	0.007418	0.006518	-0.002437	0.020823	7265.637775	44215.279403	4005.591099	23274.205086
92.537500	0.007234	0.006704	0.002819	0.021089	7261.184640	44207.620631	4017.811791	23261.762505
93.037000	0.004744	0.006306	-0.005103	0.025971	7188.920135	43709.813308	3986.734171	23034.964978
93.535000	0.008164	0.007296	-0.000994	0.022233	7259.059682	44155.299662	4005.670592	23208.372937
94.041000	0.008244	0.006727	-0.003416	0.021973	7262.421037	44126.035719	4000.418515	23220.490438
94.564500	0.006742	0.006690	-0.001247	0.022274	7244.628757	44093.990402	4004.954120	23206.456740
95.036000	0.003092	0.005104	-0.007011	0.026588	7166.914648	43539.701758	3980.711469	23006.458288
95.535500	0.008914	0.005886	-0.003514	0.021999	7268.793295	44044.029991	4000.116638	23219.275000
96.038500	0.006569	0.007154	0.000396	0.023387	7231.987506	44032.706594	4006.244671	23154.684012
96.536500	0.004889	0.005889	-0.002053	0.022544	7223.778490	43992.827859	4002.339435	23193.894530
97.037000	0.003226	0.005420	-0.006738	0.027669	7157.782681	43468.429878	3978.793339	22956.688957
