sample name	sample
index	1239
start time	 04-29-2021  11:34:39 AM


Wavelength (nm)	Absorbance
494.344910	-0.106471
494.563924	-0.106471
494.782919	-0.106471
495.001897	-0.128465
495.220856	0.013294
495.439797	0.020665
495.658719	0.034406
495.877624	0.029542
496.096510	0.042700
496.315378	0.018168
496.534227	0.000830
496.753059	0.000955
496.971872	0.007382
497.190667	0.029356
497.409444	0.042407
497.628203	0.044045
497.846943	0.043634
498.065665	0.046372
498.284369	0.046850
498.503055	0.046663
498.721723	0.046927
498.940372	0.046869
499.159003	0.045485
499.377616	0.044620
499.596210	0.044518
499.814787	0.046424
500.033345	0.044935
500.251885	0.044400
500.470406	0.044614
500.688910	0.044813
500.907395	0.045064
501.125862	0.046929
501.344311	0.047445
501.562742	0.047990
501.781154	0.046395
501.999548	0.047432
502.217924	0.048054
502.436282	0.048358
502.654621	0.047585
502.872942	0.047372
503.091245	0.046748
503.309530	0.046776
503.527797	0.046228
503.746045	0.046901
503.964275	0.046924
504.182487	0.046557
504.400681	0.046320
504.618856	0.047155
504.837013	0.046728
505.055152	0.046598
505.273273	0.046487
505.491376	0.046963
505.709460	0.046891
505.927526	0.046569
506.145574	0.046909
506.363604	0.047571
506.581615	0.046834
506.799608	0.047639
507.017583	0.048279
507.235540	0.048477
507.453478	0.047855
507.671399	0.048038
507.889301	0.048071
508.107185	0.048516
508.325050	0.048093
508.542898	0.048291
508.760727	0.047655
508.978538	0.047680
509.196330	0.046915
509.414105	0.047194
509.631861	0.047346
509.849599	0.047742
510.067319	0.047546
510.285021	0.047281
510.502704	0.047045
510.720369	0.048044
510.938016	0.047812
511.155645	0.047791
511.373255	0.047961
511.590848	0.048300
511.808422	0.047651
512.025977	0.047827
512.243515	0.047632
512.461034	0.048432
512.678536	0.047354
512.896018	0.046991
513.113483	0.047741
513.330930	0.048230
513.548358	0.047853
513.765768	0.048445
513.983160	0.048435
514.200533	0.049468
514.417889	0.048945
514.635226	0.049599
514.852545	0.049687
515.069845	0.049589
515.287128	0.049374
515.504392	0.049702
515.721638	0.050193
515.938866	0.050023
516.156075	0.049555
516.373267	0.049835
516.590440	0.049867
516.807594	0.050132
517.024731	0.050372
517.241850	0.051002
517.458950	0.050788
517.676032	0.050333
517.893095	0.050312
518.110141	0.050310
518.327168	0.049803
518.544177	0.049785
518.761168	0.049877
518.978141	0.049964
519.195095	0.049282
519.412031	0.049436
519.628949	0.049087
519.845849	0.048832
520.062731	0.049084
520.279594	0.050036
520.496439	0.050269
520.713266	0.049891
520.930074	0.049628
521.146865	0.049510
521.363637	0.049652
521.580391	0.050175
521.797127	0.050778
522.013844	0.050751
522.230543	0.050282
522.447224	0.050444
522.663887	0.050900
522.880532	0.050827
523.097158	0.051901
523.313766	0.051783
523.530356	0.051889
523.746928	0.051674
523.963481	0.051303
524.180017	0.051242
524.396534	0.050761
524.613032	0.050902
524.829513	0.050987
525.045975	0.049887
525.262420	0.050556
525.478845	0.050265
525.695253	0.050162
525.911643	0.050784
526.128014	0.050950
526.344367	0.051464
526.560702	0.051638
526.777018	0.052467
526.993316	0.053107
527.209597	0.052260
527.425858	0.052632
527.642102	0.053286
527.858328	0.053493
528.074535	0.054109
528.290724	0.053868
528.506894	0.054076
528.723047	0.054058
528.939181	0.053884
529.155297	0.054206
529.371395	0.054576
529.587475	0.054782
529.803536	0.054531
530.019579	0.054372
530.235604	0.054647
530.451611	0.054516
530.667600	0.054484
530.883570	0.055055
531.099522	0.055358
531.315456	0.055244
531.531372	0.055349
531.747269	0.055024
531.963148	0.055753
532.179009	0.056154
532.394852	0.056445
532.610676	0.056580
532.826482	0.056785
533.042271	0.057060
533.258040	0.056869
533.473792	0.056537
533.689525	0.056999
533.905240	0.057198
534.120937	0.057204
534.336616	0.057579
534.552277	0.057875
534.767919	0.058005
534.983543	0.058171
535.199149	0.058980
535.414736	0.059559
535.630306	0.059808
535.845857	0.059523
536.061390	0.059556
536.276904	0.059018
536.492401	0.059342
536.707879	0.059346
536.923339	0.059699
537.138781	0.059390
537.354204	0.059234
537.569610	0.059002
537.784997	0.058665
538.000366	0.058999
538.215716	0.059332
538.431049	0.058823
538.646363	0.058833
538.861659	0.058695
539.076937	0.058854
539.292196	0.059331
539.507438	0.059754
539.722661	0.060479
539.937866	0.060323
540.153052	0.060325
540.368221	0.060745
540.583371	0.060607
540.798503	0.060438
541.013617	0.060716
541.228712	0.060356
541.443789	0.060534
541.658848	0.060419
541.873889	0.060457
542.088912	0.060556
542.303916	0.060551
542.518902	0.060926
542.733870	0.061127
542.948820	0.060729
543.163752	0.060921
543.378665	0.061122
543.593560	0.061173
543.808437	0.061572
544.023295	0.061822
544.238136	0.062065
544.452958	0.062514
544.667762	0.062600
544.882548	0.063244
545.097315	0.063393
545.312064	0.063441
545.526795	0.063589
545.741508	0.063446
545.956203	0.063583
546.170879	0.063238
546.385537	0.062844
546.600177	0.062821
546.814799	0.062747
547.029402	0.063208
547.243988	0.063043
547.458555	0.063028
547.673103	0.062824
547.887634	0.062543
548.102146	0.062719
548.316640	0.063134
548.531116	0.063297
548.745574	0.063239
548.960013	0.063262
549.174435	0.063563
549.388838	0.063849
549.603222	0.064149
549.817589	0.064301
550.031937	0.064603
550.246267	0.064028
550.460579	0.064348
550.674873	0.064031
550.889148	0.063977
551.103405	0.063977
551.317644	0.063497
551.531865	0.063648
551.746068	0.063752
551.960252	0.063741
552.174418	0.064220
552.388566	0.064070
552.602696	0.064657
552.816807	0.064526
553.030900	0.064770
553.244975	0.065262
553.459032	0.064755
553.673070	0.065311
553.887091	0.065300
554.101093	0.065349
554.315077	0.065537
554.529042	0.065406
554.742990	0.065608
554.956919	0.065549
555.170830	0.065691
555.384722	0.066037
555.598597	0.065509
555.812453	0.065967
556.026291	0.065879
556.240111	0.066317
556.453913	0.066514
556.667696	0.066449
556.881461	0.066437
557.095208	0.066230
557.308937	0.066177
557.522647	0.066456
557.736339	0.066047
557.950013	0.066351
558.163669	0.065965
558.377307	0.065882
558.590926	0.065921
558.804527	0.065800
559.018110	0.066132
559.231675	0.066336
559.445221	0.066240
559.658749	0.066438
559.872259	0.066421
560.085751	0.066380
560.299225	0.066672
560.512680	0.066768
560.726117	0.067182
560.939536	0.067099
561.152937	0.067325
561.366319	0.067490
561.579683	0.067718
561.793029	0.067594
562.006357	0.067641
562.219667	0.067280
562.432958	0.066864
562.646231	0.066382
562.859486	0.066270
563.072723	0.066278
563.285941	0.066322
563.499141	0.065806
563.712323	0.065790
563.925487	0.065882
564.138632	0.066478
564.351760	0.066853
564.564869	0.067064
564.777960	0.067451
564.991032	0.067312
565.204087	0.066913
565.417123	0.067069
565.630141	0.067443
565.843140	0.067395
566.056122	0.067129
566.269085	0.067231
566.482030	0.067776
566.694957	0.067360
566.907866	0.067756
567.120756	0.068481
567.333628	0.068487
567.546482	0.068184
567.759318	0.068280
567.972135	0.068257
568.184935	0.068356
568.397716	0.068025
568.610478	0.067667
568.823223	0.067506
569.035949	0.067386
569.248657	0.067477
569.461347	0.067153
569.674019	0.067134
569.886672	0.067154
570.099308	0.066811
570.311925	0.066939
570.524523	0.067426
570.737104	0.067107
570.949666	0.067013
571.162210	0.066928
571.374736	0.067385
571.587244	0.067429
571.799733	0.067332
572.012205	0.067789
572.224658	0.067418
572.437092	0.067408
572.649509	0.067603
572.861907	0.067727
573.074287	0.068066
573.286649	0.068486
573.498993	0.068686
573.711318	0.068736
573.923625	0.068257
574.135914	0.068703
574.348185	0.068574
574.560438	0.068849
574.772672	0.068720
574.984888	0.068699
575.197086	0.068371
575.409266	0.068044
575.621427	0.068060
575.833570	0.068269
576.045695	0.068228
576.257802	0.068363
576.469890	0.068016
576.681961	0.068356
576.894013	0.068411
577.106046	0.068258
577.318062	0.068500
577.530059	0.068663
577.742039	0.068687
577.954000	0.068735
578.165942	0.068718
578.377867	0.068913
578.589773	0.068576
578.801661	0.068456
579.013531	0.068571
579.225382	0.068299
579.437216	0.068011
579.649031	0.067995
579.860828	0.067590
580.072606	0.067567
580.284367	0.067210
580.496109	0.066832
580.707833	0.066886
580.919539	0.066546
581.131227	0.066721
581.342896	0.066918
581.554547	0.067105
581.766180	0.067487
581.977795	0.067809
582.189391	0.068390
582.400969	0.069011
582.612529	0.068992
582.824071	0.069435
583.035595	0.069485
583.247100	0.069723
583.458587	0.069845
583.670056	0.069531
583.881506	0.069630
584.092939	0.069513
584.304353	0.069478
584.515749	0.069456
584.727127	0.069534
584.938486	0.069906
585.149828	0.070224
585.361151	0.070056
585.572456	0.070394
585.783742	0.070283
585.995011	0.070265
586.206261	0.070338
586.417493	0.070340
586.628706	0.070223
586.839902	0.069990
587.051079	0.069789
587.262238	0.070058
587.473379	0.070221
587.684502	0.070468
587.895606	0.070394
588.106692	0.070302
588.317760	0.070772
588.528810	0.070591
588.739841	0.070894
588.950855	0.070925
589.161850	0.070834
589.372827	0.070956
589.583785	0.070858
589.794726	0.070952
590.005648	0.071189
590.216552	0.070967
590.427437	0.071157
590.638305	0.070833
590.849154	0.070663
591.059985	0.071004
591.270798	0.070777
591.481592	0.070856
591.692369	0.070828
591.903127	0.070703
592.113867	0.070837
592.324588	0.071410
592.535292	0.071565
592.745977	0.071516
592.956644	0.070948
593.167293	0.070833
593.377923	0.070539
593.588536	0.070598
593.799130	0.070854
594.009706	0.070915
594.220263	0.070474
594.430803	0.070229
594.641324	0.070444
594.851827	0.070658
595.062312	0.070744
595.272778	0.070978
595.483227	0.071089
595.693657	0.071046
595.904069	0.070952
596.114462	0.070913
596.324838	0.071449
596.535195	0.071663
596.745534	0.071759
596.955855	0.071883
597.166157	0.072023
597.376441	0.072347
597.586707	0.072572
597.796955	0.072808
598.007185	0.073081
598.217396	0.073024
598.427589	0.072784
598.637764	0.073039
598.847921	0.073170
599.058060	0.073248
599.268180	0.073209
599.478282	0.072940
599.688366	0.072917
599.898431	0.072981
600.108479	0.073040
600.318508	0.073389
600.528519	0.073203
600.738511	0.073428
600.948486	0.073456
601.158442	0.073630
601.368380	0.073928
601.578300	0.074058
601.788202	0.074145
601.998085	0.074150
602.207950	0.074274
602.417797	0.074458
602.627626	0.074603
602.837436	0.074803
603.047228	0.074573
603.257002	0.074704
603.466758	0.074878
603.676496	0.074859
603.886215	0.074973
604.095916	0.075053
604.305599	0.075147
604.515264	0.074919
604.724910	0.074707
604.934538	0.075047
605.144148	0.074893
605.353740	0.074636
605.563314	0.074961
605.772869	0.074790
605.982406	0.074902
606.191925	0.074891
606.401425	0.074846
606.610908	0.075107
606.820372	0.075019
607.029818	0.075004
607.239246	0.075202
607.448655	0.075020
607.658047	0.075198
607.867420	0.075084
608.076775	0.075059
608.286111	0.075173
608.495430	0.075226
608.704730	0.075272
608.914012	0.075421
609.123275	0.075576
609.332521	0.075466
609.541748	0.075724
609.750957	0.075787
609.960148	0.075936
610.169321	0.075912
610.378475	0.075575
610.587611	0.075603
610.796729	0.075885
611.005829	0.075807
611.214910	0.076101
611.423974	0.075965
611.633019	0.075951
611.842045	0.075878
612.051054	0.076220
612.260044	0.076672
612.469017	0.076916
612.677970	0.076822
612.886906	0.076733
613.095824	0.076565
613.304723	0.076699
613.513604	0.076674
613.722467	0.076921
613.931311	0.076673
614.140138	0.076504
614.348946	0.076156
614.557736	0.076082
614.766507	0.076397
614.975261	0.076498
615.183996	0.076433
615.392713	0.076480
615.601412	0.076510
615.810092	0.076693
616.018754	0.076647
616.227399	0.076922
616.436024	0.077204
616.644632	0.076990
616.853222	0.076994
617.061793	0.077303
617.270346	0.077646
617.478880	0.077855
617.687397	0.077929
617.895895	0.078036
618.104375	0.077936
618.312837	0.078073
618.521281	0.078262
618.729706	0.078475
618.938113	0.078458
619.146502	0.078218
619.354873	0.077972
619.563226	0.078301
619.771560	0.078336
619.979876	0.078673
620.188174	0.078364
620.396453	0.078149
620.604715	0.078133
620.812958	0.077939
621.021183	0.078085
621.229390	0.078210
621.437578	0.077780
621.645748	0.078021
621.853900	0.078006
622.062034	0.078066
622.270150	0.078323
622.478247	0.078527
622.686326	0.078778
622.894387	0.078823
623.102430	0.078918
623.310454	0.078942
623.518461	0.078977
623.726449	0.078878
623.934418	0.079044
624.142370	0.079097
624.350303	0.079165
624.558218	0.079345
624.766115	0.079179
624.973994	0.079374
625.181855	0.079652
625.389697	0.079811
625.597521	0.080091
625.805327	0.080113
626.013114	0.080054
626.220883	0.080031
626.428634	0.080106
626.636367	0.080367
626.844082	0.080265
627.051778	0.080405
627.259457	0.080206
627.467117	0.080377
627.674758	0.080690
627.882382	0.080967
628.089987	0.081046
628.297574	0.080881
628.505143	0.080827
628.712694	0.081025
628.920226	0.080986
629.127740	0.081208
629.335236	0.080944
629.542714	0.080842
629.750174	0.080593
629.957615	0.080362
630.165038	0.080340
630.372443	0.080358
630.579829	0.080043
630.787198	0.080103
630.994548	0.080212
631.201880	0.080235
631.409194	0.079961
631.616489	0.080191
631.823766	0.080395
632.031025	0.080389
632.238266	0.080399
632.445489	0.080676
632.652693	0.080705
632.859879	0.080696
633.067047	0.080827
633.274197	0.081005
633.481329	0.080998
633.688442	0.081161
633.895537	0.081154
634.102614	0.081169
634.309672	0.081365
634.516713	0.081211
634.723735	0.081164
634.930739	0.080915
635.137724	0.080899
635.344692	0.080992
635.551641	0.080817
635.758572	0.081008
635.965485	0.081159
636.172379	0.081126
636.379256	0.081459
636.586114	0.081408
636.792954	0.081757
636.999775	0.081777
637.206579	0.081946
637.413364	0.082120
637.620131	0.082133
637.826880	0.082127
638.033610	0.082106
638.240323	0.082067
638.447017	0.082221
638.653692	0.082211
638.860350	0.082435
639.066990	0.082332
639.273611	0.082542
639.480214	0.082644
639.686798	0.082753
639.893365	0.082660
640.099913	0.082615
640.306443	0.082501
640.512955	0.082696
640.719449	0.082618
640.925924	0.082616
641.132381	0.082328
641.338820	0.082331
641.545241	0.082528
641.751644	0.082700
641.958028	0.083038
642.164394	0.083157
642.370742	0.082967
642.577071	0.082997
642.783383	0.083365
642.989676	0.083623
643.195951	0.083706
643.402207	0.083790
643.608446	0.083991
643.814666	0.083809
644.020868	0.083986
644.227052	0.084183
644.433218	0.084420
644.639365	0.084180
644.845494	0.084246
645.051605	0.084202
645.257698	0.084227
645.463772	0.084238
645.669828	0.084462
645.875866	0.084396
646.081886	0.084486
646.287888	0.084646
646.493871	0.084679
646.699836	0.084724
646.905783	0.084846
647.111712	0.084765
647.317622	0.084535
647.523514	0.084320
647.729388	0.084334
647.935244	0.084100
648.141082	0.083801
648.346901	0.083727
648.552702	0.083790
648.758485	0.083649
648.964250	0.083587
649.169996	0.084005
649.375724	0.084118
649.581434	0.084263
649.787126	0.084365
649.992800	0.084485
650.198455	0.084686
650.404092	0.084483
650.609711	0.084573
650.815311	0.084469
651.020894	0.084131
651.226458	0.084118
651.432004	0.084004
651.637532	0.084071
651.843041	0.084014
652.048532	0.083875
652.254006	0.083867
652.459460	0.083884
652.664897	0.084117
652.870315	0.084136
653.075716	0.084110
653.281097	0.084116
653.486461	0.084223
653.691807	0.084130
653.897134	0.084290
654.102443	0.084415
654.307734	0.084499
654.513006	0.084514
654.718261	0.084737
654.923497	0.084783
655.128715	0.085077
655.333915	0.085104
655.539096	0.085533
655.744259	0.085694
655.949404	0.085806
656.154531	0.085960
656.359640	0.086056
656.564730	0.086261
656.769802	0.086614
656.974856	0.086797
657.179892	0.087128
657.384909	0.086978
657.589908	0.086899
657.794889	0.087173
657.999852	0.087345
658.204797	0.087645
658.409723	0.087550
658.614631	0.087701
658.819521	0.087748
659.024393	0.087531
659.229246	0.087739
659.434081	0.087970
659.638898	0.087945
659.843697	0.087853
660.048478	0.087888
660.253240	0.088067
660.457984	0.087904
660.662710	0.087835
660.867417	0.088115
661.072107	0.088156
661.276778	0.088088
661.481431	0.088093
661.686066	0.088181
661.890682	0.088108
662.095281	0.088040
662.299861	0.088092
662.504422	0.088047
662.708966	0.087846
662.913491	0.087948
663.117999	0.088015
663.322488	0.088050
663.526958	0.088107
663.731411	0.088038
663.935845	0.088199
664.140261	0.088206
664.344659	0.088249
664.549038	0.088370
664.753400	0.088460
664.957743	0.088667
665.162068	0.088966
665.366375	0.088949
665.570663	0.088963
665.774933	0.088985
665.979185	0.089016
666.183419	0.089141
666.387635	0.089137
666.591832	0.089239
666.796011	0.089387
667.000172	0.089084
667.204315	0.089380
667.408439	0.089709
667.612545	0.089770
667.816634	0.090227
668.020703	0.090421
668.224755	0.090825
668.428788	0.091186
668.632803	0.091186
668.836800	0.091584
669.040779	0.091562
669.244739	0.091641
669.448681	0.091908
669.652605	0.091911
669.856511	0.091984
670.060399	0.092002
670.264268	0.091756
670.468119	0.091848
670.671952	0.092098
670.875767	0.092216
671.079563	0.092213
671.283341	0.092142
671.487101	0.092190
671.690843	0.092405
671.894567	0.092461
672.098272	0.092448
672.301959	0.092553
672.505628	0.092484
672.709278	0.092610
672.912911	0.092613
673.116525	0.092709
673.320121	0.092560
673.523699	0.092339
673.727258	0.092393
673.930799	0.092583
674.134322	0.092573
674.337827	0.092574
674.541314	0.092463
674.744782	0.092482
674.948232	0.092542
675.151664	0.092462
675.355078	0.092609
675.558474	0.092528
675.761851	0.092502
675.965210	0.092654
676.168551	0.092599
676.371873	0.092571
676.575178	0.092675
676.778464	0.092652
676.981732	0.092926
677.184981	0.092942
677.388213	0.093086
677.591426	0.093256
677.794621	0.093167
677.997798	0.093244
678.200956	0.093580
678.404097	0.093743
678.607219	0.093857
678.810323	0.093912
679.013408	0.093965
679.216476	0.093899
679.419525	0.093833
679.622556	0.093965
679.825569	0.093886
680.028563	0.093736
680.231540	0.093970
680.434498	0.094176
680.637438	0.094379
680.840359	0.094468
681.043263	0.094594
681.246148	0.094623
681.449015	0.094703
681.651864	0.094731
681.854694	0.094953
682.057506	0.094801
682.260301	0.094672
682.463076	0.094584
682.665834	0.094484
682.868573	0.094643
683.071295	0.094790
683.273998	0.094811
683.476682	0.094979
683.679349	0.094967
683.881997	0.094945
684.084627	0.095005
684.287239	0.094995
684.489833	0.095183
684.692408	0.095110
684.894965	0.094978
685.097504	0.095114
685.300025	0.095462
685.502527	0.095378
685.705012	0.095536
685.907478	0.095629
686.109925	0.095917
686.312355	0.096147
686.514766	0.096471
686.717159	0.096595
686.919534	0.096496
687.121891	0.096239
687.324230	0.096474
687.526550	0.096429
687.728852	0.096470
687.931136	0.096191
688.133401	0.095925
688.335649	0.095873
688.537878	0.095891
688.740089	0.095954
688.942281	0.096135
689.144456	0.096184
689.346612	0.096218
689.548750	0.096158
689.750870	0.096298
689.952971	0.096324
690.155055	0.096291
690.357120	0.096445
690.559167	0.096478
690.761195	0.096425
690.963206	0.096489
691.165198	0.096491
691.367172	0.096705
691.569128	0.096899
691.771065	0.097257
691.972984	0.097168
692.174885	0.097474
692.376768	0.097725
692.578633	0.097860
692.780479	0.097992
692.982308	0.098159
693.184118	0.098043
693.385909	0.097912
693.587683	0.097732
693.789438	0.097867
693.991175	0.097765
694.192894	0.097851
694.394595	0.097896
694.596277	0.097646
694.797941	0.097784
694.999587	0.097795
695.201215	0.098002
695.402824	0.098166
695.604416	0.098260
695.805989	0.098361
696.007543	0.098210
696.209080	0.098142
696.410598	0.098413
696.612099	0.098432
696.813580	0.098597
697.015044	0.098731
697.216490	0.098791
697.417917	0.098870
697.619326	0.098721
697.820717	0.098809
698.022089	0.099008
698.223444	0.099017
698.424780	0.098954
698.626098	0.099092
698.827397	0.098860
699.028679	0.098905
699.229942	0.098636
699.431187	0.098526
699.632414	0.098495
699.833622	0.098444
700.034813	0.098490
700.235985	0.098512
700.437139	0.098385
700.638274	0.098456
700.839392	0.098391
701.040491	0.098859
701.241572	0.099115
701.442635	0.099120
701.643679	0.099156
701.844706	0.099060
702.045714	0.099286
702.246704	0.099455
702.447675	0.099744
702.648629	0.099805
702.849564	0.099710
703.050481	0.099891
703.251380	0.099976
703.452260	0.100042
703.653122	0.100106
703.853966	0.100191
704.054792	0.100056
704.255600	0.099839
704.456389	0.099891
704.657160	0.099923
704.857913	0.099905
705.058648	0.099889
705.259365	0.099712
705.460063	0.099696
705.660743	0.099511
705.861405	0.099534
706.062048	0.099593
706.262674	0.099510
706.463281	0.099418
706.663870	0.099256
706.864441	0.099183
707.064993	0.099489
707.265527	0.099583
707.466043	0.099580
707.666541	0.099597
707.867021	0.099585
708.067482	0.099758
708.267925	0.099892
708.468350	0.100137
708.668757	0.100185
708.869145	0.100155
709.069516	0.100404
709.269868	0.100507
709.470201	0.100655
709.670517	0.100671
709.870814	0.100768
710.071093	0.100669
710.271354	0.100696
710.471597	0.100829
710.671821	0.100868
710.872028	0.100583
711.072216	0.100526
711.272385	0.100615
711.472537	0.100762
711.672670	0.100825
711.872785	0.100868
712.072882	0.100742
712.272961	0.100561
712.473021	0.100420
712.673063	0.100263
712.873087	0.100242
713.073093	0.099869
713.273081	0.099812
713.473050	0.099585
713.673001	0.099602
713.872934	0.099739
714.072849	0.099859
714.272745	0.099854
714.472623	0.100084
714.672483	0.099978
714.872325	0.100007
715.072148	0.099991
715.271954	0.099906
715.471741	0.099820
715.671509	0.099396
715.871260	0.099286
716.070992	0.099339
716.270707	0.099317
716.470403	0.099465
716.670080	0.099656
716.869740	0.099539
717.069381	0.099743
717.269004	0.099728
717.468609	0.099707
717.668195	0.099722
717.867764	0.099608
718.067314	0.099398
718.266846	0.099273
718.466360	0.099078
718.665855	0.099098
718.865332	0.098845
719.064791	0.098771
719.264232	0.098907
719.463655	0.098898
719.663059	0.098862
719.862445	0.099076
720.061813	0.099164
720.261163	0.099161
720.460494	0.099114
720.659807	0.099194
720.859102	0.099229
721.058379	0.099247
721.257638	0.099193
721.456878	0.099120
721.656100	0.099037
721.855304	0.098926
722.054490	0.099064
722.253657	0.099166
722.452806	0.099091
722.651937	0.099235
722.851050	0.099125
723.050145	0.099227
723.249221	0.099062
723.448279	0.098964
723.647319	0.098968
723.846340	0.098833
724.045344	0.098494
724.244329	0.098439
724.443296	0.098166
724.642245	0.097998
724.841175	0.097740
725.040088	0.097933
725.238982	0.097874
725.437857	0.097558
725.636715	0.097394
725.835554	0.097402
726.034376	0.097264
726.233179	0.097127
726.431963	0.096933
726.630730	0.097034
726.829478	0.096763
727.028208	0.096564
727.226920	0.096615
727.425614	0.096457
727.624289	0.096344
727.822946	0.096229
728.021585	0.095991
728.220206	0.096027
728.418808	0.095788
728.617392	0.095818
728.815958	0.095673
729.014506	0.095564
729.213036	0.095584
729.411547	0.095554
729.610040	0.095512
729.808515	0.095668
730.006972	0.095788
730.205410	0.095713
730.403831	0.095614
730.602233	0.095709
730.800616	0.095668
730.998982	0.095713
731.197329	0.095835
731.395658	0.095860
731.593969	0.095830
731.792262	0.095817
731.990536	0.095901
732.188793	0.095998
732.387031	0.096110
732.585250	0.096090
732.783452	0.096032
732.981635	0.095801
733.179800	0.095822
733.377947	0.095679
733.576076	0.095654
733.774186	0.095803
733.972278	0.095787
734.170352	0.095566
734.368408	0.095588
734.566446	0.095668
734.764465	0.095915
734.962466	0.095891
735.160449	0.096092
735.358413	0.096152
735.556360	0.095894
735.754288	0.095907
735.952198	0.096030
736.150090	0.096091
736.347963	0.095934
736.545818	0.095870
736.743655	0.095914
736.941474	0.095705
737.139275	0.095537
737.337057	0.095454
737.534821	0.095285
737.732567	0.095260
737.930295	0.095214
738.128005	0.095183
738.325696	0.095096
738.523369	0.094967
738.721024	0.095159
738.918660	0.095193
739.116279	0.095314
739.313879	0.095392
739.511461	0.095482
739.709024	0.095500
739.906570	0.095699
740.104097	0.095858
740.301606	0.095849
740.499097	0.095873
740.696569	0.095902
740.894024	0.095916
741.091460	0.095959
741.288878	0.095825
741.486277	0.095543
741.683659	0.095430
741.881022	0.095144
742.078367	0.095278
742.275694	0.095219
742.473002	0.095033
742.670293	0.095050
742.867565	0.094944
743.064819	0.094904
743.262054	0.095195
743.459272	0.095090
743.656471	0.095080
743.853652	0.094734
744.050815	0.094624
744.247959	0.094697
744.445085	0.094657
744.642194	0.094803
744.839283	0.094746
745.036355	0.094698
745.233408	0.094681
745.430444	0.094595
745.627461	0.094999
745.824459	0.095019
746.021440	0.094785
746.218402	0.094816
746.415346	0.094493
746.612272	0.094366
746.809180	0.094268
747.006069	0.094430
747.202940	0.094421
747.399793	0.094131
747.596628	0.093852
747.793444	0.093812
747.990243	0.093582
748.187023	0.093662
748.383784	0.093784
748.580528	0.093511
748.777253	0.093332
748.973960	0.093376
749.170649	0.093427
749.367320	0.093540
749.563973	0.093482
749.760607	0.093407
749.957223	0.093346
750.153821	0.093188
750.350400	0.093411
750.546962	0.093441
750.743505	0.093228
750.940030	0.093222
751.136536	0.093067
751.333025	0.092995
751.529495	0.092930
751.725947	0.092983
751.922381	0.092909
752.118796	0.092960
752.315194	0.092925
752.511573	0.093071
752.707934	0.092867
752.904276	0.092927
753.100601	0.093065
753.296907	0.093255
753.493195	0.093063
753.689465	0.093005
753.885716	0.092852
754.081949	0.092790
754.278164	0.092820
754.474361	0.092693
754.670540	0.092606
754.866700	0.092570
755.062843	0.092673
755.258967	0.092621
755.455072	0.092638
755.651160	0.092744
755.847229	0.092596
756.043280	0.092374
756.239313	0.092376
756.435328	0.092435
756.631324	0.092372
756.827302	0.091966
757.023262	0.091812
757.219204	0.091716
757.415127	0.091362
757.611033	0.091252
757.806920	0.091306
758.002788	0.091213
758.198639	0.090966
758.394471	0.090938
758.590286	0.090977
758.786081	0.091053
758.981859	0.090931
759.177619	0.090969
759.373360	0.091029
759.569083	0.090892
759.764788	0.090951
759.960474	0.090949
760.156143	0.090774
760.351793	0.090551
760.547425	0.090553
760.743038	0.090692
760.938634	0.090691
761.134211	0.090780
761.329770	0.090758
761.525311	0.090644
761.720833	0.090751
761.916338	0.090973
762.111824	0.091106
762.307292	0.091225
762.502741	0.091438
762.698173	0.091416
762.893586	0.091396
763.088981	0.091503
763.284358	0.091716
763.479716	0.091763
763.675057	0.091847
763.870379	0.091848
764.065683	0.091623
764.260968	0.091426
764.456236	0.091500
764.651485	0.091479
764.846716	0.091580
765.041929	0.091591
765.237123	0.091410
765.432299	0.091232
765.627457	0.091375
765.822597	0.091468
766.017719	0.091360
766.212822	0.091183
766.407907	0.091091
766.602974	0.090865
766.798023	0.090668
766.993054	0.090753
767.188066	0.090739
767.383060	0.090452
767.578036	0.090576
767.772993	0.090763
767.967933	0.090722
768.162854	0.090824
768.357757	0.090880
768.552642	0.091008
768.747508	0.090954
768.942356	0.091003
769.137186	0.091099
769.331998	0.090813
769.526792	0.090772
769.721567	0.090814
769.916324	0.090781
770.111063	0.090545
770.305784	0.090427
770.500486	0.090392
770.695171	0.090467
770.889837	0.090429
771.084484	0.090604
771.279114	0.090527
771.473725	0.090588
771.668318	0.090738
771.862893	0.090927
772.057450	0.090991
772.251988	0.091379
772.446509	0.091208
772.641011	0.091350
772.835494	0.091347
773.029960	0.091505
773.224407	0.091579
773.418836	0.091437
773.613247	0.091241
773.807640	0.091360
774.002014	0.090954
774.196370	0.090925
774.390708	0.090889
774.585028	0.090750
774.779330	0.090430
774.973613	0.090470
775.167878	0.090460
775.362125	0.090625
775.556354	0.090393
775.750564	0.090382
775.944756	0.090588
776.138930	0.090719
776.333086	0.090554
776.527223	0.090581
776.721343	0.090454
776.915444	0.090395
777.109526	0.090403
777.303591	0.090639
777.497637	0.090873
777.691666	0.090936
777.885676	0.090729
778.079667	0.091009
778.273641	0.091129
778.467596	0.091465
778.661533	0.091403
778.855452	0.091480
779.049352	0.091180
779.243235	0.091187
779.437099	0.091105
779.630945	0.091158
779.824773	0.091125
780.018582	0.091082
780.212373	0.090729
780.406146	0.090747
780.599901	0.090455
780.793638	0.090605
780.987356	0.090441
781.181056	0.090223
781.374738	0.090222
781.568402	0.090053
781.762047	0.089802
781.955674	0.089856
782.149283	0.089816
782.342874	0.089909
782.536447	0.089825
782.730001	0.089834
782.923537	0.089629
783.117055	0.089637
783.310555	0.089683
783.504036	0.089989
783.697499	0.089867
783.890944	0.089954
784.084371	0.090093
784.277780	0.090357
784.471170	0.090319
784.664542	0.090636
784.857896	0.090658
785.051231	0.090776
785.244549	0.090872
785.437848	0.091046
785.631129	0.090847
785.824392	0.090931
786.017636	0.090833
786.210863	0.091026
786.404071	0.090975
786.597260	0.091192
786.790432	0.091320
786.983585	0.091248
787.176721	0.091228
787.369838	0.091624
787.562936	0.091549
787.756017	0.091638
787.949079	0.091618
788.142123	0.091765
788.335149	0.091690
788.528156	0.091763
788.721146	0.091901
788.914117	0.092167
789.107070	0.092024
789.300005	0.092021
789.492921	0.091861
789.685819	0.091772
789.878699	0.091774
790.071561	0.091822
790.264405	0.091662
790.457230	0.091732
790.650037	0.091527
790.842826	0.091629
791.035597	0.091659
791.228349	0.091774
791.421084	0.091992
791.613800	0.092227
791.806497	0.092275
791.999177	0.092442
792.191838	0.092561
792.384481	0.092696
792.577106	0.092606
792.769713	0.092894
792.962301	0.092972
793.154871	0.093037
793.347423	0.092801
793.539957	0.092740
793.732473	0.092620
793.924970	0.092492
794.117449	0.092594
794.309910	0.092851
794.502353	0.092650
794.694777	0.092630
794.887183	0.092659
795.079571	0.092675
795.271941	0.092731
795.464293	0.092913
795.656626	0.093079
795.848941	0.093083
796.041238	0.092898
796.233516	0.093234
796.425777	0.093577
796.618019	0.093724
796.810243	0.093879
797.002449	0.093961
797.194636	0.094208
797.386805	0.094144
797.578956	0.094247
797.771089	0.094350
797.963204	0.094085
798.155300	0.093999
798.347378	0.094050
798.539438	0.094390
798.731480	0.094520
798.923503	0.094735
799.115509	0.094755
799.307496	0.094886
799.499465	0.095114
799.691415	0.095430
799.883348	0.095456
800.075262	0.095391
800.267158	0.095176
800.459035	0.095071
800.650895	0.094688
800.842736	0.094824
801.034559	0.094773
801.226364	0.094790
801.418150	0.094788
801.609919	0.094736
801.801669	0.094799
801.993401	0.094916
802.185114	0.094924
802.376810	0.095100
802.568487	0.094914
802.760146	0.094790
802.951787	0.094719
803.143409	0.094686
803.335014	0.094843
803.526600	0.094734
803.718168	0.094554
803.909717	0.094616
804.101249	0.094482
804.292762	0.094688
804.484257	0.094712
804.675734	0.094694
804.867192	0.094667
805.058632	0.094716
805.250054	0.094687
805.441458	0.094864
805.632844	0.094938
805.824211	0.095031
806.015561	0.095004
806.206891	0.095264
806.398204	0.095436
806.589499	0.095606
806.780775	0.095446
806.972033	0.095862
807.163273	0.095977
807.354495	0.096380
807.545698	0.096637
807.736883	0.096784
807.928050	0.096601
808.119199	0.096784
808.310329	0.096921
808.501441	0.097353
808.692535	0.097418
808.883611	0.097578
809.074669	0.097537
809.265708	0.097450
809.456729	0.097590
809.647732	0.097987
809.838717	0.098129
810.029683	0.098329
810.220632	0.098443
810.411562	0.098538
810.602474	0.098679
810.793367	0.098754
810.984242	0.099164
811.175100	0.099502
811.365938	0.099692
811.556759	0.099710
811.747562	0.099738
811.938346	0.099709
812.129112	0.099806
812.319860	0.100165
812.510589	0.100546
812.701300	0.100582
812.891994	0.100665
813.082668	0.100800
813.273325	0.100977
813.463964	0.101191
813.654584	0.101561
813.845186	0.101836
814.035769	0.101832
814.226335	0.101660
814.416882	0.101957
814.607411	0.102161
814.797922	0.102307
814.988415	0.102536
815.178889	0.102510
815.369345	0.102311
815.559783	0.102278
815.750203	0.102394
815.940605	0.102393
816.130988	0.102358
816.321353	0.102212
816.511700	0.102138
816.702028	0.102178
816.892339	0.102277
817.082631	0.102628
817.272905	0.102697
817.463161	0.102673
817.653398	0.102902
817.843617	0.103094
818.033819	0.103274
818.224001	0.103467
818.414166	0.103519
818.604312	0.103895
818.794440	0.103760
818.984550	0.103789
819.174642	0.103966
819.364716	0.104177
819.554771	0.104011
819.744808	0.103932
819.934827	0.103950
820.124827	0.103905
820.314810	0.103696
820.504774	0.104004
820.694720	0.104181
820.884647	0.104184
821.074557	0.104114
821.264448	0.104262
821.454321	0.104407
821.644176	0.104300
821.834012	0.104525
822.023831	0.104821
822.213631	0.104687
822.403413	0.104598
822.593176	0.104569
822.782922	0.104554
822.972649	0.104561
823.162358	0.104818
823.352049	0.105044
823.541721	0.105174
823.731376	0.105132
823.921012	0.105356
824.110629	0.105708
824.300229	0.106150
824.489811	0.106569
824.679374	0.106824
824.868919	0.106895
825.058445	0.106885
825.247954	0.106892
825.437444	0.107106
825.626916	0.107098
825.816370	0.107329
826.005806	0.107306
826.195223	0.107486
826.384622	0.107625
826.574003	0.107848
826.763366	0.108090
826.952711	0.108271
827.142037	0.108484
827.331345	0.108775
827.520635	0.108741
827.709906	0.108834
827.899160	0.108728
828.088395	0.108989
828.277612	0.109110
828.466810	0.109446
828.655991	0.109723
828.845153	0.109705
829.034297	0.109761
829.223423	0.109857
829.412531	0.109896
829.601620	0.110045
829.790691	0.110122
829.979744	0.110066
830.168779	0.110059
830.357795	0.110210
830.546793	0.110470
830.735773	0.110633
830.924735	0.110756
831.113679	0.110924
831.302604	0.111106
831.491511	0.111076
831.680400	0.111289
831.869271	0.111296
832.058123	0.111359
832.246957	0.111446
832.435773	0.111554
832.624571	0.111547
832.813351	0.111668
833.002112	0.111533
833.190855	0.111530
833.379580	0.111452
833.568287	0.111741
833.756975	0.111893
833.945645	0.111781
834.134297	0.111961
834.322931	0.112138
834.511547	0.112197
834.700144	0.112501
834.888723	0.112984
835.077284	0.113511
835.265826	0.113665
835.454351	0.113797
835.642857	0.114396
835.831345	0.114396
836.019815	0.114542
836.208266	0.115048
836.396699	0.115346
836.585114	0.115291
836.773511	0.115323
836.961890	0.115495
837.150250	0.115773
837.338592	0.115756
837.526916	0.116248
837.715222	0.116605
837.903510	0.116591
838.091779	0.116798
838.280030	0.116981
838.468263	0.117183
838.656477	0.117281
838.844674	0.117386
839.032852	0.117581
839.221012	0.117796
839.409153	0.118127
839.597277	0.118321
839.785382	0.118516
839.973469	0.118889
840.161538	0.119143
840.349589	0.119433
840.537621	0.119555
840.725635	0.120088
840.913631	0.120300
841.101609	0.120487
841.289568	0.120803
841.477509	0.121061
841.665432	0.121489
841.853337	0.121449
842.041224	0.121605
842.229092	0.121944
842.416942	0.121899
842.604774	0.121832
842.792588	0.122031
842.980383	0.122037
843.168160	0.122397
843.355919	0.122363
843.543660	0.122774
843.731382	0.122964
843.919087	0.122826
844.106773	0.122849
844.294441	0.123273
844.482090	0.123341
844.669722	0.123373
844.857335	0.123306
845.044930	0.123290
845.232507	0.123124
845.420065	0.123171
845.607605	0.123369
845.795127	0.123641
845.982631	0.123399
846.170117	0.123592
846.357584	0.124023
846.545033	0.124356
846.732464	0.124460
846.919877	0.124891
847.107272	0.125369
847.294648	0.125699
847.482006	0.125828
847.669346	0.126307
847.856667	0.126590
848.043971	0.126585
848.231256	0.126588
848.418523	0.126984
848.605771	0.127197
848.793002	0.127064
848.980214	0.127201
849.167408	0.127237
849.354584	0.127460
849.541742	0.127295
849.728881	0.127434
849.916002	0.127204
850.103105	0.127121
850.290190	0.127232
850.477256	0.127601
850.664304	0.127666
850.851334	0.127742
851.038346	0.127675
851.225340	0.127809
851.412315	0.128175
851.599272	0.128482
851.786211	0.128740
851.973132	0.128699
852.160034	0.128799
852.346918	0.129214
852.533784	0.129413
852.720632	0.129964
852.907462	0.130304
853.094273	0.130498
853.281066	0.131091
853.467841	0.131443
853.654598	0.131866
853.841336	0.132025
854.028056	0.132102
854.214758	0.132563
854.401442	0.132422
854.588107	0.132890
854.774755	0.132838
854.961384	0.132940
855.147995	0.132953
855.334587	0.133111
855.521162	0.133385
855.707718	0.133530
855.894256	0.133531
856.080775	0.133758
856.267277	0.133800
856.453760	0.133970
856.640225	0.134014
856.826672	0.134573
857.013101	0.134503
857.199511	0.135019
857.385903	0.135497
857.572277	0.135827
857.758633	0.136171
857.944970	0.136351
858.131290	0.136765
858.317591	0.136889
858.503873	0.136965
858.690138	0.137300
858.876384	0.137057
859.062612	0.137067
859.248822	0.137325
859.435014	0.137367
859.621188	0.137591
859.807343	0.137718
859.993480	0.137953
860.179599	0.138098
860.365699	0.138557
860.551781	0.139067
860.737846	0.139445
860.923891	0.139778
861.109919	0.139883
861.295929	0.140291
861.481920	0.140686
861.667893	0.141094
861.853848	0.141194
862.039784	0.141628
862.225702	0.141483
862.411603	0.141579
862.597484	0.141547
862.783348	0.141786
862.969193	0.141633
863.155021	0.141603
863.340830	0.141600
863.526620	0.141800
863.712393	0.141506
863.898147	0.141602
864.083883	0.141222
864.269601	0.141079
864.455301	0.140995
864.640982	0.141196
864.826645	0.140975
865.012290	0.141137
865.197917	0.141119
865.383526	0.141381
865.569116	0.141711
865.754688	0.142022
865.940242	0.142128
866.125777	0.142197
866.311295	0.142288
866.496794	0.142753
866.682275	0.142615
866.867737	0.142731
867.053182	0.142755
867.238608	0.142689
867.424016	0.142907
867.609406	0.143121
867.794778	0.143433
867.980131	0.143407
868.165466	0.143658
868.350783	0.143731
868.536082	0.144130
868.721362	0.144357
868.906625	0.144299
869.091869	0.144292
869.277094	0.144644
869.462302	0.144857
869.647491	0.144878
869.832662	0.144884
870.017815	0.144924
870.202950	0.144711
870.388066	0.144422
870.573165	0.144749
870.758245	0.144871
870.943306	0.144557
871.128350	0.144523
871.313375	0.144891
871.498382	0.144698
871.683371	0.145148
871.868342	0.145352
872.053294	0.145489
872.238229	0.145472
872.423144	0.145635
872.608042	0.146063
872.792922	0.146278
872.977783	0.145998
873.162626	0.146326
873.347451	0.146247
873.532258	0.146321
873.717046	0.146345
873.901816	0.146339
874.086568	0.145964
874.271302	0.145695
874.456017	0.145412
874.640715	0.145530
874.825394	0.145755
875.010055	0.145735
875.194697	0.145625
875.379322	0.145938
875.563928	0.146112
875.748516	0.146458
875.933085	0.146632
876.117637	0.146790
876.302170	0.146965
876.486685	0.146542
876.671182	0.146698
876.855661	0.146919
877.040121	0.146721
877.224563	0.146696
877.408987	0.146902
877.593393	0.147012
877.777780	0.147271
877.962150	0.147283
878.146501	0.147498
878.330833	0.147534
878.515148	0.147731
878.699444	0.148073
878.883722	0.148122
879.067982	0.148069
879.252224	0.148062
879.436447	0.148079
879.620653	0.148066
879.804840	0.148275
879.989008	0.148320
880.173159	0.148200
880.357291	0.147833
880.541405	0.148228
880.725501	0.148264
880.909579	0.147989
881.093638	0.147720
881.277680	0.147814
881.461703	0.147883
881.645707	0.147855
881.829694	0.147643
882.013662	0.147788
882.197612	0.147705
882.381544	0.147777
882.565458	0.147879
882.749353	0.148068
882.933230	0.148132
883.117089	0.147853
883.300930	0.147903
883.484753	0.148364
883.668557	0.148728
883.852343	0.148624
884.036111	0.148835
884.219861	0.149371
884.403592	0.149463
884.587305	0.149528
884.771000	0.149688
884.954677	0.149800
885.138335	0.149781
885.321976	0.149880
885.505598	0.149866
885.689201	0.149941
885.872787	0.149741
886.056354	0.149656
886.239904	0.149698
886.423434	0.149843
886.606947	0.149795
886.790442	0.149911
886.973918	0.149485
887.157376	0.149661
887.340816	0.149339
887.524237	0.149538
887.707641	0.149737
887.891026	0.149554
888.074393	0.149539
888.257741	0.149798
888.441072	0.149334
888.624384	0.149431
888.807678	0.149083
888.990954	0.149275
889.174211	0.149056
889.357451	0.148839
889.540672	0.149057
889.723875	0.148916
889.907059	0.148637
890.090226	0.148970
890.273374	0.148987
890.456504	0.149470
890.639616	0.149424
890.822709	0.149745
891.005785	0.149947
891.188842	0.150313
891.371881	0.150724
891.554901	0.150953
891.737904	0.151004
891.920888	0.151046
892.103854	0.150652
892.286802	0.150564
892.469731	0.150521
892.652643	0.150324
892.835536	0.149741
893.018410	0.149178
893.201267	0.148937
893.384106	0.148746
893.566926	0.149273
893.749728	0.149176
893.932511	0.149238
894.115277	0.149163
894.298024	0.149572
894.480753	0.149559
894.663464	0.149425
894.846157	0.149556
895.028831	0.149578
895.211487	0.148899
895.394125	0.148939
895.576745	0.148315
895.759346	0.148056
895.941930	0.147663
896.124495	0.147534
896.307041	0.147733
896.489570	0.147604
896.672080	0.147403
896.854573	0.147341
897.037046	0.147502
897.219502	0.147900
897.401940	0.147827
897.584359	0.147697
897.766760	0.147111
897.949143	0.146932
898.131507	0.146476
898.313854	0.145965
898.496182	0.145760
898.678492	0.145218
898.860783	0.145003
899.043057	0.144879
899.225312	0.144550
899.407549	0.145052
899.589768	0.144926
899.771968	0.145033
899.954151	0.145649
900.136315	0.145712
900.318461	0.145619
900.500588	0.145605
900.682698	0.145026
900.864789	0.145018
901.046862	0.144992
901.228917	0.144971
901.410953	0.145125
901.592971	0.145068
901.774972	0.144513
901.956953	0.144603
902.138917	0.144090
902.320862	0.144441
902.502790	0.144222
902.684699	0.143973
902.866589	0.143826
903.048462	0.143816
903.230316	0.143324
903.412152	0.143504
903.593970	0.142984
903.775770	0.143302
903.957551	0.143091
904.139314	0.143269
904.321059	0.143089
904.502786	0.142680
904.684494	0.141922
904.866185	0.141538
905.047857	0.141234
905.229510	0.141636
905.411146	0.141416
905.592763	0.141275
905.774363	0.140880
905.955943	0.140518
906.137506	0.140353
906.319051	0.140419
906.500577	0.140276
906.682085	0.140163
906.863575	0.139546
907.045046	0.139126
907.226500	0.138454
907.407935	0.138467
907.589352	0.138180
907.770750	0.138166
907.952131	0.138037
908.133493	0.138072
908.314837	0.138141
908.496163	0.138288
908.677470	0.138527
908.858760	0.138852
909.040031	0.138540
909.221284	0.138709
909.402518	0.138167
909.583735	0.138012
909.764933	0.138112
909.946113	0.137772
910.127275	0.137368
910.308418	0.136976
910.489544	0.136650
910.670651	0.137126
910.851740	0.136815
911.032810	0.136878
911.213863	0.136497
911.394897	0.136101
911.575913	0.136175
911.756911	0.136104
911.937890	0.135288
912.118851	0.135196
912.299794	0.134228
912.480719	0.134043
912.661626	0.134031
912.842514	0.134007
913.023384	0.133457
913.204236	0.132777
913.385070	0.132799
913.565886	0.133294
913.746683	0.133360
913.927462	0.133265
914.108223	0.132886
914.288965	0.132518
914.469690	0.132120
914.650396	0.131883
914.831084	0.132014
915.011754	0.131210
915.192405	0.130425
915.373038	0.129547
915.553653	0.129401
915.734250	0.129302
915.914829	0.129359
916.095389	0.128978
916.275931	0.128553
916.456455	0.127923
916.636961	0.127926
916.817448	0.128138
916.997917	0.128273
917.178368	0.127797
917.358801	0.127732
917.539216	0.127155
917.719612	0.126811
917.899990	0.126494
918.080350	0.126458
918.260692	0.125942
918.441015	0.125467
918.621320	0.124479
918.801607	0.124290
918.981876	0.123372
919.162127	0.122674
919.342359	0.122549
919.522573	0.122031
919.702769	0.121411
919.882947	0.121413
920.063106	0.121187
920.243247	0.121498
920.423370	0.120982
920.603475	0.120916
920.783562	0.120358
920.963630	0.119997
921.143680	0.119516
921.323712	0.119248
921.503725	0.118966
921.683721	0.118189
921.863698	0.117416
922.043657	0.116434
922.223598	0.115892
922.403520	0.116214
922.583424	0.115502
922.763311	0.115629
922.943178	0.115130
923.123028	0.114420
923.302859	0.114243
923.482673	0.114230
923.662467	0.114799
923.842244	0.114859
924.022003	0.114342
924.201743	0.114437
924.381465	0.113648
924.561169	0.113505
924.740854	0.112978
924.920522	0.112513
925.100171	0.111803
925.279802	0.110497
925.459414	0.109408
925.639009	0.108756
925.818585	0.107795
925.998143	0.107392
926.177683	0.106853
926.357205	0.106704
926.536708	0.106746
926.716193	0.106495
926.895660	0.106580
927.075109	0.106402
927.254539	0.105715
927.433951	0.105649
927.613345	0.105476
927.792721	0.104826
927.972079	0.103954
928.151418	0.103289
928.330739	0.102451
928.510042	0.101440
928.689327	0.100873
928.868593	0.100895
929.047841	0.099678
929.227071	0.099524
929.406283	0.099362
929.585476	0.098587
929.764652	0.098046
929.943809	0.098124
930.122948	0.098537
930.302068	0.098631
930.481171	0.098402
930.660255	0.098323
930.839321	0.096954
931.018369	0.095958
931.197398	0.095666
931.376409	0.094069
931.555402	0.093216
931.734377	0.092678
931.913334	0.091791
932.092272	0.090808
932.271192	0.090015
932.450094	0.089830
932.628978	0.089676
932.807844	0.089116
932.986691	0.088975
933.165520	0.088653
933.344331	0.087600
933.523123	0.086438
933.701898	0.086153
933.880654	0.086351
934.059392	0.085757
934.238111	0.085051
934.416813	0.085284
934.595496	0.085658
934.774161	0.084555
934.952808	0.084408
935.131437	0.084045
935.310047	0.082514
935.488639	0.080814
935.667213	0.080462
935.845769	0.079745
936.024306	0.078726
936.202825	0.077997
936.381326	0.077185
936.559809	0.076630
936.738274	0.076222
936.916720	0.075997
937.095148	0.076575
937.273558	0.076619
937.451950	0.076946
937.630323	0.075985
937.808678	0.074641
937.987015	0.075119
938.165334	0.074418
938.343635	0.073719
938.521917	0.073783
938.700181	0.073013
938.878427	0.071771
939.056655	0.071159
939.234864	0.071525
939.413055	0.072572
939.591228	0.071394
939.769383	0.070415
939.947519	0.070814
940.125638	0.069934
940.303738	0.069873
940.481820	0.070198
940.659883	0.070033
940.837929	0.069214
941.015956	0.068667
941.193965	0.068689
941.371955	0.068688
941.549928	0.068028
941.727882	0.068380
941.905818	0.067836
942.083736	0.066631
942.261636	0.065025
942.439517	0.064335
942.617380	0.063304
942.795225	0.062316
942.973052	0.063086
943.150860	0.062536
943.328651	0.061471
943.506423	0.060648
943.684176	0.060681
943.861912	0.060942
944.039629	0.060067
944.217328	0.059366
944.395009	0.058629
944.572672	0.056597
944.750317	0.055881
944.927943	0.056044
945.105551	0.054357
945.283141	0.053605
945.460712	0.052338
945.638265	0.052304
945.815801	0.052255
945.993317	0.051841
946.170816	0.051495
946.348297	0.050646
946.525759	0.049868
946.703203	0.049992
946.880629	0.049280
947.058036	0.048653
947.235425	0.048081
947.412797	0.047069
947.590149	0.047271
947.767484	0.046437
947.944800	0.046040
948.122099	0.045503
948.299379	0.046147
948.476640	0.045061
948.653884	0.044399
948.831109	0.044516
949.008316	0.043630
949.185505	0.043449
949.362676	0.042082
949.539828	0.042390
949.716962	0.041941
949.894078	0.040385
950.071176	0.040145
950.248256	0.040677
950.425317	0.040942
950.602360	0.041195
950.779385	0.040906
950.956391	0.041593
951.133380	0.040074
951.310350	0.039723
951.487302	0.040082
951.664235	0.040876
951.841151	0.040161
952.018048	0.038915
952.194927	0.038721
952.371788	0.038414
952.548631	0.038657
952.725455	0.039742
952.902261	0.039925
953.079049	0.040310
953.255819	0.041232
953.432570	0.040877
953.609303	0.041596
953.786018	0.040977
953.962715	0.040110
954.139394	0.039885
954.316054	0.039395
954.492696	0.039409
954.669320	0.037547
954.845926	0.035792
955.022513	0.036156
955.199083	0.035862
955.375634	0.035663
955.552166	0.036360
955.728681	0.035848
955.905177	0.037237
956.081655	0.035887
956.258115	0.038287
956.434557	0.039198
956.610980	0.039848
956.787385	0.039164
956.963772	0.039434
957.140141	0.038711
957.316492	0.039853
957.492824	0.039135
957.669138	0.041270
957.845434	0.040285
958.021712	0.039895
958.197971	0.039744
958.374212	0.040889
958.550435	0.042553
958.726640	0.040917
958.902826	0.039912
959.078995	0.039913
959.255145	0.039474
959.431277	0.039885
959.607390	0.039784
959.783486	0.040371
959.959563	0.039341
960.135622	0.036144
960.311662	0.037584
960.487685	0.038900
960.663689	0.037547
960.839675	0.036433
961.015643	0.036520
961.191593	0.036029
961.367524	0.035021
961.543437	0.035419
961.719332	0.036899
961.895209	0.037772
962.071067	0.036394
962.246907	0.037256
962.422730	0.039333
962.598533	0.040891
962.774319	0.040379
962.950086	0.043277
963.125835	0.042898
963.301566	0.042598
963.477279	0.041353
963.652973	0.040942
963.828650	0.040425
964.004308	0.038795
964.179947	0.038345
964.355569	0.040682
964.531172	0.038079
964.706757	0.038226
964.882324	0.039830
965.057873	0.040419
965.233403	0.040783
965.408916	0.040416
965.584410	0.041236
965.759885	0.039517
965.935343	0.037045
966.110782	0.036379
966.286203	0.037561
966.461606	0.036325
966.636991	0.038616
966.812357	0.039283
966.987705	0.039491
967.163035	0.039433
967.338347	0.040727
967.513641	0.041787
967.688916	0.042773
967.864173	0.042712
968.039412	0.044492
968.214632	0.043773
968.389835	0.046457
968.565019	0.047188
968.740185	0.046081
968.915333	0.046020
969.090462	0.045109
969.265573	0.043938
969.440667	0.043057
969.615741	0.041403
969.790798	0.041910
969.965836	0.039706
970.140856	0.040295
970.315858	0.041017
970.490842	0.040853
970.665808	0.042610
970.840755	0.044370
971.015684	0.043159
971.190595	0.043798
971.365487	0.041551
971.540362	0.041968
971.715218	0.040371
971.890056	0.039585
972.064875	0.037851
972.239677	0.037355
972.414460	0.036100
972.589225	0.037687
972.763972	0.036230
972.938700	0.039310
973.113411	0.037965
973.288103	0.039978
973.462777	0.041067
973.637432	0.041603
973.812070	0.042777
973.986689	0.041617
974.161290	0.042506
974.335873	0.044382
974.510437	0.043916
974.684984	0.046175
974.859512	0.044261
975.034022	0.042065
975.208513	0.041551
975.382987	0.040720
975.557442	0.042321
975.731879	0.040510
975.906298	0.039341
976.080698	0.038585
976.255080	0.038196
976.429445	0.038003
976.603790	0.038634
976.778118	0.041356
976.952427	0.041198
977.126719	0.042103
977.300992	0.043005
977.475246	0.043722
977.649483	0.044190
977.823701	0.043668
977.997901	0.045516
978.172083	0.047543
978.346247	0.045887
978.520392	0.042618
978.694519	0.040858
978.868628	0.040361
979.042719	0.040678
979.216791	0.040883
979.390845	0.040268
979.564882	0.037687
979.738899	0.038484
979.912899	0.037177
980.086880	0.040852
980.260843	0.040784
980.434788	0.039888
980.608715	0.039592
980.782623	0.037761
980.956514	0.037429
981.130386	0.040511
981.304240	0.039952
981.478075	0.039814
981.651892	0.039104
981.825692	0.041277
981.999472	0.043471
982.173235	0.042447
982.346980	0.042702
982.520706	0.043948
982.694414	0.042468
982.868104	0.042766
983.041775	0.044420
983.215428	0.046544
983.389064	0.045242
983.562680	0.044869
983.736279	0.045871
983.909860	0.047304
984.083422	0.047780
984.256966	0.048289
984.430491	0.047491
984.603999	0.047065
984.777488	0.044170
984.950959	0.043947
985.124412	0.044116
985.297847	0.044349
985.471263	0.042604
985.644661	0.042942
985.818041	0.043059
985.991403	0.041868
986.164747	0.042756
986.338072	0.042724
986.511379	0.044584
986.684668	0.043949
986.857938	0.042690
987.031191	0.044409
987.204425	0.042877
987.377641	0.044327
987.550839	0.043338
987.724018	0.044262
987.897179	0.044440
988.070322	0.042329
988.243447	0.041403
988.416554	0.042411
988.589642	0.042924
988.762712	0.043451
988.935764	0.042304
989.108798	0.044810
989.281813	0.042556
989.454811	0.042913
989.627790	0.044901
989.800751	0.046872
989.973693	0.048066
990.146617	0.045302
990.319524	0.042962
990.492412	0.042970
990.665281	0.041379
990.838133	0.040732
991.010966	0.041249
991.183781	0.039397
991.356578	0.037212
991.529356	0.036970
991.702117	0.037788
991.874859	0.039247
992.047583	0.039702
992.220288	0.039514
992.392976	0.040468
992.565645	0.039381
992.738296	0.039654
992.910929	0.039293
993.083543	0.038174
993.256139	0.038833
993.428718	0.038735
993.601277	0.037088
993.773819	0.037804
993.946342	0.038766
994.118848	0.039227
994.291335	0.039843
994.463803	0.041508
994.636254	0.040882
994.808686	0.039659
994.981100	0.039850
995.153496	0.040240
995.325874	0.040594
995.498233	0.040030
995.670574	0.041225
995.842897	0.040387
996.015202	0.039775
996.187488	0.040080
996.359757	0.041899
996.532007	0.044074
996.704239	0.043797
996.876452	0.042097
997.048648	0.041062
997.220825	0.038865
997.392984	0.039051
997.565124	0.040086
997.737247	0.038735
997.909351	0.038830
998.081437	0.034357
998.253505	0.034158
998.425554	0.035417
998.597586	0.037686
998.769599	0.037308
998.941594	0.036813
999.113571	0.036142
999.285529	0.036833
999.457469	0.036161
999.629391	0.038962
999.801295	0.039432
999.973181	0.039633
1000.145048	0.037942
1000.316897	0.039381
1000.488728	0.037894
1000.660541	0.037564
1000.832335	0.039329
1001.004111	0.038840
1001.175869	0.037916
1001.347609	0.038694
1001.519331	0.037990
1001.691034	0.037874
1001.862719	0.037954
1002.034386	0.038896
1002.206035	0.038770
1002.377665	0.036394
1002.549277	0.037501
1002.720871	0.038255
1002.892447	0.037958
1003.064004	0.037236
1003.235544	0.037091
1003.407065	0.037901
1003.578568	0.040408
1003.750052	0.041722
1003.921519	0.045672
1004.092967	0.044492
1004.264397	0.043443
1004.435809	0.043250
1004.607202	0.044124
1004.778577	0.044635
1004.949934	0.043064
1005.121273	0.042724
1005.292594	0.041864
1005.463896	0.039251
1005.635180	0.039455
1005.806446	0.040544
1005.977694	0.040614
1006.148923	0.040450
1006.320135	0.040095
1006.491328	0.041510
1006.662503	0.039127
1006.833659	0.040430
1007.004798	0.040605
1007.175918	0.039610
1007.347020	0.039626
1007.518103	0.037752
1007.689169	0.036030
1007.860216	0.035595
1008.031245	0.034156
1008.202256	0.035512
1008.373248	0.034367
1008.544223	0.035861
1008.715179	0.036206
1008.886117	0.035033
1009.057036	0.036132
1009.227938	0.037964
1009.398821	0.039664
1009.569686	0.039311
1009.740533	0.038394
1009.911361	0.039212
1010.082172	0.037690
1010.252964	0.038085
1010.423738	0.038394
1010.594493	0.040281
1010.765231	0.040868
1010.935950	0.040214
1011.106651	0.040833
1011.277334	0.040534
1011.447998	0.039954
1011.618645	0.040057
1011.789273	0.038907
1011.959882	0.038812
1012.130474	0.036639
1012.301048	0.036129
1012.471603	0.035954
1012.642140	0.035597
1012.812658	0.035786
1012.983159	0.034780
1013.153641	0.034867
1013.324105	0.035967
1013.494551	0.035805
1013.664979	0.034955
1013.835388	0.034812
1014.005779	0.035995
1014.176152	0.036782
1014.346507	0.037835
1014.516843	0.039871
1014.687162	0.039885
1014.857462	0.040384
1015.027744	0.041834
1015.198007	0.042934
1015.368252	0.044398
1015.538480	0.044519
1015.708689	0.044012
1015.878879	0.043371
1016.049052	0.041948
1016.219206	0.042767
1016.389342	0.042855
1016.559460	0.043329
1016.729559	0.044240
1016.899641	0.042099
1017.069704	0.041707
1017.239749	0.041584
1017.409775	0.042868
1017.579784	0.041811
1017.749774	0.040703
1017.919746	0.040154
1018.089700	0.039127
1018.259635	0.039388
1018.429553	0.041012
1018.599452	0.040187
1018.769333	0.040553
1018.939195	0.038693
1019.109040	0.038813
1019.278866	0.039359
1019.448674	0.039579
1019.618464	0.038663
1019.788235	0.038635
1019.957989	0.036382
1020.127724	0.036021
1020.297441	0.035991
1020.467139	0.037702
1020.636820	0.036703
1020.806482	0.035630
1020.976126	0.033561
1021.145752	0.032404
1021.315359	0.032307
1021.484948	0.035066
1021.654519	0.035621
1021.824072	0.036727
1021.993607	0.036065
1022.163123	0.037713
1022.332621	0.037914
1022.502101	0.041051
1022.671563	0.041741
1022.841007	0.039847
1023.010432	0.038246
1023.179839	0.037403
1023.349228	0.036422
1023.518598	0.036061
1023.687951	0.034997
1023.857285	0.036270
1024.026601	0.034627
1024.195899	0.036581
1024.365178	0.037944
1024.534439	0.037744
1024.703682	0.038116
1024.872907	0.036355
1025.042114	0.037016
1025.211302	0.037801
1025.380472	0.035618
1025.549624	0.034863
1025.718758	0.033408
1025.887873	0.033038
1026.056970	0.033947
1026.226049	0.034200
1026.395110	0.035272
1026.564153	0.035032
1026.733177	0.034295
1026.902183	0.034673
1027.071171	0.035019
1027.240141	0.037279
1027.409092	0.038393
1027.578026	0.037643
1027.746940	0.036596
1027.915837	0.037160
1028.084716	0.036702
1028.253576	0.036578
1028.422418	0.037935
1028.591242	0.038451
1028.760048	0.038022
1028.928835	0.038307
1029.097604	0.037779
1029.266355	0.039947
1029.435088	0.039532
1029.603803	0.039844
1029.772499	0.039568
1029.941177	0.038831
1030.109837	0.038240
1030.278478	0.038375
1030.447102	0.038170
1030.615707	0.039834
1030.784294	0.038935
1030.952863	0.040875
1031.121413	0.039214
1031.289945	0.039576
1031.458460	0.038751
1031.626955	0.038733
1031.795433	0.037304
1031.963892	0.036668
1032.132334	0.036841
1032.300756	0.036638
1032.469161	0.034439
1032.637548	0.036026
1032.805916	0.036162
1032.974266	0.037126
1033.142598	0.037872
1033.310911	0.038635
1033.479207	0.038712
1033.647484	0.038865
1033.815743	0.037526
1033.983983	0.037982
1034.152206	0.039084
1034.320410	0.039305
1034.488596	0.038733
1034.656764	0.039309
1034.824914	0.039005
1034.993045	0.038122
1035.161158	0.035775
1035.329253	0.036676
1035.497330	0.036362
1035.665388	0.033837
1035.833428	0.035213
1036.001450	0.036507
1036.169454	0.035822
1036.337440	0.033799
1036.505407	0.032576
1036.673356	0.034745
1036.841287	0.036160
1037.009200	0.036794
1037.177094	0.038560
1037.344970	0.037245
1037.512828	0.036153
1037.680668	0.035809
1037.848489	0.037321
1038.016293	0.040651
1038.184078	0.040403
1038.351845	0.038479
1038.519593	0.038344
1038.687324	0.037860
1038.855036	0.038512
1039.022730	0.038690
1039.190406	0.039264
1039.358063	0.038989
1039.525702	0.038514
1039.693323	0.037049
1039.860926	0.037698
1040.028511	0.036839
1040.196077	0.038161
1040.363625	0.037469
1040.531155	0.037177
1040.698667	0.036270
1040.866161	0.036491
1041.033636	0.035237
1041.201093	0.034073
1041.368532	0.032820
1041.535952	0.034152
1041.703355	0.032720
1041.870739	0.032476
1042.038105	0.032281
1042.205452	0.033659
1042.372782	0.033881
1042.540093	0.033630
1042.707386	0.035649
1042.874661	0.036122
1043.041918	0.036304
1043.209156	0.038076
1043.376376	0.037709
1043.543578	0.037421
1043.710762	0.036189
1043.877927	0.036202
1044.045074	0.035902
1044.212203	0.034244
1044.379314	0.035447
1044.546407	0.034979
1044.713481	0.031632
1044.880537	0.032109
1045.047575	0.033250
1045.214595	0.034187
1045.381596	0.032902
1045.548579	0.033346
1045.715544	0.034422
1045.882491	0.032932
1046.049420	0.032686
1046.216330	0.032917
1046.383222	0.033217
1046.550096	0.030575
1046.716951	0.029965
1046.883789	0.031380
1047.050608	0.030270
1047.217409	0.029696
1047.384192	0.029458
1047.550956	0.029601
1047.717703	0.031459
1047.884431	0.032664
1048.051140	0.035167
1048.217832	0.035867
1048.384505	0.035333
1048.551161	0.037997
1048.717798	0.038745
1048.884416	0.039181
1049.051017	0.037298
1049.217599	0.036091
1049.384163	0.032818
1049.550709	0.031711
1049.717237	0.029892
1049.883746	0.031542
1050.050237	0.031172
1050.216710	0.031655
1050.383165	0.035307
1050.549601	0.036946
1050.716019	0.039632
1050.882420	0.041827
1051.048801	0.042477
1051.215165	0.043740
1051.381510	0.041049
1051.547837	0.039124
1051.714146	0.038253
1051.880437	0.034782
1052.046709	0.035338
1052.212964	0.034227
1052.379200	0.035382
1052.545417	0.035422
1052.711617	0.035884
1052.877798	0.037847
1053.043961	0.039087
1053.210106	0.040389
1053.376233	0.040760
1053.542341	0.039856
1053.708432	0.038897
1053.874504	0.037299
1054.040557	0.038093
1054.206593	0.036125
1054.372610	0.035219
1054.538609	0.034327
1054.704590	0.032217
1054.870553	0.032128
1055.036497	0.032138
1055.202424	0.032245
1055.368331	0.032984
1055.534221	0.031383
1055.700093	0.033985
1055.865946	0.034944
1056.031781	0.035562
1056.197598	0.036818
1056.363397	0.035925
1056.529177	0.035759
1056.694939	0.038081
1056.860683	0.037537
1057.026409	0.038457
1057.192116	0.036157
1057.357806	0.035126
1057.523477	0.034527
1057.689130	0.034362
1057.854764	0.034856
1058.020381	0.034300
1058.185979	0.031204
1058.351559	0.031650
1058.517120	0.030864
1058.682664	0.031636
1058.848189	0.031432
1059.013696	0.030002
1059.179185	0.029782
1059.344656	0.028611
1059.510108	0.028931
1059.675542	0.029640
1059.840958	0.028993
1060.006356	0.028768
1060.171735	0.027462
1060.337096	0.027983
1060.502439	0.028992
1060.667764	0.029235
1060.833071	0.031383
1060.998359	0.031059
1061.163629	0.030740
1061.328881	0.030168
1061.494115	0.029751
1061.659330	0.032295
1061.824527	0.032118
1061.989706	0.034252
1062.154867	0.034216
1062.320010	0.034261
1062.485134	0.035436
1062.650240	0.035429
1062.815328	0.036592
1062.980398	0.037485
1063.145449	0.038004
1063.310482	0.036436
1063.475497	0.036324
1063.640494	0.036742
1063.805473	0.037297
1063.970433	0.036501
1064.135375	0.038128
1064.300299	0.038459
1064.465204	0.037193
1064.630092	0.034383
1064.794961	0.036721
1064.959812	0.035103
1065.124645	0.032799
1065.289459	0.032268
1065.454256	0.033791
1065.619034	0.032424
1065.783793	0.032361
1065.948535	0.034895
1066.113258	0.035058
1066.277964	0.033462
1066.442651	0.034267
1066.607319	0.036257
1066.771970	0.037057
1066.936602	0.035361
1067.101216	0.035646
1067.265812	0.034977
1067.430389	0.033053
1067.594949	0.033684
1067.759490	0.034205
1067.924013	0.032875
1068.088518	0.031798
1068.253004	0.030445
1068.417472	0.031276
1068.581922	0.030701
1068.746354	0.031318
1068.910768	0.032100
1069.075163	0.031958
1069.239540	0.030714
1069.403899	0.030930
1069.568240	0.030912
1069.732562	0.029696
1069.896866	0.028606
1070.061152	0.028481
1070.225420	0.029460
1070.389670	0.030911
1070.553901	0.031580
1070.718114	0.031815
1070.882309	0.032833
1071.046486	0.035841
1071.210644	0.037284
1071.374784	0.038371
1071.538906	0.040013
1071.703010	0.038709
1071.867096	0.038320
1072.031163	0.039440
1072.195212	0.042689
1072.359243	0.044017
1072.523256	0.043197
1072.687250	0.044572
1072.851226	0.045925
1073.015184	0.045897
1073.179124	0.046100
1073.343045	0.045354
1073.506949	0.044577
1073.670834	0.040148
1073.834701	0.039760
1073.998549	0.039656
1074.162380	0.040431
1074.326192	0.038779
1074.489986	0.037391
1074.653761	0.037257
1074.817519	0.038951
1074.981258	0.038754
1075.144979	0.041870
1075.308682	0.037715
1075.472367	0.036410
1075.636033	0.036267
1075.799681	0.037308
1075.963311	0.036644
1076.126923	0.037476
1076.290516	0.038096
1076.454092	0.039870
1076.617649	0.039140
1076.781187	0.041484
1076.944708	0.042220
1077.108210	0.040461
1077.271695	0.041099
1077.435160	0.041395
1077.598608	0.039298
1077.762038	0.036381
1077.925449	0.032324
1078.088842	0.032671
1078.252217	0.031685
1078.415573	0.032212
1078.578912	0.031891
1078.742232	0.029417
1078.905534	0.031856
1079.068817	0.033858
1079.232083	0.036752
1079.395330	0.038367
1079.558559	0.037462
1079.721770	0.040716
1079.884962	0.039779
1080.048136	0.040785
1080.211293	0.041496
1080.374430	0.040002
1080.537550	0.039698
1080.700651	0.038196
1080.863735	0.037775
1081.026800	0.038392
1081.189846	0.036777
1081.352875	0.036886
1081.515885	0.034821
1081.678877	0.034130
1081.841851	0.032236
1082.004807	0.032198
1082.167744	0.032932
1082.330663	0.035078
1082.493564	0.034035
1082.656447	0.033536
1082.819312	0.034010
1082.982158	0.034637
1083.144986	0.035712
1083.307796	0.038040
1083.470587	0.037018
1083.633361	0.033552
1083.796116	0.034551
1083.958853	0.036027
1084.121571	0.038483
1084.284272	0.038725
1084.446954	0.039790
1084.609618	0.038241
1084.772264	0.038672
1084.934892	0.039339
1085.097501	0.041833
1085.260092	0.037239
1085.422665	0.038597
1085.585220	0.037292
1085.747756	0.036137
1085.910274	0.037419
1086.072774	0.039376
1086.235256	0.036558
1086.397720	0.038318
1086.560165	0.038142
1086.722592	0.042474
1086.885001	0.038110
1087.047392	0.038287
1087.209764	0.038155
1087.372119	0.037108
1087.534455	0.036248
1087.696772	0.038703
1087.859072	0.037635
1088.021353	0.038947
1088.183616	0.039870
1088.345861	0.044126
1088.508088	0.043686
1088.670296	0.044165
1088.832486	0.043258
1088.994658	0.044556
1089.156812	0.045264
1089.318948	0.043907
1089.481065	0.042465
1089.643164	0.038635
1089.805245	0.038717
1089.967308	0.037646
1090.129352	0.037814
1090.291378	0.037306
1090.453386	0.035460
1090.615376	0.033055
1090.777347	0.034173
1090.939301	0.032024
1091.101236	0.032998
1091.263153	0.030820
1091.425051	0.031295
1091.586932	0.033568
1091.748794	0.034201
1091.910638	0.035681
1092.072463	0.035452
1092.234271	0.035887
1092.396060	0.038468
1092.557831	0.039171
1092.719584	0.041787
1092.881319	0.042993
1093.043035	0.041973
1093.204733	0.041789
1093.366413	0.041133
1093.528075	0.045172
1093.689718	0.045051
1093.851343	0.043271
1094.012950	0.043744
1094.174539	0.044538
1094.336110	0.040852
1094.497662	0.039275
1094.659196	0.039667
1094.820712	0.041665
1094.982210	0.039405
1095.143689	0.038824
1095.305151	0.041745
1095.466594	0.041647
1095.628018	0.035191
1095.789425	0.039980
1095.950813	0.037466
1096.112183	0.037436
1096.273535	0.037604
1096.434869	0.036606
1096.596184	0.036711
1096.757482	0.035418
1096.918761	0.035859
1097.080021	0.039748
1097.241264	0.036612
1097.402488	0.041577
1097.563694	0.043850
1097.724882	0.042076
1097.886052	0.043255
1098.047203	0.041899
1098.208336	0.042134
1098.369451	0.043119
1098.530548	0.042481
1098.691627	0.042926
1098.852687	0.040687
1099.013729	0.040530
1099.174753	0.039055
1099.335758	0.037635
1099.496746	0.037943
1099.657715	0.034951
1099.818666	0.032923
1099.979599	0.032409
1100.140513	0.035205
1100.301409	0.034795
1100.462287	0.035903
1100.623147	0.033999
1100.783989	0.037197
1100.944812	0.037397
1101.105617	0.041299
1101.266404	0.040103
1101.427173	0.040443
1101.587923	0.040611
1101.748656	0.042278
1101.909370	0.042036
1102.070066	0.043713
1102.230743	0.041875
1102.391403	0.043859
1102.552044	0.045125
1102.712667	0.045376
1102.873271	0.046071
1103.033858	0.041667
1103.194426	0.040350
1103.354976	0.039830
1103.515508	0.043519
1103.676021	0.044942
1103.836517	0.041097
1103.996994	0.037715
1104.157453	0.040581
1104.317893	0.038946
1104.478316	0.037603
1104.638720	0.039243
1104.799106	0.032701
1104.959474	0.029480
1105.119823	0.027047
1105.280155	0.028830
1105.440468	0.028983
1105.600763	0.026885
1105.761039	0.028428
1105.921298	0.031782
1106.081538	0.031450
1106.241760	0.034724
1106.401964	0.035292
1106.562149	0.033625
1106.722316	0.034033
1106.882465	0.034962
1107.042596	0.035796
1107.202709	0.032637
1107.362803	0.034292
1107.522879	0.035041
1107.682937	0.032748
1107.842977	0.035391
1108.002999	0.036850
1108.163002	0.040476
1108.322987	0.038021
1108.482954	0.036070
1108.642902	0.041893
1108.802833	0.039200
1108.962745	0.037971
1109.122639	0.041121
1109.282515	0.036409
1109.442372	0.037300
1109.602211	0.031413
1109.762032	0.031079
1109.921835	0.031536
1110.081620	0.030565
1110.241386	0.029456
1110.401134	0.031541
1110.560864	0.032060
1110.720576	0.031445
1110.880269	0.029822
1111.039945	0.031510
1111.199602	0.031497
1111.359240	0.032168
1111.518861	0.026344
1111.678463	0.027220
1111.838047	0.022450
1111.997613	0.019273
1112.157161	0.024758
1112.316690	0.026723
1112.476202	0.025581
1112.635695	0.027506
1112.795169	0.027834
1112.954626	0.032438
1113.114064	0.032527
1113.273484	0.034872
1113.432886	0.036192
1113.592270	0.033083
1113.751635	0.034974
1113.910983	0.034490
1114.070312	0.033209
1114.229622	0.033554
1114.388915	0.036971
1114.548189	0.038787
1114.707445	0.036599
1114.866683	0.037043
1115.025903	0.040077
1115.185104	0.038783
1115.344287	0.041401
1115.503452	0.044656
1115.662599	0.045500
1115.821727	0.040682
1115.980838	0.041608
1116.139930	0.043650
1116.299004	0.041634
1116.458059	0.040815
1116.617097	0.042224
1116.776116	0.039842
1116.935117	0.036365
1117.094099	0.036692
1117.253064	0.033501
1117.412010	0.033826
1117.570938	0.032451
1117.729848	0.034792
1117.888740	0.032299
1118.047613	0.031975
1118.206468	0.031007
1118.365305	0.034150
1118.524124	0.029358
1118.682924	0.031778
1118.841707	0.031494
1119.000471	0.030833
1119.159216	0.029922
1119.317944	0.031796
1119.476653	0.030617
1119.635344	0.035065
1119.794017	0.033341
1119.952672	0.037826
1120.111308	0.038241
1120.269927	0.035116
1120.428527	0.037089
1120.587108	0.036888
1120.745672	0.035607
1120.904217	0.030002
1121.062744	0.028299
1121.221253	0.028319
1121.379744	0.029726
1121.538216	0.031979
1121.696671	0.033875
1121.855107	0.035378
1122.013524	0.032393
1122.171924	0.033395
1122.330305	0.038335
1122.488668	0.036175
1122.647013	0.036057
1122.805340	0.034109
1122.963648	0.031315
1123.121938	0.032008
1123.280210	0.029203
1123.438464	0.029078
1123.596700	0.027266
1123.754917	0.028611
1123.913116	0.032026
1124.071297	0.037219
1124.229459	0.034835
1124.387604	0.029963
1124.545730	0.025377
1124.703838	0.027711
1124.861928	0.033277
1125.019999	0.033383
1125.178052	0.025929
1125.336088	0.022122
1125.494104	0.022351
1125.652103	0.021119
1125.810083	0.026343
1125.968045	0.030996
1126.125989	0.026556
1126.283915	0.021679
1126.441823	0.024239
1126.599712	0.033870
1126.757583	0.036429
1126.915436	0.028993
1127.073270	0.035865
1127.231087	0.034175
1127.388885	0.031828
1127.546665	0.039784
1127.704426	0.041740
1127.862170	0.041084
1128.019895	0.037580
1128.177602	0.038642
1128.335291	0.043038
1128.492961	0.040988
1128.650614	0.044514
1128.808248	0.043244
1128.965864	0.032947
1129.123461	0.038578
1129.281041	0.039601
1129.438602	0.040273
1129.596145	0.038590
1129.753670	0.036949
1129.911176	0.033305
1130.068665	0.026626
1130.226135	0.031834
1130.383587	0.037254
1130.541020	0.034681
1130.698436	0.026768
1130.855833	0.024737
1131.013212	0.025704
1131.170573	0.021134
1131.327915	0.021755
1131.485239	0.025328
1131.642545	0.025539
1131.799833	0.023215
1131.957103	0.019814
1132.114354	0.028992
1132.271588	0.031723
1132.428803	0.032174
1132.585999	0.040230
1132.743178	0.046350
1132.900338	0.047923
1133.057480	0.043765
1133.214604	0.049825
1133.371710	0.052039
1133.528797	0.052113
1133.685866	0.055962
1133.842917	0.058207
1133.999950	0.054861
1134.156964	0.052207
1134.313960	0.062556
1134.470938	0.064082
1134.627898	0.065812
1134.784840	0.069707
1134.941763	0.063056
1135.098668	0.056642
1135.255555	0.051377
1135.412424	0.055631
1135.569274	0.050090
1135.726107	0.037055
1135.882921	0.031569
1136.039716	0.028382
1136.196494	0.024236
1136.353253	0.027676
1136.509995	0.029225
1136.666717	0.034976
1136.823422	0.038394
1136.980109	0.037582
1137.136777	0.040052
1137.293427	0.043880
1137.450059	0.038259
1137.606672	0.038065
1137.763267	0.040746
1137.919844	0.044182
1138.076403	0.043875
1138.232944	0.042616
1138.389466	0.046719
1138.545971	0.049187
1138.702457	0.045383
1138.858924	0.045646
1139.015374	0.045366
1139.171805	0.044519
1139.328218	0.037263
1139.484613	0.031034
1139.640990	0.025167
1139.797348	0.022608
1139.953688	0.022847
1140.110010	0.023656
1140.266314	0.026560
1140.422600	0.023638
1140.578867	0.026286
1140.735116	0.032235
1140.891347	0.032732
1141.047559	0.031394
1141.203754	0.039153
1141.359930	0.036799
1141.516088	0.046727
1141.672228	0.043768
1141.828349	0.052010
1141.984452	0.040796
1142.140537	0.032466
1142.296604	0.036985
1142.452653	0.038579
1142.608683	0.031145
1142.764695	0.032045
1142.920689	0.024018
1143.076665	0.030555
1143.232622	0.027428
1143.388562	0.037241
1143.544483	0.046400
1143.700385	0.046139
1143.856270	0.043722
1144.012136	0.042903
1144.167985	0.037318
1144.323814	0.038401
1144.479626	0.035040
1144.635420	0.030448
1144.791195	0.026326
1144.946952	0.026883
1145.102691	0.016823
1145.258411	0.013185
1145.414113	0.018575
1145.569798	0.021311
1145.725463	0.022627
1145.881111	0.023046
1146.036741	0.027174
1146.192352	0.025375
1146.347945	0.021725
1146.503519	0.033670
1146.659076	0.036393
1146.814614	0.040297
1146.970134	0.045446
1147.125636	0.049642
1147.281120	0.051119
1147.436585	0.053659
1147.592032	0.053974
1147.747461	0.049603
1147.902872	0.043968
1148.058265	0.047014
1148.213639	0.038167
1148.368995	0.038840
1148.524333	0.033850
1148.679653	0.031562
1148.834954	0.025777
1148.990237	0.024492
1149.145502	0.029643
1149.300749	0.029673
1149.455977	0.026354
1149.611188	0.028741
1149.766380	0.020812
1149.921553	0.024031
1150.076709	0.021852
1150.231846	0.023914
1150.386966	0.025731
1150.542066	0.023047
1150.697149	0.025512
1150.852214	0.029264
1151.007260	0.026613
1151.162288	0.042494
1151.317298	0.045399
1151.472289	0.046007
1151.627263	0.053704
1151.782218	0.048340
1151.937155	0.043565
1152.092073	0.043167
1152.246974	0.047761
1152.401856	0.045483
1152.556720	0.035725
1152.711566	0.027842
1152.866393	0.029175
1153.021203	0.021769
1153.175994	0.028709
1153.330767	0.034122
1153.485521	0.033769
1153.640258	0.027704
1153.794976	0.031748
1153.949676	0.029333
1154.104358	0.035983
1154.259021	0.038513
1154.413667	0.033034
1154.568294	0.032627
1154.722903	0.031185
1154.877493	0.037343
1155.032066	0.031354
1155.186620	0.035305
1155.341156	0.034364
1155.495674	0.027654
1155.650173	0.027163
1155.804654	0.032650
1155.959118	0.033785
1156.113562	0.038218
1156.267989	0.025011
1156.422397	0.035186
1156.576788	0.031333
1156.731160	0.035758
1156.885513	0.046917
1157.039849	0.050816
1157.194166	0.043931
1157.348465	0.044170
1157.502746	0.037403
1157.657009	0.045643
1157.811253	0.041128
1157.965479	0.030148
1158.119687	0.034731
1158.273877	0.027520
1158.428048	0.016707
1158.582201	0.018814
1158.736337	0.021106
1158.890453	0.025363
1159.044552	0.032135
1159.198632	0.031402
1159.352694	0.040880
1159.506738	0.034605
1159.660764	0.033558
1159.814771	0.037879
1159.968761	0.045198
1160.122732	0.037864
1160.276685	0.033695
1160.430619	0.018915
1160.584535	0.019832
1160.738434	0.025825
1160.892313	0.021239
1161.046175	0.019256
1161.200019	0.019267
1161.353844	0.016493
1161.507651	0.020768
1161.661440	0.022501
1161.815210	0.033566
1161.968962	0.036406
1162.122697	0.031659
1162.276412	0.034162
1162.430110	0.034754
1162.583789	0.027256
1162.737451	0.027113
1162.891094	0.025816
1163.044718	0.039624
1163.198325	0.039815
1163.351913	0.030882
1163.505483	0.029145
1163.659035	0.023666
1163.812569	0.026006
1163.966084	0.029553
1164.119581	0.027965
1164.273060	0.026567
1164.426521	0.026616
1164.579964	0.028479
1164.733388	0.035144
1164.886794	0.031539
1165.040182	0.029750
1165.193551	0.027082
1165.346903	0.035239
1165.500236	0.036770
1165.653551	0.034756
1165.806848	0.016387
1165.960126	0.015264
1166.113386	0.003834
1166.266628	0.012682
1166.419852	0.022311
1166.573058	0.026528
1166.726245	0.028616
1166.879414	0.024815
1167.032565	0.039550
1167.185698	0.047465
1167.338812	0.029834
1167.491909	0.038737
1167.644987	0.031483
1167.798046	0.038589
1167.951088	0.034804
1168.104111	0.018435
1168.257117	0.028092
1168.410103	0.026843
1168.563072	0.019575
1168.716023	0.028484
1168.868955	0.025837
1169.021869	0.030308
1169.174765	0.015263
1169.327642	0.020763
1169.480501	0.027249
1169.633343	0.030929
1169.786165	0.014805
1169.938970	0.021418
1170.091757	0.025420
1170.244525	0.040189
1170.397275	0.040936
1170.550007	0.048548
1170.702720	0.043486
1170.855415	0.045560
1171.008092	0.042181
1171.160751	0.055032
1171.313392	0.059744
1171.466014	-0.000302
1171.618619	0.090283
1171.771205	0.090283
1171.923772	0.090283
