sample name	sample
index	378
start time	 03-04-2021  01:57:27 PM
880	-0.014809
Peak Time (s)	91.037
Peak Height 	-0.01481
calc peak height	90,93
Baseline Time (s)	11.536
Baseline Value 	-0.001638
subtract baseline	10,4
Abs	-0.000580
Peak Time (s)	90.534
Peak Height 	-5.8025E-4
calc peak height	90,93
Baseline Time (s)	10.535
Baseline Value 	0.002989
subtract baseline	10,3
PK_550	-0.000740
Peak Time (s)	92.535
Peak Height 	-7.3963E-4
calc peak height	90,93
Baseline Time (s)	11.536
Baseline Value 	2.9321E-4
subtract baseline	10,2
PK_880	-0.006582
Peak Time (s)	92.535
Peak Height 	-0.006582
calc peak height	90,93
Baseline Time (s)	11.536
Baseline Value 	9.8722E-4
subtract baseline	10,1


Time (s)	A880-A510	A880-A775	A880-A975	A880	I510	I775	I975	I880	
0.034000	-0.001123	-0.001264	-0.007276	0.000460	6876.749432	47241.963078	3979.070498	25065.396858
0.535000	-0.002501	0.000708	-0.003712	0.004671	6825.722853	47014.009213	3977.404291	24851.273500
1.034500	-0.001959	0.000751	-0.003229	0.003337	6842.779935	47154.027107	3982.085644	24918.874723
1.535500	-0.000903	-0.000767	-0.000355	-0.000108	6883.998541	47350.842474	3998.522023	25094.442711
2.035500	-0.002811	-0.000325	0.001078	0.000978	6856.534705	47284.918263	3999.428792	25038.951534
2.536000	-0.002498	-0.000566	-0.000152	0.000244	6866.107049	47335.282498	3998.127879	25076.401013
3.036000	0.002517	0.000104	-0.001100	-0.001728	6930.658154	47606.358122	4000.814467	25177.440637
3.536500	-0.000783	-0.000367	-0.002892	-0.000044	6884.512587	47385.140590	3991.726732	25091.143858
4.037000	-0.000638	-0.000615	-0.001893	-0.000497	6890.015848	47406.106756	3995.513641	25114.306695
4.539500	-0.001386	0.000023	0.000245	-0.000019	6878.734071	47422.573201	3999.858707	25089.882427
5.034500	0.000087	-0.000222	-0.003531	0.000082	6891.365786	47387.152330	3989.737079	25084.703776
5.535000	0.000127	-0.000252	0.005478	-0.000196	6894.301488	47412.567771	4014.138407	25098.928033
6.035000	0.001966	0.000405	0.000035	0.000263	6907.058553	47432.826742	3998.569051	25075.448685
6.535000	0.000063	0.000064	-0.006926	0.000569	6886.665363	47366.604672	3979.690572	25059.830553
7.035500	-0.001423	0.000905	0.001670	0.000656	6872.188735	47443.773525	4001.826498	25055.348270
7.536000	-0.000685	0.000014	-0.004657	0.000158	6883.559547	47403.508086	3986.617565	25080.835468
8.036500	-0.000265	0.001146	0.001667	0.000593	6883.421055	47474.981329	4001.985261	25058.601435
8.537000	-0.001644	-0.000633	-0.000080	-0.000291	6878.861248	47383.199494	3999.719189	25103.775104
9.039500	-0.000518	-0.000162	-0.005848	-0.000198	6888.369411	47421.859488	3984.451350	25099.005073
9.537000	0.000050	0.000260	0.001000	0.000409	6888.009322	47402.975722	4000.716348	25067.974826
10.037500	0.001346	-0.000173	0.001529	-0.000296	6906.497816	47430.936476	4003.961626	25104.049982
10.535000	-0.001045	0.000501	0.000000	0.000326	6878.701955	47436.202572	3998.313909	25072.251931
11.035500	0.001074	0.000455	0.001784	0.000212	6899.282651	47443.226164	4003.296400	25078.076595
11.535500	0.000000	0.000000	-0.004312	0.000000	6891.321170	47418.258620	3987.920149	25088.895240
12.036000	-0.000029	-0.000154	-0.002109	-0.000317	6893.973811	47434.922656	3994.478319	25105.104189
12.536000	-0.000922	0.000148	-0.000198	0.000018	6882.658584	47431.565411	3998.599261	25087.955345
13.036500	0.000722	-0.000006	0.001212	-0.002059	6917.049930	47629.226365	4007.774149	25194.475901
13.536500	-0.001607	0.001639	0.006603	0.000589	6871.118944	47525.967725	4015.040753	25058.786488
14.036500	0.001743	0.000707	0.004600	0.000210	6905.485635	47469.197828	4010.732042	25078.146800
14.534500	-0.001600	-0.000042	-0.001186	0.001599	6861.923734	47250.343913	3991.890900	25007.252627
15.035000	-0.001138	-0.000220	-0.007194	-0.000625	6886.592337	47459.759663	3982.077692	25120.873776
15.589000	-0.001540	-0.000328	0.002043	-0.000406	6880.877953	47426.234843	4005.604319	25109.658096
16.038500	0.000831	0.000071	0.000938	-0.000988	6908.131161	47526.882563	4004.227441	25139.480056
16.536000	0.001128	-0.000264	0.001263	-0.000878	6909.868461	47481.226699	4004.794617	25133.860576
17.036000	-0.001543	0.000722	0.001316	-0.000542	6882.096662	47547.987012	4004.048177	25116.628284
17.536000	0.001650	-0.000245	-0.000184	-0.003762	6941.536364	47780.153633	4008.584160	25282.119837
18.036500	-0.003295	-0.000150	-0.008078	0.000535	6856.150554	47348.124840	3976.812619	25061.532789
18.540000	-0.003103	-0.000518	-0.001567	-0.000099	6863.719731	47375.396508	3995.327165	25093.976854
19.037000	-0.000860	0.000091	0.001215	0.000617	6877.717937	47364.392815	4000.733923	25057.344846
19.535000	-0.002259	-0.000092	-0.002664	0.000372	6867.132176	47370.722268	3991.235658	25069.866477
20.038000	-0.001601	0.000480	0.002413	0.001012	6867.288010	47363.704352	4002.843729	25037.172623
20.535000	-0.001303	0.000258	-0.001386	0.000990	6870.233841	47343.258575	3992.956433	25038.312769
21.035000	-0.000380	-0.000136	0.001753	0.000473	6883.463744	47355.935241	4002.527116	25064.729611
21.536000	-0.000661	0.000684	-0.004776	0.001147	6874.678576	47370.807504	3983.747359	25030.294691
22.036500	-0.002007	-0.000523	-0.003262	0.000427	6868.933163	47320.958000	3989.538122	25067.050749
22.536000	-0.000382	0.000260	0.003673	0.001097	6877.705930	47332.514840	4005.939264	25032.841345
23.037000	-0.000064	0.000238	0.001277	0.001362	6878.189293	47303.143431	3998.943675	25019.325218
23.536500	-0.001553	-0.000271	-0.003196	0.000657	6870.996954	47323.264267	3989.112271	25055.341656
24.037000	-0.000521	0.000472	-0.001336	0.001270	6874.837424	47336.553095	3992.356946	25024.048055
24.535000	-0.000537	-0.000366	-0.002288	0.000534	6881.458799	47326.143255	3991.793969	25061.599779
25.035000	-0.000581	0.000285	0.000410	0.000742	6879.137293	47371.451289	3998.295868	25050.970517
25.535000	-0.001722	0.000128	0.000851	0.001294	6863.612021	47298.922600	3998.007589	25022.833099
26.036000	-0.001707	0.000036	-0.005128	0.000838	6867.919252	47336.161924	3983.637586	25046.086839
26.535500	-0.001680	-0.000127	0.000759	0.000725	6869.200315	47331.078440	3999.255846	25051.848875
27.036000	-0.001944	0.000470	-0.002788	0.001192	6862.507545	47344.342330	3988.784090	25028.034914
27.536500	-0.002337	-0.000369	0.000542	0.000408	6866.087829	47338.672996	3999.517685	25068.034988
28.039500	0.000087	0.000051	0.001262	-0.002425	6914.554260	47672.721898	4008.870563	25213.257099
28.537000	-0.001229	0.000269	-0.000957	-0.000454	6884.179129	47492.474436	3997.848689	25112.134270
29.076000	-0.000593	0.000390	-0.004007	-0.000715	6892.452871	47531.712755	3990.571121	25125.517112
29.534500	0.000268	0.000445	-0.001978	-0.000853	6901.670413	47551.455274	3996.221093	25132.573788
30.035000	-0.003060	0.000036	-0.001381	0.004946	6818.166671	46917.936691	3982.705116	24837.384734
30.535500	-0.001611	-0.000080	0.000634	-0.000776	6883.631338	47489.692532	4002.868586	25128.641889
31.053500	-0.000302	-0.000206	0.000389	-0.000510	6893.239108	47449.364910	4001.525826	25114.990217
31.537000	-0.002653	0.000320	-0.002195	0.002030	6848.370106	47243.397500	3988.145838	24985.309833
32.036500	-0.004573	-0.000409	-0.002244	0.004054	6812.546657	46963.200870	3982.777689	24882.488624
32.537000	-0.000666	0.000925	0.002993	-0.000343	6888.339617	47548.352419	4007.943050	25106.425690
33.037000	-0.003475	0.000262	0.003885	-0.000444	6863.461622	47490.609310	4010.568856	25111.600491
33.537500	0.000296	0.000785	0.002443	-0.000282	6896.653627	47527.702204	4006.330929	25103.313760
34.034500	-0.001185	0.000371	-0.001539	0.003879	6844.891109	47060.281689	3985.054056	24891.400726
34.535000	0.000747	0.000295	0.003427	-0.001275	6910.015994	47579.446369	4011.560300	25154.226513
35.038000	-0.001104	0.000973	-0.001791	0.001883	6863.864399	47325.107932	3989.576440	24992.793383
35.535500	-0.003253	0.000240	0.001491	0.000992	6852.363248	47341.284208	4000.476371	25038.206857
36.036000	-0.002445	0.000425	0.002273	0.002811	6843.145509	47174.426393	3997.756647	24945.586738
36.536500	-0.002028	0.000067	0.005544	0.001467	6859.222772	47275.014384	4009.904766	25014.006150
37.035500	-0.000377	0.000898	0.002252	0.001742	6871.831661	47331.871659	4000.504395	24999.996396
37.539500	-0.001668	0.000184	0.003571	0.000896	6867.741876	47345.303841	4006.198761	25043.114242
38.037000	-0.001068	0.000921	0.000052	0.002118	6862.047601	47295.718579	3993.764103	24980.815094
38.536500	-0.000752	0.000738	-0.004410	0.001518	6870.438342	47338.348585	3983.733002	25011.373465
39.035000	-0.001138	-0.000556	-0.004720	0.000913	6872.445412	47267.946389	3984.497397	25042.236938
39.535000	-0.001447	-0.000277	-0.001424	0.001071	6868.168617	47280.297289	3992.644398	25034.175120
40.035500	0.000183	0.000915	-0.004435	0.001576	6878.493649	47350.635453	3983.520980	25008.443609
40.536000	-0.000821	0.000259	0.000927	0.001426	6870.652824	47298.794865	3997.859654	25016.068204
41.036000	-0.000396	0.000752	-0.001189	0.001623	6872.742604	47329.018507	3991.819446	25006.017455
41.536500	-0.000764	0.001070	-0.000837	0.001900	6866.823373	47333.285225	3992.014116	24991.915988
42.039500	-0.000569	0.000408	-0.004449	0.001145	6875.548115	47342.797659	3984.597546	25030.421513
42.537000	-0.000620	0.000543	0.001718	0.001584	6871.051106	47311.730370	3999.518356	25008.031597
43.038500	-0.002401	0.000267	-0.000171	0.001344	6856.930319	47308.035880	3995.201917	25020.261325
43.535000	-0.002330	-0.000283	-0.006846	0.000988	6860.835315	47288.199373	3978.816561	25038.417060
44.035000	-0.000445	0.000131	0.001310	0.001307	6875.194746	47297.887626	3999.174924	25022.129543
44.538500	0.001033	0.001081	0.002042	-0.000574	6906.173697	47588.216890	4006.044216	25118.290904
45.035500	0.002583	0.001356	0.003306	-0.000967	6924.194392	47656.946003	4010.422797	25138.403264
45.536000	0.000209	0.000900	0.002139	-0.000220	6895.281110	47533.223002	4005.366975	25100.173219
46.035500	0.001021	-0.000073	-0.000260	-0.000757	6907.745429	47488.392290	4000.468780	25127.621043
46.536500	-0.000435	0.000710	0.004687	-0.000075	6888.004134	47498.727716	4011.715758	25092.720685
47.037000	-0.001271	-0.000033	-0.003106	-0.000237	6881.797840	47439.176867	3991.670685	25101.020080
47.537000	-0.000484	0.000629	0.000336	0.000656	6880.815501	47415.457141	3998.328936	25055.357298
48.060500	-0.001862	0.001139	0.001474	0.003653	6840.784180	47161.409057	3993.469282	24902.854140
48.535000	-0.003862	0.000152	-0.002266	0.001477	6842.386249	47282.685844	3989.397245	25013.484011
49.035000	-0.001894	0.000494	0.002233	0.002389	6852.014177	47224.526112	3998.758161	24967.052845
49.538000	-0.001527	0.000498	-0.004535	0.000739	6870.480784	47393.560737	3985.426940	25051.125675
50.035500	-0.003818	0.000949	0.000898	0.005870	6802.972781	46916.846784	3986.209823	24790.712867
50.536000	0.001105	0.000281	-0.002042	-0.000249	6903.830995	47472.682882	3994.478164	25101.658632
51.036500	-0.000674	-0.000236	-0.001711	-0.002062	6904.136043	47605.715014	4000.085154	25194.583738
51.539000	0.000947	0.000695	0.001648	0.000309	6897.205816	47457.858007	4002.682264	25073.094728
52.036500	-0.008108	-0.001804	-0.004248	0.009454	6732.593307	46279.358281	3963.812350	24610.580653
52.534000	-0.014014	-0.016864	0.006182	0.206785	5295.088734	29504.789775	3578.069674	16674.296802
53.037500	-0.012869	-0.016162	0.007042	0.096353	6000.737578	37260.091674	3787.569806	20669.197236
53.534500	-0.006514	-0.094495	0.003529	-0.242774	9786.625727	65530.639989	4867.968373	41724.646669
54.035500	-0.105735	-0.293665	-0.085757	-0.441974	11572.911381	65535.000000	5446.015211	64333.357653
54.535500	-0.096813	-0.302075	-0.077274	-0.450384	11926.583948	65535.000000	5548.553902	65535.000000
55.035500	-0.001353	-0.150406	0.022176	-0.298716	10829.095052	65535.000000	5244.061767	47065.238282
55.536000	-0.014665	-0.086128	0.007388	-0.233822	9520.171133	65446.405559	4844.567442	40932.069921
56.036000	-0.020587	-0.078776	-0.007635	-0.226256	9317.294248	65415.489480	4744.021107	40274.798789
56.536000	-0.003060	-0.088752	-0.000484	-0.237061	9750.815667	65535.000000	4823.515139	41216.901430
57.036500	-0.001177	-0.081640	-0.002610	-0.229949	9668.662999	65535.000000	4782.209201	40594.180912
57.537000	0.002294	-0.065373	-0.000017	-0.213535	9469.503457	65513.734125	4722.021995	39195.211736
58.034500	0.000728	-0.051673	-0.001355	-0.194600	9165.970735	64763.618012	4637.136232	37645.788045
58.535000	0.002350	-0.036969	-0.001032	-0.172728	8879.871588	63751.067085	4551.148495	35938.056329
59.035500	0.002679	-0.020479	-0.002988	-0.140092	8450.196766	61530.861438	4421.738198	33544.691172
59.535500	0.002107	-0.013624	-0.001435	-0.112023	8095.086956	58736.125883	4329.281922	31625.196409
60.035500	-0.001644	-0.013433	-0.003984	-0.105081	7968.414555	57875.141615	4297.539386	31169.334872
60.536500	-0.000252	-0.009950	0.000846	-0.081010	7709.831271	55330.294653	4235.277922	29643.867575
61.039500	-0.001014	-0.007208	-0.003222	-0.054844	7419.825940	52577.973879	4142.845693	28078.771066
61.537000	-0.003876	-0.007990	-0.001581	-0.045015	7289.262624	51379.178469	4118.902975	27514.813016
62.037500	-0.007903	-0.008188	-0.002972	-0.031821	7118.079976	49907.316406	4077.352326	26777.515653
62.537000	-0.007667	-0.007784	-0.003886	-0.028686	7089.924916	49612.687464	4066.063502	26605.601134
63.035000	-0.008989	-0.005615	-0.001244	-0.032703	7116.099290	50282.730321	4084.685943	26826.118640
63.535500	-0.008850	-0.004958	-0.005763	-0.038288	7172.220523	50968.496960	4087.694548	27136.097885
64.035500	-0.012326	-0.004866	-0.007088	-0.039547	7150.386582	51118.175733	4087.507693	27206.509383
64.535000	-0.009514	-0.004314	-0.005716	-0.040283	7185.377005	51261.386863	4093.476826	27247.809244
65.057000	-0.008160	-0.003718	-0.001452	-0.043640	7232.261476	51703.544410	4115.299083	27436.910360
65.536500	-0.008934	-0.004822	-0.002537	-0.047345	7261.688952	51996.521087	4122.886413	27647.308921
66.043000	-0.007427	-0.004838	0.000405	-0.049334	7297.056165	52220.132301	4137.300691	27761.045940
66.537000	-0.006701	-0.005129	-0.005109	-0.050305	7314.322591	52297.418012	4124.016566	27816.733268
67.037500	-0.008534	-0.005409	-0.004455	-0.050488	7297.534636	52286.348493	4126.453193	27827.265310
67.535000	-0.009818	-0.005693	-0.004908	-0.051680	7296.600866	52389.725127	4128.609200	27895.816204
68.035000	-0.006516	-0.004394	-0.005806	-0.047594	7288.642004	52073.127839	4114.141216	27661.506913
68.535500	-0.005980	-0.005210	-0.003214	-0.050743	7326.155569	52337.982208	4130.821393	27841.915480
69.038500	-0.005586	-0.005318	0.000745	-0.049077	7313.171127	52136.586919	4137.546589	27746.340299
69.536000	-0.007108	-0.004689	-0.000942	-0.048203	7288.812216	52108.703180	4130.036119	27696.315917
70.036500	-0.008823	-0.004936	-0.007059	-0.044173	7230.957636	51626.574027	4100.727197	27467.059210
70.539000	-0.006050	-0.004844	0.000475	-0.045818	7275.384580	51821.892587	4127.212716	27560.396870
71.036500	-0.007113	-0.004538	-0.002418	-0.043109	7237.431428	51552.026842	4110.982489	27406.904090
71.534000	-0.007486	-0.005039	-0.002550	-0.042703	7229.627907	51450.452803	4109.432286	27383.948721
72.037500	-0.010029	-0.005461	-0.006682	-0.039976	7177.234591	51099.730380	4089.867081	27230.552527
72.535000	-0.008531	-0.004962	-0.006161	-0.039309	7185.460012	51081.196091	4089.454157	27193.200420
73.035500	-0.004983	-0.004730	-0.008554	-0.036805	7195.807426	50829.742045	4075.678821	27053.381422
73.535500	-0.006986	-0.003975	-0.001591	-0.035618	7164.273074	50782.211625	4091.944800	26987.425582
74.036000	-0.011213	-0.004584	-0.007130	-0.033458	7101.813182	50477.905728	4070.310604	26867.771826
74.536000	-0.010441	-0.004534	-0.008396	-0.033314	7107.919079	50467.678647	4066.392732	26859.848318
75.039000	-0.007522	-0.003880	-0.008324	-0.031419	7117.878736	50331.854411	4061.341575	26755.395291
75.536500	-0.010503	-0.004167	-0.006236	-0.030336	7078.472580	50182.582684	4064.122460	26695.955611
76.037000	-0.009479	-0.004483	-0.006905	-0.028449	7070.140932	49943.363046	4057.061044	26592.651428
76.534000	-0.007795	-0.004313	-0.001754	-0.028753	7089.336807	49994.711937	4072.181551	26609.256894
77.037500	-0.007825	-0.003587	-0.006197	-0.027056	7072.653747	49889.599982	4055.176343	26516.710080
77.534500	-0.007670	-0.003637	-0.007587	-0.026979	7073.409400	49875.838793	4051.150215	26512.544217
78.035500	-0.009963	-0.003268	-0.003058	-0.023844	7021.397764	49577.659228	4054.973186	26342.502850
78.535500	-0.009371	-0.004067	-0.003768	-0.025674	7044.522847	49688.580301	4058.056999	26441.594244
79.036000	-0.008083	-0.003869	-0.006997	-0.024768	7048.190980	49612.418224	4046.715362	26392.523596
79.536500	-0.008568	-0.003232	-0.000024	-0.024374	7039.767333	49638.501620	4064.813524	26371.167341
80.036500	-0.010451	-0.002934	-0.008253	-0.023628	7014.708650	49590.388940	4040.188676	26330.858066
80.537000	-0.007716	-0.003486	-0.004916	-0.023785	7042.291611	49547.921038	4049.716308	26339.342550
81.036500	-0.006787	-0.003470	-0.004546	-0.023426	7047.743487	49511.077646	4049.745537	26319.921893
81.534500	-0.004951	-0.002722	-0.002252	-0.022461	7056.106362	49487.900759	4053.390965	26267.924368
82.035000	-0.008040	-0.004060	-0.009100	-0.023174	7033.343147	49420.749824	4036.659388	26306.321088
82.535500	-0.008354	-0.003237	-0.005121	-0.022463	7023.573070	49432.808505	4045.542244	26268.014431
83.036000	-0.007957	-0.003435	-0.002989	-0.022134	7024.223928	49376.470594	4050.472973	26250.315501
83.536000	-0.008495	-0.002745	-0.001679	-0.021252	7010.717139	49355.883166	4051.644663	26202.898928
84.036500	-0.007002	-0.001891	-0.004977	-0.018801	7001.628257	49185.426406	4035.986209	26071.626945
84.539000	-0.007812	-0.002668	-0.005391	-0.020480	7009.863757	49281.637393	4039.411509	26161.452783
85.037000	-0.008393	-0.002382	-0.005094	-0.018643	6986.972277	49116.285668	4035.238495	26063.154588
85.537000	-0.008465	-0.002397	-0.002988	-0.019418	6993.614453	49197.237471	4043.057608	26104.592515
86.037000	-0.009362	-0.002079	-0.003133	-0.018293	6974.538146	49111.336859	4039.605198	26044.494073
86.537500	-0.008424	-0.001732	-0.006894	-0.018546	6985.760090	49175.187422	4030.121512	26057.986737
87.035000	-0.008949	-0.002189	-0.004023	-0.017247	6968.582847	48988.458364	4034.361849	25988.763479
87.535500	-0.009394	-0.002631	-0.001594	-0.018539	6976.552529	49078.768517	4044.461839	26057.636086
88.036000	-0.008272	-0.001632	-0.004211	-0.017264	6975.107332	49049.399690	4033.897749	25989.642678
88.536000	-0.009082	-0.002502	-0.003150	-0.018163	6975.951376	49052.517266	4039.205786	26037.569361
89.036000	-0.008956	-0.001579	-0.005559	-0.016207	6958.753826	48942.879826	4027.421016	25933.480733
89.536500	-0.008526	-0.001615	-0.005673	-0.017074	6970.935726	49031.049845	4029.446818	25979.569817
90.037000	-0.007168	-0.000960	-0.005705	-0.015711	6970.888196	48955.912049	4025.698004	25907.159941
90.534000	-0.009389	-0.001778	-0.000580	-0.017103	6963.095791	49016.801994	4043.309824	25981.095717
91.037000	-0.009345	-0.001133	-0.006504	-0.014809	6942.033166	48842.116053	4021.145116	25859.400476
91.535000	-0.009314	-0.002357	-0.005875	-0.017232	6965.013135	48969.114360	4029.327578	25987.954073
92.035500	-0.007148	-0.001299	-0.006222	-0.015784	6971.765541	48927.716955	4024.509255	25911.042508
92.535000	-0.006582	-0.000740	-0.002170	-0.015718	6976.465273	48980.084708	4035.238719	25907.549002
93.035500	-0.007314	-0.000444	-0.005035	-0.013686	6950.518129	48796.193513	4022.068429	25800.011303
93.536500	-0.009397	-0.001563	0.000783	-0.015790	6950.713786	48900.476800	4043.448155	25911.363648
94.039000	-0.007240	-0.000755	0.000041	-0.014659	6960.321704	48866.203165	4038.354910	25851.419090
94.536500	-0.008612	-0.001274	-0.002042	-0.015762	6957.807901	48928.045430	4035.704385	25909.870506
95.037000	-0.006201	0.000134	-0.006130	-0.014841	6971.801807	48979.651496	4022.230634	25861.076089
95.534000	-0.004596	-0.000572	-0.003678	-0.014764	6986.193452	48896.694637	4028.598128	25856.993186
96.043000	-0.007172	-0.000444	-0.004701	-0.014122	6955.933245	48842.347042	4024.131189	25823.056728
96.535000	-0.005259	-0.000571	-0.001829	-0.014384	6976.369816	48856.630360	4032.557984	25836.924262
97.034500	-0.007834	-0.000474	-0.006604	-0.012717	6936.606092	48690.706024	4015.302436	25748.911353
97.536000	-0.006632	-0.001660	-0.009172	-0.015097	6970.152454	48816.802767	4014.801980	25874.601541
98.045000	-0.009014	-0.000779	-0.000807	-0.014657	6943.698379	48863.491537	4036.054359	25851.323649
98.536500	-0.006899	-0.000629	-0.005506	-0.014605	6963.019850	48873.880686	4023.269795	25848.591692
