sample name	sample
index	645
start time	 03-19-2021  03:54:51 PM


Wavelength (nm)	Absorbance
494.344910	-0.917118
494.563924	-0.917118
494.782919	-0.917118
495.001897	NaN
495.220856	-0.191208
495.439797	NaN
495.658719	NaN
495.877624	NaN
496.096510	NaN
496.315378	NaN
496.534227	NaN
496.753059	NaN
496.971872	NaN
497.190667	0.023642
497.409444	0.009047
497.628203	0.011542
497.846943	0.009203
498.065665	0.007392
498.284369	0.007193
498.503055	0.007546
498.721723	0.007619
498.940372	0.007070
499.159003	0.005751
499.377616	0.005161
499.596210	0.003610
499.814787	0.003831
500.033345	0.003626
500.251885	0.004123
500.470406	0.002745
500.688910	0.002941
500.907395	0.002681
501.125862	0.003648
501.344311	0.003627
501.562742	0.003831
501.781154	0.003279
501.999548	0.004191
502.217924	0.003693
502.436282	0.004755
502.654621	0.004585
502.872942	0.004431
503.091245	0.004185
503.309530	0.004504
503.527797	0.004834
503.746045	0.004958
503.964275	0.004054
504.182487	0.004298
504.400681	0.003283
504.618856	0.002638
504.837013	0.003399
505.055152	0.003983
505.273273	0.003624
505.491376	0.002997
505.709460	0.003609
505.927526	0.003819
506.145574	0.002914
506.363604	0.003378
506.581615	0.004406
506.799608	0.003793
507.017583	0.002683
507.235540	0.002958
507.453478	0.003773
507.671399	0.002899
507.889301	0.002628
508.107185	0.003049
508.325050	0.002546
508.542898	0.002368
508.760727	0.002346
508.978538	0.002872
509.196330	0.003131
509.414105	0.002362
509.631861	0.002095
509.849599	0.002280
510.067319	0.002607
510.285021	0.002419
510.502704	0.002311
510.720369	0.002982
510.938016	0.002735
511.155645	0.002602
511.373255	0.002713
511.590848	0.002824
511.808422	0.002635
512.025977	0.002229
512.243515	0.002811
512.461034	0.002716
512.678536	0.002148
512.896018	0.002438
513.113483	0.001983
513.330930	0.001759
513.548358	0.002610
513.765768	0.002549
513.983160	0.002440
514.200533	0.001978
514.417889	0.001543
514.635226	0.001714
514.852545	0.001451
515.069845	0.001877
515.287128	0.002578
515.504392	0.002107
515.721638	0.001659
515.938866	0.002058
516.156075	0.002552
516.373267	0.003223
516.590440	0.003122
516.807594	0.003614
517.024731	0.003756
517.241850	0.003624
517.458950	0.003540
517.676032	0.004399
517.893095	0.004094
518.110141	0.004242
518.327168	0.003643
518.544177	0.003930
518.761168	0.004148
518.978141	0.003786
519.195095	0.003223
519.412031	0.003191
519.628949	0.002713
519.845849	0.002706
520.062731	0.002276
520.279594	0.002323
520.496439	0.001600
520.713266	0.001200
520.930074	0.001179
521.146865	0.001676
521.363637	0.001669
521.580391	0.001638
521.797127	0.001480
522.013844	0.002144
522.230543	0.002828
522.447224	0.003398
522.663887	0.003214
522.880532	0.003780
523.097158	0.003017
523.313766	0.003188
523.530356	0.002647
523.746928	0.002974
523.963481	0.002375
524.180017	0.001688
524.396534	0.001869
524.613032	0.001549
524.829513	0.001274
525.045975	0.001794
525.262420	0.001730
525.478845	0.002070
525.695253	0.002176
525.911643	0.002150
526.128014	0.002112
526.344367	0.001055
526.560702	0.001473
526.777018	0.001747
526.993316	0.001699
527.209597	0.001563
527.425858	0.001784
527.642102	0.001008
527.858328	0.001219
528.074535	0.001430
528.290724	0.002344
528.506894	0.002162
528.723047	0.001355
528.939181	0.001040
529.155297	0.000749
529.371395	0.000903
529.587475	0.001729
529.803536	0.001891
530.019579	0.002102
530.235604	0.001689
530.451611	0.001954
530.667600	0.002638
530.883570	0.003026
531.099522	0.003876
531.315456	0.003817
531.531372	0.003716
531.747269	0.003520
531.963148	0.003047
532.179009	0.003260
532.394852	0.002600
532.610676	0.002296
532.826482	0.002160
533.042271	0.001804
533.258040	0.002269
533.473792	0.001924
533.689525	0.001815
533.905240	0.002124
534.120937	0.002306
534.336616	0.002932
534.552277	0.002975
534.767919	0.003004
534.983543	0.002765
535.199149	0.002557
535.414736	0.002865
535.630306	0.002863
535.845857	0.002634
536.061390	0.002489
536.276904	0.002357
536.492401	0.002500
536.707879	0.002975
536.923339	0.003195
537.138781	0.003254
537.354204	0.003679
537.569610	0.003878
537.784997	0.003939
538.000366	0.004001
538.215716	0.004219
538.431049	0.004211
538.646363	0.003902
538.861659	0.004003
539.076937	0.003705
539.292196	0.003178
539.507438	0.003338
539.722661	0.003504
539.937866	0.003586
540.153052	0.003100
540.368221	0.003182
540.583371	0.002979
540.798503	0.003271
541.013617	0.003378
541.228712	0.003713
541.443789	0.003260
541.658848	0.003378
541.873889	0.003692
542.088912	0.003937
542.303916	0.003792
542.518902	0.003840
542.733870	0.003190
542.948820	0.003302
543.163752	0.002938
543.378665	0.002961
543.593560	0.002502
543.808437	0.001947
544.023295	0.001912
544.238136	0.002198
544.452958	0.002143
544.667762	0.002481
544.882548	0.002333
545.097315	0.002393
545.312064	0.002733
545.526795	0.002947
545.741508	0.003116
545.956203	0.003367
546.170879	0.003013
546.385537	0.003283
546.600177	0.003396
546.814799	0.003545
547.029402	0.003375
547.243988	0.003274
547.458555	0.003418
547.673103	0.003157
547.887634	0.003069
548.102146	0.003102
548.316640	0.002958
548.531116	0.002410
548.745574	0.002021
548.960013	0.002472
549.174435	0.002287
549.388838	0.002316
549.603222	0.002687
549.817589	0.002532
550.031937	0.002414
550.246267	0.001967
550.460579	0.002330
550.674873	0.002675
550.889148	0.002584
551.103405	0.002852
551.317644	0.002756
551.531865	0.002483
551.746068	0.002384
551.960252	0.002548
552.174418	0.002954
552.388566	0.002721
552.602696	0.002330
552.816807	0.002185
553.030900	0.001830
553.244975	0.001962
553.459032	0.002359
553.673070	0.002508
553.887091	0.002549
554.101093	0.002451
554.315077	0.002527
554.529042	0.002722
554.742990	0.002557
554.956919	0.002817
555.170830	0.003004
555.384722	0.002636
555.598597	0.002676
555.812453	0.002680
556.026291	0.002938
556.240111	0.003161
556.453913	0.003578
556.667696	0.003786
556.881461	0.003450
557.095208	0.003165
557.308937	0.003234
557.522647	0.003466
557.736339	0.003429
557.950013	0.003182
558.163669	0.003107
558.377307	0.002986
558.590926	0.002902
558.804527	0.003184
559.018110	0.003029
559.231675	0.002988
559.445221	0.002670
559.658749	0.002698
559.872259	0.002810
560.085751	0.002859
560.299225	0.002852
560.512680	0.002796
560.726117	0.003044
560.939536	0.003307
561.152937	0.003321
561.366319	0.003583
561.579683	0.003423
561.793029	0.003479
562.006357	0.003388
562.219667	0.002977
562.432958	0.003209
562.646231	0.002898
562.859486	0.002523
563.072723	0.002895
563.285941	0.002632
563.499141	0.002597
563.712323	0.002796
563.925487	0.002863
564.138632	0.002953
564.351760	0.002890
564.564869	0.003264
564.777960	0.003546
564.991032	0.003618
565.204087	0.003669
565.417123	0.003842
565.630141	0.003882
565.843140	0.004109
566.056122	0.004488
566.269085	0.004547
566.482030	0.004191
566.694957	0.004165
566.907866	0.003749
567.120756	0.003814
567.333628	0.003684
567.546482	0.003385
567.759318	0.003282
567.972135	0.003185
568.184935	0.003114
568.397716	0.003103
568.610478	0.003446
568.823223	0.003727
569.035949	0.003661
569.248657	0.004158
569.461347	0.004352
569.674019	0.004550
569.886672	0.004504
570.099308	0.004603
570.311925	0.004608
570.524523	0.004454
570.737104	0.004098
570.949666	0.004143
571.162210	0.003930
571.374736	0.003425
571.587244	0.003169
571.799733	0.003364
572.012205	0.003146
572.224658	0.003452
572.437092	0.003271
572.649509	0.003296
572.861907	0.003428
573.074287	0.003205
573.286649	0.003489
573.498993	0.003541
573.711318	0.003261
573.923625	0.003344
574.135914	0.003148
574.348185	0.003311
574.560438	0.003618
574.772672	0.003793
574.984888	0.003964
575.197086	0.003793
575.409266	0.003762
575.621427	0.004011
575.833570	0.003972
576.045695	0.004189
576.257802	0.003905
576.469890	0.003872
576.681961	0.003693
576.894013	0.003841
577.106046	0.004511
577.318062	0.004600
577.530059	0.004486
577.742039	0.004234
577.954000	0.004014
578.165942	0.004222
578.377867	0.004336
578.589773	0.004404
578.801661	0.004343
579.013531	0.004154
579.225382	0.003943
579.437216	0.004041
579.649031	0.004593
579.860828	0.004675
580.072606	0.004818
580.284367	0.004650
580.496109	0.004634
580.707833	0.004614
580.919539	0.004524
581.131227	0.004675
581.342896	0.004593
581.554547	0.004612
581.766180	0.004555
581.977795	0.004414
582.189391	0.004597
582.400969	0.004898
582.612529	0.004803
582.824071	0.004750
583.035595	0.004780
583.247100	0.004509
583.458587	0.004395
583.670056	0.004329
583.881506	0.004233
584.092939	0.004240
584.304353	0.004019
584.515749	0.004121
584.727127	0.004204
584.938486	0.004454
585.149828	0.004611
585.361151	0.004699
585.572456	0.005014
585.783742	0.005007
585.995011	0.004784
586.206261	0.004792
586.417493	0.004623
586.628706	0.004401
586.839902	0.004086
587.051079	0.004481
587.262238	0.004488
587.473379	0.004701
587.684502	0.004833
587.895606	0.004859
588.106692	0.004726
588.317760	0.005066
588.528810	0.005291
588.739841	0.005274
588.950855	0.005029
589.161850	0.005100
589.372827	0.004714
589.583785	0.004971
589.794726	0.005111
590.005648	0.005169
590.216552	0.005050
590.427437	0.005041
590.638305	0.004979
590.849154	0.005266
591.059985	0.005059
591.270798	0.005320
591.481592	0.005078
591.692369	0.005237
591.903127	0.005498
592.113867	0.005720
592.324588	0.005772
592.535292	0.005932
592.745977	0.005759
592.956644	0.005967
593.167293	0.005901
593.377923	0.005808
593.588536	0.005674
593.799130	0.005438
594.009706	0.005333
594.220263	0.005332
594.430803	0.005337
594.641324	0.005455
594.851827	0.005169
595.062312	0.004814
595.272778	0.004768
595.483227	0.004739
595.693657	0.004778
595.904069	0.004692
596.114462	0.004639
596.324838	0.004712
596.535195	0.004646
596.745534	0.004716
596.955855	0.004998
597.166157	0.005063
597.376441	0.005148
597.586707	0.005276
597.796955	0.005385
598.007185	0.005530
598.217396	0.005581
598.427589	0.005578
598.637764	0.005721
598.847921	0.005751
599.058060	0.005708
599.268180	0.005752
599.478282	0.005644
599.688366	0.005667
599.898431	0.005585
600.108479	0.005535
600.318508	0.005436
600.528519	0.005582
600.738511	0.005643
600.948486	0.005728
601.158442	0.005523
601.368380	0.005437
601.578300	0.005321
601.788202	0.005329
601.998085	0.005388
602.207950	0.005450
602.417797	0.005394
602.627626	0.005472
602.837436	0.005650
603.047228	0.005575
603.257002	0.005753
603.466758	0.006029
603.676496	0.006083
603.886215	0.006127
604.095916	0.006049
604.305599	0.005801
604.515264	0.005677
604.724910	0.005824
604.934538	0.005862
605.144148	0.005808
605.353740	0.005614
605.563314	0.005754
605.772869	0.005643
605.982406	0.006027
606.191925	0.006261
606.401425	0.006333
606.610908	0.005991
606.820372	0.006310
607.029818	0.006403
607.239246	0.006100
607.448655	0.005966
607.658047	0.005878
607.867420	0.005587
608.076775	0.005631
608.286111	0.005551
608.495430	0.005764
608.704730	0.005597
608.914012	0.005435
609.123275	0.005580
609.332521	0.005554
609.541748	0.005705
609.750957	0.005661
609.960148	0.005519
610.169321	0.005551
610.378475	0.005403
610.587611	0.005419
610.796729	0.005589
611.005829	0.005873
611.214910	0.005866
611.423974	0.005629
611.633019	0.005761
611.842045	0.005744
612.051054	0.005675
612.260044	0.005962
612.469017	0.006242
612.677970	0.006242
612.886906	0.006116
613.095824	0.006244
613.304723	0.006421
613.513604	0.006266
613.722467	0.006671
613.931311	0.006965
614.140138	0.006795
614.348946	0.006622
614.557736	0.006472
614.766507	0.006456
614.975261	0.006428
615.183996	0.006640
615.392713	0.006635
615.601412	0.006318
615.810092	0.006089
616.018754	0.006183
616.227399	0.006181
616.436024	0.006305
616.644632	0.006423
616.853222	0.006260
617.061793	0.006100
617.270346	0.006095
617.478880	0.006171
617.687397	0.006034
617.895895	0.005737
618.104375	0.005680
618.312837	0.005688
618.521281	0.005619
618.729706	0.005733
618.938113	0.005934
619.146502	0.006123
619.354873	0.005961
619.563226	0.006231
619.771560	0.006639
619.979876	0.006791
620.188174	0.006926
620.396453	0.007041
620.604715	0.007256
620.812958	0.007214
621.021183	0.007167
621.229390	0.007238
621.437578	0.007157
621.645748	0.006959
621.853900	0.006839
622.062034	0.006741
622.270150	0.006788
622.478247	0.006758
622.686326	0.006642
622.894387	0.006748
623.102430	0.006901
623.310454	0.007039
623.518461	0.007144
623.726449	0.007114
623.934418	0.007170
624.142370	0.007027
624.350303	0.006851
624.558218	0.006800
624.766115	0.006682
624.973994	0.006775
625.181855	0.006600
625.389697	0.006610
625.597521	0.006870
625.805327	0.006745
626.013114	0.006837
626.220883	0.006712
626.428634	0.006725
626.636367	0.006804
626.844082	0.006744
627.051778	0.006749
627.259457	0.006959
627.467117	0.006881
627.674758	0.006939
627.882382	0.006975
628.089987	0.007089
628.297574	0.007226
628.505143	0.007211
628.712694	0.007224
628.920226	0.007354
629.127740	0.007199
629.335236	0.007092
629.542714	0.007207
629.750174	0.007269
629.957615	0.007301
630.165038	0.007380
630.372443	0.007355
630.579829	0.007358
630.787198	0.007480
630.994548	0.007268
631.201880	0.007350
631.409194	0.007358
631.616489	0.007330
631.823766	0.007385
632.031025	0.007521
632.238266	0.007475
632.445489	0.007431
632.652693	0.007337
632.859879	0.007626
633.067047	0.007439
633.274197	0.007261
633.481329	0.006941
633.688442	0.006928
633.895537	0.006729
634.102614	0.006707
634.309672	0.006697
634.516713	0.006708
634.723735	0.006615
634.930739	0.006809
635.137724	0.007029
635.344692	0.007269
635.551641	0.007373
635.758572	0.007442
635.965485	0.007504
636.172379	0.007615
636.379256	0.007577
636.586114	0.007609
636.792954	0.007600
636.999775	0.007551
637.206579	0.007536
637.413364	0.007511
637.620131	0.007689
637.826880	0.007762
638.033610	0.007668
638.240323	0.007847
638.447017	0.007848
638.653692	0.007863
638.860350	0.007724
639.066990	0.007916
639.273611	0.007957
639.480214	0.007780
639.686798	0.007783
639.893365	0.007862
640.099913	0.007912
640.306443	0.007935
640.512955	0.008000
640.719449	0.008130
640.925924	0.007920
641.132381	0.007857
641.338820	0.007824
641.545241	0.007887
641.751644	0.007682
641.958028	0.007481
642.164394	0.007352
642.370742	0.007498
642.577071	0.007749
642.783383	0.007758
642.989676	0.007891
643.195951	0.007925
643.402207	0.008082
643.608446	0.008270
643.814666	0.008465
644.020868	0.008604
644.227052	0.008363
644.433218	0.008149
644.639365	0.008232
644.845494	0.008140
645.051605	0.008228
645.257698	0.008240
645.463772	0.008345
645.669828	0.008316
645.875866	0.008379
646.081886	0.008498
646.287888	0.008459
646.493871	0.008652
646.699836	0.008891
646.905783	0.008845
647.111712	0.008777
647.317622	0.008682
647.523514	0.008597
647.729388	0.008462
647.935244	0.008607
648.141082	0.008740
648.346901	0.008459
648.552702	0.008260
648.758485	0.008298
648.964250	0.008214
649.169996	0.008211
649.375724	0.008375
649.581434	0.008418
649.787126	0.008312
649.992800	0.008304
650.198455	0.008412
650.404092	0.008499
650.609711	0.008467
650.815311	0.008659
651.020894	0.008865
651.226458	0.008627
651.432004	0.008855
651.637532	0.008809
651.843041	0.008751
652.048532	0.008999
652.254006	0.009084
652.459460	0.009132
652.664897	0.008889
652.870315	0.008819
653.075716	0.009014
653.281097	0.008849
653.486461	0.008830
653.691807	0.008897
653.897134	0.008494
654.102443	0.008387
654.307734	0.008435
654.513006	0.008543
654.718261	0.008541
654.923497	0.008409
655.128715	0.008313
655.333915	0.008271
655.539096	0.008273
655.744259	0.008370
655.949404	0.008500
656.154531	0.008486
656.359640	0.008603
656.564730	0.008610
656.769802	0.008683
656.974856	0.008916
657.179892	0.009044
657.384909	0.009106
657.589908	0.009225
657.794889	0.009147
657.999852	0.009276
658.204797	0.009212
658.409723	0.009192
658.614631	0.009389
658.819521	0.009473
659.024393	0.009563
659.229246	0.009514
659.434081	0.009571
659.638898	0.009636
659.843697	0.009590
660.048478	0.009612
660.253240	0.009586
660.457984	0.009442
660.662710	0.009270
660.867417	0.009365
661.072107	0.009317
661.276778	0.009317
661.481431	0.009376
661.686066	0.009255
661.890682	0.009148
662.095281	0.009001
662.299861	0.008997
662.504422	0.009044
662.708966	0.008863
662.913491	0.008854
663.117999	0.008836
663.322488	0.008652
663.526958	0.008751
663.731411	0.008892
663.935845	0.009001
664.140261	0.009064
664.344659	0.009049
664.549038	0.008935
664.753400	0.009016
664.957743	0.008905
665.162068	0.008952
665.366375	0.008727
665.570663	0.008453
665.774933	0.008620
665.979185	0.008618
666.183419	0.008530
666.387635	0.008694
666.591832	0.008659
666.796011	0.008672
667.000172	0.008776
667.204315	0.009082
667.408439	0.009454
667.612545	0.009310
667.816634	0.009453
668.020703	0.009569
668.224755	0.009534
668.428788	0.009562
668.632803	0.009808
668.836800	0.009734
669.040779	0.009594
669.244739	0.009488
669.448681	0.009712
669.652605	0.009548
669.856511	0.009523
670.060399	0.009556
670.264268	0.009634
670.468119	0.009671
670.671952	0.009682
670.875767	0.009826
671.079563	0.009831
671.283341	0.009748
671.487101	0.009752
671.690843	0.009849
671.894567	0.009926
672.098272	0.009770
672.301959	0.009648
672.505628	0.009826
672.709278	0.009793
672.912911	0.009798
673.116525	0.009748
673.320121	0.009873
673.523699	0.010151
673.727258	0.010102
673.930799	0.010072
674.134322	0.010138
674.337827	0.009958
674.541314	0.009869
674.744782	0.009834
674.948232	0.009921
675.151664	0.009866
675.355078	0.009576
675.558474	0.009395
675.761851	0.009708
675.965210	0.009545
676.168551	0.009576
676.371873	0.009717
676.575178	0.009790
676.778464	0.009789
676.981732	0.009859
677.184981	0.009782
677.388213	0.009934
677.591426	0.009828
677.794621	0.009980
677.997798	0.009927
678.200956	0.009831
678.404097	0.009893
678.607219	0.010002
678.810323	0.010089
679.013408	0.010200
679.216476	0.010363
679.419525	0.010443
679.622556	0.010350
679.825569	0.010426
680.028563	0.010624
680.231540	0.010511
680.434498	0.010412
680.637438	0.010241
680.840359	0.010211
681.043263	0.010222
681.246148	0.010297
681.449015	0.010470
681.651864	0.010421
681.854694	0.010266
682.057506	0.010460
682.260301	0.010499
682.463076	0.010471
682.665834	0.010417
682.868573	0.010300
683.071295	0.010187
683.273998	0.010093
683.476682	0.010251
683.679349	0.010283
683.881997	0.010219
684.084627	0.010189
684.287239	0.010260
684.489833	0.010374
684.692408	0.010428
684.894965	0.010395
685.097504	0.010386
685.300025	0.010397
685.502527	0.010552
685.705012	0.010558
685.907478	0.010555
686.109925	0.010487
686.312355	0.010658
686.514766	0.010628
686.717159	0.010558
686.919534	0.010666
687.121891	0.010652
687.324230	0.010630
687.526550	0.010473
687.728852	0.010536
687.931136	0.010665
688.133401	0.010387
688.335649	0.010420
688.537878	0.010572
688.740089	0.010511
688.942281	0.010459
689.144456	0.010277
689.346612	0.010364
689.548750	0.010213
689.750870	0.010130
689.952971	0.010111
690.155055	0.010147
690.357120	0.009986
690.559167	0.009954
690.761195	0.010045
690.963206	0.009969
691.165198	0.010010
691.367172	0.010051
691.569128	0.010046
691.771065	0.010253
691.972984	0.010082
692.174885	0.010245
692.376768	0.010275
692.578633	0.010278
692.780479	0.010469
692.982308	0.010596
693.184118	0.010687
693.385909	0.010765
693.587683	0.010810
693.789438	0.010795
693.991175	0.010646
694.192894	0.010754
694.394595	0.010593
694.596277	0.010631
694.797941	0.010578
694.999587	0.010483
695.201215	0.010497
695.402824	0.010383
695.604416	0.010443
695.805989	0.010683
696.007543	0.010727
696.209080	0.010910
696.410598	0.011002
696.612099	0.011064
696.813580	0.011224
697.015044	0.011187
697.216490	0.011275
697.417917	0.011347
697.619326	0.011301
697.820717	0.011340
698.022089	0.011240
698.223444	0.011104
698.424780	0.011049
698.626098	0.011217
698.827397	0.011176
699.028679	0.011228
699.229942	0.011368
699.431187	0.011354
699.632414	0.011307
699.833622	0.011295
700.034813	0.011437
700.235985	0.011476
700.437139	0.011254
700.638274	0.011349
700.839392	0.011253
701.040491	0.011266
701.241572	0.011375
701.442635	0.011338
701.643679	0.011489
701.844706	0.011388
702.045714	0.011389
702.246704	0.011445
702.447675	0.011425
702.648629	0.011510
702.849564	0.011584
703.050481	0.011545
703.251380	0.011721
703.452260	0.011677
703.653122	0.011779
703.853966	0.011694
704.054792	0.011679
704.255600	0.011732
704.456389	0.011762
704.657160	0.011705
704.857913	0.011599
705.058648	0.011536
705.259365	0.011543
705.460063	0.011499
705.660743	0.011480
705.861405	0.011560
706.062048	0.011508
706.262674	0.011437
706.463281	0.011472
706.663870	0.011631
706.864441	0.011693
707.064993	0.011718
707.265527	0.011725
707.466043	0.011899
707.666541	0.011913
707.867021	0.011963
708.067482	0.011933
708.267925	0.011850
708.468350	0.011733
708.668757	0.011575
708.869145	0.011534
709.069516	0.011498
709.269868	0.011568
709.470201	0.011557
709.670517	0.011599
709.870814	0.011812
710.071093	0.011882
710.271354	0.012065
710.471597	0.012163
710.671821	0.012232
710.872028	0.012319
711.072216	0.012223
711.272385	0.012080
711.472537	0.012082
711.672670	0.011969
711.872785	0.011935
712.072882	0.011878
712.272961	0.011929
712.473021	0.011891
712.673063	0.011707
712.873087	0.011684
713.073093	0.011664
713.273081	0.011727
713.473050	0.011622
713.673001	0.011518
713.872934	0.011489
714.072849	0.011321
714.272745	0.011375
714.472623	0.011607
714.672483	0.011578
714.872325	0.011638
715.072148	0.011469
715.271954	0.011645
715.471741	0.011777
715.671509	0.011704
715.871260	0.011688
716.070992	0.011571
716.270707	0.011449
716.470403	0.011505
716.670080	0.011522
716.869740	0.011514
717.069381	0.011355
717.269004	0.011243
717.468609	0.011310
717.668195	0.011434
717.867764	0.011446
718.067314	0.011451
718.266846	0.011437
718.466360	0.011397
718.665855	0.011440
718.865332	0.011496
719.064791	0.011527
719.264232	0.011496
719.463655	0.011412
719.663059	0.011333
719.862445	0.011350
720.061813	0.011386
720.261163	0.011396
720.460494	0.011457
720.659807	0.011595
720.859102	0.011602
721.058379	0.011460
721.257638	0.011439
721.456878	0.011462
721.656100	0.011256
721.855304	0.010974
722.054490	0.011053
722.253657	0.010942
722.452806	0.010583
722.651937	0.010507
722.851050	0.010598
723.050145	0.010593
723.249221	0.010703
723.448279	0.010758
723.647319	0.010917
723.846340	0.010933
724.045344	0.011190
724.244329	0.011317
724.443296	0.011346
724.642245	0.011383
724.841175	0.011340
725.040088	0.011366
725.238982	0.011412
725.437857	0.011355
725.636715	0.011321
725.835554	0.011186
726.034376	0.011266
726.233179	0.011165
726.431963	0.011163
726.630730	0.011113
726.829478	0.011055
727.028208	0.011144
727.226920	0.011135
727.425614	0.011009
727.624289	0.011008
727.822946	0.011019
728.021585	0.011178
728.220206	0.011131
728.418808	0.011231
728.617392	0.011194
728.815958	0.011200
729.014506	0.011211
729.213036	0.011349
729.411547	0.011346
729.610040	0.011231
729.808515	0.011219
730.006972	0.011228
730.205410	0.011179
730.403831	0.011172
730.602233	0.011137
730.800616	0.011184
730.998982	0.011060
731.197329	0.010991
731.395658	0.011108
731.593969	0.011056
731.792262	0.010924
731.990536	0.011007
732.188793	0.010900
732.387031	0.010837
732.585250	0.010874
732.783452	0.010919
732.981635	0.010862
733.179800	0.010715
733.377947	0.010665
733.576076	0.010760
733.774186	0.010597
733.972278	0.010804
734.170352	0.010850
734.368408	0.010776
734.566446	0.010752
734.764465	0.010694
734.962466	0.010716
735.160449	0.010696
735.358413	0.010654
735.556360	0.010695
735.754288	0.010574
735.952198	0.010579
736.150090	0.010580
736.347963	0.010716
736.545818	0.010707
736.743655	0.010685
736.941474	0.010680
737.139275	0.010607
737.337057	0.010608
737.534821	0.010553
737.732567	0.010424
737.930295	0.010388
738.128005	0.010408
738.325696	0.010592
738.523369	0.010649
738.721024	0.010680
738.918660	0.010722
739.116279	0.010851
739.313879	0.011113
739.511461	0.011195
739.709024	0.011107
739.906570	0.011062
740.104097	0.010990
740.301606	0.011050
740.499097	0.011110
740.696569	0.011199
740.894024	0.011096
741.091460	0.010996
741.288878	0.010893
741.486277	0.011227
741.683659	0.011059
741.881022	0.011042
742.078367	0.010992
742.275694	0.011007
742.473002	0.010891
742.670293	0.010902
742.867565	0.010703
743.064819	0.010822
743.262054	0.010550
743.459272	0.010471
743.656471	0.010430
743.853652	0.010301
744.050815	0.010115
744.247959	0.010109
744.445085	0.010051
744.642194	0.010137
744.839283	0.010145
745.036355	0.010176
745.233408	0.010303
745.430444	0.010285
745.627461	0.010322
745.824459	0.010376
746.021440	0.010463
746.218402	0.010374
746.415346	0.010175
746.612272	0.009854
746.809180	0.009790
747.006069	0.009808
747.202940	0.009592
747.399793	0.009675
747.596628	0.009683
747.793444	0.009737
747.990243	0.009893
748.187023	0.010174
748.383784	0.010359
748.580528	0.010379
748.777253	0.010378
748.973960	0.010635
749.170649	0.010559
749.367320	0.010517
749.563973	0.010460
749.760607	0.010499
749.957223	0.010411
750.153821	0.010487
750.350400	0.010596
750.546962	0.010460
750.743505	0.010624
750.940030	0.010678
751.136536	0.010788
751.333025	0.010632
751.529495	0.010448
751.725947	0.010436
751.922381	0.010441
752.118796	0.010425
752.315194	0.010346
752.511573	0.010195
752.707934	0.010174
752.904276	0.010263
753.100601	0.010441
753.296907	0.010631
753.493195	0.010685
753.689465	0.010665
753.885716	0.010725
754.081949	0.011075
754.278164	0.011047
754.474361	0.011211
754.670540	0.011154
754.866700	0.011162
755.062843	0.011047
755.258967	0.011007
755.455072	0.010998
755.651160	0.010945
755.847229	0.010663
756.043280	0.010594
756.239313	0.010311
756.435328	0.010228
756.631324	0.010085
756.827302	0.010040
757.023262	0.009964
757.219204	0.009937
757.415127	0.009792
757.611033	0.009843
757.806920	0.010107
758.002788	0.010058
758.198639	0.010193
758.394471	0.010277
758.590286	0.010363
758.786081	0.010583
758.981859	0.010535
759.177619	0.010597
759.373360	0.010618
759.569083	0.010419
759.764788	0.010824
759.960474	0.010638
760.156143	0.010511
760.351793	0.010567
760.547425	0.010277
760.743038	0.010371
760.938634	0.010318
761.134211	0.010391
761.329770	0.010230
761.525311	0.009923
761.720833	0.009943
761.916338	0.010014
762.111824	0.009797
762.307292	0.009936
762.502741	0.009956
762.698173	0.010112
762.893586	0.010202
763.088981	0.010295
763.284358	0.010341
763.479716	0.010338
763.675057	0.010411
763.870379	0.010480
764.065683	0.010523
764.260968	0.010536
764.456236	0.010546
764.651485	0.010567
764.846716	0.010586
765.041929	0.010678
765.237123	0.010779
765.432299	0.010814
765.627457	0.011053
765.822597	0.011028
766.017719	0.011003
766.212822	0.011030
766.407907	0.010823
766.602974	0.010935
766.798023	0.011024
766.993054	0.011120
767.188066	0.010951
767.383060	0.010832
767.578036	0.010962
767.772993	0.010981
767.967933	0.010986
768.162854	0.010962
768.357757	0.011000
768.552642	0.010851
768.747508	0.010837
768.942356	0.010925
769.137186	0.011022
769.331998	0.010948
769.526792	0.010895
769.721567	0.010891
769.916324	0.011116
770.111063	0.010971
770.305784	0.011009
770.500486	0.010790
770.695171	0.010785
770.889837	0.010774
771.084484	0.010660
771.279114	0.010788
771.473725	0.010572
771.668318	0.010560
771.862893	0.010689
772.057450	0.010720
772.251988	0.010892
772.446509	0.010978
772.641011	0.010851
772.835494	0.010877
773.029960	0.010774
773.224407	0.010902
773.418836	0.010835
773.613247	0.010796
773.807640	0.010623
774.002014	0.010621
774.196370	0.010646
774.390708	0.010749
774.585028	0.010966
774.779330	0.010821
774.973613	0.010911
775.167878	0.010890
775.362125	0.010929
775.556354	0.011082
775.750564	0.011198
775.944756	0.011090
776.138930	0.011038
776.333086	0.010973
776.527223	0.011192
776.721343	0.011117
776.915444	0.010955
777.109526	0.010989
777.303591	0.010961
777.497637	0.010826
777.691666	0.010854
777.885676	0.010947
778.079667	0.010959
778.273641	0.010902
778.467596	0.010942
778.661533	0.011063
778.855452	0.010876
779.049352	0.010879
779.243235	0.010945
779.437099	0.011011
779.630945	0.010874
779.824773	0.010838
780.018582	0.010732
780.212373	0.010908
780.406146	0.011063
780.599901	0.011250
780.793638	0.011393
780.987356	0.011254
781.181056	0.011319
781.374738	0.011308
781.568402	0.011145
781.762047	0.011163
781.955674	0.010842
782.149283	0.010658
782.342874	0.010555
782.536447	0.010327
782.730001	0.010260
782.923537	0.010145
783.117055	0.010135
783.310555	0.010180
783.504036	0.010201
783.697499	0.010430
783.890944	0.010310
784.084371	0.010509
784.277780	0.010695
784.471170	0.010898
784.664542	0.010958
784.857896	0.011029
785.051231	0.011176
785.244549	0.011399
785.437848	0.011438
785.631129	0.011535
785.824392	0.011228
786.017636	0.011210
786.210863	0.011242
786.404071	0.011307
786.597260	0.011327
786.790432	0.011164
786.983585	0.011067
787.176721	0.010811
787.369838	0.011044
787.562936	0.011246
787.756017	0.011146
787.949079	0.011061
788.142123	0.010977
788.335149	0.010977
788.528156	0.011084
788.721146	0.011144
788.914117	0.011270
789.107070	0.011173
789.300005	0.011216
789.492921	0.011230
789.685819	0.011276
789.878699	0.011209
790.071561	0.011255
790.264405	0.011300
790.457230	0.011140
790.650037	0.011228
790.842826	0.011310
791.035597	0.011205
791.228349	0.011247
791.421084	0.011284
791.613800	0.011354
791.806497	0.011342
791.999177	0.011425
792.191838	0.011480
792.384481	0.011404
792.577106	0.011376
792.769713	0.011581
792.962301	0.011564
793.154871	0.011617
793.347423	0.011768
793.539957	0.011744
793.732473	0.011678
793.924970	0.011737
794.117449	0.011706
794.309910	0.011652
794.502353	0.011591
794.694777	0.011469
794.887183	0.011226
795.079571	0.011184
795.271941	0.011087
795.464293	0.011191
795.656626	0.011158
795.848941	0.011397
796.041238	0.011354
796.233516	0.011299
796.425777	0.011430
796.618019	0.011569
796.810243	0.011400
797.002449	0.011415
797.194636	0.011254
797.386805	0.011258
797.578956	0.011205
797.771089	0.011232
797.963204	0.011269
798.155300	0.011272
798.347378	0.011444
798.539438	0.011574
798.731480	0.011583
798.923503	0.011405
799.115509	0.011269
799.307496	0.011299
799.499465	0.011404
799.691415	0.011373
799.883348	0.011286
800.075262	0.011086
800.267158	0.010915
800.459035	0.011141
800.650895	0.011340
800.842736	0.011542
801.034559	0.011353
801.226364	0.011342
801.418150	0.011313
801.609919	0.011356
801.801669	0.011380
801.993401	0.011588
802.185114	0.011429
802.376810	0.011292
802.568487	0.011398
802.760146	0.011353
802.951787	0.011234
803.143409	0.011070
803.335014	0.011090
803.526600	0.011273
803.718168	0.011088
803.909717	0.011204
804.101249	0.011379
804.292762	0.011447
804.484257	0.011562
804.675734	0.011590
804.867192	0.011723
805.058632	0.011736
805.250054	0.011708
805.441458	0.011706
805.632844	0.011571
805.824211	0.011481
806.015561	0.011316
806.206891	0.011393
806.398204	0.011405
806.589499	0.011514
806.780775	0.011732
806.972033	0.011565
807.163273	0.011750
807.354495	0.011893
807.545698	0.011944
807.736883	0.012027
807.928050	0.011659
808.119199	0.011633
808.310329	0.011480
808.501441	0.011333
808.692535	0.011304
808.883611	0.011157
809.074669	0.011122
809.265708	0.011085
809.456729	0.010940
809.647732	0.011370
809.838717	0.011563
810.029683	0.011553
810.220632	0.011491
810.411562	0.011613
810.602474	0.011541
810.793367	0.011653
810.984242	0.011668
811.175100	0.011795
811.365938	0.011778
811.556759	0.011649
811.747562	0.011847
811.938346	0.011959
812.129112	0.011917
812.319860	0.012042
812.510589	0.011886
812.701300	0.011980
812.891994	0.011959
813.082668	0.011999
813.273325	0.011992
813.463964	0.011873
813.654584	0.011813
813.845186	0.011928
814.035769	0.012022
814.226335	0.012240
814.416882	0.012172
814.607411	0.012218
814.797922	0.012208
814.988415	0.012265
815.178889	0.012366
815.369345	0.012459
815.559783	0.012466
815.750203	0.012471
815.940605	0.012372
816.130988	0.012372
816.321353	0.012375
816.511700	0.012291
816.702028	0.012514
816.892339	0.012622
817.082631	0.012572
817.272905	0.012467
817.463161	0.012505
817.653398	0.012484
817.843617	0.012651
818.033819	0.012701
818.224001	0.012820
818.414166	0.012441
818.604312	0.012345
818.794440	0.012400
818.984550	0.012563
819.174642	0.012523
819.364716	0.012434
819.554771	0.012332
819.744808	0.012195
819.934827	0.012069
820.124827	0.012150
820.314810	0.012021
820.504774	0.011822
820.694720	0.011611
820.884647	0.011447
821.074557	0.011515
821.264448	0.011413
821.454321	0.011319
821.644176	0.011268
821.834012	0.011226
822.023831	0.011203
822.213631	0.011333
822.403413	0.011364
822.593176	0.011573
822.782922	0.011489
822.972649	0.011616
823.162358	0.011748
823.352049	0.011818
823.541721	0.011814
823.731376	0.011865
823.921012	0.011896
824.110629	0.011996
824.300229	0.011914
824.489811	0.011922
824.679374	0.011936
824.868919	0.012076
825.058445	0.012121
825.247954	0.012131
825.437444	0.012185
825.626916	0.012253
825.816370	0.012088
826.005806	0.012138
826.195223	0.012366
826.384622	0.012186
826.574003	0.012311
826.763366	0.012235
826.952711	0.012333
827.142037	0.012536
827.331345	0.012604
827.520635	0.012688
827.709906	0.012712
827.899160	0.012586
828.088395	0.012723
828.277612	0.012521
828.466810	0.012488
828.655991	0.012483
828.845153	0.012051
829.034297	0.011831
829.223423	0.011834
829.412531	0.011697
829.601620	0.011633
829.790691	0.011702
829.979744	0.011581
830.168779	0.011611
830.357795	0.011640
830.546793	0.011832
830.735773	0.011835
830.924735	0.011745
831.113679	0.012044
831.302604	0.012274
831.491511	0.012192
831.680400	0.012224
831.869271	0.012118
832.058123	0.012109
832.246957	0.012207
832.435773	0.012468
832.624571	0.012626
832.813351	0.012428
833.002112	0.012434
833.190855	0.012395
833.379580	0.012320
833.568287	0.012577
833.756975	0.012571
833.945645	0.012492
834.134297	0.012337
834.322931	0.012308
834.511547	0.012312
834.700144	0.012161
834.888723	0.012012
835.077284	0.012039
835.265826	0.011732
835.454351	0.011661
835.642857	0.011764
835.831345	0.011706
836.019815	0.011644
836.208266	0.011640
836.396699	0.011630
836.585114	0.011709
836.773511	0.011969
836.961890	0.012236
837.150250	0.012353
837.338592	0.012355
837.526916	0.012392
837.715222	0.012479
837.903510	0.012500
838.091779	0.012493
838.280030	0.012534
838.468263	0.012258
838.656477	0.012069
838.844674	0.012101
839.032852	0.012157
839.221012	0.012243
839.409153	0.012136
839.597277	0.012300
839.785382	0.012258
839.973469	0.012442
840.161538	0.012562
840.349589	0.012741
840.537621	0.012714
840.725635	0.012602
840.913631	0.012591
841.101609	0.012704
841.289568	0.012644
841.477509	0.012564
841.665432	0.012557
841.853337	0.012553
842.041224	0.012468
842.229092	0.012440
842.416942	0.012642
842.604774	0.012650
842.792588	0.012603
842.980383	0.012459
843.168160	0.012617
843.355919	0.012514
843.543660	0.012610
843.731382	0.012642
843.919087	0.012658
844.106773	0.012521
844.294441	0.012595
844.482090	0.012777
844.669722	0.012820
844.857335	0.012725
845.044930	0.012678
845.232507	0.012644
845.420065	0.012582
845.607605	0.012624
845.795127	0.012416
845.982631	0.012388
846.170117	0.012280
846.357584	0.012488
846.545033	0.012809
846.732464	0.012823
846.919877	0.012765
847.107272	0.012876
847.294648	0.012952
847.482006	0.013231
847.669346	0.013203
847.856667	0.013227
848.043971	0.013151
848.231256	0.012995
848.418523	0.013354
848.605771	0.013571
848.793002	0.013729
848.980214	0.013776
849.167408	0.013707
849.354584	0.013838
849.541742	0.013955
849.728881	0.014013
849.916002	0.014000
850.103105	0.014022
850.290190	0.013951
850.477256	0.013887
850.664304	0.013918
850.851334	0.014009
851.038346	0.014119
851.225340	0.014191
851.412315	0.014228
851.599272	0.014423
851.786211	0.014416
851.973132	0.014608
852.160034	0.014497
852.346918	0.014503
852.533784	0.014673
852.720632	0.014636
852.907462	0.014562
853.094273	0.014533
853.281066	0.014409
853.467841	0.014320
853.654598	0.014273
853.841336	0.014501
854.028056	0.014447
854.214758	0.014381
854.401442	0.014010
854.588107	0.014016
854.774755	0.014099
854.961384	0.014016
855.147995	0.013825
855.334587	0.013776
855.521162	0.013746
855.707718	0.013789
855.894256	0.013749
856.080775	0.014075
856.267277	0.013978
856.453760	0.014008
856.640225	0.014208
856.826672	0.014363
857.013101	0.014276
857.199511	0.014523
857.385903	0.014742
857.572277	0.014651
857.758633	0.014925
857.944970	0.015300
858.131290	0.015453
858.317591	0.015608
858.503873	0.015804
858.690138	0.015839
858.876384	0.015995
859.062612	0.015900
859.248822	0.016104
859.435014	0.015886
859.621188	0.015600
859.807343	0.015500
859.993480	0.015447
860.179599	0.015568
860.365699	0.015641
860.551781	0.015436
860.737846	0.015598
860.923891	0.015713
861.109919	0.015707
861.295929	0.015959
861.481920	0.015993
861.667893	0.015971
861.853848	0.015879
862.039784	0.016127
862.225702	0.015952
862.411603	0.015902
862.597484	0.015927
862.783348	0.016319
862.969193	0.016322
863.155021	0.016285
863.340830	0.016524
863.526620	0.016347
863.712393	0.016378
863.898147	0.016720
864.083883	0.016760
864.269601	0.016997
864.455301	0.016991
864.640982	0.017057
864.826645	0.017326
865.012290	0.017073
865.197917	0.017396
865.383526	0.017048
865.569116	0.017038
865.754688	0.017107
865.940242	0.017034
866.125777	0.017024
866.311295	0.017122
866.496794	0.016861
866.682275	0.016829
866.867737	0.016873
867.053182	0.016926
867.238608	0.016827
867.424016	0.016783
867.609406	0.016446
867.794778	0.016387
867.980131	0.016194
868.165466	0.016326
868.350783	0.016241
868.536082	0.016047
868.721362	0.016039
868.906625	0.015971
869.091869	0.015763
869.277094	0.016177
869.462302	0.016239
869.647491	0.016402
869.832662	0.016326
870.017815	0.016677
870.202950	0.016780
870.388066	0.017070
870.573165	0.016880
870.758245	0.017024
870.943306	0.016801
871.128350	0.016754
871.313375	0.016801
871.498382	0.016789
871.683371	0.016738
871.868342	0.016925
872.053294	0.016998
872.238229	0.017262
872.423144	0.017403
872.608042	0.017471
872.792922	0.017318
872.977783	0.017373
873.162626	0.017535
873.347451	0.017583
873.532258	0.017566
873.717046	0.017479
873.901816	0.017684
874.086568	0.017705
874.271302	0.017773
874.456017	0.017822
874.640715	0.017750
874.825394	0.017646
875.010055	0.017772
875.194697	0.017540
875.379322	0.017417
875.563928	0.017202
875.748516	0.017247
875.933085	0.017282
876.117637	0.017345
876.302170	0.017039
876.486685	0.016947
876.671182	0.016685
876.855661	0.016910
877.040121	0.016866
877.224563	0.016552
877.408987	0.016398
877.593393	0.016327
877.777780	0.016206
877.962150	0.016477
878.146501	0.016398
878.330833	0.016336
878.515148	0.016340
878.699444	0.016683
878.883722	0.016986
879.067982	0.017118
879.252224	0.017017
879.436447	0.017157
879.620653	0.017142
879.804840	0.017660
879.989008	0.017812
880.173159	0.017673
880.357291	0.017624
880.541405	0.017799
880.725501	0.017683
880.909579	0.017740
881.093638	0.017639
881.277680	0.017653
881.461703	0.017218
881.645707	0.017209
881.829694	0.016925
882.013662	0.016771
882.197612	0.016551
882.381544	0.016521
882.565458	0.016397
882.749353	0.016074
882.933230	0.015973
883.117089	0.016340
883.300930	0.016428
883.484753	0.016729
883.668557	0.016852
883.852343	0.017084
884.036111	0.017158
884.219861	0.017322
884.403592	0.017919
884.587305	0.018145
884.771000	0.018010
884.954677	0.017982
885.138335	0.018070
885.321976	0.017868
885.505598	0.017731
885.689201	0.017872
885.872787	0.017708
886.056354	0.017769
886.239904	0.017707
886.423434	0.017658
886.606947	0.017502
886.790442	0.017439
886.973918	0.017783
887.157376	0.018110
887.340816	0.018001
887.524237	0.018203
887.707641	0.017892
887.891026	0.017577
888.074393	0.017453
888.257741	0.017647
888.441072	0.017824
888.624384	0.017450
888.807678	0.017084
888.990954	0.017106
889.174211	0.017229
889.357451	0.017441
889.540672	0.017927
889.723875	0.018080
889.907059	0.018002
890.090226	0.017811
890.273374	0.017986
890.456504	0.018119
890.639616	0.017961
890.822709	0.017650
891.005785	0.017325
891.188842	0.017334
891.371881	0.017306
891.554901	0.017473
891.737904	0.017383
891.920888	0.017324
892.103854	0.017272
892.286802	0.017325
892.469731	0.017362
892.652643	0.017526
892.835536	0.017172
893.018410	0.017331
893.201267	0.017172
893.384106	0.017427
893.566926	0.017544
893.749728	0.017663
893.932511	0.017592
894.115277	0.017635
894.298024	0.017505
894.480753	0.017617
894.663464	0.017042
894.846157	0.017016
895.028831	0.016635
895.211487	0.016598
895.394125	0.016225
895.576745	0.016316
895.759346	0.016415
895.941930	0.016439
896.124495	0.016118
896.307041	0.016418
896.489570	0.016272
896.672080	0.016281
896.854573	0.016412
897.037046	0.016537
897.219502	0.016685
897.401940	0.016576
897.584359	0.016747
897.766760	0.016912
897.949143	0.017067
898.131507	0.017235
898.313854	0.017286
898.496182	0.016984
898.678492	0.016695
898.860783	0.016574
899.043057	0.016339
899.225312	0.016081
899.407549	0.016045
899.589768	0.015871
899.771968	0.015958
899.954151	0.016287
900.136315	0.016743
900.318461	0.017042
900.500588	0.017007
900.682698	0.017235
900.864789	0.017039
901.046862	0.016953
901.228917	0.016919
901.410953	0.016454
901.592971	0.016261
901.774972	0.015915
901.956953	0.015727
902.138917	0.015791
902.320862	0.015781
902.502790	0.015971
902.684699	0.016097
902.866589	0.016000
903.048462	0.016130
903.230316	0.016050
903.412152	0.016239
903.593970	0.016564
903.775770	0.016597
903.957551	0.016512
904.139314	0.016655
904.321059	0.016499
904.502786	0.016667
904.684494	0.016801
904.866185	0.016955
905.047857	0.016726
905.229510	0.016680
905.411146	0.016226
905.592763	0.016221
905.774363	0.016322
905.955943	0.016252
906.137506	0.016227
906.319051	0.016309
906.500577	0.016356
906.682085	0.016131
906.863575	0.015896
907.045046	0.016081
907.226500	0.015670
907.407935	0.015670
907.589352	0.016032
907.770750	0.016174
907.952131	0.016138
908.133493	0.015915
908.314837	0.016208
908.496163	0.016552
908.677470	0.016430
908.858760	0.016828
909.040031	0.016737
909.221284	0.016305
909.402518	0.016015
909.583735	0.015820
909.764933	0.015807
909.946113	0.015802
910.127275	0.015544
910.308418	0.015484
910.489544	0.015514
910.670651	0.015714
910.851740	0.016078
911.032810	0.015912
911.213863	0.015921
911.394897	0.015667
911.575913	0.015441
911.756911	0.015424
911.937890	0.015578
912.118851	0.015413
912.299794	0.014654
912.480719	0.014506
912.661626	0.014680
912.842514	0.014501
913.023384	0.014478
913.204236	0.014492
913.385070	0.014196
913.565886	0.014228
913.746683	0.014247
913.927462	0.014548
914.108223	0.014354
914.288965	0.014028
914.469690	0.014062
914.650396	0.014141
914.831084	0.014158
915.011754	0.014043
915.192405	0.013718
915.373038	0.013749
915.553653	0.013436
915.734250	0.013316
915.914829	0.013448
916.095389	0.013411
916.275931	0.013206
916.456455	0.013008
916.636961	0.012768
916.817448	0.013047
916.997917	0.012660
917.178368	0.012826
917.358801	0.013273
917.539216	0.013285
917.719612	0.013347
917.899990	0.013183
918.080350	0.013094
918.260692	0.013249
918.441015	0.012738
918.621320	0.012802
918.801607	0.012947
918.981876	0.012457
919.162127	0.012183
919.342359	0.011901
919.522573	0.011841
919.702769	0.011966
919.882947	0.012177
920.063106	0.012150
920.243247	0.012333
920.423370	0.011745
920.603475	0.011984
920.783562	0.012137
920.963630	0.012087
921.143680	0.012464
921.323712	0.012193
921.503725	0.012054
921.683721	0.012311
921.863698	0.011757
922.043657	0.011871
922.223598	0.012080
922.403520	0.011828
922.583424	0.011537
922.763311	0.010725
922.943178	0.010605
923.123028	0.010619
923.302859	0.010278
923.482673	0.010565
923.662467	0.010460
923.842244	0.009352
924.022003	0.009232
924.201743	0.009767
924.381465	0.009933
924.561169	0.009793
924.740854	0.009161
924.920522	0.009289
925.100171	0.009283
925.279802	0.009420
925.459414	0.009711
925.639009	0.009868
925.818585	0.009505
925.998143	0.010060
926.177683	0.010051
926.357205	0.010036
926.536708	0.009916
926.716193	0.009348
926.895660	0.009168
927.075109	0.008908
927.254539	0.009013
927.433951	0.008797
927.613345	0.008182
927.792721	0.007681
927.972079	0.007941
928.151418	0.007717
928.330739	0.008215
928.510042	0.007970
928.689327	0.007930
928.868593	0.007703
929.047841	0.007500
929.227071	0.007734
929.406283	0.008428
929.585476	0.008322
929.764652	0.008842
929.943809	0.008135
930.122948	0.008218
930.302068	0.008356
930.481171	0.008333
930.660255	0.008550
930.839321	0.008986
931.018369	0.008365
931.197398	0.007925
931.376409	0.007099
931.555402	0.007282
931.734377	0.006858
931.913334	0.006722
932.092272	0.005974
932.271192	0.005501
932.450094	0.004309
932.628978	0.004161
932.807844	0.004593
932.986691	0.005071
933.165520	0.005078
933.344331	0.005048
933.523123	0.004654
933.701898	0.004544
933.880654	0.004323
934.059392	0.004050
934.238111	0.004141
934.416813	0.004112
934.595496	0.003340
934.774161	0.003328
934.952808	0.003202
935.131437	0.003100
935.310047	0.003074
935.488639	0.003080
935.667213	0.003012
935.845769	0.003088
936.024306	0.002596
936.202825	0.002197
936.381326	0.001710
936.559809	0.001956
936.738274	0.002002
936.916720	0.002480
937.095148	0.002231
937.273558	0.002215
937.451950	0.001350
937.630323	0.001135
937.808678	0.001099
937.987015	0.001109
938.165334	-0.000066
938.343635	0.000039
938.521917	-0.000259
938.700181	-0.000370
938.878427	-0.000221
939.056655	-0.000462
939.234864	0.000138
939.413055	0.000633
939.591228	0.000288
939.769383	0.000858
939.947519	0.000464
940.125638	0.000372
940.303738	0.000385
940.481820	-0.000389
940.659883	0.000434
940.837929	-0.000650
941.015956	-0.001153
941.193965	-0.001318
941.371955	-0.000869
941.549928	-0.000478
941.727882	-0.000712
941.905818	-0.001302
942.083736	-0.000570
942.261636	-0.000710
942.439517	-0.000938
942.617380	0.000071
942.795225	-0.000040
942.973052	-0.001885
943.150860	-0.002746
943.328651	-0.003336
943.506423	-0.002846
943.684176	-0.003117
943.861912	-0.003561
944.039629	-0.003074
944.217328	-0.003646
944.395009	-0.003991
944.572672	-0.002957
944.750317	-0.002222
944.927943	-0.000779
945.105551	-0.000203
945.283141	0.000407
945.460712	0.000455
945.638265	0.000739
945.815801	0.000096
945.993317	0.001067
946.170816	0.001714
946.348297	0.001072
946.525759	0.000162
946.703203	-0.000498
946.880629	-0.000978
947.058036	-0.000894
947.235425	-0.000940
947.412797	-0.000866
947.590149	-0.001422
947.767484	-0.001323
947.944800	-0.000964
948.122099	-0.001388
948.299379	-0.001129
948.476640	-0.001380
948.653884	-0.002348
948.831109	-0.003243
949.008316	-0.003734
949.185505	-0.003804
949.362676	-0.004827
949.539828	-0.005035
949.716962	-0.005067
949.894078	-0.005798
950.071176	-0.005707
950.248256	-0.005394
950.425317	-0.005123
950.602360	-0.003436
950.779385	-0.002589
950.956391	-0.001703
951.133380	-0.001784
951.310350	-0.002791
951.487302	-0.002301
951.664235	-0.003109
951.841151	-0.002054
952.018048	-0.001570
952.194927	-0.002378
952.371788	-0.002548
952.548631	-0.002745
952.725455	-0.001787
952.902261	-0.001094
953.079049	-0.000984
953.255819	0.000101
953.432570	-0.001431
953.609303	-0.001273
953.786018	-0.002216
953.962715	-0.002740
954.139394	-0.002572
954.316054	-0.002220
954.492696	-0.001439
954.669320	-0.001658
954.845926	-0.000911
955.022513	-0.000138
955.199083	-0.001392
955.375634	-0.000929
955.552166	-0.002186
955.728681	-0.002901
955.905177	-0.004289
956.081655	-0.004602
956.258115	-0.004137
956.434557	-0.004563
956.610980	-0.004407
956.787385	-0.002647
956.963772	-0.003129
957.140141	-0.000882
957.316492	-0.000444
957.492824	-0.000481
957.669138	0.000234
957.845434	0.000455
958.021712	-0.000211
958.197971	0.000008
958.374212	-0.000449
958.550435	0.000027
958.726640	-0.000659
958.902826	0.000518
959.078995	0.000603
959.255145	-0.000935
959.431277	-0.000034
959.607390	-0.000404
959.783486	-0.000315
959.959563	-0.000540
960.135622	-0.000510
960.311662	-0.000813
960.487685	-0.001100
960.663689	0.000074
960.839675	0.001668
961.015643	-0.000919
961.191593	0.000059
961.367524	-0.000578
961.543437	-0.000525
961.719332	0.000226
961.895209	0.000950
962.071067	0.000875
962.246907	-0.001371
962.422730	-0.001652
962.598533	0.000198
962.774319	-0.001576
962.950086	-0.001502
963.125835	-0.000876
963.301566	-0.000103
963.477279	-0.000328
963.652973	-0.001547
963.828650	0.000862
964.004308	0.000527
964.179947	0.001362
964.355569	0.003074
964.531172	0.003473
964.706757	0.002343
964.882324	0.001330
965.057873	0.000750
965.233403	0.002202
965.408916	0.002130
965.584410	0.003211
965.759885	0.003105
965.935343	0.003147
966.110782	0.004011
966.286203	0.004298
966.461606	0.003768
966.636991	0.006416
966.812357	0.006373
966.987705	0.005652
967.163035	0.005766
967.338347	0.005935
967.513641	0.006890
967.688916	0.006268
967.864173	0.006353
968.039412	0.005965
968.214632	0.003304
968.389835	0.002435
968.565019	0.002646
968.740185	0.001816
968.915333	0.001380
969.090462	0.002013
969.265573	0.002705
969.440667	0.000508
969.615741	0.002659
969.790798	0.002736
969.965836	0.002901
970.140856	0.004656
970.315858	0.005106
970.490842	0.003644
970.665808	0.002143
970.840755	0.000764
971.015684	0.004115
971.190595	0.002238
971.365487	0.002559
971.540362	0.003003
971.715218	0.002294
971.890056	0.002076
972.064875	0.001961
972.239677	0.002021
972.414460	0.004407
972.589225	0.002604
972.763972	0.001446
972.938700	0.000340
973.113411	-0.000555
973.288103	-0.001672
973.462777	-0.001846
973.637432	-0.001561
973.812070	-0.003115
973.986689	-0.003873
974.161290	-0.003369
974.335873	-0.000356
974.510437	0.001858
974.684984	0.003351
974.859512	0.002518
975.034022	0.003020
975.208513	0.004096
975.382987	0.006155
975.557442	0.005498
975.731879	0.007383
975.906298	0.007306
976.080698	0.007048
976.255080	0.006587
976.429445	0.007223
976.603790	0.006463
976.778118	0.007226
976.952427	0.007688
977.126719	0.005832
977.300992	0.004545
977.475246	0.001763
977.649483	0.003111
977.823701	0.003340
977.997901	0.004077
978.172083	0.004377
978.346247	0.004568
978.520392	0.002463
978.694519	0.004793
978.868628	0.005274
979.042719	0.006865
979.216791	0.005340
979.390845	0.004797
979.564882	0.003465
979.738899	0.003808
979.912899	0.002805
980.086880	0.003872
980.260843	0.003871
980.434788	0.003551
980.608715	0.003303
980.782623	0.002041
980.956514	0.002855
981.130386	0.003596
981.304240	0.004688
981.478075	0.004249
981.651892	0.004747
981.825692	0.004173
981.999472	0.004696
982.173235	0.006055
982.346980	0.007526
982.520706	0.007091
982.694414	0.005745
982.868104	0.006596
983.041775	0.009008
983.215428	0.007881
983.389064	0.009008
983.562680	0.008975
983.736279	0.007989
983.909860	0.005401
984.083422	0.007080
984.256966	0.009121
984.430491	0.006474
984.603999	0.004619
984.777488	0.005261
984.950959	0.003867
985.124412	0.002874
985.297847	0.003013
985.471263	0.005074
985.644661	0.003202
985.818041	0.003016
985.991403	0.003418
986.164747	0.003029
986.338072	0.002975
986.511379	0.002982
986.684668	0.003378
986.857938	0.003813
987.031191	0.003291
987.204425	0.003381
987.377641	0.003821
987.550839	0.003829
987.724018	0.004987
987.897179	0.005593
988.070322	0.007106
988.243447	0.006638
988.416554	0.006427
988.589642	0.006993
988.762712	0.006206
988.935764	0.004930
989.108798	0.005667
989.281813	0.005055
989.454811	0.005753
989.627790	0.005005
989.800751	0.004811
989.973693	0.003664
990.146617	0.003961
990.319524	0.004927
990.492412	0.004893
990.665281	0.003997
990.838133	0.004786
991.010966	0.003304
991.183781	0.002841
991.356578	0.003541
991.529356	0.004926
991.702117	0.004968
991.874859	0.004819
992.047583	0.004786
992.220288	0.004680
992.392976	0.004811
992.565645	0.005727
992.738296	0.005018
992.910929	0.004460
993.083543	0.003700
993.256139	0.003004
993.428718	0.003404
993.601277	0.004648
993.773819	0.005801
993.946342	0.005952
994.118848	0.005780
994.291335	0.006830
994.463803	0.008109
994.636254	0.009605
994.808686	0.010193
994.981100	0.009270
995.153496	0.008812
995.325874	0.008744
995.498233	0.007225
995.670574	0.007596
995.842897	0.008248
996.015202	0.006662
996.187488	0.006528
996.359757	0.006116
996.532007	0.005935
996.704239	0.005496
996.876452	0.004491
997.048648	0.004344
997.220825	0.004164
997.392984	0.003139
997.565124	0.002915
997.737247	0.001849
997.909351	0.003080
998.081437	0.003634
998.253505	0.002586
998.425554	0.002656
998.597586	0.002356
998.769599	0.002252
998.941594	0.003932
999.113571	0.003429
999.285529	0.004338
999.457469	0.003603
999.629391	0.003337
999.801295	0.003918
999.973181	0.004999
1000.145048	0.005956
1000.316897	0.005185
1000.488728	0.002051
1000.660541	0.003046
1000.832335	0.001860
1001.004111	0.001030
1001.175869	0.002331
1001.347609	0.003063
1001.519331	0.003114
1001.691034	0.002800
1001.862719	0.003434
1002.034386	0.005851
1002.206035	0.007608
1002.377665	0.007792
1002.549277	0.008974
1002.720871	0.007912
1002.892447	0.007608
1003.064004	0.005720
1003.235544	0.006502
1003.407065	0.006461
1003.578568	0.004361
1003.750052	0.003794
1003.921519	0.003752
1004.092967	0.003344
1004.264397	0.002664
1004.435809	0.002077
1004.607202	0.002352
1004.778577	0.002011
1004.949934	0.002067
1005.121273	0.003428
1005.292594	0.001443
1005.463896	0.000756
1005.635180	0.000722
1005.806446	0.001479
1005.977694	0.002906
1006.148923	0.002336
1006.320135	0.002425
1006.491328	0.002405
1006.662503	0.002800
1006.833659	0.003927
1007.004798	0.005370
1007.175918	0.006291
1007.347020	0.006636
1007.518103	0.007332
1007.689169	0.008763
1007.860216	0.008683
1008.031245	0.008146
1008.202256	0.007152
1008.373248	0.008122
1008.544223	0.006716
1008.715179	0.006413
1008.886117	0.006189
1009.057036	0.004831
1009.227938	0.004755
1009.398821	0.005219
1009.569686	0.004582
1009.740533	0.005603
1009.911361	0.004652
1010.082172	0.008214
1010.252964	0.006921
1010.423738	0.005148
1010.594493	0.005852
1010.765231	0.006493
1010.935950	0.006074
1011.106651	0.007358
1011.277334	0.005374
1011.447998	0.005459
1011.618645	0.003866
1011.789273	0.003922
1011.959882	0.005436
1012.130474	0.004165
1012.301048	0.004941
1012.471603	0.004957
1012.642140	0.003781
1012.812658	0.005612
1012.983159	0.005848
1013.153641	0.005195
1013.324105	0.006575
1013.494551	0.007174
1013.664979	0.007916
1013.835388	0.006415
1014.005779	0.006055
1014.176152	0.007549
1014.346507	0.006969
1014.516843	0.007001
1014.687162	0.006002
1014.857462	0.004468
1015.027744	0.003259
1015.198007	0.002742
1015.368252	0.001974
1015.538480	0.003515
1015.708689	0.002821
1015.878879	0.002005
1016.049052	0.000955
1016.219206	0.001233
1016.389342	0.002603
1016.559460	0.003406
1016.729559	0.004623
1016.899641	0.005655
1017.069704	0.004498
1017.239749	0.004383
1017.409775	0.004863
1017.579784	0.004789
1017.749774	0.005212
1017.919746	0.004924
1018.089700	0.003443
1018.259635	0.003493
1018.429553	0.003934
1018.599452	0.003192
1018.769333	0.003633
1018.939195	0.004069
1019.109040	0.005198
1019.278866	0.005227
1019.448674	0.006255
1019.618464	0.008615
1019.788235	0.008450
1019.957989	0.006319
1020.127724	0.007834
1020.297441	0.006078
1020.467139	0.005608
1020.636820	0.005631
1020.806482	0.005127
1020.976126	0.002535
1021.145752	0.002473
1021.315359	0.001147
1021.484948	0.002620
1021.654519	0.001407
1021.824072	0.002333
1021.993607	0.002438
1022.163123	0.001506
1022.332621	0.002081
1022.502101	0.003201
1022.671563	0.003578
1022.841007	0.004972
1023.010432	0.005136
1023.179839	0.006473
1023.349228	0.008188
1023.518598	0.008825
1023.687951	0.008743
1023.857285	0.007537
1024.026601	0.008763
1024.195899	0.007031
1024.365178	0.007348
1024.534439	0.007668
1024.703682	0.007603
1024.872907	0.006791
1025.042114	0.006054
1025.211302	0.005772
1025.380472	0.006502
1025.549624	0.006126
1025.718758	0.008894
1025.887873	0.009062
1026.056970	0.009104
1026.226049	0.007513
1026.395110	0.006358
1026.564153	0.006586
1026.733177	0.006394
1026.902183	0.006289
1027.071171	0.006403
1027.240141	0.003166
1027.409092	0.000538
1027.578026	-0.000538
1027.746940	-0.000381
1027.915837	0.001698
1028.084716	0.001200
1028.253576	0.000864
1028.422418	0.000812
1028.591242	-0.000324
1028.760048	0.001346
1028.928835	0.002689
1029.097604	0.003270
1029.266355	0.003227
1029.435088	0.001850
1029.603803	0.002292
1029.772499	0.003040
1029.941177	0.003313
1030.109837	0.003951
1030.278478	0.002562
1030.447102	0.002446
1030.615707	0.002227
1030.784294	0.002167
1030.952863	0.002479
1031.121413	0.005140
1031.289945	0.005433
1031.458460	0.006057
1031.626955	0.003987
1031.795433	0.004114
1031.963892	0.004994
1032.132334	0.005289
1032.300756	0.006699
1032.469161	0.006796
1032.637548	0.004852
1032.805916	0.005234
1032.974266	0.003645
1033.142598	0.005435
1033.310911	0.007295
1033.479207	0.007039
1033.647484	0.006080
1033.815743	0.004481
1033.983983	0.004025
1034.152206	0.003534
1034.320410	0.003040
1034.488596	0.004313
1034.656764	0.003791
1034.824914	0.002306
1034.993045	0.001051
1035.161158	0.001325
1035.329253	0.003064
1035.497330	0.003451
1035.665388	0.004514
1035.833428	0.005531
1036.001450	0.005181
1036.169454	0.003330
1036.337440	0.004670
1036.505407	0.004738
1036.673356	0.005833
1036.841287	0.004337
1037.009200	0.003955
1037.177094	0.003679
1037.344970	0.002718
1037.512828	0.003627
1037.680668	0.007238
1037.848489	0.007080
1038.016293	0.008812
1038.184078	0.009857
1038.351845	0.011177
1038.519593	0.011117
1038.687324	0.009911
1038.855036	0.010599
1039.022730	0.010949
1039.190406	0.009098
1039.358063	0.007947
1039.525702	0.007369
1039.693323	0.006025
1039.860926	0.005152
1040.028511	0.005503
1040.196077	0.005305
1040.363625	0.005120
1040.531155	0.003439
1040.698667	0.003545
1040.866161	0.002218
1041.033636	0.002722
1041.201093	0.001603
1041.368532	0.001192
1041.535952	0.000673
1041.703355	0.001526
1041.870739	0.002022
1042.038105	0.003216
1042.205452	0.004276
1042.372782	0.004817
1042.540093	0.002809
1042.707386	0.002976
1042.874661	0.003530
1043.041918	0.002757
1043.209156	0.003614
1043.376376	0.002902
1043.543578	0.001501
1043.710762	-0.000584
1043.877927	-0.001699
1044.045074	-0.000945
1044.212203	-0.000373
1044.379314	-0.000903
1044.546407	-0.001718
1044.713481	-0.004207
1044.880537	-0.003932
1045.047575	-0.003644
1045.214595	-0.002315
1045.381596	0.000632
1045.548579	0.000793
1045.715544	0.002244
1045.882491	0.001390
1046.049420	0.002905
1046.216330	0.004817
1046.383222	0.005627
1046.550096	0.006129
1046.716951	0.004412
1046.883789	0.004344
1047.050608	0.003874
1047.217409	0.003628
1047.384192	0.005059
1047.550956	0.005715
1047.717703	0.006789
1047.884431	0.005780
1048.051140	0.004841
1048.217832	0.006856
1048.384505	0.005987
1048.551161	0.006499
1048.717798	0.005845
1048.884416	0.007466
1049.051017	0.006036
1049.217599	0.003344
1049.384163	0.003493
1049.550709	0.004988
1049.717237	0.005386
1049.883746	0.005714
1050.050237	0.006002
1050.216710	0.006421
1050.383165	0.005232
1050.549601	0.007192
1050.716019	0.007722
1050.882420	0.008538
1051.048801	0.009080
1051.215165	0.008452
1051.381510	0.008797
1051.547837	0.007660
1051.714146	0.005625
1051.880437	0.005020
1052.046709	0.003185
1052.212964	0.003396
1052.379200	0.001797
1052.545417	-0.000164
1052.711617	-0.000444
1052.877798	-0.000431
1053.043961	0.000863
1053.210106	0.000280
1053.376233	0.001166
1053.542341	0.002900
1053.708432	0.003903
1053.874504	0.003875
1054.040557	0.004879
1054.206593	0.006488
1054.372610	0.006162
1054.538609	0.005621
1054.704590	0.007846
1054.870553	0.006732
1055.036497	0.004933
1055.202424	0.004249
1055.368331	0.005135
1055.534221	0.005271
1055.700093	0.004069
1055.865946	0.004278
1056.031781	0.003345
1056.197598	0.002991
1056.363397	0.002869
1056.529177	0.003493
1056.694939	0.003722
1056.860683	0.002962
1057.026409	0.003790
1057.192116	0.002816
1057.357806	0.002577
1057.523477	0.003869
1057.689130	0.004154
1057.854764	0.004631
1058.020381	0.004503
1058.185979	0.004212
1058.351559	0.004834
1058.517120	0.003204
1058.682664	0.003743
1058.848189	0.001881
1059.013696	0.002860
1059.179185	0.003197
1059.344656	0.002108
1059.510108	0.002173
1059.675542	0.001169
1059.840958	0.000664
1060.006356	0.000799
1060.171735	0.000709
1060.337096	0.002560
1060.502439	0.000267
1060.667764	0.000210
1060.833071	0.000751
1060.998359	0.001116
1061.163629	0.002056
1061.328881	0.003812
1061.494115	0.002291
1061.659330	0.002783
1061.824527	0.003272
1061.989706	0.004938
1062.154867	0.004966
1062.320010	0.006194
1062.485134	0.005730
1062.650240	0.005131
1062.815328	0.003732
1062.980398	0.005071
1063.145449	0.004096
1063.310482	0.003574
1063.475497	0.003264
1063.640494	0.003745
1063.805473	0.003164
1063.970433	0.003714
1064.135375	0.004591
1064.300299	0.004674
1064.465204	0.005771
1064.630092	0.005821
1064.794961	0.007376
1064.959812	0.006681
1065.124645	0.004780
1065.289459	0.002476
1065.454256	0.003569
1065.619034	0.004677
1065.783793	0.005361
1065.948535	0.004219
1066.113258	0.006267
1066.277964	0.002296
1066.442651	0.003998
1066.607319	0.004369
1066.771970	0.007106
1066.936602	0.006819
1067.101216	0.005488
1067.265812	0.004293
1067.430389	0.007044
1067.594949	0.005216
1067.759490	0.007126
1067.924013	0.006541
1068.088518	0.008717
1068.253004	0.008046
1068.417472	0.007096
1068.581922	0.006360
1068.746354	0.006273
1068.910768	0.002700
1069.075163	0.002383
1069.239540	0.003126
1069.403899	0.003318
1069.568240	0.000911
1069.732562	0.002247
1069.896866	0.001431
1070.061152	0.000566
1070.225420	0.000806
1070.389670	0.002923
1070.553901	0.003438
1070.718114	0.003184
1070.882309	0.003183
1071.046486	0.004251
1071.210644	0.003956
1071.374784	0.004522
1071.538906	0.007576
1071.703010	0.007892
1071.867096	0.006730
1072.031163	0.006616
1072.195212	0.006236
1072.359243	0.007031
1072.523256	0.008479
1072.687250	0.008388
1072.851226	0.007123
1073.015184	0.005032
1073.179124	0.005378
1073.343045	0.005387
1073.506949	0.008173
1073.670834	0.009947
1073.834701	0.008903
1073.998549	0.007451
1074.162380	0.007243
1074.326192	0.008478
1074.489986	0.009304
1074.653761	0.007718
1074.817519	0.008214
1074.981258	0.007032
1075.144979	0.006697
1075.308682	0.007023
1075.472367	0.007006
1075.636033	0.004223
1075.799681	0.003822
1075.963311	0.003531
1076.126923	0.004501
1076.290516	0.006309
1076.454092	0.006033
1076.617649	0.004380
1076.781187	0.001841
1076.944708	0.001687
1077.108210	0.004147
1077.271695	0.005327
1077.435160	0.006374
1077.598608	0.007386
1077.762038	0.005969
1077.925449	0.006758
1078.088842	0.005251
1078.252217	0.005967
1078.415573	0.006574
1078.578912	0.006382
1078.742232	0.007200
1078.905534	0.007426
1079.068817	0.006486
1079.232083	0.008406
1079.395330	0.006623
1079.558559	0.008550
1079.721770	0.010287
1079.884962	0.009515
1080.048136	0.008741
1080.211293	0.007295
1080.374430	0.007208
1080.537550	0.008467
1080.700651	0.003733
1080.863735	0.003936
1081.026800	0.004598
1081.189846	0.003553
1081.352875	0.003103
1081.515885	0.003661
1081.678877	0.005205
1081.841851	0.004067
1082.004807	0.002353
1082.167744	0.004115
1082.330663	0.002163
1082.493564	0.001467
1082.656447	0.002299
1082.819312	0.002790
1082.982158	0.004151
1083.144986	0.000863
1083.307796	0.001629
1083.470587	0.003288
1083.633361	0.004197
1083.796116	0.006633
1083.958853	0.008142
1084.121571	0.006923
1084.284272	0.005756
1084.446954	0.003446
1084.609618	0.005572
1084.772264	0.003776
1084.934892	0.000097
1085.097501	0.001503
1085.260092	-0.001529
1085.422665	-0.004379
1085.585220	-0.003015
1085.747756	-0.004177
1085.910274	-0.004737
1086.072774	-0.004636
1086.235256	-0.002806
1086.397720	0.000891
1086.560165	-0.001107
1086.722592	-0.001391
1086.885001	-0.001317
1087.047392	-0.002645
1087.209764	-0.001262
1087.372119	-0.000132
1087.534455	-0.001925
1087.696772	-0.001571
1087.859072	-0.002174
1088.021353	-0.003148
1088.183616	-0.002285
1088.345861	-0.000234
1088.508088	-0.001261
1088.670296	0.001620
1088.832486	0.000653
1088.994658	0.003031
1089.156812	0.001185
1089.318948	0.000409
1089.481065	0.001896
1089.643164	0.003900
1089.805245	0.001736
1089.967308	0.002898
1090.129352	0.001106
1090.291378	0.002616
1090.453386	0.000390
1090.615376	0.002234
1090.777347	0.004233
1090.939301	0.004593
1091.101236	0.003209
1091.263153	0.001857
1091.425051	0.002229
1091.586932	-0.001234
1091.748794	-0.003376
1091.910638	-0.001989
1092.072463	-0.002244
1092.234271	-0.005600
1092.396060	-0.004388
1092.557831	-0.002929
1092.719584	0.000778
1092.881319	0.002781
1093.043035	0.008319
1093.204733	0.012395
1093.366413	0.011172
1093.528075	0.011372
1093.689718	0.013607
1093.851343	0.011828
1094.012950	0.008723
1094.174539	0.007076
1094.336110	0.007182
1094.497662	0.008254
1094.659196	0.007901
1094.820712	0.009189
1094.982210	0.006866
1095.143689	0.006706
1095.305151	0.008281
1095.466594	0.010086
1095.628018	0.010931
1095.789425	0.009649
1095.950813	0.006974
1096.112183	0.004863
1096.273535	0.003479
1096.434869	0.005923
1096.596184	0.005247
1096.757482	0.003206
1096.918761	0.003847
1097.080021	0.002823
1097.241264	0.001009
1097.402488	0.000369
1097.563694	-0.001179
1097.724882	0.000867
1097.886052	0.001075
1098.047203	0.002867
1098.208336	0.001906
1098.369451	0.002615
1098.530548	0.002691
1098.691627	0.004629
1098.852687	0.004411
1099.013729	0.006567
1099.174753	0.006012
1099.335758	0.003920
1099.496746	0.001772
1099.657715	0.000821
1099.818666	-0.000116
1099.979599	0.001413
1100.140513	0.001554
1100.301409	0.001281
1100.462287	0.001819
1100.623147	-0.001912
1100.783989	-0.001622
1100.944812	0.000721
1101.105617	0.004437
1101.266404	0.005217
1101.427173	0.004282
1101.587923	0.001349
1101.748656	-0.000106
1101.909370	-0.002437
1102.070066	0.000923
1102.230743	0.000918
1102.391403	0.001044
1102.552044	-0.001497
1102.712667	-0.002991
1102.873271	-0.004693
1103.033858	-0.003018
1103.194426	-0.002448
1103.354976	-0.004867
1103.515508	-0.004143
1103.676021	-0.002371
1103.836517	-0.004362
1103.996994	-0.000860
1104.157453	0.001445
1104.317893	0.003632
1104.478316	0.006270
1104.638720	0.007806
1104.799106	0.010059
1104.959474	0.009201
1105.119823	0.009898
1105.280155	0.009762
1105.440468	0.007178
1105.600763	0.006884
1105.761039	0.006781
1105.921298	0.003102
1106.081538	0.003924
1106.241760	0.005926
1106.401964	0.007140
1106.562149	0.005275
1106.722316	0.000912
1106.882465	0.003418
1107.042596	0.005610
1107.202709	0.007211
1107.362803	0.008246
1107.522879	0.006088
1107.682937	0.005588
1107.842977	0.008448
1108.002999	0.009289
1108.163002	0.013332
1108.322987	0.011489
1108.482954	0.008522
1108.642902	0.006384
1108.802833	0.004940
1108.962745	0.004160
1109.122639	0.004652
1109.282515	0.003079
1109.442372	0.000509
1109.602211	0.001783
1109.762032	-0.000094
1109.921835	0.000615
1110.081620	0.000031
1110.241386	0.000355
1110.401134	-0.001239
1110.560864	-0.001829
1110.720576	-0.004862
1110.880269	-0.002587
1111.039945	-0.000028
1111.199602	0.001266
1111.359240	-0.000538
1111.518861	0.002666
1111.678463	0.003042
1111.838047	0.005559
1111.997613	0.002851
1112.157161	0.003441
1112.316690	0.002428
1112.476202	-0.002460
1112.635695	-0.002894
1112.795169	-0.001179
1112.954626	-0.002182
1113.114064	0.000191
1113.273484	0.000697
1113.432886	0.003881
1113.592270	0.007330
1113.751635	0.009798
1113.910983	0.009787
1114.070312	0.011500
1114.229622	0.012504
1114.388915	0.011593
1114.548189	0.014485
1114.707445	0.014414
1114.866683	0.019121
1115.025903	0.015505
1115.185104	0.012421
1115.344287	0.011723
1115.503452	0.009855
1115.662599	0.007250
1115.821727	0.007523
1115.980838	0.000935
1116.139930	0.000915
1116.299004	-0.005770
1116.458059	-0.008744
1116.617097	-0.009507
1116.776116	-0.010778
1116.935117	-0.011913
1117.094099	-0.010104
1117.253064	-0.010873
1117.412010	-0.005732
1117.570938	-0.004369
1117.729848	-0.000566
1117.888740	0.002774
1118.047613	0.002753
1118.206468	0.005062
1118.365305	0.003840
1118.524124	0.003107
1118.682924	0.001737
1118.841707	-0.001876
1119.000471	-0.001693
1119.159216	-0.004677
1119.317944	-0.007240
1119.476653	-0.004299
1119.635344	0.000485
1119.794017	0.000909
1119.952672	0.001205
1120.111308	0.001354
1120.269927	0.001785
1120.428527	0.000291
1120.587108	0.001024
1120.745672	0.002530
1120.904217	0.004764
1121.062744	0.001158
1121.221253	0.001182
1121.379744	0.002746
1121.538216	0.008553
1121.696671	0.005869
1121.855107	0.006380
1122.013524	0.002453
1122.171924	0.005444
1122.330305	0.004695
1122.488668	0.004845
1122.647013	0.007816
1122.805340	0.005234
1122.963648	0.004338
1123.121938	0.004024
1123.280210	0.005817
1123.438464	0.011741
1123.596700	0.009066
1123.754917	0.005212
1123.913116	0.003634
1124.071297	0.006987
1124.229459	0.007710
1124.387604	0.005448
1124.545730	0.009529
1124.703838	0.006869
1124.861928	0.003993
1125.019999	0.007552
1125.178052	0.006717
1125.336088	0.007466
1125.494104	0.003543
1125.652103	0.003245
1125.810083	0.003117
1125.968045	0.000792
1126.125989	0.002525
1126.283915	0.003260
1126.441823	0.001007
1126.599712	0.004364
1126.757583	0.005431
1126.915436	0.003970
1127.073270	0.002265
1127.231087	-0.001818
1127.388885	0.000547
1127.546665	0.001917
1127.704426	0.001096
1127.862170	0.003042
1128.019895	0.004384
1128.177602	0.004350
1128.335291	0.004833
1128.492961	0.007525
1128.650614	0.013595
1128.808248	0.012030
1128.965864	0.009270
1129.123461	0.012317
1129.281041	0.009439
1129.438602	0.003042
1129.596145	0.001636
1129.753670	0.004447
1129.911176	0.005732
1130.068665	-0.003112
1130.226135	-0.003765
1130.383587	-0.005609
1130.541020	-0.007927
1130.698436	-0.011626
1130.855833	-0.008959
1131.013212	-0.003977
1131.170573	-0.006731
1131.327915	-0.002431
1131.485239	0.004664
1131.642545	0.012103
1131.799833	0.013640
1131.957103	0.012509
1132.114354	0.017581
1132.271588	0.012933
1132.428803	0.007878
1132.585999	0.007371
1132.743178	0.001050
1132.900338	0.002747
1133.057480	-0.006314
1133.214604	-0.007576
1133.371710	-0.003790
1133.528797	-0.000482
1133.685866	0.002711
1133.842917	0.008279
1133.999950	0.012622
1134.156964	0.013599
1134.313960	0.005592
1134.470938	0.003780
1134.627898	0.007148
1134.784840	0.003070
1134.941763	-0.002881
1135.098668	0.004422
1135.255555	0.000876
1135.412424	-0.002802
1135.569274	-0.006641
1135.726107	-0.001321
1135.882921	0.001725
1136.039716	0.000458
1136.196494	0.001372
1136.353253	0.004594
1136.509995	0.000964
1136.666717	0.000260
1136.823422	0.000235
1136.980109	0.002942
1137.136777	0.001727
1137.293427	-0.001083
1137.450059	0.001778
1137.606672	-0.000158
1137.763267	-0.001767
1137.919844	-0.005187
1138.076403	-0.007601
1138.232944	-0.001983
1138.389466	-0.002803
1138.545971	0.001663
1138.702457	0.005165
1138.858924	-0.001381
1139.015374	0.000667
1139.171805	0.001004
1139.328218	0.000694
1139.484613	-0.005042
1139.640990	-0.006329
1139.797348	-0.012014
1139.953688	-0.015545
1140.110010	-0.013988
1140.266314	-0.009910
1140.422600	-0.006687
1140.578867	-0.002939
1140.735116	-0.001291
1140.891347	0.008647
1141.047559	0.008677
1141.203754	0.018632
1141.359930	0.015469
1141.516088	0.015149
1141.672228	0.021055
1141.828349	0.020711
1141.984452	0.021686
1142.140537	0.022333
1142.296604	0.023877
1142.452653	0.021392
1142.608683	0.013186
1142.764695	0.013465
1142.920689	0.015206
1143.076665	0.014202
1143.232622	0.017564
1143.388562	0.015269
1143.544483	0.019738
1143.700385	0.018570
1143.856270	0.014383
1144.012136	0.018245
1144.167985	0.020957
1144.323814	0.015779
1144.479626	0.006796
1144.635420	0.004347
1144.791195	-0.004068
1144.946952	-0.010926
1145.102691	-0.007815
1145.258411	-0.005146
1145.414113	-0.011428
1145.569798	-0.006344
1145.725463	-0.001210
1145.881111	0.003024
1146.036741	-0.004149
1146.192352	-0.000224
1146.347945	0.005178
1146.503519	0.003101
1146.659076	0.003529
1146.814614	0.011594
1146.970134	0.007573
1147.125636	0.005190
1147.281120	0.010997
1147.436585	0.009330
1147.592032	0.007442
1147.747461	0.010614
1147.902872	0.011986
1148.058265	0.011397
1148.213639	0.016842
1148.368995	0.014381
1148.524333	0.013039
1148.679653	0.008514
1148.834954	0.015477
1148.990237	0.026067
1149.145502	0.018967
1149.300749	0.009929
1149.455977	0.008887
1149.611188	0.004053
1149.766380	0.012557
1149.921553	0.004530
1150.076709	0.005098
1150.231846	0.008486
1150.386966	-0.002256
1150.542066	-0.004292
1150.697149	0.000198
1150.852214	-0.002839
1151.007260	-0.003297
1151.162288	-0.011633
1151.317298	0.002255
1151.472289	-0.006686
1151.627263	-0.010583
1151.782218	-0.001697
1151.937155	-0.000525
1152.092073	-0.001079
1152.246974	0.004090
1152.401856	0.005266
1152.556720	0.008012
1152.711566	-0.004127
1152.866393	-0.007035
1153.021203	-0.008992
1153.175994	-0.012524
1153.330767	-0.013225
1153.485521	-0.008794
1153.640258	-0.015980
1153.794976	-0.011990
1153.949676	-0.010445
1154.104358	-0.004928
1154.259021	0.002336
1154.413667	0.004849
1154.568294	-0.002108
1154.722903	0.000916
1154.877493	-0.002571
1155.032066	0.002314
1155.186620	-0.008386
1155.341156	-0.005505
1155.495674	0.000740
1155.650173	0.005569
1155.804654	0.009095
1155.959118	0.017149
1156.113562	0.015582
1156.267989	0.020137
1156.422397	0.021338
1156.576788	0.022727
1156.731160	0.013778
1156.885513	0.014638
1157.039849	0.010355
1157.194166	0.004803
1157.348465	0.001871
1157.502746	-0.000798
1157.657009	-0.003003
1157.811253	-0.001995
1157.965479	-0.003025
1158.119687	-0.001214
1158.273877	-0.003746
1158.428048	0.011688
1158.582201	0.014655
1158.736337	0.019537
1158.890453	0.017750
1159.044552	0.019239
1159.198632	0.020492
1159.352694	0.023013
1159.506738	0.029899
1159.660764	0.037692
1159.814771	0.026537
1159.968761	0.022926
1160.122732	0.018678
1160.276685	0.025293
1160.430619	0.013299
1160.584535	0.009351
1160.738434	0.008321
1160.892313	-0.003656
1161.046175	-0.018155
1161.200019	-0.021314
1161.353844	-0.023226
1161.507651	-0.025737
1161.661440	-0.029674
1161.815210	-0.024070
1161.968962	-0.020118
1162.122697	-0.022997
1162.276412	-0.011558
1162.430110	-0.010980
1162.583789	-0.005069
1162.737451	0.001163
1162.891094	0.002722
1163.044718	0.010997
1163.198325	0.019121
1163.351913	0.020302
1163.505483	0.019037
1163.659035	0.007348
1163.812569	0.012723
1163.966084	0.002294
1164.119581	0.001687
1164.273060	0.002178
1164.426521	0.004353
1164.579964	-0.001394
1164.733388	-0.010503
1164.886794	-0.003195
1165.040182	0.006140
1165.193551	0.012846
1165.346903	0.010379
1165.500236	0.004860
1165.653551	0.009229
1165.806848	-0.005769
1165.960126	-0.006423
1166.113386	-0.003878
1166.266628	0.008181
1166.419852	0.016552
1166.573058	0.011813
1166.726245	0.020527
1166.879414	0.021096
1167.032565	0.020897
1167.185698	0.014345
1167.338812	0.015187
1167.491909	0.013660
1167.644987	0.010864
1167.798046	-0.005022
1167.951088	-0.002440
1168.104111	-0.007551
1168.257117	0.002311
1168.410103	0.011316
1168.563072	0.026995
1168.716023	0.028568
1168.868955	0.018676
1169.021869	0.013070
1169.174765	0.017648
1169.327642	0.020331
1169.480501	0.016036
1169.633343	0.010409
1169.786165	-0.006632
1169.938970	-0.005427
1170.091757	-0.005764
1170.244525	0.001458
1170.397275	0.004064
1170.550007	0.003273
1170.702720	-0.011232
1170.855415	0.005852
1171.008092	0.008542
1171.160751	0.015541
1171.313392	0.017893
1171.466014	0.109553
1171.618619	0.033065
1171.771205	0.033065
1171.923772	0.033065
