sample name	sample
index	539
start time	 03-15-2021  10:32:40 AM
880	0.000216
Peak Time (s)	92.035
Peak Height 	2.1602E-4
calc peak height	90,93
Baseline Time (s)	9.537
Baseline Value 	-0.004933
subtract baseline	10,4
Abs	-0.000026
Peak Time (s)	90.535
Peak Height 	-2.5778E-5
calc peak height	90,93
Baseline Time (s)	9.037
Baseline Value 	0.00368
subtract baseline	10,3
PK_550	0.001488
Peak Time (s)	92.536
Peak Height 	0.001488
calc peak height	90,93
Baseline Time (s)	9.537
Baseline Value 	3.8978E-4
subtract baseline	10,2
PK_880	-0.002916
Peak Time (s)	91.034
Peak Height 	-0.002916
calc peak height	90,93
Baseline Time (s)	9.037
Baseline Value 	0.001364
subtract baseline	10,1


Time (s)	A880-A510	A880-A775	A880-A975	A880	I510	I775	I975	I880	
0.035000	0.000592	-0.000710	0.002322	0.000399	6108.445483	40840.734182	3685.237664	21447.388733
0.541000	-0.001704	-0.000045	-0.004996	0.006790	6040.842863	40341.270566	3654.014588	21173.418464
1.036000	-0.001922	-0.000212	0.002674	0.003799	6062.275261	40586.755972	3678.208627	21301.127424
1.538500	0.000223	-0.000497	0.003964	-0.000384	6111.696164	40928.213082	3690.862986	21481.225589
2.036500	0.000202	-0.000215	0.003452	-0.000509	6112.515653	40964.105070	3689.961776	21486.639258
2.542500	-0.004272	-0.000599	-0.001380	0.005301	6032.547184	40422.360742	3665.527157	21236.898879
3.037000	0.001803	0.000171	0.003415	-0.001995	6136.894821	41129.330121	3693.335744	21551.050907
3.537000	0.000057	-0.000870	0.001159	-0.000123	6108.342022	40872.499510	3683.754542	21469.948542
4.037500	-0.000193	-0.000511	-0.002028	-0.000207	6107.036947	40911.438431	3676.612223	21473.560050
4.535000	0.000705	-0.000304	-0.002792	0.001091	6103.897139	40815.562218	3671.892086	21417.517886
5.035000	-0.001313	-0.000721	-0.001884	-0.000445	6100.114378	40913.885343	3677.489229	21483.877436
5.535500	0.001213	-0.000144	-0.000311	0.000477	6112.713484	40883.606804	3678.984452	21444.015642
6.035500	0.000365	0.000103	0.000489	0.000148	6108.629579	40934.222574	3681.583731	21458.222149
6.538500	0.000172	0.000144	-0.001104	0.000055	6107.842502	40946.012563	3678.130270	21462.232380
7.036000	0.001136	0.000895	-0.000637	0.000443	6112.374888	40977.942156	3678.312995	21445.476056
7.538500	0.000289	-0.000029	0.004448	-0.000600	6113.925523	40988.545009	3692.493216	21490.599523
8.037000	0.000236	0.000416	-0.001113	-0.000134	6109.834206	40986.607758	3678.543194	21470.401255
8.537000	-0.000922	-0.000462	-0.002693	-0.001071	6108.103824	40991.849647	3677.069024	21510.981796
9.037500	0.000000	-0.000155	0.000000	-0.000190	6108.425374	40941.309941	3681.236254	21472.859113
9.537500	-0.000689	0.000000	-0.000603	0.000000	6101.520296	40938.207124	3679.409098	21464.629145
10.035500	-0.001494	-0.000118	-0.001021	-0.000041	6095.533325	40931.404011	3678.542299	21466.393613
10.536000	0.002688	0.000884	0.004218	0.000701	6122.581637	40954.360804	3688.933202	21434.371940
11.036000	0.000293	0.000526	0.001263	0.000040	6108.920199	40980.965744	3683.618777	21462.899267
11.536500	0.000951	0.000536	0.005911	0.000640	6109.375202	40929.119973	3693.013881	21437.007817
12.037000	0.000588	0.000549	-0.004325	-0.000010	6111.630994	40987.437232	3670.908681	21465.077856
12.536500	0.001397	0.000209	-0.000234	0.000016	6117.791339	40955.177277	3680.220005	21463.917348
13.037500	0.001783	0.001127	0.002557	-0.001379	6131.855405	41159.405099	3689.903542	21524.316208
13.537000	-0.004374	-0.000649	-0.000715	0.004214	6040.122092	40512.474585	3669.507600	21283.351369
14.035000	0.002674	0.000243	0.000695	-0.001291	6138.222129	41073.461916	3685.382139	21520.523703
14.535000	-0.001973	-0.000250	-0.002805	0.002475	6072.163622	40699.094584	3668.709845	21357.974426
15.035500	0.002686	0.000657	0.001500	-0.000600	6132.843525	41049.079819	3685.646232	21490.596002
15.563000	-0.000377	0.001078	0.004050	0.001810	6089.788209	40873.797866	3685.970574	21386.544768
16.036500	0.002287	0.000873	0.003092	-0.001053	6133.268635	41108.066846	3690.388901	21510.177500
16.539000	-0.000458	0.001145	0.000965	0.000232	6101.514169	41018.626415	3682.487506	21454.589493
17.039500	0.000703	0.000996	0.001839	-0.001059	6120.797448	41119.514774	3687.494268	21510.457580
17.540500	0.000591	0.000917	0.002404	0.002329	6093.299273	40814.084308	3680.970129	21364.232342
18.037000	0.001681	0.000546	0.002480	0.001043	6111.944936	40894.478441	3684.111797	21419.594413
18.537000	-0.001253	-0.000057	-0.000925	0.000892	6090.123050	40854.740423	3676.621380	21426.115622
19.035000	-0.000682	0.000738	-0.001394	0.001349	6091.015268	40884.488482	3674.499714	21406.426227
19.538000	-0.001006	-0.000566	-0.001862	0.001884	6084.297053	40723.152069	3672.205463	21383.368582
20.035500	-0.001426	0.000082	0.003204	0.001045	6087.568337	40853.556601	3685.783047	21419.506580
20.538500	0.000894	0.000279	0.002388	0.001430	6102.720180	40837.054120	3683.006828	21402.925022
21.036000	0.001645	0.000746	0.002297	0.001236	6110.142416	40895.068373	3683.243414	21411.265598
21.539000	-0.001366	-0.000836	-0.004441	0.000471	6092.531811	40823.345318	3669.548397	21444.300052
22.036500	-0.000641	0.000548	0.000583	0.001425	6090.733541	40861.045998	3678.861012	21403.134774
22.537000	-0.001381	0.000701	0.005689	0.001883	6081.378496	40834.263866	3689.601733	21383.407389
23.037000	-0.000111	0.001237	0.008179	0.001128	6097.211138	40947.797817	3697.171488	21415.954508
23.537500	0.001143	0.000739	-0.001766	0.001414	6104.796422	40878.799977	3673.499095	21403.593864
24.034500	-0.001746	0.000637	0.000266	0.001005	6085.383792	40905.802313	3679.095722	21421.220931
24.535500	-0.002687	-0.000427	-0.003528	0.000340	6083.231806	40870.762578	3671.926875	21449.933615
25.035500	0.002550	0.000163	-0.001550	0.000621	6122.117988	40897.890983	3675.810474	21437.813136
25.536000	-0.000886	0.000345	0.001480	0.001003	6092.124735	40880.366822	3681.896213	21421.328621
26.036500	-0.000433	0.000053	-0.001708	0.000155	6102.313845	40929.265031	3676.517323	21457.948599
26.536500	-0.001257	0.000362	0.002421	0.000947	6089.660439	40886.788138	3684.197745	21423.743434
27.036500	0.000043	-0.000038	-0.000449	0.000400	6104.128766	40899.672868	3678.844624	21447.343732
27.537000	0.004595	0.001095	0.003118	-0.000725	6148.977065	41098.693921	3689.688284	21495.987688
28.037500	0.001661	0.001479	0.004238	-0.001730	6133.674081	41221.767828	3694.639377	21539.568200
28.535000	0.001856	0.001188	0.005306	-0.001174	6130.822769	41146.752768	3695.836233	21515.462879
29.038000	0.000200	-0.000404	0.002457	-0.002224	6126.025455	41098.737482	3691.637898	21560.984708
29.535500	0.001804	0.001569	0.002334	-0.000934	6128.508576	41159.151185	3688.353029	21505.036931
30.036000	0.003216	0.001117	0.001254	-0.000620	6137.194631	41091.384848	3685.122108	21491.432185
30.536000	-0.000531	-0.000241	0.004204	-0.001323	6113.154356	41033.557491	3693.608858	21521.879589
31.048500	0.002211	0.001165	0.003978	-0.001127	6133.255888	41140.491249	3692.626123	21513.403681
31.536500	-0.000877	0.000968	-0.002817	0.003608	6071.873644	40706.516708	3666.108380	21309.324160
32.037000	0.001632	0.000487	0.000200	-0.000060	6120.254449	40986.421795	3681.396738	21467.241857
32.542500	0.002057	0.000483	0.006226	-0.001412	6134.289266	41105.377666	3698.547092	21525.766694
33.037500	0.003238	0.001697	0.004264	-0.000613	6137.318893	41142.100300	3692.093736	21491.137456
33.535500	-0.000784	-0.000372	0.000749	0.002680	6079.821586	40670.485284	3676.358939	21349.136379
34.035500	0.000230	-0.000460	0.006355	-0.001934	6123.974411	41068.191480	3700.073557	21548.398127
34.536000	0.001408	0.000642	0.006307	-0.001751	6131.834061	41149.393571	3699.531857	21540.464843
35.036000	-0.001131	0.000373	0.002753	0.001861	6083.505332	40807.499532	3682.854073	21384.374450
35.536000	-0.000606	-0.000188	0.000683	0.001469	6090.670348	40792.685643	3678.988807	21401.250585
36.036000	-0.000601	0.000308	0.000917	0.001371	6091.472247	40844.795765	3679.754183	21405.477785
36.537000	-0.000876	0.001193	0.000862	0.001736	6086.466430	40890.440990	3678.785426	21389.740712
37.037000	-0.001652	0.000814	0.001075	0.002059	6077.899498	40828.803841	3678.534105	21375.851014
37.535000	-0.001263	-0.000012	0.001876	0.001763	6083.239416	40782.326158	3681.059537	21388.600688
38.035000	0.001045	0.001334	0.002615	0.002183	6098.003056	40863.540388	3681.792982	21370.526591
38.535000	-0.000175	0.000085	0.002614	0.001089	6097.009749	40849.927021	3684.316917	21417.613394
39.035500	-0.000974	0.000785	0.002571	0.001797	6085.228550	40849.243594	3682.582474	21387.134859
39.536000	0.002766	0.000771	-0.000473	0.001901	6113.731200	40838.823719	3675.344273	21382.621652
40.036000	0.000065	0.000137	0.004869	0.001011	6099.507297	40861.286143	3689.722625	21420.969431
40.542000	-0.000024	0.000518	-0.003221	0.001439	6095.454420	40857.188396	3670.121960	21402.525642
41.036500	0.000847	0.001168	0.001591	0.002147	6096.734099	40852.081200	3679.517218	21372.050658
41.537000	-0.000676	0.000644	-0.004133	0.001851	6087.135667	40832.160481	3667.110428	21384.814951
42.034500	-0.000871	-0.000201	0.001813	0.000806	6093.780511	40849.690191	3683.120577	21429.839785
42.534500	0.000011	0.000342	0.005316	0.000993	6099.226755	40880.984770	3690.805664	21421.762836
43.035000	-0.000074	0.000212	0.005125	0.001611	6093.723000	40815.275674	3688.925473	21395.146925
43.535500	-0.000375	0.001411	0.000783	0.002416	6085.077558	40849.855280	3677.043100	21360.496868
44.035500	-0.001372	0.000492	0.001568	0.002073	6079.969910	40799.286442	3679.635029	21375.239987
44.536000	0.000319	0.000592	-0.000335	0.001249	6099.628248	40880.396228	3677.154749	21410.706608
45.036000	-0.000521	-0.000690	0.000903	-0.002325	6121.131153	41082.368944	3688.261228	21565.388177
45.536000	-0.003325	-0.000702	-0.001489	0.004451	6046.381056	40487.273727	3667.209528	21273.219822
46.067000	-0.001601	0.000037	0.006097	0.003711	6065.456177	40616.199763	3686.310546	21304.931240
46.534000	0.001767	0.000156	0.004579	-0.001242	6130.655076	41061.455403	3694.294964	21518.395226
47.034500	0.002010	0.001000	-0.001392	-0.001191	6132.170730	41131.511179	3680.334579	21516.172629
47.535000	-0.004032	0.001011	-0.002337	0.005692	6031.381638	40528.356773	3662.473537	21220.203375
48.035500	0.000239	-0.000007	-0.001528	0.001359	6098.142092	40818.117253	3674.170931	21405.979257
48.535500	-0.001277	0.000032	0.004107	0.001666	6083.887407	40794.588032	3686.435277	21392.743332
49.035500	-0.001818	0.000419	-0.000679	0.002435	6073.678040	40761.152366	3673.650043	21359.659967
49.536000	-0.002660	-0.000077	-0.001901	0.004895	6048.083424	40502.990716	3665.265095	21254.226673
50.039500	-0.001293	0.000696	0.003660	0.001661	6083.804698	40853.412148	3685.412797	21392.994473
50.536500	0.001880	0.000977	0.004363	-0.000878	6128.664805	41101.877306	3692.943942	21502.620132
51.039500	0.003080	0.000921	0.002442	-0.002050	6147.463437	41200.597937	3691.197932	21553.426798
51.537000	-0.002100	0.000306	-0.002680	0.005199	6050.068063	40509.995576	3662.814870	21241.269110
52.037500	-0.000180	-0.000850	0.006133	0.002899	6082.823940	40609.631576	3688.274362	21339.732599
52.535000	0.016247	-0.012350	0.024190	0.234471	4759.331593	24365.402720	3296.866393	13633.444632
53.035000	-0.012043	-0.025238	-0.004813	-0.055090	6462.444838	43658.291673	3803.573121	24003.395179
53.538500	-0.020239	-0.036013	-0.014318	-0.188565	7722.178838	57026.857048	4174.605735	31670.755808
54.036000	0.002041	-0.041165	0.008200	-0.227811	8487.284973	61462.821411	4402.949041	34411.347123
54.538500	-0.012191	-0.026854	0.005130	-0.131104	7181.539401	51309.609940	4049.387232	28079.589828
55.036500	-0.018573	-0.022160	-0.009979	-0.155997	7376.909858	54735.952352	4080.577619	29577.224248
55.536500	-0.013350	-0.023776	-0.012182	-0.207444	8029.491405	61061.327725	4248.684728	32958.238050
56.037000	-0.002035	-0.025644	-0.004684	-0.219543	8324.970748	62452.301945	4321.069783	33813.255777
56.537000	0.002273	-0.021720	-0.005729	-0.212343	8287.608471	62003.399257	4290.216287	33301.588988
57.037500	-0.000353	-0.013529	-0.002610	-0.178142	7832.926105	58556.541927	4179.034717	30983.614370
57.535000	-0.001051	-0.011500	-0.004811	-0.169731	7726.278554	57741.718019	4142.857416	30440.956262
58.035500	-0.004216	-0.008068	-0.005148	-0.111151	7059.500723	51179.242413	3957.336754	26939.657785
58.535500	0.000555	-0.007108	-0.001193	-0.092759	6924.731610	49272.244931	3915.586253	25934.248811
59.035000	0.002275	-0.005687	-0.000886	-0.077325	6793.253595	47793.895010	3873.307651	25122.828627
59.536500	0.000661	-0.005927	0.002478	-0.058265	6602.741175	45834.269250	3830.967441	24159.744113
60.036500	-0.002582	-0.006215	-0.002575	-0.038988	6405.274565	43934.592468	3768.286580	23227.752260
60.537000	-0.002733	-0.005119	-0.002056	-0.026087	6295.421493	42829.152751	3737.708521	22626.730668
61.037000	-0.006057	-0.005519	-0.005227	-0.014363	6172.807947	41724.673028	3702.064278	22095.820040
61.537500	-0.005288	-0.005313	-0.001092	-0.002645	6086.225613	40704.037717	3684.380246	21579.298421
62.035000	-0.005941	-0.005887	-0.006399	0.005233	6020.263353	39971.841349	3654.359896	21239.793717
62.535000	-0.005760	-0.005560	-0.004177	0.006136	6014.743737	39922.467521	3657.323952	21201.296470
63.036000	-0.004127	-0.003994	-0.000966	0.001518	6062.863222	40456.027378	3675.092436	21399.117119
63.536000	-0.006254	-0.002744	-0.012758	-0.000980	6065.743982	40783.228966	3654.034281	21507.036875
64.035500	-0.010212	-0.002372	-0.008829	-0.002645	6047.998244	40962.281363	3666.656019	21579.322158
64.536500	-0.009372	-0.001894	-0.007253	-0.005333	6075.348886	41242.155688	3676.384105	21696.556015
65.040000	-0.005791	-0.000942	-0.006425	-0.009631	6137.231243	41710.694583	3688.209535	21885.539366
65.536000	-0.007015	-0.001531	-0.005384	-0.006871	6105.793139	41411.122197	3684.228558	21763.957773
66.037000	-0.008356	-0.001044	-0.005637	-0.006327	6091.031919	41406.097600	3682.388406	21740.115988
66.537000	-0.004308	-0.000904	-0.004090	-0.012190	6169.418329	41944.705693	3699.630510	21998.993296
67.038000	-0.006318	-0.000860	-0.002204	-0.012555	6156.275977	41981.559431	3704.924501	22015.198213
67.535500	-0.007795	-0.001395	-0.007985	-0.008049	6108.922176	41528.359300	3680.943758	21815.763861
68.035500	-0.004131	-0.001185	-0.008255	-0.012803	6175.744044	41974.727717	3691.329410	22026.261269
68.535000	-0.004645	-0.000498	-0.003735	-0.011435	6160.686670	41913.110215	3698.691877	21965.428912
69.036000	-0.006184	-0.000510	-0.003359	-0.012080	6153.560785	41970.302173	3701.088154	21994.084529
69.536000	-0.008801	-0.001518	-0.003675	-0.007905	6099.900588	41504.569041	3690.588822	21809.455262
70.040000	-0.009534	-0.001491	-0.006561	-0.006483	6083.044598	41380.224062	3680.619708	21746.959749
70.537000	-0.003482	-0.000067	-0.001806	-0.010870	6165.463034	41901.008157	3701.894258	21940.383330
71.037500	-0.003336	-0.000263	-0.006546	-0.011022	6167.852328	41897.059569	3691.161421	21947.123257
71.534500	-0.008361	-0.000415	-0.006402	-0.007368	6099.140390	41555.176882	3683.024627	21785.815018
72.035500	-0.008314	-0.000796	-0.012292	-0.005556	6085.328603	41359.517926	3665.402668	21706.315258
72.536000	-0.003563	0.000259	-0.000327	-0.010983	6165.724208	41940.658704	3705.643968	21945.385138
73.036000	-0.006978	-0.000592	-0.008582	-0.011522	6142.815979	41912.510742	3687.592765	21969.315421
73.539000	-0.004090	-0.000435	-0.001537	-0.011234	6163.520640	41900.693469	3703.384884	21956.527244
74.036500	-0.008589	0.000327	-0.007635	-0.004520	6075.110342	41367.245380	3673.647788	21660.995391
74.536500	-0.005192	0.000535	-0.006257	-0.010241	6146.826018	41898.581003	3690.015414	21912.534659
75.037000	-0.004269	0.000010	-0.003561	-0.010577	6156.851784	41881.568753	3697.089447	21927.408085
75.537000	-0.005082	-0.000124	-0.007944	-0.010508	6149.824172	41863.275415	3686.720854	21924.370843
76.038000	-0.008423	-0.000659	-0.007567	-0.005389	6083.179582	41356.865917	3675.794999	21699.015500
76.538000	-0.005068	0.000519	-0.003176	-0.009662	6143.212432	41844.968453	3695.848335	21886.921662
77.035500	-0.004173	0.000630	-0.000410	-0.009368	6147.989982	41828.493128	3701.645553	21873.930982
77.535500	-0.005542	-0.000482	-0.010446	-0.006450	6114.071871	41467.172301	3671.635808	21745.517955
78.036000	-0.007716	-0.000156	-0.009309	-0.003881	6076.935836	41267.501933	3668.372352	21633.121478
78.536500	-0.004773	0.001155	-0.000808	-0.008513	6136.443524	41798.763782	3698.703152	21836.222748
79.036500	-0.005365	0.000148	-0.006165	-0.008831	6134.265006	41736.748901	3686.956545	21850.226545
79.536000	-0.006829	0.000419	-0.006222	-0.003611	6081.743328	41294.563797	3674.801213	21621.351139
80.037000	-0.006443	0.000788	-0.002150	-0.001731	6070.110701	41160.559002	3679.833745	21539.604990
80.537500	-0.003363	0.000966	-0.004573	-0.007567	6140.120945	41696.777222	3687.719442	21794.580003
81.035000	-0.005330	-0.000108	-0.004250	-0.008062	6128.464849	41644.764751	3689.617966	21816.350645
81.535000	-0.005704	0.000354	-0.004469	-0.004293	6095.868413	41349.466407	3680.392211	21651.118084
82.035500	-0.005255	-0.000101	-0.000792	-0.007777	6126.797561	41619.877847	3697.017322	21803.797158
82.536000	-0.006721	-0.000823	-0.007874	-0.008045	6117.349776	41579.221201	3681.192892	21815.610720
83.038500	-0.004198	0.000652	0.000645	-0.007256	6131.039968	41640.663122	3699.162122	21780.889464
83.536000	-0.006910	0.000418	-0.004330	-0.002214	6070.235259	41170.564140	3675.934671	21560.553557
84.036500	-0.005597	0.000193	-0.005692	-0.006902	6117.197202	41567.840895	3683.588275	21765.314407
84.537000	-0.005917	0.000143	-0.004544	-0.006677	6112.898667	41543.242916	3685.721818	21755.437796
85.037500	-0.004206	0.000628	-0.004371	-0.005756	6119.129765	41504.254793	3683.992265	21715.068511
85.534500	-0.007268	0.000834	-0.009497	-0.001358	6060.813315	41131.699450	3662.225832	21523.424590
86.035500	-0.009349	-0.000281	-0.008847	-0.000155	6035.458527	40927.056836	3660.975096	21471.313241
86.535000	-0.003069	0.000889	-0.004768	-0.005061	6122.609305	41465.494695	3681.473064	21684.644058
87.036000	-0.004666	0.000839	0.003199	-0.005544	6113.828139	41504.200392	3701.139469	21705.779584
87.538500	-0.008676	0.000346	-0.003106	-0.002835	6061.347568	41219.166503	3680.173716	21587.545871
88.035500	-0.010020	-0.000085	-0.006505	-0.000951	6036.424907	41014.500543	3668.087602	21505.786663
88.536500	-0.004443	0.001158	-0.006515	-0.004962	6111.010770	41480.729307	3677.227924	21680.347011
89.036000	-0.005464	-0.000354	-0.006428	-0.005618	6108.135742	41404.355925	3678.933517	21709.020286
89.537000	-0.005174	0.000784	-0.004399	-0.000715	6072.076712	41070.376127	3672.348819	21495.562647
90.034500	-0.008025	0.000176	-0.008177	-0.000575	6048.895847	41004.324127	3663.440728	21489.495777
90.535000	-0.006432	0.000441	-0.000026	-0.005121	6096.643583	41430.895478	3692.602231	21687.270609
91.034000	-0.002916	0.000483	-0.002936	-0.004966	6123.078192	41420.887318	3685.484922	21680.525992
91.535500	-0.005785	0.000537	-0.004804	-0.004790	6099.124332	41409.969631	3680.766301	21672.820416
92.035500	-0.010327	-0.000297	-0.008654	0.000216	6025.096686	40893.112848	3660.574566	21455.294285
92.536000	-0.003463	0.001488	-0.004890	-0.004302	6113.525265	41451.311646	3679.445161	21651.501310
93.036500	-0.003724	0.001500	-0.000380	-0.004095	6109.848634	41433.899070	3689.390761	21642.470085
93.536000	-0.006857	0.001190	-0.004010	-0.001680	6066.494990	41191.664797	3675.443975	21537.372045
94.037000	-0.006961	0.000651	-0.002386	0.001106	6044.134849	40898.194336	3672.787064	21416.873018
94.537000	-0.001878	0.001184	-0.004374	-0.004212	6125.318074	41416.180229	3680.426019	21647.576904
95.037500	-0.003995	0.000929	-0.005963	-0.004533	6111.160132	41422.012436	3677.509525	21661.583923
95.543000	-0.003701	0.001103	-0.001226	-0.001533	6089.936237	41170.937915	3681.503722	21530.985534
96.049000	-0.006007	0.000229	-0.002894	0.000079	6059.448159	40951.382279	3673.972129	21461.196342
96.535000	-0.005979	0.000841	-0.003735	-0.004581	6095.959127	41418.407558	3682.746934	21663.673503
97.038500	-0.004416	0.000953	-0.003255	-0.004009	6103.736117	41377.547499	3682.536341	21638.732869
97.535500	-0.006137	0.000405	-0.001924	-0.004895	6097.186285	41407.564634	3687.663996	21677.395892
98.049500	-0.004264	0.000837	-0.000577	-0.004163	6106.134749	41380.881434	3689.091586	21645.443285
98.537000	-0.003160	0.001555	-0.002780	-0.003477	6109.419373	41383.741965	3682.405465	21615.525726
