sample name	sample
index	523
start time	 03-11-2021  04:02:50 PM


Wavelength (nm)	Absorbance
494.344910	NaN
494.563924	NaN
494.782919	NaN
495.001897	0.151024
495.220856	NaN
495.439797	-0.494421
495.658719	0.311518
495.877624	NaN
496.096510	NaN
496.315378	0.625341
496.534227	NaN
496.753059	NaN
496.971872	0.195471
497.190667	-0.009458
497.409444	-0.008779
497.628203	-0.004700
497.846943	-0.006456
498.065665	-0.005647
498.284369	-0.004768
498.503055	-0.004381
498.721723	-0.004915
498.940372	-0.005783
499.159003	-0.005851
499.377616	-0.005585
499.596210	-0.006901
499.814787	-0.006529
500.033345	-0.007014
500.251885	-0.007650
500.470406	-0.008531
500.688910	-0.009184
500.907395	-0.008779
501.125862	-0.008405
501.344311	-0.008593
501.562742	-0.008375
501.781154	-0.008264
501.999548	-0.008235
502.217924	-0.008664
502.436282	-0.009272
502.654621	-0.008912
502.872942	-0.008288
503.091245	-0.008645
503.309530	-0.009138
503.527797	-0.008455
503.746045	-0.008927
503.964275	-0.009465
504.182487	-0.008804
504.400681	-0.008103
504.618856	-0.007636
504.837013	-0.007716
505.055152	-0.008272
505.273273	-0.008002
505.491376	-0.008370
505.709460	-0.008508
505.927526	-0.008037
506.145574	-0.008072
506.363604	-0.008121
506.581615	-0.008419
506.799608	-0.008368
507.017583	-0.007402
507.235540	-0.006788
507.453478	-0.006831
507.671399	-0.006791
507.889301	-0.007924
508.107185	-0.008339
508.325050	-0.008456
508.542898	-0.008905
508.760727	-0.008956
508.978538	-0.009160
509.196330	-0.009487
509.414105	-0.009906
509.631861	-0.008903
509.849599	-0.008339
510.067319	-0.007863
510.285021	-0.008133
510.502704	-0.007985
510.720369	-0.008598
510.938016	-0.008557
511.155645	-0.008526
511.373255	-0.008596
511.590848	-0.009762
511.808422	-0.009083
512.025977	-0.009791
512.243515	-0.009693
512.461034	-0.009544
512.678536	-0.009443
512.896018	-0.009135
513.113483	-0.009801
513.330930	-0.010104
513.548358	-0.009379
513.765768	-0.009901
513.983160	-0.009724
514.200533	-0.009815
514.417889	-0.009699
514.635226	-0.009187
514.852545	-0.009301
515.069845	-0.008752
515.287128	-0.008355
515.504392	-0.008667
515.721638	-0.008592
515.938866	-0.008442
516.156075	-0.007734
516.373267	-0.008239
516.590440	-0.008650
516.807594	-0.009316
517.024731	-0.010112
517.241850	-0.010373
517.458950	-0.010491
517.676032	-0.010295
517.893095	-0.010505
518.110141	-0.011184
518.327168	-0.011124
518.544177	-0.011290
518.761168	-0.011102
518.978141	-0.010623
519.195095	-0.010092
519.412031	-0.010311
519.628949	-0.010625
519.845849	-0.010299
520.062731	-0.010273
520.279594	-0.010018
520.496439	-0.009768
520.713266	-0.009309
520.930074	-0.009620
521.146865	-0.010120
521.363637	-0.010055
521.580391	-0.010112
521.797127	-0.010477
522.013844	-0.010747
522.230543	-0.010619
522.447224	-0.010386
522.663887	-0.011060
522.880532	-0.010775
523.097158	-0.011297
523.313766	-0.011408
523.530356	-0.011023
523.746928	-0.010757
523.963481	-0.010814
524.180017	-0.011025
524.396534	-0.011494
524.613032	-0.011163
524.829513	-0.010958
525.045975	-0.010552
525.262420	-0.010279
525.478845	-0.010143
525.695253	-0.010091
525.911643	-0.010002
526.128014	-0.009868
526.344367	-0.009343
526.560702	-0.009155
526.777018	-0.009300
526.993316	-0.009007
527.209597	-0.008757
527.425858	-0.008861
527.642102	-0.009301
527.858328	-0.009266
528.074535	-0.009818
528.290724	-0.010157
528.506894	-0.010254
528.723047	-0.009887
528.939181	-0.009548
529.155297	-0.010076
529.371395	-0.010170
529.587475	-0.009836
529.803536	-0.009577
530.019579	-0.008889
530.235604	-0.008360
530.451611	-0.008243
530.667600	-0.008264
530.883570	-0.008593
531.099522	-0.008592
531.315456	-0.008340
531.531372	-0.008070
531.747269	-0.007973
531.963148	-0.008142
532.179009	-0.008247
532.394852	-0.008112
532.610676	-0.008167
532.826482	-0.007903
533.042271	-0.007564
533.258040	-0.007529
533.473792	-0.007896
533.689525	-0.007962
533.905240	-0.007924
534.120937	-0.007996
534.336616	-0.007949
534.552277	-0.007889
534.767919	-0.008383
534.983543	-0.008476
535.199149	-0.008923
535.414736	-0.008867
535.630306	-0.008686
535.845857	-0.008822
536.061390	-0.008896
536.276904	-0.009642
536.492401	-0.010282
536.707879	-0.009741
536.923339	-0.009119
537.138781	-0.008803
537.354204	-0.008756
537.569610	-0.008790
537.784997	-0.008637
538.000366	-0.008669
538.215716	-0.008051
538.431049	-0.007631
538.646363	-0.007494
538.861659	-0.008030
539.076937	-0.008030
539.292196	-0.007587
539.507438	-0.007592
539.722661	-0.007764
539.937866	-0.007455
540.153052	-0.007650
540.368221	-0.007777
540.583371	-0.008207
540.798503	-0.007904
541.013617	-0.008075
541.228712	-0.008413
541.443789	-0.008416
541.658848	-0.008308
541.873889	-0.008484
542.088912	-0.008116
542.303916	-0.007927
542.518902	-0.007604
542.733870	-0.007835
542.948820	-0.007498
543.163752	-0.007406
543.378665	-0.007046
543.593560	-0.006775
543.808437	-0.006655
544.023295	-0.006558
544.238136	-0.006696
544.452958	-0.006879
544.667762	-0.007163
544.882548	-0.007165
545.097315	-0.007578
545.312064	-0.007838
545.526795	-0.007992
545.741508	-0.007990
545.956203	-0.008290
546.170879	-0.007937
546.385537	-0.007715
546.600177	-0.007503
546.814799	-0.007682
547.029402	-0.007585
547.243988	-0.007545
547.458555	-0.007301
547.673103	-0.007471
547.887634	-0.007319
548.102146	-0.007710
548.316640	-0.008118
548.531116	-0.008085
548.745574	-0.008016
548.960013	-0.007478
549.174435	-0.007601
549.388838	-0.007818
549.603222	-0.007881
549.817589	-0.007876
550.031937	-0.007429
550.246267	-0.007251
550.460579	-0.007155
550.674873	-0.007228
550.889148	-0.007758
551.103405	-0.007808
551.317644	-0.007840
551.531865	-0.007757
551.746068	-0.007933
551.960252	-0.008311
552.174418	-0.008563
552.388566	-0.008648
552.602696	-0.008370
552.816807	-0.007852
553.030900	-0.007688
553.244975	-0.007501
553.459032	-0.007696
553.673070	-0.007819
553.887091	-0.007682
554.101093	-0.007458
554.315077	-0.007706
554.529042	-0.007993
554.742990	-0.008401
554.956919	-0.008530
555.170830	-0.008658
555.384722	-0.008820
555.598597	-0.008708
555.812453	-0.009148
556.026291	-0.009102
556.240111	-0.009076
556.453913	-0.008988
556.667696	-0.009002
556.881461	-0.009206
557.095208	-0.009336
557.308937	-0.008816
557.522647	-0.008607
557.736339	-0.008528
557.950013	-0.008609
558.163669	-0.008237
558.377307	-0.008296
558.590926	-0.008628
558.804527	-0.008234
559.018110	-0.008311
559.231675	-0.008637
559.445221	-0.008717
559.658749	-0.008322
559.872259	-0.008375
560.085751	-0.008521
560.299225	-0.008612
560.512680	-0.008201
560.726117	-0.008370
560.939536	-0.008477
561.152937	-0.008408
561.366319	-0.008515
561.579683	-0.008657
561.793029	-0.008803
562.006357	-0.008890
562.219667	-0.008932
562.432958	-0.008724
562.646231	-0.008792
562.859486	-0.008857
563.072723	-0.008897
563.285941	-0.008913
563.499141	-0.008828
563.712323	-0.008798
563.925487	-0.008631
564.138632	-0.008380
564.351760	-0.008484
564.564869	-0.008414
564.777960	-0.008275
564.991032	-0.008332
565.204087	-0.008352
565.417123	-0.008279
565.630141	-0.007768
565.843140	-0.007724
566.056122	-0.008110
566.269085	-0.007912
566.482030	-0.007711
566.694957	-0.007457
566.907866	-0.007362
567.120756	-0.007108
567.333628	-0.007304
567.546482	-0.007443
567.759318	-0.007544
567.972135	-0.007206
568.184935	-0.007769
568.397716	-0.007835
568.610478	-0.008197
568.823223	-0.007955
569.035949	-0.008244
569.248657	-0.008003
569.461347	-0.008347
569.674019	-0.008225
569.886672	-0.008466
570.099308	-0.008049
570.311925	-0.008188
570.524523	-0.007948
570.737104	-0.008343
570.949666	-0.008548
571.162210	-0.008429
571.374736	-0.008353
571.587244	-0.008423
571.799733	-0.008329
572.012205	-0.008457
572.224658	-0.008182
572.437092	-0.008129
572.649509	-0.008054
572.861907	-0.008024
573.074287	-0.008479
573.286649	-0.008385
573.498993	-0.008771
573.711318	-0.008654
573.923625	-0.008845
574.135914	-0.009174
574.348185	-0.009201
574.560438	-0.009068
574.772672	-0.008774
574.984888	-0.008463
575.197086	-0.008539
575.409266	-0.008106
575.621427	-0.007918
575.833570	-0.007692
576.045695	-0.007706
576.257802	-0.007661
576.469890	-0.007749
576.681961	-0.007852
576.894013	-0.008266
577.106046	-0.008112
577.318062	-0.007973
577.530059	-0.008367
577.742039	-0.008540
577.954000	-0.008418
578.165942	-0.008603
578.377867	-0.008721
578.589773	-0.008647
578.801661	-0.008010
579.013531	-0.007889
579.225382	-0.007864
579.437216	-0.007853
579.649031	-0.007405
579.860828	-0.007614
580.072606	-0.007825
580.284367	-0.007961
580.496109	-0.008005
580.707833	-0.008117
580.919539	-0.008084
581.131227	-0.008483
581.342896	-0.008334
581.554547	-0.008660
581.766180	-0.008520
581.977795	-0.007961
582.189391	-0.007563
582.400969	-0.007308
582.612529	-0.007628
582.824071	-0.007719
583.035595	-0.007481
583.247100	-0.007401
583.458587	-0.007268
583.670056	-0.007090
583.881506	-0.007442
584.092939	-0.007311
584.304353	-0.007543
584.515749	-0.007188
584.727127	-0.007077
584.938486	-0.007167
585.149828	-0.007111
585.361151	-0.007340
585.572456	-0.007489
585.783742	-0.007200
585.995011	-0.007477
586.206261	-0.007327
586.417493	-0.007478
586.628706	-0.007635
586.839902	-0.007579
587.051079	-0.007743
587.262238	-0.007642
587.473379	-0.007513
587.684502	-0.007512
587.895606	-0.007464
588.106692	-0.007595
588.317760	-0.007513
588.528810	-0.007492
588.739841	-0.007678
588.950855	-0.007385
589.161850	-0.007503
589.372827	-0.007540
589.583785	-0.007594
589.794726	-0.007329
590.005648	-0.007210
590.216552	-0.007067
590.427437	-0.006933
590.638305	-0.006627
590.849154	-0.006747
591.059985	-0.006522
591.270798	-0.006535
591.481592	-0.006504
591.692369	-0.006503
591.903127	-0.006562
592.113867	-0.006696
592.324588	-0.006471
592.535292	-0.006784
592.745977	-0.006971
592.956644	-0.007239
593.167293	-0.007100
593.377923	-0.006886
593.588536	-0.006934
593.799130	-0.006793
594.009706	-0.006909
594.220263	-0.007321
594.430803	-0.006956
594.641324	-0.006726
594.851827	-0.006513
595.062312	-0.006586
595.272778	-0.006965
595.483227	-0.006879
595.693657	-0.006732
595.904069	-0.006748
596.114462	-0.006545
596.324838	-0.006526
596.535195	-0.006503
596.745534	-0.006364
596.955855	-0.006436
597.166157	-0.006139
597.376441	-0.006390
597.586707	-0.006510
597.796955	-0.006358
598.007185	-0.006303
598.217396	-0.006339
598.427589	-0.006353
598.637764	-0.006297
598.847921	-0.006082
599.058060	-0.006009
599.268180	-0.006079
599.478282	-0.006018
599.688366	-0.006086
599.898431	-0.006018
600.108479	-0.006055
600.318508	-0.005820
600.528519	-0.005913
600.738511	-0.005804
600.948486	-0.005829
601.158442	-0.005613
601.368380	-0.005474
601.578300	-0.005419
601.788202	-0.005418
601.998085	-0.005425
602.207950	-0.005422
602.417797	-0.005263
602.627626	-0.005506
602.837436	-0.005589
603.047228	-0.005724
603.257002	-0.005742
603.466758	-0.005846
603.676496	-0.005833
603.886215	-0.005823
604.095916	-0.005933
604.305599	-0.005831
604.515264	-0.005665
604.724910	-0.005594
604.934538	-0.005240
605.144148	-0.005279
605.353740	-0.005134
605.563314	-0.005201
605.772869	-0.005234
605.982406	-0.005160
606.191925	-0.005180
606.401425	-0.005041
606.610908	-0.005065
606.820372	-0.005132
607.029818	-0.005171
607.239246	-0.005129
607.448655	-0.005146
607.658047	-0.004869
607.867420	-0.004834
608.076775	-0.004788
608.286111	-0.005019
608.495430	-0.004898
608.704730	-0.004819
608.914012	-0.004786
609.123275	-0.004760
609.332521	-0.004730
609.541748	-0.004692
609.750957	-0.004642
609.960148	-0.004632
610.169321	-0.004540
610.378475	-0.004573
610.587611	-0.004593
610.796729	-0.004320
611.005829	-0.004273
611.214910	-0.004105
611.423974	-0.004369
611.633019	-0.004365
611.842045	-0.004625
612.051054	-0.004739
612.260044	-0.004827
612.469017	-0.004913
612.677970	-0.005231
612.886906	-0.005290
613.095824	-0.005508
613.304723	-0.005310
613.513604	-0.005483
613.722467	-0.005241
613.931311	-0.005110
614.140138	-0.005000
614.348946	-0.004970
614.557736	-0.004823
614.766507	-0.004849
614.975261	-0.004513
615.183996	-0.004435
615.392713	-0.004180
615.601412	-0.004326
615.810092	-0.004297
616.018754	-0.004314
616.227399	-0.004335
616.436024	-0.004486
616.644632	-0.004291
616.853222	-0.004225
617.061793	-0.004059
617.270346	-0.003936
617.478880	-0.003878
617.687397	-0.003647
617.895895	-0.003572
618.104375	-0.003285
618.312837	-0.003002
618.521281	-0.003007
618.729706	-0.002852
618.938113	-0.002913
619.146502	-0.002938
619.354873	-0.002516
619.563226	-0.002326
619.771560	-0.002120
619.979876	-0.002117
620.188174	-0.002276
620.396453	-0.002163
620.604715	-0.002475
620.812958	-0.002523
621.021183	-0.002505
621.229390	-0.002650
621.437578	-0.002763
621.645748	-0.002701
621.853900	-0.002625
622.062034	-0.002302
622.270150	-0.002271
622.478247	-0.002057
622.686326	-0.001862
622.894387	-0.001833
623.102430	-0.001763
623.310454	-0.001977
623.518461	-0.002101
623.726449	-0.002122
623.934418	-0.002421
624.142370	-0.002422
624.350303	-0.002551
624.558218	-0.002626
624.766115	-0.002562
624.973994	-0.002815
625.181855	-0.002728
625.389697	-0.002742
625.597521	-0.002918
625.805327	-0.002573
626.013114	-0.002509
626.220883	-0.002352
626.428634	-0.002531
626.636367	-0.002749
626.844082	-0.002484
627.051778	-0.002488
627.259457	-0.002426
627.467117	-0.002317
627.674758	-0.002354
627.882382	-0.002152
628.089987	-0.002258
628.297574	-0.002160
628.505143	-0.001958
628.712694	-0.002154
628.920226	-0.001836
629.127740	-0.001977
629.335236	-0.002027
629.542714	-0.002058
629.750174	-0.002136
629.957615	-0.002009
630.165038	-0.001881
630.372443	-0.001731
630.579829	-0.001718
630.787198	-0.001887
630.994548	-0.001527
631.201880	-0.001386
631.409194	-0.001473
631.616489	-0.001511
631.823766	-0.001496
632.031025	-0.001593
632.238266	-0.001756
632.445489	-0.001553
632.652693	-0.001339
632.859879	-0.001415
633.067047	-0.001424
633.274197	-0.001107
633.481329	-0.000978
633.688442	-0.000818
633.895537	-0.000642
634.102614	-0.000567
634.309672	-0.000665
634.516713	-0.000672
634.723735	-0.000771
634.930739	-0.000805
635.137724	-0.001044
635.344692	-0.001256
635.551641	-0.001457
635.758572	-0.001562
635.965485	-0.001711
636.172379	-0.001716
636.379256	-0.001811
636.586114	-0.001601
636.792954	-0.001479
636.999775	-0.001339
637.206579	-0.001349
637.413364	-0.001358
637.620131	-0.001163
637.826880	-0.001054
638.033610	-0.001033
638.240323	-0.000946
638.447017	-0.001077
638.653692	-0.001174
638.860350	-0.001065
639.066990	-0.000910
639.273611	-0.000760
639.480214	-0.000951
639.686798	-0.000909
639.893365	-0.000586
640.099913	-0.000615
640.306443	-0.000461
640.512955	-0.000389
640.719449	-0.000382
640.925924	-0.000142
641.132381	-0.000126
641.338820	0.000044
641.545241	0.000255
641.751644	0.000096
641.958028	0.000146
642.164394	0.000065
642.370742	0.000142
642.577071	0.000069
642.783383	-0.000182
642.989676	-0.000252
643.195951	-0.000214
643.402207	-0.000394
643.608446	-0.000330
643.814666	-0.000334
644.020868	-0.000383
644.227052	-0.000298
644.433218	-0.000303
644.639365	-0.000138
644.845494	-0.000054
645.051605	0.000039
645.257698	0.000044
645.463772	-0.000092
645.669828	-0.000140
645.875866	-0.000051
646.081886	0.000036
646.287888	-0.000017
646.493871	-0.000174
646.699836	-0.000133
646.905783	-0.000275
647.111712	-0.000198
647.317622	-0.000069
647.523514	0.000125
647.729388	0.000352
647.935244	0.000444
648.141082	0.000469
648.346901	0.000655
648.552702	0.000652
648.758485	0.000872
648.964250	0.000889
649.169996	0.000934
649.375724	0.000857
649.581434	0.000828
649.787126	0.000786
649.992800	0.000966
650.198455	0.001067
650.404092	0.001150
650.609711	0.001091
650.815311	0.001224
651.020894	0.001267
651.226458	0.001259
651.432004	0.001314
651.637532	0.001171
651.843041	0.001269
652.048532	0.001237
652.254006	0.001253
652.459460	0.001303
652.664897	0.001306
652.870315	0.001514
653.075716	0.001741
653.281097	0.001673
653.486461	0.001869
653.691807	0.001898
653.897134	0.001883
654.102443	0.001860
654.307734	0.001853
654.513006	0.001879
654.718261	0.001817
654.923497	0.001591
655.128715	0.001716
655.333915	0.001637
655.539096	0.001814
655.744259	0.002002
655.949404	0.002314
656.154531	0.002475
656.359640	0.002457
656.564730	0.002471
656.769802	0.002585
656.974856	0.002722
657.179892	0.002844
657.384909	0.002591
657.589908	0.002455
657.794889	0.002252
657.999852	0.002174
658.204797	0.002270
658.409723	0.002140
658.614631	0.002073
658.819521	0.001934
659.024393	0.001936
659.229246	0.001988
659.434081	0.002206
659.638898	0.002233
659.843697	0.002456
660.048478	0.002504
660.253240	0.002643
660.457984	0.002848
660.662710	0.002976
660.867417	0.003181
661.072107	0.003280
661.276778	0.003128
661.481431	0.003168
661.686066	0.002973
661.890682	0.003036
662.095281	0.003073
662.299861	0.003159
662.504422	0.003225
662.708966	0.003254
662.913491	0.003322
663.117999	0.003477
663.322488	0.003731
663.526958	0.003835
663.731411	0.003846
663.935845	0.003853
664.140261	0.003876
664.344659	0.003861
664.549038	0.003754
664.753400	0.003830
664.957743	0.003807
665.162068	0.003635
665.366375	0.003574
665.570663	0.003612
665.774933	0.003603
665.979185	0.003454
666.183419	0.003317
666.387635	0.003437
666.591832	0.003420
666.796011	0.003353
667.000172	0.003507
667.204315	0.003635
667.408439	0.003685
667.612545	0.003904
667.816634	0.004004
668.020703	0.004193
668.224755	0.004287
668.428788	0.004330
668.632803	0.004338
668.836800	0.004238
669.040779	0.004227
669.244739	0.004194
669.448681	0.004137
669.652605	0.004264
669.856511	0.004328
670.060399	0.004275
670.264268	0.004234
670.468119	0.004295
670.671952	0.004302
670.875767	0.004455
671.079563	0.004514
671.283341	0.004569
671.487101	0.004579
671.690843	0.004337
671.894567	0.004405
672.098272	0.004500
672.301959	0.004619
672.505628	0.004679
672.709278	0.004733
672.912911	0.004797
673.116525	0.004691
673.320121	0.004755
673.523699	0.004924
673.727258	0.004938
673.930799	0.004960
674.134322	0.004984
674.337827	0.005017
674.541314	0.005022
674.744782	0.004879
674.948232	0.005146
675.151664	0.005060
675.355078	0.005084
675.558474	0.005173
675.761851	0.005194
675.965210	0.005234
676.168551	0.005271
676.371873	0.005188
676.575178	0.005444
676.778464	0.005395
676.981732	0.005475
677.184981	0.005542
677.388213	0.005331
677.591426	0.005138
677.794621	0.005015
677.997798	0.005169
678.200956	0.005280
678.404097	0.005147
678.607219	0.005212
678.810323	0.005147
679.013408	0.005265
679.216476	0.005504
679.419525	0.005840
679.622556	0.006042
679.825569	0.006069
680.028563	0.006112
680.231540	0.006305
680.434498	0.006314
680.637438	0.006595
680.840359	0.006624
681.043263	0.006654
681.246148	0.006611
681.449015	0.006802
681.651864	0.006863
681.854694	0.007019
682.057506	0.007028
682.260301	0.007165
682.463076	0.007176
682.665834	0.007127
682.868573	0.007240
683.071295	0.007366
683.273998	0.007461
683.476682	0.007598
683.679349	0.007458
683.881997	0.007430
684.084627	0.007432
684.287239	0.007449
684.489833	0.007559
684.692408	0.007560
684.894965	0.007575
685.097504	0.007388
685.300025	0.007352
685.502527	0.007427
685.705012	0.007595
685.907478	0.007629
686.109925	0.007554
686.312355	0.007632
686.514766	0.007652
686.717159	0.007688
686.919534	0.007734
687.121891	0.007844
687.324230	0.007896
687.526550	0.008040
687.728852	0.008030
687.931136	0.008247
688.133401	0.008308
688.335649	0.008273
688.537878	0.008101
688.740089	0.008291
688.942281	0.008123
689.144456	0.008176
689.346612	0.008082
689.548750	0.008244
689.750870	0.008204
689.952971	0.008220
690.155055	0.008240
690.357120	0.008419
690.559167	0.008374
690.761195	0.008432
690.963206	0.008294
691.165198	0.008136
691.367172	0.007983
691.569128	0.007867
691.771065	0.007800
691.972984	0.007787
692.174885	0.007782
692.376768	0.007738
692.578633	0.007756
692.780479	0.007783
692.982308	0.007938
693.184118	0.008105
693.385909	0.008199
693.587683	0.008200
693.789438	0.008155
693.991175	0.008122
694.192894	0.008152
694.394595	0.008028
694.596277	0.007968
694.797941	0.008096
694.999587	0.008022
695.201215	0.008006
695.402824	0.008064
695.604416	0.008162
695.805989	0.008243
696.007543	0.008137
696.209080	0.008298
696.410598	0.008535
696.612099	0.008298
696.813580	0.008284
697.015044	0.008308
697.216490	0.008357
697.417917	0.008437
697.619326	0.008428
697.820717	0.008622
698.022089	0.008691
698.223444	0.008729
698.424780	0.009029
698.626098	0.009058
698.827397	0.009094
699.028679	0.009108
699.229942	0.009002
699.431187	0.009008
699.632414	0.008931
699.833622	0.008918
700.034813	0.008824
700.235985	0.008637
700.437139	0.008672
700.638274	0.008759
700.839392	0.008824
701.040491	0.008929
701.241572	0.009001
701.442635	0.009148
701.643679	0.009208
701.844706	0.009371
702.045714	0.009542
702.246704	0.009627
702.447675	0.009522
702.648629	0.009542
702.849564	0.009684
703.050481	0.009727
703.251380	0.009726
703.452260	0.009751
703.653122	0.009707
703.853966	0.009787
704.054792	0.009721
704.255600	0.009840
704.456389	0.009698
704.657160	0.009633
704.857913	0.009500
705.058648	0.009480
705.259365	0.009433
705.460063	0.009370
705.660743	0.009143
705.861405	0.009106
706.062048	0.009126
706.262674	0.009376
706.463281	0.009401
706.663870	0.009636
706.864441	0.009566
707.064993	0.009605
707.265527	0.009617
707.466043	0.009659
707.666541	0.009664
707.867021	0.009713
708.067482	0.009671
708.267925	0.009567
708.468350	0.009418
708.668757	0.009400
708.869145	0.009324
709.069516	0.009334
709.269868	0.009383
709.470201	0.009484
709.670517	0.009379
709.870814	0.009271
710.071093	0.009398
710.271354	0.009508
710.471597	0.009516
710.671821	0.009313
710.872028	0.009403
711.072216	0.009417
711.272385	0.009163
711.472537	0.009175
711.672670	0.009033
711.872785	0.008904
712.072882	0.008743
712.272961	0.008704
712.473021	0.008882
712.673063	0.008580
712.873087	0.008595
713.073093	0.008749
713.273081	0.008631
713.473050	0.008619
713.673001	0.008575
713.872934	0.008767
714.072849	0.008882
714.272745	0.008798
714.472623	0.008937
714.672483	0.008809
714.872325	0.008782
715.072148	0.008875
715.271954	0.008910
715.471741	0.008941
715.671509	0.008733
715.871260	0.008493
716.070992	0.008564
716.270707	0.008541
716.470403	0.008325
716.670080	0.008283
716.869740	0.008249
717.069381	0.008421
717.269004	0.008486
717.468609	0.008601
717.668195	0.008759
717.867764	0.008621
718.067314	0.008658
718.266846	0.008727
718.466360	0.008703
718.665855	0.008649
718.865332	0.008405
719.064791	0.008284
719.264232	0.008163
719.463655	0.007868
719.663059	0.007925
719.862445	0.007820
720.061813	0.007783
720.261163	0.007794
720.460494	0.007601
720.659807	0.007657
720.859102	0.007667
721.058379	0.007617
721.257638	0.007864
721.456878	0.007924
721.656100	0.008006
721.855304	0.008289
722.054490	0.008398
722.253657	0.008575
722.452806	0.008681
722.651937	0.008566
722.851050	0.008577
723.050145	0.008596
723.249221	0.008462
723.448279	0.008504
723.647319	0.008327
723.846340	0.008209
724.045344	0.008349
724.244329	0.008180
724.443296	0.008150
724.642245	0.008099
724.841175	0.007952
725.040088	0.008170
725.238982	0.008217
725.437857	0.008171
725.636715	0.008154
725.835554	0.007997
726.034376	0.007884
726.233179	0.008005
726.431963	0.008053
726.630730	0.008085
726.829478	0.007744
727.028208	0.007585
727.226920	0.007565
727.425614	0.007320
727.624289	0.007340
727.822946	0.007367
728.021585	0.007263
728.220206	0.006962
728.418808	0.006688
728.617392	0.006936
728.815958	0.006831
729.014506	0.006864
729.213036	0.007153
729.411547	0.007067
729.610040	0.007124
729.808515	0.007131
730.006972	0.007526
730.205410	0.007693
730.403831	0.007542
730.602233	0.007638
730.800616	0.007555
730.998982	0.007326
731.197329	0.007293
731.395658	0.007117
731.593969	0.007038
731.792262	0.006581
731.990536	0.006448
732.188793	0.006305
732.387031	0.006122
732.585250	0.005983
732.783452	0.005866
732.981635	0.005780
733.179800	0.005844
733.377947	0.005822
733.576076	0.005793
733.774186	0.005830
733.972278	0.005655
734.170352	0.005536
734.368408	0.005496
734.566446	0.005493
734.764465	0.005252
734.962466	0.004868
735.160449	0.004951
735.358413	0.004975
735.556360	0.004989
735.754288	0.005105
735.952198	0.005117
736.150090	0.005037
736.347963	0.004980
736.545818	0.005174
736.743655	0.005499
736.941474	0.005301
737.139275	0.005318
737.337057	0.005092
737.534821	0.004920
737.732567	0.004786
737.930295	0.004851
738.128005	0.004707
738.325696	0.004720
738.523369	0.004596
738.721024	0.004406
738.918660	0.004425
739.116279	0.004474
739.313879	0.004479
739.511461	0.004503
739.709024	0.004493
739.906570	0.004598
740.104097	0.004445
740.301606	0.004410
740.499097	0.004409
740.696569	0.004441
740.894024	0.004466
741.091460	0.004619
741.288878	0.004785
741.486277	0.004657
741.683659	0.004566
741.881022	0.004530
742.078367	0.004418
742.275694	0.004569
742.473002	0.004354
742.670293	0.004416
742.867565	0.004363
743.064819	0.004203
743.262054	0.004218
743.459272	0.004159
743.656471	0.004142
743.853652	0.004283
744.050815	0.004255
744.247959	0.004369
744.445085	0.004211
744.642194	0.004132
744.839283	0.004130
745.036355	0.004231
745.233408	0.004168
745.430444	0.004084
745.627461	0.003991
745.824459	0.003829
746.021440	0.003846
746.218402	0.003987
746.415346	0.004099
746.612272	0.004017
746.809180	0.004009
747.006069	0.004209
747.202940	0.004233
747.399793	0.004240
747.596628	0.004248
747.793444	0.004188
747.990243	0.004064
748.187023	0.004093
748.383784	0.004105
748.580528	0.004048
748.777253	0.003962
748.973960	0.004006
749.170649	0.004072
749.367320	0.004078
749.563973	0.003994
749.760607	0.004041
749.957223	0.003934
750.153821	0.003832
750.350400	0.003673
750.546962	0.003627
750.743505	0.003642
750.940030	0.003466
751.136536	0.003565
751.333025	0.003463
751.529495	0.003263
751.725947	0.003164
751.922381	0.003174
752.118796	0.003355
752.315194	0.003556
752.511573	0.003533
752.707934	0.003640
752.904276	0.003531
753.100601	0.003616
753.296907	0.003698
753.493195	0.003725
753.689465	0.003874
753.885716	0.003802
754.081949	0.003588
754.278164	0.003474
754.474361	0.003361
754.670540	0.003267
754.866700	0.003235
755.062843	0.003178
755.258967	0.003165
755.455072	0.003128
755.651160	0.003123
755.847229	0.003143
756.043280	0.003129
756.239313	0.003097
756.435328	0.003241
756.631324	0.003192
756.827302	0.003359
757.023262	0.003154
757.219204	0.003032
757.415127	0.002970
757.611033	0.003000
757.806920	0.003086
758.002788	0.003154
758.198639	0.002968
758.394471	0.003045
758.590286	0.002921
758.786081	0.003076
758.981859	0.003138
759.177619	0.003133
759.373360	0.003075
759.569083	0.003012
759.764788	0.003032
759.960474	0.003139
760.156143	0.003066
760.351793	0.002907
760.547425	0.002801
760.743038	0.002798
760.938634	0.002782
761.134211	0.002820
761.329770	0.002759
761.525311	0.002754
761.720833	0.002851
761.916338	0.002938
762.111824	0.002998
762.307292	0.003062
762.502741	0.003058
762.698173	0.003073
762.893586	0.002941
763.088981	0.002996
763.284358	0.003060
763.479716	0.002849
763.675057	0.002681
763.870379	0.002591
764.065683	0.002531
764.260968	0.002328
764.456236	0.002122
764.651485	0.002107
764.846716	0.001960
765.041929	0.001580
765.237123	0.001589
765.432299	0.001654
765.627457	0.001801
765.822597	0.001713
766.017719	0.001772
766.212822	0.001858
766.407907	0.001953
766.602974	0.001834
766.798023	0.001895
766.993054	0.001800
767.188066	0.001739
767.383060	0.001505
767.578036	0.001618
767.772993	0.001790
767.967933	0.001630
768.162854	0.001595
768.357757	0.001905
768.552642	0.002040
768.747508	0.002185
768.942356	0.002266
769.137186	0.002428
769.331998	0.002586
769.526792	0.002468
769.721567	0.002647
769.916324	0.002716
770.111063	0.002604
770.305784	0.002711
770.500486	0.002719
770.695171	0.002731
770.889837	0.002643
771.084484	0.002328
771.279114	0.002278
771.473725	0.002191
771.668318	0.002136
771.862893	0.002026
772.057450	0.001895
772.251988	0.001665
772.446509	0.001456
772.641011	0.001579
772.835494	0.001518
773.029960	0.001489
773.224407	0.001542
773.418836	0.001390
773.613247	0.001425
773.807640	0.001424
774.002014	0.001393
774.196370	0.001500
774.390708	0.001339
774.585028	0.001642
774.779330	0.001628
774.973613	0.001525
775.167878	0.001699
775.362125	0.001731
775.556354	0.001781
775.750564	0.001851
775.944756	0.001893
776.138930	0.002026
776.333086	0.002023
776.527223	0.002302
776.721343	0.002595
776.915444	0.002536
777.109526	0.002645
777.303591	0.002623
777.497637	0.002703
777.691666	0.002805
777.885676	0.002715
778.079667	0.002394
778.273641	0.002198
778.467596	0.002116
778.661533	0.002123
778.855452	0.002055
779.049352	0.002023
779.243235	0.001942
779.437099	0.001804
779.630945	0.001706
779.824773	0.001884
780.018582	0.001775
780.212373	0.001651
780.406146	0.001586
780.599901	0.001628
780.793638	0.001737
780.987356	0.002035
781.181056	0.002061
781.374738	0.002273
781.568402	0.002485
781.762047	0.002492
781.955674	0.002591
782.149283	0.002664
782.342874	0.002661
782.536447	0.002486
782.730001	0.002308
782.923537	0.002335
783.117055	0.002352
783.310555	0.002130
783.504036	0.002276
783.697499	0.002398
783.890944	0.002557
784.084371	0.002454
784.277780	0.002723
784.471170	0.002958
784.664542	0.002971
784.857896	0.002840
785.051231	0.002952
785.244549	0.003061
785.437848	0.002966
785.631129	0.002883
785.824392	0.002931
786.017636	0.002781
786.210863	0.002582
786.404071	0.002542
786.597260	0.002612
786.790432	0.002366
786.983585	0.002262
787.176721	0.002162
787.369838	0.001997
787.562936	0.002072
787.756017	0.002028
787.949079	0.002033
788.142123	0.002065
788.335149	0.002100
788.528156	0.002330
788.721146	0.002387
788.914117	0.002486
789.107070	0.002540
789.300005	0.002445
789.492921	0.002453
789.685819	0.002423
789.878699	0.002536
790.071561	0.002513
790.264405	0.002316
790.457230	0.002274
790.650037	0.002122
790.842826	0.002034
791.035597	0.001992
791.228349	0.001877
791.421084	0.001883
791.613800	0.001655
791.806497	0.001741
791.999177	0.002039
792.191838	0.002072
792.384481	0.002034
792.577106	0.002259
792.769713	0.002280
792.962301	0.002416
793.154871	0.002513
793.347423	0.002706
793.539957	0.002651
793.732473	0.002674
793.924970	0.002770
794.117449	0.002920
794.309910	0.002839
794.502353	0.002945
794.694777	0.003032
794.887183	0.003085
795.079571	0.003080
795.271941	0.003280
795.464293	0.003200
795.656626	0.003146
795.848941	0.003290
796.041238	0.003442
796.233516	0.003467
796.425777	0.003421
796.618019	0.003324
796.810243	0.003420
797.002449	0.003396
797.194636	0.003424
797.386805	0.003605
797.578956	0.003536
797.771089	0.003549
797.963204	0.003683
798.155300	0.003814
798.347378	0.003873
798.539438	0.003736
798.731480	0.003699
798.923503	0.003781
799.115509	0.003631
799.307496	0.003701
799.499465	0.003814
799.691415	0.003795
799.883348	0.003806
800.075262	0.003962
800.267158	0.004095
800.459035	0.004210
800.650895	0.004131
800.842736	0.004172
801.034559	0.004122
801.226364	0.003896
801.418150	0.003957
801.609919	0.003812
801.801669	0.003655
801.993401	0.003527
802.185114	0.003354
802.376810	0.003350
802.568487	0.003245
802.760146	0.003168
802.951787	0.003231
803.143409	0.003211
803.335014	0.003342
803.526600	0.003401
803.718168	0.003446
803.909717	0.003458
804.101249	0.003388
804.292762	0.003356
804.484257	0.003349
804.675734	0.003344
804.867192	0.003141
805.058632	0.003052
805.250054	0.003074
805.441458	0.003061
805.632844	0.003148
805.824211	0.003254
806.015561	0.003382
806.206891	0.003727
806.398204	0.003802
806.589499	0.004132
806.780775	0.004114
806.972033	0.004230
807.163273	0.004393
807.354495	0.004399
807.545698	0.004656
807.736883	0.004852
807.928050	0.004830
808.119199	0.005172
808.310329	0.004931
808.501441	0.005124
808.692535	0.005253
808.883611	0.005563
809.074669	0.005724
809.265708	0.005636
809.456729	0.005412
809.647732	0.005519
809.838717	0.005267
810.029683	0.005596
810.220632	0.005712
810.411562	0.005474
810.602474	0.005431
810.793367	0.005324
810.984242	0.005434
811.175100	0.005941
811.365938	0.005961
811.556759	0.006156
811.747562	0.006144
811.938346	0.006263
812.129112	0.006326
812.319860	0.006065
812.510589	0.006337
812.701300	0.006327
812.891994	0.006133
813.082668	0.006054
813.273325	0.006062
813.463964	0.006068
813.654584	0.006179
813.845186	0.006180
814.035769	0.006236
814.226335	0.006176
814.416882	0.006088
814.607411	0.006087
814.797922	0.005937
814.988415	0.005908
815.178889	0.005878
815.369345	0.005764
815.559783	0.005940
815.750203	0.006241
815.940605	0.006341
816.130988	0.006500
816.321353	0.006281
816.511700	0.006642
816.702028	0.006703
816.892339	0.006850
817.082631	0.006882
817.272905	0.006974
817.463161	0.006790
817.653398	0.006665
817.843617	0.006348
818.033819	0.006523
818.224001	0.006233
818.414166	0.005993
818.604312	0.005669
818.794440	0.005542
818.984550	0.005377
819.174642	0.005480
819.364716	0.005470
819.554771	0.005927
819.744808	0.005875
819.934827	0.006128
820.124827	0.006315
820.314810	0.006662
820.504774	0.006785
820.694720	0.006968
820.884647	0.006883
821.074557	0.006889
821.264448	0.006729
821.454321	0.006835
821.644176	0.006629
821.834012	0.006667
822.023831	0.006644
822.213631	0.006620
822.403413	0.006458
822.593176	0.006409
822.782922	0.006665
822.972649	0.006807
823.162358	0.006872
823.352049	0.007034
823.541721	0.007068
823.731376	0.007061
823.921012	0.007192
824.110629	0.007489
824.300229	0.007681
824.489811	0.007542
824.679374	0.007419
824.868919	0.007499
825.058445	0.007377
825.247954	0.007348
825.437444	0.007339
825.626916	0.007362
825.816370	0.007361
826.005806	0.007541
826.195223	0.007506
826.384622	0.007608
826.574003	0.007514
826.763366	0.007642
826.952711	0.007775
827.142037	0.007863
827.331345	0.007683
827.520635	0.007572
827.709906	0.007256
827.899160	0.007207
828.088395	0.007215
828.277612	0.007292
828.466810	0.007529
828.655991	0.007504
828.845153	0.007620
829.034297	0.007943
829.223423	0.007901
829.412531	0.008045
829.601620	0.008305
829.790691	0.008352
829.979744	0.008449
830.168779	0.008253
830.357795	0.008331
830.546793	0.008273
830.735773	0.008082
830.924735	0.008360
831.113679	0.008529
831.302604	0.008705
831.491511	0.008753
831.680400	0.008946
831.869271	0.008926
832.058123	0.008814
832.246957	0.008806
832.435773	0.008845
832.624571	0.008856
832.813351	0.008859
833.002112	0.008739
833.190855	0.008863
833.379580	0.008590
833.568287	0.008567
833.756975	0.008812
833.945645	0.008843
834.134297	0.008923
834.322931	0.008755
834.511547	0.008696
834.700144	0.008518
834.888723	0.008472
835.077284	0.008635
835.265826	0.008803
835.454351	0.008885
835.642857	0.008856
835.831345	0.008855
836.019815	0.009300
836.208266	0.009386
836.396699	0.009735
836.585114	0.009819
836.773511	0.009820
836.961890	0.009831
837.150250	0.009936
837.338592	0.010370
837.526916	0.010382
837.715222	0.010187
837.903510	0.010349
838.091779	0.010291
838.280030	0.010345
838.468263	0.010335
838.656477	0.010576
838.844674	0.010425
839.032852	0.010207
839.221012	0.010459
839.409153	0.010342
839.597277	0.010391
839.785382	0.010378
839.973469	0.010537
840.161538	0.010771
840.349589	0.010957
840.537621	0.011117
840.725635	0.011238
840.913631	0.011379
841.101609	0.011698
841.289568	0.011870
841.477509	0.012193
841.665432	0.012177
841.853337	0.012429
842.041224	0.012456
842.229092	0.012502
842.416942	0.012683
842.604774	0.012612
842.792588	0.012650
842.980383	0.012551
843.168160	0.012570
843.355919	0.012636
843.543660	0.012591
843.731382	0.012458
843.919087	0.012843
844.106773	0.012977
844.294441	0.013142
844.482090	0.013296
844.669722	0.013470
844.857335	0.013397
845.044930	0.013256
845.232507	0.013291
845.420065	0.013398
845.607605	0.013003
845.795127	0.012844
845.982631	0.012876
846.170117	0.013062
846.357584	0.012899
846.545033	0.012836
846.732464	0.013117
846.919877	0.013085
847.107272	0.013043
847.294648	0.012982
847.482006	0.013115
847.669346	0.013201
847.856667	0.013049
848.043971	0.013254
848.231256	0.013612
848.418523	0.013579
848.605771	0.013783
848.793002	0.014263
848.980214	0.014676
849.167408	0.014694
849.354584	0.014625
849.541742	0.014574
849.728881	0.014797
849.916002	0.014829
850.103105	0.014949
850.290190	0.015004
850.477256	0.015075
850.664304	0.015018
850.851334	0.015100
851.038346	0.015390
851.225340	0.015475
851.412315	0.015578
851.599272	0.015589
851.786211	0.015820
851.973132	0.015842
852.160034	0.015840
852.346918	0.015893
852.533784	0.015869
852.720632	0.015720
852.907462	0.016009
853.094273	0.015851
853.281066	0.015668
853.467841	0.015739
853.654598	0.015899
853.841336	0.015638
854.028056	0.015633
854.214758	0.015706
854.401442	0.016005
854.588107	0.015962
854.774755	0.016234
854.961384	0.016499
855.147995	0.016564
855.334587	0.016432
855.521162	0.016506
855.707718	0.016686
855.894256	0.016819
856.080775	0.016854
856.267277	0.017122
856.453760	0.017118
856.640225	0.017286
856.826672	0.017290
857.013101	0.017568
857.199511	0.017727
857.385903	0.017894
857.572277	0.018108
857.758633	0.018090
857.944970	0.017966
858.131290	0.018134
858.317591	0.017861
858.503873	0.017994
858.690138	0.017983
858.876384	0.018265
859.062612	0.018264
859.248822	0.018194
859.435014	0.018346
859.621188	0.018495
859.807343	0.018414
859.993480	0.018949
860.179599	0.018906
860.365699	0.018896
860.551781	0.018894
860.737846	0.019305
860.923891	0.019622
861.109919	0.019652
861.295929	0.019663
861.481920	0.019910
861.667893	0.019946
861.853848	0.020195
862.039784	0.020586
862.225702	0.020878
862.411603	0.020603
862.597484	0.020350
862.783348	0.020451
862.969193	0.020604
863.155021	0.020524
863.340830	0.020346
863.526620	0.020368
863.712393	0.020027
863.898147	0.020066
864.083883	0.020318
864.269601	0.020361
864.455301	0.020396
864.640982	0.020567
864.826645	0.020324
865.012290	0.020410
865.197917	0.020513
865.383526	0.020607
865.569116	0.020204
865.754688	0.020069
865.940242	0.020170
866.125777	0.020174
866.311295	0.020032
866.496794	0.020384
866.682275	0.020426
866.867737	0.020602
867.053182	0.020891
867.238608	0.021400
867.424016	0.021411
867.609406	0.021538
867.794778	0.021808
867.980131	0.021938
868.165466	0.022357
868.350783	0.022618
868.536082	0.022587
868.721362	0.022636
868.906625	0.022634
869.091869	0.022807
869.277094	0.023058
869.462302	0.023030
869.647491	0.022964
869.832662	0.022781
870.017815	0.022918
870.202950	0.023143
870.388066	0.023170
870.573165	0.022965
870.758245	0.023016
870.943306	0.022920
871.128350	0.022958
871.313375	0.023119
871.498382	0.023285
871.683371	0.023338
871.868342	0.023048
872.053294	0.022942
872.238229	0.023456
872.423144	0.023442
872.608042	0.023419
872.792922	0.023325
872.977783	0.023289
873.162626	0.023211
873.347451	0.023242
873.532258	0.023508
873.717046	0.023810
873.901816	0.023750
874.086568	0.023829
874.271302	0.023988
874.456017	0.023957
874.640715	0.024147
874.825394	0.024101
875.010055	0.023964
875.194697	0.023832
875.379322	0.023907
875.563928	0.023653
875.748516	0.024043
875.933085	0.024258
876.117637	0.024492
876.302170	0.024492
876.486685	0.024653
876.671182	0.024835
876.855661	0.024895
877.040121	0.024678
877.224563	0.024880
877.408987	0.024661
877.593393	0.024840
877.777780	0.024875
877.962150	0.024846
878.146501	0.024769
878.330833	0.024935
878.515148	0.024945
878.699444	0.025227
878.883722	0.025409
879.067982	0.025514
879.252224	0.025321
879.436447	0.025252
879.620653	0.025143
879.804840	0.025278
879.989008	0.025208
880.173159	0.025224
880.357291	0.025239
880.541405	0.025245
880.725501	0.025205
880.909579	0.025058
881.093638	0.025343
881.277680	0.025474
881.461703	0.025443
881.645707	0.025496
881.829694	0.025753
882.013662	0.025712
882.197612	0.025514
882.381544	0.025406
882.565458	0.025698
882.749353	0.025645
882.933230	0.025892
883.117089	0.026187
883.300930	0.026180
883.484753	0.026153
883.668557	0.026212
883.852343	0.026504
884.036111	0.026404
884.219861	0.026548
884.403592	0.026985
884.587305	0.026996
884.771000	0.026689
884.954677	0.026702
885.138335	0.026506
885.321976	0.026572
885.505598	0.026275
885.689201	0.026527
885.872787	0.026411
886.056354	0.026104
886.239904	0.026075
886.423434	0.026145
886.606947	0.026155
886.790442	0.026025
886.973918	0.025793
887.157376	0.025517
887.340816	0.025584
887.524237	0.025677
887.707641	0.025686
887.891026	0.025687
888.074393	0.025909
888.257741	0.025752
888.441072	0.026122
888.624384	0.026296
888.807678	0.026822
888.990954	0.026988
889.174211	0.026610
889.357451	0.026566
889.540672	0.026407
889.723875	0.026288
889.907059	0.026394
890.090226	0.026040
890.273374	0.026173
890.456504	0.026061
890.639616	0.025972
890.822709	0.026335
891.005785	0.026255
891.188842	0.026251
891.371881	0.026186
891.554901	0.026078
891.737904	0.026689
891.920888	0.026648
892.103854	0.026801
892.286802	0.026736
892.469731	0.026596
892.652643	0.026636
892.835536	0.026650
893.018410	0.026883
893.201267	0.026883
893.384106	0.026467
893.566926	0.026682
893.749728	0.026520
893.932511	0.026616
894.115277	0.026404
894.298024	0.026610
894.480753	0.026653
894.663464	0.026711
894.846157	0.026715
895.028831	0.026870
895.211487	0.026512
895.394125	0.026767
895.576745	0.026971
895.759346	0.027180
895.941930	0.026983
896.124495	0.027316
896.307041	0.027300
896.489570	0.027320
896.672080	0.027318
896.854573	0.027562
897.037046	0.027141
897.219502	0.026862
897.401940	0.026956
897.584359	0.026842
897.766760	0.026680
897.949143	0.026241
898.131507	0.026445
898.313854	0.026301
898.496182	0.026041
898.678492	0.026066
898.860783	0.025646
899.043057	0.025452
899.225312	0.025463
899.407549	0.025163
899.589768	0.025091
899.771968	0.024956
899.954151	0.024638
900.136315	0.024424
900.318461	0.024362
900.500588	0.024903
900.682698	0.024731
900.864789	0.024674
901.046862	0.024587
901.228917	0.024743
901.410953	0.024699
901.592971	0.025295
901.774972	0.025131
901.956953	0.024834
902.138917	0.024399
902.320862	0.024687
902.502790	0.024231
902.684699	0.023982
902.866589	0.023821
903.048462	0.023526
903.230316	0.023151
903.412152	0.023378
903.593970	0.023818
903.775770	0.023693
903.957551	0.023620
904.139314	0.023917
904.321059	0.024282
904.502786	0.024128
904.684494	0.024168
904.866185	0.023915
905.047857	0.023821
905.229510	0.023410
905.411146	0.023677
905.592763	0.023751
905.774363	0.023618
905.955943	0.023378
906.137506	0.023378
906.319051	0.023131
906.500577	0.023078
906.682085	0.023131
906.863575	0.022830
907.045046	0.022290
907.226500	0.021973
907.407935	0.021585
907.589352	0.021458
907.770750	0.021403
907.952131	0.021632
908.133493	0.021624
908.314837	0.021244
908.496163	0.021494
908.677470	0.021721
908.858760	0.021329
909.040031	0.021667
909.221284	0.021459
909.402518	0.021199
909.583735	0.020951
909.764933	0.020485
909.946113	0.020384
910.127275	0.020070
910.308418	0.019690
910.489544	0.019463
910.670651	0.019139
910.851740	0.018987
911.032810	0.019276
911.213863	0.019019
911.394897	0.019433
911.575913	0.019843
911.756911	0.020041
911.937890	0.020405
912.118851	0.020384
912.299794	0.020298
912.480719	0.020172
912.661626	0.019878
912.842514	0.020054
913.023384	0.019632
913.204236	0.018896
913.385070	0.018697
913.565886	0.018215
913.746683	0.018548
913.927462	0.018662
914.108223	0.018769
914.288965	0.018333
914.469690	0.018156
914.650396	0.018309
914.831084	0.018504
915.011754	0.018296
915.192405	0.018137
915.373038	0.017842
915.553653	0.017633
915.734250	0.017480
915.914829	0.017423
916.095389	0.017249
916.275931	0.017201
916.456455	0.016611
916.636961	0.016367
916.817448	0.016180
916.997917	0.015672
917.178368	0.015470
917.358801	0.015388
917.539216	0.015408
917.719612	0.015151
917.899990	0.014760
918.080350	0.015136
918.260692	0.015345
918.441015	0.015307
918.621320	0.015501
918.801607	0.015316
918.981876	0.015457
919.162127	0.015256
919.342359	0.015449
919.522573	0.015529
919.702769	0.015530
919.882947	0.015126
920.063106	0.015379
920.243247	0.014896
920.423370	0.014863
920.603475	0.014593
920.783562	0.014526
920.963630	0.013935
921.143680	0.013597
921.323712	0.013132
921.503725	0.013083
921.683721	0.012691
921.863698	0.012881
922.043657	0.012634
922.223598	0.012033
922.403520	0.011589
922.583424	0.011614
922.763311	0.011024
922.943178	0.010622
923.123028	0.010516
923.302859	0.010243
923.482673	0.009751
923.662467	0.009359
923.842244	0.009399
924.022003	0.009566
924.201743	0.009700
924.381465	0.009902
924.561169	0.009718
924.740854	0.009520
924.920522	0.009024
925.100171	0.008767
925.279802	0.009138
925.459414	0.009014
925.639009	0.008196
925.818585	0.007499
925.998143	0.007328
926.177683	0.007004
926.357205	0.006646
926.536708	0.006916
926.716193	0.006444
926.895660	0.005795
927.075109	0.005716
927.254539	0.006280
927.433951	0.006118
927.613345	0.005586
927.792721	0.006005
927.972079	0.005427
928.151418	0.004857
928.330739	0.005050
928.510042	0.005053
928.689327	0.004636
928.868593	0.004158
929.047841	0.003819
929.227071	0.004008
929.406283	0.003190
929.585476	0.003162
929.764652	0.003400
929.943809	0.003365
930.122948	0.003368
930.302068	0.002950
930.481171	0.002822
930.660255	0.002548
930.839321	0.002046
931.018369	0.002146
931.197398	0.002261
931.376409	0.001403
931.555402	0.001409
931.734377	0.001247
931.913334	0.001423
932.092272	0.000775
932.271192	0.000909
932.450094	0.000356
932.628978	-0.000386
932.807844	-0.000691
932.986691	-0.000830
933.165520	-0.001428
933.344331	-0.002264
933.523123	-0.003060
933.701898	-0.002983
933.880654	-0.003607
934.059392	-0.003562
934.238111	-0.003318
934.416813	-0.003336
934.595496	-0.002803
934.774161	-0.002883
934.952808	-0.003129
935.131437	-0.003200
935.310047	-0.003064
935.488639	-0.002911
935.667213	-0.003351
935.845769	-0.003750
936.024306	-0.004268
936.202825	-0.005346
936.381326	-0.005961
936.559809	-0.005867
936.738274	-0.005938
936.916720	-0.005981
937.095148	-0.006697
937.273558	-0.007147
937.451950	-0.006948
937.630323	-0.007616
937.808678	-0.008225
937.987015	-0.007637
938.165334	-0.007778
938.343635	-0.007956
938.521917	-0.008409
938.700181	-0.008318
938.878427	-0.007924
939.056655	-0.008826
939.234864	-0.008886
939.413055	-0.008361
939.591228	-0.009367
939.769383	-0.010105
939.947519	-0.009934
940.125638	-0.010651
940.303738	-0.010860
940.481820	-0.011729
940.659883	-0.011331
940.837929	-0.011920
941.015956	-0.012942
941.193965	-0.013039
941.371955	-0.013435
941.549928	-0.014618
941.727882	-0.014551
941.905818	-0.014626
942.083736	-0.013768
942.261636	-0.013654
942.439517	-0.012811
942.617380	-0.011947
942.795225	-0.011332
942.973052	-0.011355
943.150860	-0.011151
943.328651	-0.011451
943.506423	-0.011964
943.684176	-0.012987
943.861912	-0.013891
944.039629	-0.013967
944.217328	-0.014681
944.395009	-0.016651
944.572672	-0.017828
944.750317	-0.018133
944.927943	-0.018157
945.105551	-0.018463
945.283141	-0.017140
945.460712	-0.017587
945.638265	-0.018176
945.815801	-0.017398
945.993317	-0.016147
946.170816	-0.014900
946.348297	-0.014606
946.525759	-0.015254
946.703203	-0.015407
946.880629	-0.016809
947.058036	-0.017408
947.235425	-0.018415
947.412797	-0.019510
947.590149	-0.020218
947.767484	-0.020914
947.944800	-0.021261
948.122099	-0.021804
948.299379	-0.021435
948.476640	-0.021260
948.653884	-0.020325
948.831109	-0.019172
949.008316	-0.019776
949.185505	-0.020262
949.362676	-0.020452
949.539828	-0.019581
949.716962	-0.018772
949.894078	-0.018440
950.071176	-0.018609
950.248256	-0.018711
950.425317	-0.019711
950.602360	-0.019132
950.779385	-0.017946
950.956391	-0.017226
951.133380	-0.018015
951.310350	-0.018714
951.487302	-0.020217
951.664235	-0.021012
951.841151	-0.019683
952.018048	-0.018133
952.194927	-0.018285
952.371788	-0.018830
952.548631	-0.018708
952.725455	-0.018537
952.902261	-0.018324
953.079049	-0.017549
953.255819	-0.017431
953.432570	-0.019153
953.609303	-0.021006
953.786018	-0.021205
953.962715	-0.020688
954.139394	-0.022149
954.316054	-0.023062
954.492696	-0.021676
954.669320	-0.021531
954.845926	-0.020824
955.022513	-0.020620
955.199083	-0.019433
955.375634	-0.020220
955.552166	-0.021896
955.728681	-0.019845
955.905177	-0.019207
956.081655	-0.021851
956.258115	-0.021868
956.434557	-0.021301
956.610980	-0.022592
956.787385	-0.023161
956.963772	-0.022203
957.140141	-0.019584
957.316492	-0.020396
957.492824	-0.020621
957.669138	-0.018549
957.845434	-0.019049
958.021712	-0.021126
958.197971	-0.019503
958.374212	-0.018743
958.550435	-0.018742
958.726640	-0.021742
958.902826	-0.022519
959.078995	-0.021748
959.255145	-0.022856
959.431277	-0.022782
959.607390	-0.020153
959.783486	-0.020508
959.959563	-0.020393
960.135622	-0.019877
960.311662	-0.018572
960.487685	-0.018568
960.663689	-0.018528
960.839675	-0.017786
961.015643	-0.018586
961.191593	-0.018983
961.367524	-0.017224
961.543437	-0.017792
961.719332	-0.017543
961.895209	-0.017453
962.071067	-0.014985
962.246907	-0.016113
962.422730	-0.014748
962.598533	-0.012042
962.774319	-0.010561
962.950086	-0.013126
963.125835	-0.013718
963.301566	-0.013906
963.477279	-0.014910
963.652973	-0.016159
963.828650	-0.014484
964.004308	-0.013780
964.179947	-0.014535
964.355569	-0.016864
964.531172	-0.016145
964.706757	-0.015878
964.882324	-0.016686
965.057873	-0.013911
965.233403	-0.012870
965.408916	-0.013412
965.584410	-0.016663
965.759885	-0.016338
965.935343	-0.015786
966.110782	-0.014426
966.286203	-0.014347
966.461606	-0.013393
966.636991	-0.013407
966.812357	-0.013412
966.987705	-0.012729
967.163035	-0.012372
967.338347	-0.012162
967.513641	-0.011994
967.688916	-0.011385
967.864173	-0.011481
968.039412	-0.009422
968.214632	-0.010006
968.389835	-0.009849
968.565019	-0.010121
968.740185	-0.008258
968.915333	-0.007597
969.090462	-0.007482
969.265573	-0.008999
969.440667	-0.008636
969.615741	-0.009297
969.790798	-0.010849
969.965836	-0.011597
970.140856	-0.011664
970.315858	-0.011875
970.490842	-0.012742
970.665808	-0.011059
970.840755	-0.010813
971.015684	-0.008457
971.190595	-0.010428
971.365487	-0.009705
971.540362	-0.009037
971.715218	-0.008785
971.890056	-0.007942
972.064875	-0.007378
972.239677	-0.008319
972.414460	-0.008592
972.589225	-0.011389
972.763972	-0.010329
972.938700	-0.009430
973.113411	-0.010963
973.288103	-0.011052
973.462777	-0.011938
973.637432	-0.013179
973.812070	-0.012617
973.986689	-0.012503
974.161290	-0.011326
974.335873	-0.011116
974.510437	-0.011837
974.684984	-0.012402
974.859512	-0.012667
975.034022	-0.011705
975.208513	-0.011050
975.382987	-0.012425
975.557442	-0.012635
975.731879	-0.012297
975.906298	-0.012877
976.080698	-0.010772
976.255080	-0.007624
976.429445	-0.008672
976.603790	-0.009208
976.778118	-0.010825
976.952427	-0.010810
977.126719	-0.011402
977.300992	-0.011802
977.475246	-0.009879
977.649483	-0.012843
977.823701	-0.014201
977.997901	-0.013800
978.172083	-0.013865
978.346247	-0.012010
978.520392	-0.012972
978.694519	-0.010137
978.868628	-0.009163
979.042719	-0.009717
979.216791	-0.006548
979.390845	-0.007490
979.564882	-0.006929
979.738899	-0.008192
979.912899	-0.007876
980.086880	-0.006398
980.260843	-0.007081
980.434788	-0.008636
980.608715	-0.007576
980.782623	-0.008226
980.956514	-0.007749
981.130386	-0.008219
981.304240	-0.008045
981.478075	-0.008369
981.651892	-0.007472
981.825692	-0.008151
981.999472	-0.007023
982.173235	-0.008045
982.346980	-0.009544
982.520706	-0.008900
982.694414	-0.007074
982.868104	-0.006948
983.041775	-0.008465
983.215428	-0.009290
983.389064	-0.009379
983.562680	-0.010094
983.736279	-0.011245
983.909860	-0.013250
984.083422	-0.013665
984.256966	-0.014169
984.430491	-0.013749
984.603999	-0.012160
984.777488	-0.012793
984.950959	-0.013151
985.124412	-0.013547
985.297847	-0.012894
985.471263	-0.010267
985.644661	-0.010612
985.818041	-0.010110
985.991403	-0.010688
986.164747	-0.011303
986.338072	-0.011224
986.511379	-0.012346
986.684668	-0.012326
986.857938	-0.011910
987.031191	-0.010837
987.204425	-0.010952
987.377641	-0.012751
987.550839	-0.012853
987.724018	-0.014179
987.897179	-0.014694
988.070322	-0.011968
988.243447	-0.012273
988.416554	-0.013524
988.589642	-0.014095
988.762712	-0.012494
988.935764	-0.012083
989.108798	-0.012851
989.281813	-0.012064
989.454811	-0.012420
989.627790	-0.014239
989.800751	-0.013802
989.973693	-0.012029
990.146617	-0.013461
990.319524	-0.014839
990.492412	-0.014978
990.665281	-0.013785
990.838133	-0.013562
991.010966	-0.013342
991.183781	-0.012642
991.356578	-0.012910
991.529356	-0.014510
991.702117	-0.015320
991.874859	-0.014443
992.047583	-0.013775
992.220288	-0.015213
992.392976	-0.014582
992.565645	-0.013592
992.738296	-0.015490
992.910929	-0.014747
993.083543	-0.015363
993.256139	-0.014057
993.428718	-0.014492
993.601277	-0.014293
993.773819	-0.013331
993.946342	-0.012473
994.118848	-0.012359
994.291335	-0.010745
994.463803	-0.011962
994.636254	-0.012120
994.808686	-0.012155
994.981100	-0.012638
995.153496	-0.013756
995.325874	-0.012370
995.498233	-0.012818
995.670574	-0.013914
995.842897	-0.013121
996.015202	-0.012177
996.187488	-0.010716
996.359757	-0.009896
996.532007	-0.009329
996.704239	-0.008178
996.876452	-0.009003
997.048648	-0.009948
997.220825	-0.009097
997.392984	-0.009388
997.565124	-0.009889
997.737247	-0.009767
997.909351	-0.011525
998.081437	-0.011554
998.253505	-0.011268
998.425554	-0.012791
998.597586	-0.011115
998.769599	-0.012136
998.941594	-0.012546
999.113571	-0.011551
999.285529	-0.011682
999.457469	-0.011411
999.629391	-0.012585
999.801295	-0.014244
999.973181	-0.012311
1000.145048	-0.014346
1000.316897	-0.015311
1000.488728	-0.016634
1000.660541	-0.015822
1000.832335	-0.016733
1001.004111	-0.016413
1001.175869	-0.014947
1001.347609	-0.013781
1001.519331	-0.014682
1001.691034	-0.013344
1001.862719	-0.011585
1002.034386	-0.010271
1002.206035	-0.012857
1002.377665	-0.012890
1002.549277	-0.013221
1002.720871	-0.012909
1002.892447	-0.014943
1003.064004	-0.015670
1003.235544	-0.016857
1003.407065	-0.016494
1003.578568	-0.017092
1003.750052	-0.017259
1003.921519	-0.016351
1004.092967	-0.017010
1004.264397	-0.017920
1004.435809	-0.017006
1004.607202	-0.016269
1004.778577	-0.015266
1004.949934	-0.015417
1005.121273	-0.014619
1005.292594	-0.014474
1005.463896	-0.016336
1005.635180	-0.015320
1005.806446	-0.015524
1005.977694	-0.014421
1006.148923	-0.013775
1006.320135	-0.014227
1006.491328	-0.014691
1006.662503	-0.014595
1006.833659	-0.013343
1007.004798	-0.012695
1007.175918	-0.013165
1007.347020	-0.014454
1007.518103	-0.016052
1007.689169	-0.016944
1007.860216	-0.018542
1008.031245	-0.018171
1008.202256	-0.018770
1008.373248	-0.018690
1008.544223	-0.018568
1008.715179	-0.018403
1008.886117	-0.016521
1009.057036	-0.015644
1009.227938	-0.015815
1009.398821	-0.014011
1009.569686	-0.013121
1009.740533	-0.011286
1009.911361	-0.011911
1010.082172	-0.010636
1010.252964	-0.009690
1010.423738	-0.010508
1010.594493	-0.010961
1010.765231	-0.011528
1010.935950	-0.011653
1011.106651	-0.013197
1011.277334	-0.015170
1011.447998	-0.016437
1011.618645	-0.018169
1011.789273	-0.018200
1011.959882	-0.018051
1012.130474	-0.017941
1012.301048	-0.018479
1012.471603	-0.019503
1012.642140	-0.019585
1012.812658	-0.019244
1012.983159	-0.017329
1013.153641	-0.015436
1013.324105	-0.014706
1013.494551	-0.014550
1013.664979	-0.014794
1013.835388	-0.012665
1014.005779	-0.012568
1014.176152	-0.013107
1014.346507	-0.012603
1014.516843	-0.013297
1014.687162	-0.014285
1014.857462	-0.016134
1015.027744	-0.017432
1015.198007	-0.016778
1015.368252	-0.017071
1015.538480	-0.016706
1015.708689	-0.015234
1015.878879	-0.015689
1016.049052	-0.015427
1016.219206	-0.016157
1016.389342	-0.016500
1016.559460	-0.014706
1016.729559	-0.015643
1016.899641	-0.016950
1017.069704	-0.018052
1017.239749	-0.018867
1017.409775	-0.018703
1017.579784	-0.017959
1017.749774	-0.016563
1017.919746	-0.014941
1018.089700	-0.015423
1018.259635	-0.015473
1018.429553	-0.014631
1018.599452	-0.014086
1018.769333	-0.014532
1018.939195	-0.014991
1019.109040	-0.017158
1019.278866	-0.017597
1019.448674	-0.018121
1019.618464	-0.018911
1019.788235	-0.018879
1019.957989	-0.020610
1020.127724	-0.019442
1020.297441	-0.017978
1020.467139	-0.018888
1020.636820	-0.018056
1020.806482	-0.019049
1020.976126	-0.019192
1021.145752	-0.018823
1021.315359	-0.018549
1021.484948	-0.017589
1021.654519	-0.017656
1021.824072	-0.017632
1021.993607	-0.016122
1022.163123	-0.016433
1022.332621	-0.015001
1022.502101	-0.015033
1022.671563	-0.015488
1022.841007	-0.014777
1023.010432	-0.013810
1023.179839	-0.013501
1023.349228	-0.012254
1023.518598	-0.013051
1023.687951	-0.014124
1023.857285	-0.015472
1024.026601	-0.014459
1024.195899	-0.012163
1024.365178	-0.013269
1024.534439	-0.013289
1024.703682	-0.014771
1024.872907	-0.017894
1025.042114	-0.018592
1025.211302	-0.016083
1025.380472	-0.015354
1025.549624	-0.015741
1025.718758	-0.017736
1025.887873	-0.016543
1026.056970	-0.016219
1026.226049	-0.015249
1026.395110	-0.013811
1026.564153	-0.012056
1026.733177	-0.012364
1026.902183	-0.012468
1027.071171	-0.014205
1027.240141	-0.014496
1027.409092	-0.015623
1027.578026	-0.016826
1027.746940	-0.017692
1027.915837	-0.019582
1028.084716	-0.020365
1028.253576	-0.020329
1028.422418	-0.021925
1028.591242	-0.021298
1028.760048	-0.020735
1028.928835	-0.018935
1029.097604	-0.018746
1029.266355	-0.017178
1029.435088	-0.015385
1029.603803	-0.015636
1029.772499	-0.016336
1029.941177	-0.015496
1030.109837	-0.015362
1030.278478	-0.015519
1030.447102	-0.018400
1030.615707	-0.017082
1030.784294	-0.018470
1030.952863	-0.018581
1031.121413	-0.019316
1031.289945	-0.019038
1031.458460	-0.018624
1031.626955	-0.019097
1031.795433	-0.019276
1031.963892	-0.017012
1032.132334	-0.018088
1032.300756	-0.018148
1032.469161	-0.016934
1032.637548	-0.015021
1032.805916	-0.015870
1032.974266	-0.014591
1033.142598	-0.013706
1033.310911	-0.013988
1033.479207	-0.014899
1033.647484	-0.014391
1033.815743	-0.012308
1033.983983	-0.013718
1034.152206	-0.015777
1034.320410	-0.015853
1034.488596	-0.016581
1034.656764	-0.018442
1034.824914	-0.018955
1034.993045	-0.018809
1035.161158	-0.017935
1035.329253	-0.021152
1035.497330	-0.022247
1035.665388	-0.022213
1035.833428	-0.024224
1036.001450	-0.025324
1036.169454	-0.024557
1036.337440	-0.022914
1036.505407	-0.022521
1036.673356	-0.025321
1036.841287	-0.024279
1037.009200	-0.022434
1037.177094	-0.021703
1037.344970	-0.019176
1037.512828	-0.018667
1037.680668	-0.017510
1037.848489	-0.016944
1038.016293	-0.015760
1038.184078	-0.014482
1038.351845	-0.014475
1038.519593	-0.016077
1038.687324	-0.015324
1038.855036	-0.014243
1039.022730	-0.013821
1039.190406	-0.013739
1039.358063	-0.014838
1039.525702	-0.017373
1039.693323	-0.017983
1039.860926	-0.017278
1040.028511	-0.016945
1040.196077	-0.017701
1040.363625	-0.019019
1040.531155	-0.018934
1040.698667	-0.019659
1040.866161	-0.020847
1041.033636	-0.020120
1041.201093	-0.018909
1041.368532	-0.016838
1041.535952	-0.016383
1041.703355	-0.016834
1041.870739	-0.016862
1042.038105	-0.018292
1042.205452	-0.018276
1042.372782	-0.017617
1042.540093	-0.017468
1042.707386	-0.017306
1042.874661	-0.018618
1043.041918	-0.018744
1043.209156	-0.018757
1043.376376	-0.019847
1043.543578	-0.018852
1043.710762	-0.017572
1043.877927	-0.016401
1044.045074	-0.016669
1044.212203	-0.016793
1044.379314	-0.018067
1044.546407	-0.016555
1044.713481	-0.016850
1044.880537	-0.016344
1045.047575	-0.017903
1045.214595	-0.020029
1045.381596	-0.019655
1045.548579	-0.019711
1045.715544	-0.021266
1045.882491	-0.020197
1046.049420	-0.020325
1046.216330	-0.018033
1046.383222	-0.016853
1046.550096	-0.014824
1046.716951	-0.013169
1046.883789	-0.013664
1047.050608	-0.012147
1047.217409	-0.011064
1047.384192	-0.011859
1047.550956	-0.013039
1047.717703	-0.014694
1047.884431	-0.014604
1048.051140	-0.013970
1048.217832	-0.015152
1048.384505	-0.016131
1048.551161	-0.018318
1048.717798	-0.017706
1048.884416	-0.018837
1049.051017	-0.019442
1049.217599	-0.018025
1049.384163	-0.019454
1049.550709	-0.020279
1049.717237	-0.020238
1049.883746	-0.019243
1050.050237	-0.017206
1050.216710	-0.018844
1050.383165	-0.017336
1050.549601	-0.015897
1050.716019	-0.015979
1050.882420	-0.015171
1051.048801	-0.015856
1051.215165	-0.015895
1051.381510	-0.016125
1051.547837	-0.014755
1051.714146	-0.013430
1051.880437	-0.014152
1052.046709	-0.016444
1052.212964	-0.018363
1052.379200	-0.017510
1052.545417	-0.017122
1052.711617	-0.015994
1052.877798	-0.016396
1053.043961	-0.017121
1053.210106	-0.018175
1053.376233	-0.017265
1053.542341	-0.015035
1053.708432	-0.013924
1053.874504	-0.015446
1054.040557	-0.015766
1054.206593	-0.015986
1054.372610	-0.016112
1054.538609	-0.017786
1054.704590	-0.015951
1054.870553	-0.017171
1055.036497	-0.019617
1055.202424	-0.020379
1055.368331	-0.019360
1055.534221	-0.019672
1055.700093	-0.020349
1055.865946	-0.021896
1056.031781	-0.020062
1056.197598	-0.020971
1056.363397	-0.019812
1056.529177	-0.018894
1056.694939	-0.019408
1056.860683	-0.019922
1057.026409	-0.019167
1057.192116	-0.019524
1057.357806	-0.017183
1057.523477	-0.019571
1057.689130	-0.019215
1057.854764	-0.020406
1058.020381	-0.021151
1058.185979	-0.019917
1058.351559	-0.019246
1058.517120	-0.018418
1058.682664	-0.017733
1058.848189	-0.018784
1059.013696	-0.018676
1059.179185	-0.017836
1059.344656	-0.016867
1059.510108	-0.015967
1059.675542	-0.016858
1059.840958	-0.019006
1060.006356	-0.020184
1060.171735	-0.020795
1060.337096	-0.020184
1060.502439	-0.019657
1060.667764	-0.021147
1060.833071	-0.021672
1060.998359	-0.019810
1061.163629	-0.020164
1061.328881	-0.018838
1061.494115	-0.020071
1061.659330	-0.018570
1061.824527	-0.018440
1061.989706	-0.018041
1062.154867	-0.018084
1062.320010	-0.016851
1062.485134	-0.018715
1062.650240	-0.017956
1062.815328	-0.017906
1062.980398	-0.016153
1063.145449	-0.017775
1063.310482	-0.019247
1063.475497	-0.020503
1063.640494	-0.021197
1063.805473	-0.023668
1063.970433	-0.023810
1064.135375	-0.024848
1064.300299	-0.024775
1064.465204	-0.025966
1064.630092	-0.026229
1064.794961	-0.024901
1064.959812	-0.026233
1065.124645	-0.026596
1065.289459	-0.025886
1065.454256	-0.024530
1065.619034	-0.022196
1065.783793	-0.020775
1065.948535	-0.020597
1066.113258	-0.019646
1066.277964	-0.022342
1066.442651	-0.021355
1066.607319	-0.019783
1066.771970	-0.019111
1066.936602	-0.019877
1067.101216	-0.020291
1067.265812	-0.023473
1067.430389	-0.023050
1067.594949	-0.024003
1067.759490	-0.022033
1067.924013	-0.022056
1068.088518	-0.022473
1068.253004	-0.023863
1068.417472	-0.022746
1068.581922	-0.023716
1068.746354	-0.023530
1068.910768	-0.023734
1069.075163	-0.022216
1069.239540	-0.021739
1069.403899	-0.020128
1069.568240	-0.019131
1069.732562	-0.017095
1069.896866	-0.018459
1070.061152	-0.018168
1070.225420	-0.015681
1070.389670	-0.014702
1070.553901	-0.016689
1070.718114	-0.016533
1070.882309	-0.016617
1071.046486	-0.017682
1071.210644	-0.021213
1071.374784	-0.021998
1071.538906	-0.021813
1071.703010	-0.021414
1071.867096	-0.022533
1072.031163	-0.022237
1072.195212	-0.024205
1072.359243	-0.025042
1072.523256	-0.026452
1072.687250	-0.025395
1072.851226	-0.025660
1073.015184	-0.026275
1073.179124	-0.025343
1073.343045	-0.025018
1073.506949	-0.025759
1073.670834	-0.024698
1073.834701	-0.024088
1073.998549	-0.022733
1074.162380	-0.023183
1074.326192	-0.021671
1074.489986	-0.023120
1074.653761	-0.025175
1074.817519	-0.024521
1074.981258	-0.023385
1075.144979	-0.022587
1075.308682	-0.022577
1075.472367	-0.022979
1075.636033	-0.020659
1075.799681	-0.020046
1075.963311	-0.018893
1076.126923	-0.017293
1076.290516	-0.018453
1076.454092	-0.018979
1076.617649	-0.019178
1076.781187	-0.019613
1076.944708	-0.019813
1077.108210	-0.018975
1077.271695	-0.021437
1077.435160	-0.021717
1077.598608	-0.022876
1077.762038	-0.023657
1077.925449	-0.023142
1078.088842	-0.025276
1078.252217	-0.024968
1078.415573	-0.023668
1078.578912	-0.022933
1078.742232	-0.020990
1078.905534	-0.019826
1079.068817	-0.018153
1079.232083	-0.017849
1079.395330	-0.018005
1079.558559	-0.014565
1079.721770	-0.014282
1079.884962	-0.012838
1080.048136	-0.014413
1080.211293	-0.016399
1080.374430	-0.018860
1080.537550	-0.020784
1080.700651	-0.019127
1080.863735	-0.018122
1081.026800	-0.019106
1081.189846	-0.017702
1081.352875	-0.019862
1081.515885	-0.018422
1081.678877	-0.017447
1081.841851	-0.015324
1082.004807	-0.013341
1082.167744	-0.013091
1082.330663	-0.011992
1082.493564	-0.012881
1082.656447	-0.014226
1082.819312	-0.015442
1082.982158	-0.015798
1083.144986	-0.015745
1083.307796	-0.015939
1083.470587	-0.017533
1083.633361	-0.018892
1083.796116	-0.019706
1083.958853	-0.019760
1084.121571	-0.019707
1084.284272	-0.019915
1084.446954	-0.023503
1084.609618	-0.022886
1084.772264	-0.021515
1084.934892	-0.021843
1085.097501	-0.020556
1085.260092	-0.021863
1085.422665	-0.020551
1085.585220	-0.020756
1085.747756	-0.019902
1085.910274	-0.018512
1086.072774	-0.018811
1086.235256	-0.020280
1086.397720	-0.020670
1086.560165	-0.024240
1086.722592	-0.024053
1086.885001	-0.024274
1087.047392	-0.026797
1087.209764	-0.026524
1087.372119	-0.026110
1087.534455	-0.024494
1087.696772	-0.023878
1087.859072	-0.023634
1088.021353	-0.020030
1088.183616	-0.020844
1088.345861	-0.021835
1088.508088	-0.022707
1088.670296	-0.023650
1088.832486	-0.025680
1088.994658	-0.025169
1089.156812	-0.025097
1089.318948	-0.025376
1089.481065	-0.028240
1089.643164	-0.027883
1089.805245	-0.027937
1089.967308	-0.024911
1090.129352	-0.023358
1090.291378	-0.020737
1090.453386	-0.024370
1090.615376	-0.026212
1090.777347	-0.028321
1090.939301	-0.028379
1091.101236	-0.027241
1091.263153	-0.028928
1091.425051	-0.028813
1091.586932	-0.030064
1091.748794	-0.029334
1091.910638	-0.027856
1092.072463	-0.028016
1092.234271	-0.023871
1092.396060	-0.022673
1092.557831	-0.026779
1092.719584	-0.023028
1092.881319	-0.022387
1093.043035	-0.021435
1093.204733	-0.023717
1093.366413	-0.025108
1093.528075	-0.022668
1093.689718	-0.026628
1093.851343	-0.025799
1094.012950	-0.021409
1094.174539	-0.024509
1094.336110	-0.025579
1094.497662	-0.026553
1094.659196	-0.024480
1094.820712	-0.023652
1094.982210	-0.024293
1095.143689	-0.023673
1095.305151	-0.022500
1095.466594	-0.022471
1095.628018	-0.021957
1095.789425	-0.024228
1095.950813	-0.022861
1096.112183	-0.023788
1096.273535	-0.022936
1096.434869	-0.024399
1096.596184	-0.022854
1096.757482	-0.024128
1096.918761	-0.025110
1097.080021	-0.023580
1097.241264	-0.022598
1097.402488	-0.025324
1097.563694	-0.026694
1097.724882	-0.027323
1097.886052	-0.026543
1098.047203	-0.025199
1098.208336	-0.024839
1098.369451	-0.025157
1098.530548	-0.025364
1098.691627	-0.024532
1098.852687	-0.023637
1099.013729	-0.023826
1099.174753	-0.024699
1099.335758	-0.025989
1099.496746	-0.025475
1099.657715	-0.026097
1099.818666	-0.026020
1099.979599	-0.027527
1100.140513	-0.023562
1100.301409	-0.023816
1100.462287	-0.023931
1100.623147	-0.023433
1100.783989	-0.023273
1100.944812	-0.026897
1101.105617	-0.027554
1101.266404	-0.026888
1101.427173	-0.026977
1101.587923	-0.030352
1101.748656	-0.028713
1101.909370	-0.028712
1102.070066	-0.027328
1102.230743	-0.026285
1102.391403	-0.023305
1102.552044	-0.023513
1102.712667	-0.022829
1102.873271	-0.022406
1103.033858	-0.023098
1103.194426	-0.025112
1103.354976	-0.021878
1103.515508	-0.022909
1103.676021	-0.023570
1103.836517	-0.024974
1103.996994	-0.024850
1104.157453	-0.027934
1104.317893	-0.026759
1104.478316	-0.026632
1104.638720	-0.025567
1104.799106	-0.024580
1104.959474	-0.027333
1105.119823	-0.029694
1105.280155	-0.029196
1105.440468	-0.030217
1105.600763	-0.026800
1105.761039	-0.025457
1105.921298	-0.022220
1106.081538	-0.020341
1106.241760	-0.023475
1106.401964	-0.019961
1106.562149	-0.021118
1106.722316	-0.021461
1106.882465	-0.020340
1107.042596	-0.022436
1107.202709	-0.023172
1107.362803	-0.027066
1107.522879	-0.029457
1107.682937	-0.027809
1107.842977	-0.030589
1108.002999	-0.025890
1108.163002	-0.026834
1108.322987	-0.025367
1108.482954	-0.022242
1108.642902	-0.021460
1108.802833	-0.021920
1108.962745	-0.017755
1109.122639	-0.020086
1109.282515	-0.016591
1109.442372	-0.016116
1109.602211	-0.012183
1109.762032	-0.012670
1109.921835	-0.013824
1110.081620	-0.015330
1110.241386	-0.012584
1110.401134	-0.015487
1110.560864	-0.014766
1110.720576	-0.015743
1110.880269	-0.016211
1111.039945	-0.019972
1111.199602	-0.018255
1111.359240	-0.019204
1111.518861	-0.019549
1111.678463	-0.022483
1111.838047	-0.020253
1111.997613	-0.019330
1112.157161	-0.021398
1112.316690	-0.021762
1112.476202	-0.017701
1112.635695	-0.020639
1112.795169	-0.021414
1112.954626	-0.023315
1113.114064	-0.019315
1113.273484	-0.019759
1113.432886	-0.024135
1113.592270	-0.019897
1113.751635	-0.022511
1113.910983	-0.029352
1114.070312	-0.026975
1114.229622	-0.026033
1114.388915	-0.026202
1114.548189	-0.031221
1114.707445	-0.033922
1114.866683	-0.027897
1115.025903	-0.028145
1115.185104	-0.024588
1115.344287	-0.023308
1115.503452	-0.023469
1115.662599	-0.025543
1115.821727	-0.021145
1115.980838	-0.016916
1116.139930	-0.017049
1116.299004	-0.019411
1116.458059	-0.022500
1116.617097	-0.020932
1116.776116	-0.019256
1116.935117	-0.022831
1117.094099	-0.022892
1117.253064	-0.026361
1117.412010	-0.027076
1117.570938	-0.028070
1117.729848	-0.027752
1117.888740	-0.025406
1118.047613	-0.027652
1118.206468	-0.029947
1118.365305	-0.028233
1118.524124	-0.024875
1118.682924	-0.022940
1118.841707	-0.021178
1119.000471	-0.017683
1119.159216	-0.018373
1119.317944	-0.020334
1119.476653	-0.019538
1119.635344	-0.015429
1119.794017	-0.016115
1119.952672	-0.017686
1120.111308	-0.017771
1120.269927	-0.019676
1120.428527	-0.018014
1120.587108	-0.018144
1120.745672	-0.016791
1120.904217	-0.017539
1121.062744	-0.020215
1121.221253	-0.019881
1121.379744	-0.020794
1121.538216	-0.023743
1121.696671	-0.025043
1121.855107	-0.025996
1122.013524	-0.021114
1122.171924	-0.022540
1122.330305	-0.025155
1122.488668	-0.024811
1122.647013	-0.024306
1122.805340	-0.022606
1122.963648	-0.022249
1123.121938	-0.019673
1123.280210	-0.022708
1123.438464	-0.024606
1123.596700	-0.023132
1123.754917	-0.022407
1123.913116	-0.017522
1124.071297	-0.013982
1124.229459	-0.013925
1124.387604	-0.014141
1124.545730	-0.011231
1124.703838	-0.009736
1124.861928	-0.008825
1125.019999	-0.013521
1125.178052	-0.013946
1125.336088	-0.019068
1125.494104	-0.024028
1125.652103	-0.024219
1125.810083	-0.024701
1125.968045	-0.030931
1126.125989	-0.035253
1126.283915	-0.040098
1126.441823	-0.037535
1126.599712	-0.037096
1126.757583	-0.036928
1126.915436	-0.032686
1127.073270	-0.038938
1127.231087	-0.039108
1127.388885	-0.038552
1127.546665	-0.033312
1127.704426	-0.033286
1127.862170	-0.030808
1128.019895	-0.027777
1128.177602	-0.027663
1128.335291	-0.025345
1128.492961	-0.019987
1128.650614	-0.019417
1128.808248	-0.018934
1128.965864	-0.016313
1129.123461	-0.013382
1129.281041	-0.014247
1129.438602	-0.013779
1129.596145	-0.012294
1129.753670	-0.020389
1129.911176	-0.020073
1130.068665	-0.014226
1130.226135	-0.015566
1130.383587	-0.018830
1130.541020	-0.014946
1130.698436	-0.012815
1130.855833	-0.017819
1131.013212	-0.019700
1131.170573	-0.019948
1131.327915	-0.018102
1131.485239	-0.019445
1131.642545	-0.015473
1131.799833	-0.012841
1131.957103	-0.014964
1132.114354	-0.020109
1132.271588	-0.018246
1132.428803	-0.017905
1132.585999	-0.011287
1132.743178	-0.010249
1132.900338	-0.010887
1133.057480	-0.012343
1133.214604	-0.016588
1133.371710	-0.018627
1133.528797	-0.016264
1133.685866	-0.013922
1133.842917	-0.014721
1133.999950	-0.018460
1134.156964	-0.019280
1134.313960	-0.022643
1134.470938	-0.023622
1134.627898	-0.025218
1134.784840	-0.025557
1134.941763	-0.024112
1135.098668	-0.026019
1135.255555	-0.024488
1135.412424	-0.021934
1135.569274	-0.024122
1135.726107	-0.024094
1135.882921	-0.025566
1136.039716	-0.021910
1136.196494	-0.021106
1136.353253	-0.020888
1136.509995	-0.020489
1136.666717	-0.015876
1136.823422	-0.018465
1136.980109	-0.016623
1137.136777	-0.014780
1137.293427	-0.011599
1137.450059	-0.012212
1137.606672	-0.016775
1137.763267	-0.020084
1137.919844	-0.019805
1138.076403	-0.026132
1138.232944	-0.026607
1138.389466	-0.030889
1138.545971	-0.029016
1138.702457	-0.031858
1138.858924	-0.032564
1139.015374	-0.029379
1139.171805	-0.029844
1139.328218	-0.032195
1139.484613	-0.023669
1139.640990	-0.020762
1139.797348	-0.015470
1139.953688	-0.015336
1140.110010	-0.015599
1140.266314	-0.012174
1140.422600	-0.005040
1140.578867	-0.002016
1140.735116	-0.003413
1140.891347	-0.015027
1141.047559	-0.018458
1141.203754	-0.019264
1141.359930	-0.016995
1141.516088	-0.018288
1141.672228	-0.020877
1141.828349	-0.026603
1141.984452	-0.026660
1142.140537	-0.025932
1142.296604	-0.023019
1142.452653	-0.023540
1142.608683	-0.021670
1142.764695	-0.022417
1142.920689	-0.017952
1143.076665	-0.023491
1143.232622	-0.020159
1143.388562	-0.021236
1143.544483	-0.024355
1143.700385	-0.020694
1143.856270	-0.019794
1144.012136	-0.020816
1144.167985	-0.028189
1144.323814	-0.030332
1144.479626	-0.024435
1144.635420	-0.025856
1144.791195	-0.031257
1144.946952	-0.022345
1145.102691	-0.022154
1145.258411	-0.021764
1145.414113	-0.029757
1145.569798	-0.026330
1145.725463	-0.023818
1145.881111	-0.024382
1146.036741	-0.021119
1146.192352	-0.010993
1146.347945	-0.007192
1146.503519	-0.010735
1146.659076	-0.007096
1146.814614	-0.003605
1146.970134	0.001087
1147.125636	-0.004099
1147.281120	0.000370
1147.436585	-0.002233
1147.592032	-0.009479
1147.747461	-0.016846
1147.902872	-0.019161
1148.058265	-0.021129
1148.213639	-0.021591
1148.368995	-0.029441
1148.524333	-0.029943
1148.679653	-0.031877
1148.834954	-0.037558
1148.990237	-0.037032
1149.145502	-0.036891
1149.300749	-0.027492
1149.455977	-0.030064
1149.611188	-0.028103
1149.766380	-0.024165
1149.921553	-0.019869
1150.076709	-0.024656
1150.231846	-0.025838
1150.386966	-0.024234
1150.542066	-0.023072
1150.697149	-0.026248
1150.852214	-0.026376
1151.007260	-0.022818
1151.162288	-0.029073
1151.317298	-0.028285
1151.472289	-0.028561
1151.627263	-0.030113
1151.782218	-0.026345
1151.937155	-0.022452
1152.092073	-0.023471
1152.246974	-0.018138
1152.401856	-0.019760
1152.556720	-0.014895
1152.711566	-0.017864
1152.866393	-0.016337
1153.021203	-0.012168
1153.175994	-0.017543
1153.330767	-0.019658
1153.485521	-0.023279
1153.640258	-0.027456
1153.794976	-0.031648
1153.949676	-0.033332
1154.104358	-0.031581
1154.259021	-0.029578
1154.413667	-0.030738
1154.568294	-0.025052
1154.722903	-0.024598
1154.877493	-0.025866
1155.032066	-0.018453
1155.186620	-0.014425
1155.341156	-0.014578
1155.495674	-0.015970
1155.650173	-0.007606
1155.804654	-0.011726
1155.959118	-0.009351
1156.113562	-0.006637
1156.267989	-0.001157
1156.422397	-0.009732
1156.576788	-0.015753
1156.731160	-0.006297
1156.885513	0.004832
1157.039849	-0.006827
1157.194166	-0.007645
1157.348465	-0.012317
1157.502746	-0.020340
1157.657009	-0.024454
1157.811253	-0.024916
1157.965479	-0.028481
1158.119687	-0.032157
1158.273877	-0.042216
1158.428048	-0.031319
1158.582201	-0.028369
1158.736337	-0.024456
1158.890453	-0.022944
1159.044552	-0.015264
1159.198632	-0.010679
1159.352694	-0.005176
1159.506738	-0.010809
1159.660764	-0.008881
1159.814771	-0.016973
1159.968761	-0.016901
1160.122732	-0.030498
1160.276685	-0.030926
1160.430619	-0.035755
1160.584535	-0.040824
1160.738434	-0.039447
1160.892313	-0.038761
1161.046175	-0.037424
1161.200019	-0.036756
1161.353844	-0.039203
1161.507651	-0.031682
1161.661440	-0.033363
1161.815210	-0.028756
1161.968962	-0.028382
1162.122697	-0.029685
1162.276412	-0.029261
1162.430110	-0.028314
1162.583789	-0.026127
1162.737451	-0.016892
1162.891094	-0.026792
1163.044718	-0.023692
1163.198325	-0.026643
1163.351913	-0.014469
1163.505483	-0.005411
1163.659035	-0.009710
1163.812569	-0.008011
1163.966084	-0.011672
1164.119581	-0.009389
1164.273060	0.004152
1164.426521	0.010668
1164.579964	0.007630
1164.733388	-0.005920
1164.886794	-0.012983
1165.040182	-0.014240
1165.193551	-0.022839
1165.346903	-0.025079
1165.500236	-0.020145
1165.653551	-0.023489
1165.806848	-0.034512
1165.960126	-0.037724
1166.113386	-0.036825
1166.266628	-0.030990
1166.419852	-0.020289
1166.573058	-0.016486
1166.726245	-0.020698
1166.879414	-0.034230
1167.032565	-0.036932
1167.185698	-0.030917
1167.338812	-0.021546
1167.491909	-0.017435
1167.644987	-0.021954
1167.798046	-0.026049
1167.951088	-0.024597
1168.104111	-0.027090
1168.257117	-0.027072
1168.410103	-0.028144
1168.563072	-0.023065
1168.716023	-0.032918
1168.868955	-0.026508
1169.021869	-0.029220
1169.174765	-0.026621
1169.327642	-0.035167
1169.480501	-0.028702
1169.633343	-0.034725
1169.786165	-0.039230
1169.938970	-0.045090
1170.091757	-0.034900
1170.244525	-0.040883
1170.397275	-0.040287
1170.550007	-0.039900
1170.702720	-0.038539
1170.855415	-0.029067
1171.008092	-0.017688
1171.160751	-0.004197
1171.313392	-0.001541
1171.466014	0.075930
1171.618619	0.007430
1171.771205	0.007430
1171.923772	0.007430
