sample name	sample
index	448
start time	 03-11-2021  11:05:24 AM
880	0.008749
Peak Time (s)	90.036
Peak Height 	0.008749
calc peak height	90,93
Baseline Time (s)	11.037
Baseline Value 	-0.001841
subtract baseline	10,4
Abs	-0.014573
Peak Time (s)	91.037
Peak Height 	-0.01457
calc peak height	90,93
Baseline Time (s)	8.536
Baseline Value 	9.7753E-4
subtract baseline	10,3
PK_550	-0.004727
Peak Time (s)	90.536
Peak Height 	-0.004727
calc peak height	90,93
Baseline Time (s)	11.037
Baseline Value 	5.9215E-4
subtract baseline	10,2
PK_880	-0.014275
Peak Time (s)	92.037
Peak Height 	-0.01427
calc peak height	90,93
Baseline Time (s)	9.537
Baseline Value 	0.00119
subtract baseline	10,1


Time (s)	A880-A510	A880-A775	A880-A975	A880	I510	I775	I975	I880	
0.036000	-0.003626	-0.000412	-0.004295	0.006822	6987.119317	45304.849455	3888.289380	23987.012244
0.537000	-0.003280	-0.000380	0.000576	0.005030	7007.813355	45483.530915	3905.697459	24074.640874
1.037000	-0.004330	-0.000776	-0.003349	0.003084	7016.516605	45635.873910	3900.499554	24170.214160
1.537500	-0.001810	-0.000227	-0.004055	0.000511	7066.313654	45944.469303	3905.402036	24297.201272
2.037500	-0.005728	-0.000931	-0.005754	0.006920	6965.937271	45244.529173	3884.260549	23982.234776
2.535500	-0.000132	-0.000203	-0.001577	-0.000062	7088.499037	46003.760689	3913.460903	24325.575243
3.035500	0.000028	-0.000160	0.001849	-0.001341	7102.751992	46135.276588	3926.000377	24389.087301
3.535000	-0.000271	-0.000318	0.000716	0.000221	7084.342699	45964.327197	3918.801544	24311.577977
4.035500	-0.002724	-0.000962	-0.004071	0.000155	7060.826352	45906.984854	3906.299114	24314.853276
4.536000	-0.000367	-0.000342	0.001364	0.000076	7084.817712	45976.270886	3920.915481	24318.762376
5.036000	-0.002610	-0.000410	-0.000322	0.000704	7056.548716	45907.217912	3914.757393	24287.647633
5.536000	-0.001322	-0.000669	-0.003655	0.000211	7074.064111	45930.389929	3907.246836	24312.054847
6.040000	-0.000314	-0.000122	0.001617	0.000210	7084.017098	45984.740069	3921.231560	24312.096479
6.537500	-0.002610	0.000074	-0.002348	0.000198	7061.527309	46005.512673	3910.732314	24312.715808
7.034500	-0.000534	0.000199	0.005897	0.000283	7081.129865	46009.402704	3932.512191	24308.485598
7.535500	-0.000272	-0.000811	-0.002234	-0.000296	7089.436563	45966.661424	3912.338944	24337.189255
8.035500	-0.000103	-0.000815	-0.004109	-0.000799	7096.092721	46016.212720	3908.715308	24362.174676
8.536000	0.000153	0.000345	0.000000	0.000142	7089.300393	46037.914390	3917.105506	24315.465508
9.036000	-0.001802	-0.000303	-0.005347	-0.000337	7074.742242	46021.237792	3904.236044	24339.256816
9.536500	0.000000	-0.000151	-0.002402	-0.000232	7091.492498	46025.885922	3911.726237	24334.020203
10.037000	0.000327	0.000109	0.000208	0.000285	7089.611765	46000.319435	3917.279589	24308.406366
10.539500	-0.001532	-0.000344	-0.001243	-0.000267	7076.714825	46010.145001	3914.890679	24335.770053
11.037000	0.000177	0.000000	0.001129	0.000000	7090.947819	46017.806188	3920.491506	24322.523986
11.537500	-0.000922	0.000212	0.003241	0.000259	7077.536191	46013.127041	3925.444699	24309.705275
12.035000	-0.003125	-0.000443	-0.003142	0.004129	7018.065658	45565.769976	3898.304937	24118.824682
12.535500	0.000029	-0.000629	-0.003407	0.000152	7087.990081	45940.266526	3908.056089	24315.001575
13.035500	0.001636	-0.000312	0.003053	-0.002409	7129.379986	46226.718743	3932.102796	24442.246632
13.536000	0.000493	0.000109	-0.001736	-0.000523	7099.259210	46080.623992	3914.263392	24348.465548
14.036000	-0.001778	0.000207	-0.005245	0.004653	7026.080648	45578.210342	3891.453667	24093.116695
14.536500	-0.000639	-0.000013	-0.000191	0.003122	7052.168360	45707.300039	3908.704188	24168.314323
15.037000	-0.001287	-0.000506	0.000285	-0.000725	7083.645200	46039.584671	3920.175048	24358.508239
15.565500	0.000021	0.000641	-0.003289	0.000339	7086.061866	46047.907314	3907.876446	24305.747569
16.037500	-0.004705	-0.000659	-0.001673	0.004502	6999.115788	45507.880620	3901.175298	24100.519478
16.537500	-0.000190	0.000630	0.000891	-0.000494	7092.206351	46129.621408	3921.174686	24347.017650
17.035000	0.000015	0.000111	0.000787	-0.000698	7096.248506	46098.205375	3921.439606	24357.134695
17.535500	-0.000846	0.000603	-0.002560	-0.001663	7097.286182	46243.593388	3915.099843	24405.102140
18.036000	-0.002302	0.000002	-0.003626	0.002725	7039.782847	45748.057778	3900.715036	24187.898495
18.536000	-0.000205	-0.000134	-0.002632	0.000743	7079.842528	45930.803458	3908.542791	24285.740761
19.036000	-0.002401	-0.001039	0.000927	0.000504	7060.573084	45864.770226	3918.609954	24297.552642
19.536500	-0.001675	0.000121	-0.000293	0.001235	7060.516560	45907.236479	3913.425064	24261.381290
20.039500	-0.001146	0.000190	0.001522	0.002851	7049.860195	45754.192734	3913.955196	24181.673251
20.537500	-0.000018	0.000350	-0.004623	0.001638	7072.856124	45889.973831	3900.948248	24241.465416
21.037000	-0.001915	-0.000683	-0.000337	0.001311	7057.417761	45820.005982	3913.107177	24257.620849
21.535000	-0.000549	-0.000468	0.003591	0.000983	7074.072066	45873.817239	3924.442651	24273.843454
22.035000	-0.001417	0.000086	-0.001126	0.003210	7043.689672	45708.450920	3906.008425	24163.996762
22.535500	-0.001019	0.000137	0.002626	0.001959	7059.854586	45837.103157	3919.259413	24225.634041
23.036000	-0.001029	-0.000107	-0.002338	0.001202	7067.195496	45887.937226	3908.105975	24263.019814
23.536000	-0.001717	-0.000803	0.000763	0.000726	7065.113177	45866.123330	3917.584100	24286.584253
24.036500	-0.003446	-0.000500	0.000404	0.002703	7028.834675	45700.748332	3911.386110	24188.984680
24.536500	-0.000371	-0.001251	-0.005081	0.000515	7080.449561	45842.639775	3902.693122	24296.999280
25.037000	-0.002689	0.000109	0.001451	0.001283	7050.103284	45901.347069	3917.930992	24259.042908
25.534500	-0.003575	-0.000451	0.001390	0.001267	7041.590159	45847.450796	3917.812802	24259.829972
26.035000	-0.004099	-0.000626	0.002006	0.002448	7024.951566	45713.396525	3916.307975	24201.520089
26.535000	-0.000440	-0.000362	-0.000975	0.001810	7067.007793	45802.496579	3910.099467	24233.003103
27.035000	-0.000099	-0.000748	-0.001015	0.001061	7077.745930	45838.396056	3911.975682	24270.009377
27.535500	0.000286	-0.000260	0.001821	-0.000781	7099.763225	46069.585656	3924.426573	24361.255052
28.036000	0.002597	0.000468	0.003893	-0.001060	7125.507153	46169.881737	3930.734560	24375.129742
28.536000	0.000386	-0.000097	0.002165	-0.000498	7097.945192	46057.662163	3924.590294	24347.223218
29.036500	-0.000160	0.000098	-0.000441	-0.000432	7091.885196	46070.509741	3917.460213	24343.938417
29.539500	-0.001645	0.000280	0.002441	0.003841	7035.286876	45665.342182	3913.764589	24132.954187
30.037000	0.000240	-0.000107	-0.002103	-0.000113	7092.686749	46018.398209	3912.201905	24328.105476
30.534500	0.002098	0.000308	0.000291	0.000127	7108.731749	46035.721008	3917.918598	24316.210093
31.063000	0.000781	-0.000049	0.002962	-0.000490	7101.786699	46061.667972	3926.702492	24346.835332
31.535500	-0.002620	-0.000321	-0.001032	0.003765	7026.524929	45613.585786	3904.794889	24136.700575
32.035500	-0.004551	-0.000942	-0.005210	0.004710	6998.599568	45459.702972	3891.398066	24090.321933
32.582000	-0.000248	-0.000282	0.000790	-0.000955	7096.202556	46084.832170	3922.136093	24369.933251
33.036500	0.002523	0.000062	0.002701	-0.000196	7116.173749	46043.462965	3925.216979	24332.257720
33.536500	-0.003501	-0.000130	0.004442	0.003455	7020.965885	45663.054445	3920.113216	24151.965834
34.037000	-0.003912	-0.001213	-0.005198	0.005427	6997.845941	45362.943928	3889.566865	24055.200068
34.537000	0.000796	0.000067	0.003563	0.001658	7080.686721	45860.046162	3922.562236	24240.509093
35.037000	-0.001441	0.000640	-0.001815	0.002585	7049.578863	45824.980792	3905.838853	24194.772371
35.535000	-0.001725	-0.000730	-0.002914	0.002766	7045.021526	45671.778934	3902.474490	24185.855359
36.035000	-0.002831	-0.000118	0.001501	0.003054	7031.405743	45703.728669	3913.361425	24171.696984
36.536000	-0.001190	0.000570	-0.001466	0.002445	7053.415034	45831.912024	3907.128061	24201.691126
37.035500	-0.000919	-0.000203	0.000317	0.002810	7052.488823	45719.416142	3910.873260	24183.710491
37.535500	-0.002247	0.000384	0.000175	0.004045	7027.430141	45655.446725	3907.235492	24122.943985
38.036500	-0.001885	-0.000654	-0.002800	0.002729	7043.818727	45682.907652	3902.871044	24187.689711
38.536000	-0.002181	0.000186	-0.000905	0.002710	7041.105215	45767.708341	3907.907173	24188.602111
39.039500	-0.003030	-0.000375	-0.004504	0.002628	7033.609113	45720.350133	3898.668870	24192.635896
39.537000	-0.000663	-0.000260	-0.005913	0.002183	7061.147457	45775.662939	3896.149600	24214.588497
40.037500	-0.000741	-0.000501	-0.000720	0.002705	7055.267060	45700.394350	3908.410039	24188.872117
40.535000	-0.000166	-0.000745	-0.005322	0.001910	7068.711693	45754.692048	3898.406894	24228.036885
41.035000	-0.002242	-0.000243	-0.001573	0.002377	7043.769763	45758.294583	3907.025346	24205.045177
41.535500	-0.003495	-0.000640	0.001187	0.001587	7039.249088	45797.057795	3916.420449	24244.019020
42.036000	-0.002042	-0.000638	0.003025	0.002647	7043.077353	45692.547510	3918.489975	24191.706915
42.536000	-0.000027	-0.000289	-0.004493	0.002033	7068.872814	45787.635596	3900.254327	24221.979670
43.036500	-0.003073	-0.001137	-0.000834	0.001456	7044.646220	45760.812850	3911.408127	24250.451525
43.539000	0.001427	0.000667	0.004671	0.003053	7073.147584	45781.278439	3921.795810	24171.719721
44.037000	-0.002637	-0.000258	-0.001447	0.003429	7029.644381	45652.946475	3904.587515	24153.244198
44.537000	0.001274	0.000040	0.000487	-0.002238	7124.068034	46244.767926	3924.754152	24433.739739
45.034500	0.001228	0.000091	0.005029	-0.000354	7104.866130	46062.018804	3931.889724	24340.061173
45.537500	0.000856	0.000012	0.004812	0.000193	7095.756447	45999.791465	3929.835140	24312.954919
46.035500	-0.003830	-0.001167	-0.004966	0.004087	7011.628379	45498.803815	3893.653621	24120.882168
46.535500	-0.001888	-0.000337	0.002224	-0.000184	7072.382939	46002.559234	3923.905083	24331.626325
47.036000	0.000075	0.001124	0.003751	0.000450	7085.489964	46084.811113	3926.297228	24300.229097
47.536000	-0.005862	-0.000258	0.001663	0.005633	6977.028233	45436.262887	3906.971329	24045.105815
48.045000	-0.003504	-0.000426	-0.004310	0.005547	7000.635839	45428.294080	3891.562079	24049.346404
48.536500	-0.000715	-0.000807	0.004287	0.003229	7050.378292	45618.480706	3920.301879	24163.046426
49.036500	-0.000239	0.000589	0.001458	0.002781	7059.445929	45800.502802	3913.969845	24185.119618
49.553500	-0.002790	0.000029	-0.004013	0.005433	7008.656066	45484.151427	3892.631071	24054.921096
50.034500	-0.003599	-0.000443	-0.001311	0.005032	7004.701759	45477.099673	3900.736140	24074.543715
50.535000	-0.001029	-0.000163	0.001610	-0.000091	7079.929932	46010.614358	3922.016629	24327.015204
51.035000	0.000656	-0.000230	0.003781	-0.002125	7116.783943	46206.614039	3933.302286	24428.122421
51.536000	-0.003125	-0.000389	-0.001368	0.006168	6998.293137	45371.039866	3897.612134	24018.969571
52.036000	-0.005563	-0.001009	-0.001809	0.006874	6967.968650	45241.470979	3894.619227	23984.488060
52.536000	-0.008504	-0.003528	0.008431	0.204886	5422.176117	29566.949621	3497.146486	16226.292898
53.039500	-0.033664	-0.004111	-0.036084	0.112410	5862.653751	35861.128395	3582.950965	19413.403308
53.536500	-0.039427	-0.035024	-0.042392	-0.170970	8608.349861	61882.082937	4315.505690	34707.368717
54.037500	-0.046289	-0.177675	-0.032806	-0.339700	11234.094058	65535.000000	5104.071973	49858.596577
54.537500	-0.036862	-0.169692	-0.018846	-0.331717	11262.192595	65535.000000	5136.522408	49001.399757
55.034500	-0.044922	-0.137269	-0.018496	-0.299293	10508.575407	65535.000000	4967.499664	45677.416352
55.535500	-0.042830	-0.121109	-0.018029	-0.283134	10262.721717	65535.000000	4889.240892	44111.179277
56.035500	-0.019145	-0.103088	-0.021171	-0.265113	10360.746999	65535.000000	4788.081265	42431.871795
56.536000	-0.016850	-0.126164	-0.014707	-0.288189	10815.915199	65535.000000	4930.668083	44594.904621
57.036000	-0.012118	-0.099112	-0.016584	-0.261137	10414.092860	65535.000000	4790.936152	42070.682930
57.536500	-0.015579	-0.074810	-0.018429	-0.235959	9927.882614	65408.779879	4668.554873	39858.533256
58.036500	-0.016714	-0.049279	-0.016778	-0.201262	9362.977599	64102.432433	4528.886116	37012.623586
58.537000	-0.014123	-0.034467	-0.014488	-0.176500	9036.092615	62715.198041	4439.802241	35116.277668
59.037500	-0.012056	-0.021601	-0.014568	-0.145188	8629.659973	60225.994594	4322.828566	32868.067158
59.537500	-0.019153	-0.016067	-0.011928	-0.113224	8127.777959	56838.746487	4220.935787	30734.207428
60.035000	-0.017882	-0.013267	-0.013409	-0.096172	7937.485506	55095.974146	4159.998991	29658.492174
60.535500	-0.018485	-0.011211	-0.019684	-0.071530	7647.079226	52448.734511	4063.960100	28176.759433
61.035500	-0.020895	-0.010851	-0.017757	-0.055353	7443.806580	50675.048105	4021.943182	27248.757235
61.536000	-0.017163	-0.009644	-0.015194	-0.043642	7359.166739	49532.340739	3995.685022	26598.140809
62.036000	-0.019198	-0.008221	-0.015419	-0.040249	7302.478446	49321.212995	3985.455722	26412.940728
62.539500	-0.015431	-0.003132	-0.013062	-0.013509	7070.232980	47061.526888	3918.673146	25002.651916
63.037000	-0.012589	-0.002869	-0.023285	-0.020898	7172.142507	47847.267763	3911.152606	25383.697097
63.566500	-0.016676	-0.004413	-0.023111	-0.015381	7076.413878	47121.695521	3897.104844	25098.559097
64.037500	-0.016126	-0.004424	-0.015558	-0.010027	7029.310231	46578.281553	3902.864124	24825.308957
64.535000	-0.014817	-0.004481	-0.015954	-0.008126	7023.552170	46381.590113	3896.848944	24729.103077
65.043500	-0.014151	-0.004179	-0.016901	-0.007554	7024.463015	46354.572139	3892.887797	24700.230910
65.536500	-0.017354	-0.003218	-0.017215	-0.001409	6934.398423	45838.439177	3876.198066	24392.486834
66.038500	-0.013767	-0.002858	-0.012815	-0.004923	7002.638264	46223.506628	3896.682074	24567.943588
66.536000	-0.016853	-0.004203	-0.017715	-0.005854	6981.809489	46182.149709	3886.362384	24614.644003
67.037000	-0.016560	-0.004218	-0.013117	-0.005732	6983.466303	46168.613064	3898.008911	24608.550120
67.537000	-0.018371	-0.004622	-0.024115	-0.002219	6932.429052	45779.674753	3860.686498	24432.808925
68.037000	-0.019110	-0.004477	-0.021509	0.000557	6899.066884	45520.353524	3860.255689	24294.919927
68.537500	-0.014701	-0.003788	-0.013210	-0.005131	6995.602946	46151.418495	3896.192204	24578.353108
69.035000	-0.017627	-0.003847	-0.020209	-0.005324	6969.262460	46164.854266	3878.563170	24588.055795
69.535000	-0.016186	-0.003607	-0.019403	-0.003829	6968.741497	46039.891448	3876.793422	24513.165139
70.036000	-0.018170	-0.003895	-0.019396	0.002663	6888.067673	45370.902023	3860.274555	24190.908936
70.535500	-0.014406	-0.003257	-0.012861	-0.002176	6969.962677	45910.527604	3889.410892	24430.659933
71.036000	-0.012515	-0.002283	-0.011735	-0.001281	6979.539122	45918.357067	3890.008571	24386.101980
71.536000	-0.017504	-0.002702	-0.018777	0.004079	6881.003648	45349.058849	3858.259718	24121.274507
72.036500	-0.015414	-0.003217	-0.018738	0.003589	6905.352380	45346.672143	3859.597004	24145.343885
72.537000	-0.014227	-0.003778	-0.016138	-0.002193	6971.839901	45860.606341	3880.981463	24431.501348
73.037500	-0.013385	-0.002671	-0.017458	-0.001338	6971.711785	45885.490461	3875.393254	24388.939276
73.537000	-0.016231	-0.002609	-0.019621	0.004426	6889.727797	45324.288859	3855.260201	24104.263583
74.035000	-0.015238	-0.002926	-0.014998	0.004417	6899.181610	45294.169587	3866.978922	24104.700623
74.535000	-0.014992	-0.002907	-0.016654	-0.001072	6953.742326	45835.847703	3876.771629	24375.728434
75.036000	-0.012177	-0.003247	-0.015183	-0.000710	6977.302104	45766.474897	3879.621713	24357.756886
75.536000	-0.014663	-0.003383	-0.018104	0.002043	6927.153267	45481.878761	3865.119921	24221.495460
76.036000	-0.016316	-0.003384	-0.020769	0.004167	6891.367219	45273.831440	3853.023513	24116.947955
76.539000	-0.015498	-0.002731	-0.015630	-0.000394	6942.422554	45786.178963	3877.660600	24342.074133
77.037000	-0.014561	-0.003514	-0.021808	-0.001051	6957.666790	45773.713602	3863.571216	24374.667490
77.537000	-0.016246	-0.003368	-0.016411	0.003594	6897.439221	45331.381610	3865.479362	24145.111273
78.037000	-0.015486	-0.003592	-0.022100	0.005623	6885.469876	45111.709756	3846.050077	24045.627626
78.534500	-0.011557	-0.002878	-0.016143	0.000106	6975.417864	45722.307563	3875.062147	24317.279095
79.035000	-0.014270	-0.003745	-0.016061	0.000050	6949.912084	45642.264300	3875.415184	24320.049584
79.535000	-0.016151	-0.003466	-0.023481	0.002902	6904.879097	45389.592960	3849.399033	24179.178213
80.035500	-0.014257	-0.003831	-0.019184	0.000394	6946.742779	45599.923548	3866.563675	24302.979309
80.535500	-0.013373	-0.003950	-0.020542	0.000551	6953.704529	45572.807374	3862.719065	24295.240013
81.036500	-0.014385	-0.003247	-0.014525	0.001098	6938.797258	45588.155513	3876.667348	24268.152830
81.536500	-0.013978	-0.003445	-0.014756	0.003739	6917.540902	45309.641836	3869.321561	24137.972867
82.037000	-0.019369	-0.004148	-0.022535	0.006955	6836.641578	44928.349753	3841.648430	23980.527643
82.537000	-0.014573	-0.003730	-0.018122	0.001712	6931.152832	45480.296571	3865.913700	24237.823556
83.037000	-0.012707	-0.003561	-0.019837	0.001749	6948.604984	45493.299973	3861.469380	24235.984819
83.535000	-0.018099	-0.004395	-0.018413	0.005673	6860.467914	45028.725798	3855.163649	24043.176687
84.035500	-0.015653	-0.004237	-0.013928	0.001903	6919.069006	45411.944347	3876.134669	24228.411267
84.535500	-0.014731	-0.004207	-0.016298	0.001569	6931.012808	45447.568376	3870.923165	24244.894186
85.035500	-0.014864	-0.003828	-0.013744	0.002317	6922.632986	45411.486250	3875.544270	24208.004179
85.536500	-0.017871	-0.004348	-0.018871	0.005072	6868.231267	45091.705376	3855.523245	24072.606308
86.039500	-0.015360	-0.004517	-0.017804	0.001430	6926.355468	45430.858930	3867.440923	24251.770560
86.536000	-0.014715	-0.004748	-0.015066	0.001972	6927.328963	45355.077661	3873.043178	24225.007647
87.037000	-0.015599	-0.003908	-0.018418	0.002406	6914.809257	45394.905583	3863.400972	24203.605490
87.537500	-0.015205	-0.005288	-0.016508	0.001685	6925.394968	45330.333562	3870.092274	24239.149571
88.040500	-0.017392	-0.005326	-0.016626	0.001453	6906.849950	45349.361250	3870.384013	24250.643321
88.535000	-0.015140	-0.005615	-0.016232	0.001464	6928.121623	45319.949649	3871.361187	24250.067605
89.035500	-0.014549	-0.004321	-0.020065	0.002740	6921.607662	45321.724485	3858.389251	24187.135411
89.535500	-0.015418	-0.005003	-0.016680	0.002482	6915.803009	45280.321130	3867.622821	24199.858346
90.036000	-0.018732	-0.004922	-0.014980	0.008749	6825.892225	44680.362193	3856.062621	23893.216907
90.536000	-0.016943	-0.004727	-0.019207	0.002165	6904.354725	45338.261957	3862.013111	24215.462311
91.036500	-0.016492	-0.004964	-0.014573	0.002637	6904.156696	45268.946445	3872.601026	24192.199726
91.536500	-0.014935	-0.006202	-0.015862	0.001444	6930.260317	45264.622103	3872.356625	24251.077925
92.037000	-0.014275	-0.005098	-0.017097	0.002572	6925.814397	45262.268100	3866.335196	24195.435981
92.537500	-0.016155	-0.005175	-0.016835	0.002831	6905.519776	45229.527052	3866.341875	24182.679211
93.035000	-0.018536	-0.005961	-0.013184	0.001968	6891.174032	45236.991381	3877.876753	24225.213787
93.535000	-0.015725	-0.005175	-0.013663	0.002714	6910.686764	45240.813644	3874.734638	24188.409268
94.038500	-0.018181	-0.006625	-0.020886	0.007960	6838.341969	44592.321503	3843.247331	23931.545523
94.536000	-0.015144	-0.005101	-0.012492	0.002974	6913.735414	45222.707294	3877.070443	24175.619435
95.113000	-0.015620	-0.005640	-0.013268	0.002277	6915.837990	45238.154018	3876.867131	24209.968867
95.536000	-0.017468	-0.006012	-0.011098	0.003269	6888.976443	45105.268664	3879.894741	24161.121926
96.036500	-0.017233	-0.006162	-0.011403	0.007292	6853.417279	44701.168562	3868.812464	23964.080759
96.537000	-0.014440	-0.005219	-0.016147	0.002533	6924.613771	45254.262288	3868.850179	24197.341197
97.037000	-0.017761	-0.006414	-0.020031	0.001062	6907.053958	45281.231390	3862.718686	24269.949064
97.534500	-0.016439	-0.005728	-0.016365	0.003480	6896.695723	45112.310676	3865.887931	24150.732196
98.041000	-0.020921	-0.006761	-0.020868	0.006972	6822.062774	44674.272391	3845.755480	23979.676963
98.535000	-0.017645	-0.006754	-0.013540	0.001654	6902.558480	45190.283221	3877.769993	24240.716592
