sample name	sample
index	1057
start time	 04-22-2021  09:55:25 AM


Wavelength (nm)	Absorbance
494.344910	-0.029665
494.563924	-0.029665
494.782919	-0.029665
495.001897	0.193096
495.220856	-0.024424
495.439797	-0.037776
495.658719	-0.034076
495.877624	-0.043055
496.096510	-0.053042
496.315378	-0.052786
496.534227	-0.026102
496.753059	-0.045515
496.971872	-0.034995
497.190667	0.002094
497.409444	0.001327
497.628203	0.001545
497.846943	0.001073
498.065665	-0.000931
498.284369	0.000269
498.503055	-0.000402
498.721723	0.000428
498.940372	0.000156
499.159003	-0.000630
499.377616	0.000047
499.596210	-0.000400
499.814787	-0.000186
500.033345	0.000908
500.251885	0.000832
500.470406	0.001260
500.688910	0.001325
500.907395	0.002004
501.125862	0.000785
501.344311	0.000378
501.562742	0.000405
501.781154	-0.000096
501.999548	0.000499
502.217924	-0.000825
502.436282	-0.000915
502.654621	-0.001706
502.872942	-0.002061
503.091245	-0.000926
503.309530	0.000083
503.527797	0.000922
503.746045	0.001556
503.964275	0.000990
504.182487	0.002273
504.400681	0.002277
504.618856	0.002837
504.837013	0.003519
505.055152	0.002291
505.273273	0.001311
505.491376	0.000875
505.709460	0.000924
505.927526	0.000863
506.145574	0.000478
506.363604	0.000551
506.581615	0.000133
506.799608	-0.001271
507.017583	-0.000079
507.235540	-0.000599
507.453478	-0.000747
507.671399	-0.000298
507.889301	-0.000744
508.107185	-0.000474
508.325050	-0.000918
508.542898	0.000088
508.760727	0.000660
508.978538	0.000742
509.196330	0.000834
509.414105	0.000896
509.631861	-0.000299
509.849599	-0.000623
510.067319	-0.000466
510.285021	0.000549
510.502704	-0.000289
510.720369	-0.000172
510.938016	-0.000597
511.155645	-0.001289
511.373255	-0.001898
511.590848	-0.000952
511.808422	-0.000615
512.025977	-0.000845
512.243515	-0.001893
512.461034	-0.001448
512.678536	-0.001504
512.896018	-0.001594
513.113483	-0.000110
513.330930	0.000050
513.548358	-0.000160
513.765768	-0.000020
513.983160	0.000194
514.200533	0.000174
514.417889	-0.000094
514.635226	-0.000346
514.852545	-0.000396
515.069845	-0.000910
515.287128	-0.000685
515.504392	-0.000630
515.721638	-0.000714
515.938866	-0.001730
516.156075	-0.001948
516.373267	-0.002135
516.590440	-0.002015
516.807594	-0.001855
517.024731	-0.001772
517.241850	-0.002125
517.458950	-0.001843
517.676032	-0.001410
517.893095	-0.000647
518.110141	-0.000088
518.327168	0.000113
518.544177	0.000725
518.761168	0.000958
518.978141	0.001295
519.195095	0.000987
519.412031	0.000330
519.628949	-0.000553
519.845849	-0.000694
520.062731	-0.000657
520.279594	-0.001421
520.496439	-0.002217
520.713266	-0.002582
520.930074	-0.003442
521.146865	-0.003295
521.363637	-0.003580
521.580391	-0.003098
521.797127	-0.002414
522.013844	-0.002729
522.230543	-0.002003
522.447224	-0.001729
522.663887	-0.001594
522.880532	-0.001426
523.097158	-0.000995
523.313766	-0.000401
523.530356	-0.000880
523.746928	-0.001928
523.963481	-0.001861
524.180017	-0.001896
524.396534	-0.002056
524.613032	-0.002690
524.829513	-0.002982
525.045975	-0.002884
525.262420	-0.003196
525.478845	-0.002529
525.695253	-0.001607
525.911643	-0.001546
526.128014	-0.001455
526.344367	-0.001150
526.560702	-0.000687
526.777018	-0.000237
526.993316	-0.000667
527.209597	-0.000548
527.425858	-0.000627
527.642102	-0.000912
527.858328	-0.001241
528.074535	-0.001483
528.290724	-0.001750
528.506894	-0.001720
528.723047	-0.001937
528.939181	-0.001668
529.155297	-0.001817
529.371395	-0.002023
529.587475	-0.002282
529.803536	-0.002229
530.019579	-0.002101
530.235604	-0.001852
530.451611	-0.002630
530.667600	-0.002177
530.883570	-0.002291
531.099522	-0.002083
531.315456	-0.002056
531.531372	-0.002339
531.747269	-0.002696
531.963148	-0.002493
532.179009	-0.002226
532.394852	-0.001580
532.610676	-0.001852
532.826482	-0.002083
533.042271	-0.002369
533.258040	-0.002444
533.473792	-0.002403
533.689525	-0.001641
533.905240	-0.002082
534.120937	-0.002233
534.336616	-0.002155
534.552277	-0.002187
534.767919	-0.001898
534.983543	-0.001682
535.199149	-0.001807
535.414736	-0.001286
535.630306	-0.001085
535.845857	-0.001048
536.061390	-0.001241
536.276904	-0.001265
536.492401	-0.001007
536.707879	-0.000776
536.923339	-0.000891
537.138781	-0.000218
537.354204	-0.000347
537.569610	-0.000488
537.784997	-0.000449
538.000366	-0.000789
538.215716	-0.000556
538.431049	-0.000724
538.646363	-0.001097
538.861659	-0.000879
539.076937	-0.001421
539.292196	-0.001386
539.507438	-0.001179
539.722661	-0.001097
539.937866	-0.000725
540.153052	-0.000749
540.368221	-0.001031
540.583371	-0.000909
540.798503	-0.000753
541.013617	-0.000593
541.228712	-0.000844
541.443789	-0.001545
541.658848	-0.001835
541.873889	-0.002078
542.088912	-0.002250
542.303916	-0.002089
542.518902	-0.002130
542.733870	-0.002288
542.948820	-0.002504
543.163752	-0.002255
543.378665	-0.002137
543.593560	-0.002184
543.808437	-0.001984
544.023295	-0.001914
544.238136	-0.001729
544.452958	-0.001328
544.667762	-0.001259
544.882548	-0.000928
545.097315	-0.000992
545.312064	-0.000454
545.526795	-0.000191
545.741508	0.000076
545.956203	0.000084
546.170879	-0.000145
546.385537	-0.000643
546.600177	-0.001031
546.814799	-0.001356
547.029402	-0.001351
547.243988	-0.001859
547.458555	-0.002042
547.673103	-0.002469
547.887634	-0.002598
548.102146	-0.002635
548.316640	-0.002279
548.531116	-0.002079
548.745574	-0.001859
548.960013	-0.002026
549.174435	-0.001827
549.388838	-0.001701
549.603222	-0.001498
549.817589	-0.001259
550.031937	-0.001048
550.246267	-0.000987
550.460579	-0.001036
550.674873	-0.001090
550.889148	-0.000990
551.103405	-0.001355
551.317644	-0.001265
551.531865	-0.001101
551.746068	-0.001547
551.960252	-0.001720
552.174418	-0.001967
552.388566	-0.001931
552.602696	-0.001900
552.816807	-0.002202
553.030900	-0.002205
553.244975	-0.002292
553.459032	-0.002384
553.673070	-0.002211
553.887091	-0.002304
554.101093	-0.002359
554.315077	-0.002196
554.529042	-0.002334
554.742990	-0.001957
554.956919	-0.001698
555.170830	-0.001581
555.384722	-0.001614
555.598597	-0.001708
555.812453	-0.001177
556.026291	-0.001093
556.240111	-0.001281
556.453913	-0.001186
556.667696	-0.001342
556.881461	-0.001578
557.095208	-0.001735
557.308937	-0.002010
557.522647	-0.002004
557.736339	-0.002173
557.950013	-0.001907
558.163669	-0.001805
558.377307	-0.002103
558.590926	-0.002273
558.804527	-0.002047
559.018110	-0.001893
559.231675	-0.001677
559.445221	-0.001610
559.658749	-0.002024
559.872259	-0.002128
560.085751	-0.002140
560.299225	-0.002042
560.512680	-0.001754
560.726117	-0.002246
560.939536	-0.002487
561.152937	-0.002481
561.366319	-0.002396
561.579683	-0.002338
561.793029	-0.002653
562.006357	-0.002810
562.219667	-0.002386
562.432958	-0.002515
562.646231	-0.001799
562.859486	-0.001613
563.072723	-0.001784
563.285941	-0.001837
563.499141	-0.001484
563.712323	-0.001256
563.925487	-0.001341
564.138632	-0.001656
564.351760	-0.001438
564.564869	-0.001765
564.777960	-0.001778
564.991032	-0.001888
565.204087	-0.002169
565.417123	-0.002601
565.630141	-0.002884
565.843140	-0.002781
566.056122	-0.002924
566.269085	-0.003361
566.482030	-0.003530
566.694957	-0.003528
566.907866	-0.003629
567.120756	-0.003351
567.333628	-0.002997
567.546482	-0.003015
567.759318	-0.003233
567.972135	-0.003486
568.184935	-0.003709
568.397716	-0.003487
568.610478	-0.003483
568.823223	-0.003252
569.035949	-0.003336
569.248657	-0.003261
569.461347	-0.003037
569.674019	-0.003010
569.886672	-0.002921
570.099308	-0.002178
570.311925	-0.002446
570.524523	-0.002715
570.737104	-0.002690
570.949666	-0.002763
571.162210	-0.003130
571.374736	-0.003387
571.587244	-0.003290
571.799733	-0.003015
572.012205	-0.003648
572.224658	-0.003486
572.437092	-0.003395
572.649509	-0.003550
572.861907	-0.003682
573.074287	-0.003742
573.286649	-0.003428
573.498993	-0.003445
573.711318	-0.003574
573.923625	-0.003424
574.135914	-0.003440
574.348185	-0.003529
574.560438	-0.003482
574.772672	-0.003467
574.984888	-0.003332
575.197086	-0.003248
575.409266	-0.003259
575.621427	-0.003435
575.833570	-0.003506
576.045695	-0.003586
576.257802	-0.003785
576.469890	-0.003805
576.681961	-0.003864
576.894013	-0.003979
577.106046	-0.004266
577.318062	-0.004310
577.530059	-0.004133
577.742039	-0.004077
577.954000	-0.004100
578.165942	-0.003710
578.377867	-0.003648
578.589773	-0.003571
578.801661	-0.003629
579.013531	-0.003549
579.225382	-0.003406
579.437216	-0.003282
579.649031	-0.003019
579.860828	-0.003014
580.072606	-0.003360
580.284367	-0.003305
580.496109	-0.003274
580.707833	-0.003328
580.919539	-0.003198
581.131227	-0.003375
581.342896	-0.003398
581.554547	-0.003701
581.766180	-0.003803
581.977795	-0.003561
582.189391	-0.003881
582.400969	-0.003906
582.612529	-0.003497
582.824071	-0.003679
583.035595	-0.003628
583.247100	-0.003847
583.458587	-0.004003
583.670056	-0.003764
583.881506	-0.003574
584.092939	-0.003213
584.304353	-0.003135
584.515749	-0.003267
584.727127	-0.003209
584.938486	-0.003197
585.149828	-0.002659
585.361151	-0.002378
585.572456	-0.002420
585.783742	-0.002355
585.995011	-0.002168
586.206261	-0.002375
586.417493	-0.002136
586.628706	-0.001959
586.839902	-0.001732
587.051079	-0.001955
587.262238	-0.001928
587.473379	-0.001691
587.684502	-0.001640
587.895606	-0.001991
588.106692	-0.001646
588.317760	-0.001725
588.528810	-0.001752
588.739841	-0.002008
588.950855	-0.001974
589.161850	-0.001820
589.372827	-0.002147
589.583785	-0.002302
589.794726	-0.002154
590.005648	-0.002035
590.216552	-0.002056
590.427437	-0.002526
590.638305	-0.002595
590.849154	-0.002748
591.059985	-0.002769
591.270798	-0.002407
591.481592	-0.002570
591.692369	-0.002602
591.903127	-0.002633
592.113867	-0.002836
592.324588	-0.002349
592.535292	-0.002116
592.745977	-0.002160
592.956644	-0.002299
593.167293	-0.002170
593.377923	-0.002087
593.588536	-0.002076
593.799130	-0.001866
594.009706	-0.001666
594.220263	-0.001602
594.430803	-0.001526
594.641324	-0.001360
594.851827	-0.001076
595.062312	-0.001163
595.272778	-0.001317
595.483227	-0.001073
595.693657	-0.001157
595.904069	-0.001337
596.114462	-0.001536
596.324838	-0.001557
596.535195	-0.001674
596.745534	-0.002230
596.955855	-0.002290
597.166157	-0.002022
597.376441	-0.001998
597.586707	-0.002105
597.796955	-0.001861
598.007185	-0.001919
598.217396	-0.001772
598.427589	-0.001762
598.637764	-0.001093
598.847921	-0.001058
599.058060	-0.001105
599.268180	-0.001216
599.478282	-0.001095
599.688366	-0.001543
599.898431	-0.001350
600.108479	-0.001418
600.318508	-0.001348
600.528519	-0.001680
600.738511	-0.001602
600.948486	-0.001616
601.158442	-0.001800
601.368380	-0.001865
601.578300	-0.001518
601.788202	-0.001484
601.998085	-0.001349
602.207950	-0.001196
602.417797	-0.001205
602.627626	-0.001335
602.837436	-0.001090
603.047228	-0.000907
603.257002	-0.000711
603.466758	-0.000473
603.676496	-0.000506
603.886215	-0.000910
604.095916	-0.000793
604.305599	-0.000666
604.515264	-0.000705
604.724910	-0.000871
604.934538	-0.001082
605.144148	-0.001450
605.353740	-0.001543
605.563314	-0.001524
605.772869	-0.001436
605.982406	-0.001826
606.191925	-0.001805
606.401425	-0.001672
606.610908	-0.001606
606.820372	-0.001384
607.029818	-0.001199
607.239246	-0.001417
607.448655	-0.001324
607.658047	-0.000903
607.867420	-0.000515
608.076775	-0.000267
608.286111	-0.000336
608.495430	-0.000319
608.704730	-0.000452
608.914012	-0.000214
609.123275	-0.000041
609.332521	-0.000297
609.541748	-0.000525
609.750957	-0.000774
609.960148	-0.001147
610.169321	-0.001202
610.378475	-0.001121
610.587611	-0.001100
610.796729	-0.001482
611.005829	-0.001736
611.214910	-0.001720
611.423974	-0.001651
611.633019	-0.001715
611.842045	-0.001486
612.051054	-0.001383
612.260044	-0.001590
612.469017	-0.001558
612.677970	-0.001571
612.886906	-0.001483
613.095824	-0.001205
613.304723	-0.001082
613.513604	-0.000813
613.722467	-0.000774
613.931311	-0.000610
614.140138	-0.000252
614.348946	-0.000179
614.557736	-0.000042
614.766507	0.000312
614.975261	0.000391
615.183996	0.000285
615.392713	0.000151
615.601412	0.000133
615.810092	-0.000099
616.018754	-0.000327
616.227399	-0.000251
616.436024	-0.000119
616.644632	-0.000424
616.853222	-0.000612
617.061793	-0.000684
617.270346	-0.000718
617.478880	-0.000836
617.687397	-0.000821
617.895895	-0.000827
618.104375	-0.000888
618.312837	-0.001048
618.521281	-0.000787
618.729706	-0.000706
618.938113	-0.000346
619.146502	-0.000249
619.354873	-0.000146
619.563226	-0.000094
619.771560	0.000126
619.979876	0.000342
620.188174	0.000295
620.396453	0.000244
620.604715	0.000035
620.812958	-0.000332
621.021183	-0.000494
621.229390	-0.000340
621.437578	-0.000114
621.645748	-0.000511
621.853900	-0.000776
622.062034	-0.000487
622.270150	-0.000553
622.478247	-0.000389
622.686326	-0.000192
622.894387	-0.000114
623.102430	-0.000337
623.310454	-0.000443
623.518461	-0.000159
623.726449	-0.000100
623.934418	-0.000207
624.142370	-0.000157
624.350303	-0.000298
624.558218	-0.000474
624.766115	-0.000440
624.973994	-0.000369
625.181855	-0.000468
625.389697	-0.000416
625.597521	-0.000419
625.805327	-0.000501
626.013114	-0.000426
626.220883	-0.000293
626.428634	-0.000073
626.636367	0.000098
626.844082	0.000170
627.051778	0.000344
627.259457	0.000289
627.467117	0.000241
627.674758	0.000334
627.882382	0.000187
628.089987	0.000220
628.297574	0.000128
628.505143	0.000142
628.712694	0.000006
628.920226	0.000039
629.127740	0.000042
629.335236	0.000092
629.542714	0.000154
629.750174	0.000376
629.957615	0.000458
630.165038	0.000675
630.372443	0.000834
630.579829	0.000851
630.787198	0.000771
630.994548	0.000868
631.201880	0.000977
631.409194	0.001059
631.616489	0.001035
631.823766	0.001156
632.031025	0.001051
632.238266	0.000898
632.445489	0.001000
632.652693	0.000945
632.859879	0.000938
633.067047	0.000930
633.274197	0.000976
633.481329	0.001047
633.688442	0.000843
633.895537	0.000951
634.102614	0.001152
634.309672	0.001315
634.516713	0.001609
634.723735	0.001482
634.930739	0.001675
635.137724	0.001773
635.344692	0.001859
635.551641	0.002026
635.758572	0.001700
635.965485	0.001458
636.172379	0.001367
636.379256	0.001042
636.586114	0.001140
636.792954	0.001074
636.999775	0.000878
637.206579	0.000776
637.413364	0.000791
637.620131	0.000973
637.826880	0.001215
638.033610	0.001371
638.240323	0.001551
638.447017	0.001746
638.653692	0.001884
638.860350	0.002144
639.066990	0.002087
639.273611	0.002070
639.480214	0.002117
639.686798	0.001815
639.893365	0.001803
640.099913	0.001828
640.306443	0.001855
640.512955	0.001999
640.719449	0.001869
640.925924	0.001960
641.132381	0.001908
641.338820	0.002024
641.545241	0.002328
641.751644	0.002510
641.958028	0.002486
642.164394	0.002436
642.370742	0.002316
642.577071	0.002425
642.783383	0.002618
642.989676	0.002842
643.195951	0.002848
643.402207	0.002663
643.608446	0.002527
643.814666	0.002573
644.020868	0.002450
644.227052	0.002476
644.433218	0.002600
644.639365	0.002596
644.845494	0.002461
645.051605	0.002465
645.257698	0.002728
645.463772	0.002717
645.669828	0.002681
645.875866	0.002848
646.081886	0.002625
646.287888	0.002585
646.493871	0.002492
646.699836	0.002515
646.905783	0.002715
647.111712	0.002569
647.317622	0.002539
647.523514	0.002744
647.729388	0.002696
647.935244	0.002700
648.141082	0.002581
648.346901	0.002602
648.552702	0.002646
648.758485	0.002352
648.964250	0.002330
649.169996	0.002296
649.375724	0.002172
649.581434	0.002175
649.787126	0.002359
649.992800	0.002356
650.198455	0.002313
650.404092	0.002394
650.609711	0.002493
650.815311	0.002593
651.020894	0.002869
651.226458	0.002898
651.432004	0.003011
651.637532	0.003199
651.843041	0.003532
652.048532	0.003729
652.254006	0.003929
652.459460	0.004092
652.664897	0.004353
652.870315	0.004345
653.075716	0.004376
653.281097	0.004309
653.486461	0.004292
653.691807	0.004058
653.897134	0.004027
654.102443	0.003902
654.307734	0.003970
654.513006	0.003861
654.718261	0.003697
654.923497	0.003913
655.128715	0.003968
655.333915	0.003950
655.539096	0.003968
655.744259	0.003863
655.949404	0.003863
656.154531	0.003712
656.359640	0.003754
656.564730	0.003916
656.769802	0.003629
656.974856	0.003829
657.179892	0.003756
657.384909	0.003585
657.589908	0.003671
657.794889	0.003678
657.999852	0.003623
658.204797	0.003666
658.409723	0.003666
658.614631	0.003897
658.819521	0.003759
659.024393	0.003722
659.229246	0.004041
659.434081	0.004051
659.638898	0.003937
659.843697	0.004051
660.048478	0.004083
660.253240	0.003981
660.457984	0.004096
660.662710	0.004039
660.867417	0.004327
661.072107	0.004220
661.276778	0.004144
661.481431	0.004279
661.686066	0.004369
661.890682	0.004161
662.095281	0.004406
662.299861	0.004408
662.504422	0.004559
662.708966	0.004585
662.913491	0.004586
663.117999	0.004871
663.322488	0.005010
663.526958	0.005025
663.731411	0.005361
663.935845	0.005430
664.140261	0.005460
664.344659	0.005561
664.549038	0.005600
664.753400	0.005827
664.957743	0.005695
665.162068	0.005818
665.366375	0.005925
665.570663	0.005919
665.774933	0.005837
665.979185	0.005969
666.183419	0.006032
666.387635	0.006077
666.591832	0.006290
666.796011	0.006464
667.000172	0.006445
667.204315	0.006520
667.408439	0.006560
667.612545	0.006614
667.816634	0.006568
668.020703	0.006592
668.224755	0.006636
668.428788	0.006483
668.632803	0.006545
668.836800	0.006562
669.040779	0.006760
669.244739	0.006864
669.448681	0.006936
669.652605	0.007106
669.856511	0.007260
670.060399	0.007225
670.264268	0.007244
670.468119	0.007472
670.671952	0.007589
670.875767	0.007362
671.079563	0.007263
671.283341	0.007272
671.487101	0.007259
671.690843	0.007106
671.894567	0.007105
672.098272	0.007007
672.301959	0.006766
672.505628	0.006701
672.709278	0.006792
672.912911	0.006681
673.116525	0.006579
673.320121	0.006502
673.523699	0.006632
673.727258	0.006782
673.930799	0.006807
674.134322	0.006799
674.337827	0.006773
674.541314	0.006807
674.744782	0.006920
674.948232	0.007236
675.151664	0.007181
675.355078	0.007038
675.558474	0.007030
675.761851	0.007422
675.965210	0.007532
676.168551	0.007639
676.371873	0.007754
676.575178	0.007962
676.778464	0.007930
676.981732	0.008058
677.184981	0.008193
677.388213	0.008078
677.591426	0.007932
677.794621	0.007940
677.997798	0.007788
678.200956	0.007889
678.404097	0.007835
678.607219	0.007747
678.810323	0.007774
679.013408	0.007929
679.216476	0.008242
679.419525	0.008206
679.622556	0.008210
679.825569	0.008306
680.028563	0.008141
680.231540	0.008118
680.434498	0.008148
680.637438	0.008218
680.840359	0.008173
681.043263	0.007855
681.246148	0.007880
681.449015	0.007959
681.651864	0.008077
681.854694	0.008119
682.057506	0.008083
682.260301	0.008129
682.463076	0.008271
682.665834	0.008209
682.868573	0.008456
683.071295	0.008381
683.273998	0.008399
683.476682	0.008501
683.679349	0.008483
683.881997	0.008595
684.084627	0.008689
684.287239	0.008491
684.489833	0.008692
684.692408	0.008586
684.894965	0.008780
685.097504	0.008708
685.300025	0.008792
685.502527	0.008804
685.705012	0.008738
685.907478	0.008541
686.109925	0.008533
686.312355	0.008411
686.514766	0.008442
686.717159	0.008416
686.919534	0.008404
687.121891	0.008303
687.324230	0.008367
687.526550	0.008506
687.728852	0.008637
687.931136	0.008731
688.133401	0.008698
688.335649	0.008953
688.537878	0.008804
688.740089	0.008976
688.942281	0.008922
689.144456	0.009164
689.346612	0.009321
689.548750	0.009510
689.750870	0.009355
689.952971	0.009415
690.155055	0.009421
690.357120	0.009760
690.559167	0.009893
690.761195	0.010094
690.963206	0.009976
691.165198	0.009819
691.367172	0.009781
691.569128	0.010048
691.771065	0.010123
691.972984	0.009882
692.174885	0.009796
692.376768	0.009648
692.578633	0.009531
692.780479	0.009562
692.982308	0.009542
693.184118	0.009495
693.385909	0.009546
693.587683	0.009674
693.789438	0.009734
693.991175	0.009704
694.192894	0.009831
694.394595	0.009896
694.596277	0.009954
694.797941	0.010061
694.999587	0.010116
695.201215	0.010118
695.402824	0.010149
695.604416	0.010148
695.805989	0.010250
696.007543	0.010341
696.209080	0.010308
696.410598	0.010245
696.612099	0.010258
696.813580	0.010319
697.015044	0.010306
697.216490	0.010308
697.417917	0.010300
697.619326	0.010139
697.820717	0.009981
698.022089	0.009885
698.223444	0.009884
698.424780	0.009772
698.626098	0.009744
698.827397	0.009588
699.028679	0.009469
699.229942	0.009597
699.431187	0.009699
699.632414	0.009687
699.833622	0.009835
700.034813	0.009826
700.235985	0.009899
700.437139	0.009939
700.638274	0.009958
700.839392	0.010062
701.040491	0.009987
701.241572	0.009950
701.442635	0.010077
701.643679	0.010053
701.844706	0.010049
702.045714	0.010055
702.246704	0.009987
702.447675	0.010059
702.648629	0.010054
702.849564	0.009939
703.050481	0.010016
703.251380	0.009949
703.452260	0.010226
703.653122	0.010277
703.853966	0.010219
704.054792	0.010240
704.255600	0.010175
704.456389	0.009983
704.657160	0.010141
704.857913	0.010068
705.058648	0.010069
705.259365	0.009651
705.460063	0.009625
705.660743	0.009764
705.861405	0.009718
706.062048	0.009745
706.262674	0.009745
706.463281	0.009668
706.663870	0.009747
706.864441	0.009642
707.064993	0.009745
707.265527	0.009704
707.466043	0.009492
707.666541	0.009381
707.867021	0.009400
708.067482	0.009511
708.267925	0.009536
708.468350	0.009436
708.668757	0.009469
708.869145	0.009675
709.069516	0.009764
709.269868	0.009974
709.470201	0.010085
709.670517	0.010285
709.870814	0.010238
710.071093	0.010400
710.271354	0.010291
710.471597	0.010344
710.671821	0.010031
710.872028	0.010061
711.072216	0.010040
711.272385	0.010182
711.472537	0.009892
711.672670	0.009887
711.872785	0.009802
712.072882	0.010007
712.272961	0.010046
712.473021	0.010247
712.673063	0.010068
712.873087	0.010023
713.073093	0.009833
713.273081	0.009769
713.473050	0.009745
713.673001	0.009586
713.872934	0.009465
714.072849	0.009457
714.272745	0.009378
714.472623	0.009539
714.672483	0.009512
714.872325	0.009386
715.072148	0.009529
715.271954	0.009494
715.471741	0.009530
715.671509	0.009468
715.871260	0.009446
716.070992	0.009382
716.270707	0.009073
716.470403	0.008979
716.670080	0.008984
716.869740	0.009009
717.069381	0.008974
717.269004	0.008972
717.468609	0.009078
717.668195	0.008891
717.867764	0.009000
718.067314	0.009034
718.266846	0.008928
718.466360	0.008922
718.665855	0.008861
718.865332	0.008794
719.064791	0.008794
719.264232	0.008666
719.463655	0.008778
719.663059	0.008726
719.862445	0.008734
720.061813	0.008929
720.261163	0.009048
720.460494	0.009041
720.659807	0.009063
720.859102	0.008967
721.058379	0.009070
721.257638	0.009005
721.456878	0.008896
721.656100	0.009062
721.855304	0.008933
722.054490	0.008823
722.253657	0.008701
722.452806	0.008632
722.651937	0.008743
722.851050	0.008713
723.050145	0.008686
723.249221	0.008642
723.448279	0.008409
723.647319	0.008330
723.846340	0.008463
724.045344	0.008448
724.244329	0.008551
724.443296	0.008339
724.642245	0.008169
724.841175	0.008114
725.040088	0.008097
725.238982	0.008121
725.437857	0.008136
725.636715	0.008007
725.835554	0.007917
726.034376	0.007669
726.233179	0.007720
726.431963	0.007617
726.630730	0.007514
726.829478	0.007397
727.028208	0.007306
727.226920	0.007369
727.425614	0.007297
727.624289	0.007314
727.822946	0.007468
728.021585	0.007432
728.220206	0.007617
728.418808	0.007596
728.617392	0.007654
728.815958	0.007653
729.014506	0.007471
729.213036	0.007320
729.411547	0.007279
729.610040	0.007201
729.808515	0.007121
730.006972	0.006930
730.205410	0.006795
730.403831	0.006725
730.602233	0.006659
730.800616	0.006533
730.998982	0.006506
731.197329	0.006251
731.395658	0.006147
731.593969	0.006146
731.792262	0.005994
731.990536	0.006052
732.188793	0.005891
732.387031	0.005888
732.585250	0.006038
732.783452	0.006106
732.981635	0.006307
733.179800	0.006274
733.377947	0.006309
733.576076	0.006569
733.774186	0.006547
733.972278	0.006435
734.170352	0.006383
734.368408	0.006245
734.566446	0.006191
734.764465	0.006207
734.962466	0.006158
735.160449	0.006084
735.358413	0.005862
735.556360	0.005935
735.754288	0.006138
735.952198	0.006149
736.150090	0.006105
736.347963	0.006085
736.545818	0.006134
736.743655	0.006215
736.941474	0.005957
737.139275	0.005934
737.337057	0.005630
737.534821	0.005525
737.732567	0.005481
737.930295	0.005576
738.128005	0.005530
738.325696	0.005382
738.523369	0.005245
738.721024	0.005285
738.918660	0.005189
739.116279	0.005410
739.313879	0.005519
739.511461	0.005427
739.709024	0.005385
739.906570	0.005233
740.104097	0.005203
740.301606	0.005265
740.499097	0.005428
740.696569	0.005449
740.894024	0.005415
741.091460	0.005362
741.288878	0.005423
741.486277	0.005297
741.683659	0.005354
741.881022	0.005338
742.078367	0.005443
742.275694	0.005366
742.473002	0.005476
742.670293	0.005386
742.867565	0.005433
743.064819	0.005481
743.262054	0.005628
743.459272	0.005662
743.656471	0.005623
743.853652	0.005585
744.050815	0.005651
744.247959	0.005610
744.445085	0.005832
744.642194	0.005823
744.839283	0.005848
745.036355	0.005841
745.233408	0.006005
745.430444	0.005929
745.627461	0.005796
745.824459	0.005736
746.021440	0.005556
746.218402	0.005248
746.415346	0.005019
746.612272	0.004722
746.809180	0.004481
747.006069	0.004282
747.202940	0.004359
747.399793	0.004472
747.596628	0.004519
747.793444	0.004697
747.990243	0.004939
748.187023	0.005000
748.383784	0.005251
748.580528	0.005503
748.777253	0.005442
748.973960	0.005407
749.170649	0.005326
749.367320	0.005130
749.563973	0.005182
749.760607	0.005108
749.957223	0.005190
750.153821	0.005000
750.350400	0.004763
750.546962	0.004716
750.743505	0.004606
750.940030	0.004699
751.136536	0.004858
751.333025	0.004722
751.529495	0.004458
751.725947	0.004411
751.922381	0.004570
752.118796	0.004717
752.315194	0.004724
752.511573	0.004898
752.707934	0.004844
752.904276	0.004727
753.100601	0.004846
753.296907	0.005188
753.493195	0.005328
753.689465	0.005270
753.885716	0.005275
754.081949	0.005568
754.278164	0.005514
754.474361	0.005544
754.670540	0.005684
754.866700	0.005574
755.062843	0.005306
755.258967	0.005045
755.455072	0.005196
755.651160	0.005138
755.847229	0.004960
756.043280	0.004848
756.239313	0.004552
756.435328	0.004402
756.631324	0.004581
756.827302	0.004674
757.023262	0.004855
757.219204	0.004609
757.415127	0.004450
757.611033	0.004363
757.806920	0.004443
758.002788	0.004618
758.198639	0.004555
758.394471	0.004257
758.590286	0.004117
758.786081	0.003751
758.981859	0.003672
759.177619	0.003647
759.373360	0.003584
759.569083	0.003339
759.764788	0.003295
759.960474	0.003392
760.156143	0.003363
760.351793	0.003308
760.547425	0.003313
760.743038	0.003189
760.938634	0.003153
761.134211	0.003115
761.329770	0.003154
761.525311	0.003167
761.720833	0.003095
761.916338	0.003168
762.111824	0.003422
762.307292	0.003711
762.502741	0.003868
762.698173	0.003909
762.893586	0.003889
763.088981	0.003995
763.284358	0.003911
763.479716	0.003876
763.675057	0.003786
763.870379	0.003470
764.065683	0.003390
764.260968	0.003305
764.456236	0.003382
764.651485	0.003258
764.846716	0.003337
765.041929	0.003313
765.237123	0.003446
765.432299	0.003394
765.627457	0.003465
765.822597	0.003519
766.017719	0.003618
766.212822	0.003669
766.407907	0.003679
766.602974	0.003815
766.798023	0.003703
766.993054	0.003628
767.188066	0.003725
767.383060	0.003973
767.578036	0.003888
767.772993	0.003782
767.967933	0.003757
768.162854	0.003871
768.357757	0.003748
768.552642	0.003972
768.747508	0.003998
768.942356	0.003998
769.137186	0.003846
769.331998	0.003857
769.526792	0.004055
769.721567	0.003942
769.916324	0.003972
770.111063	0.003970
770.305784	0.003680
770.500486	0.003600
770.695171	0.003583
770.889837	0.003474
771.084484	0.003386
771.279114	0.003146
771.473725	0.003068
771.668318	0.003002
771.862893	0.002861
772.057450	0.002943
772.251988	0.002951
772.446509	0.002781
772.641011	0.003012
772.835494	0.003023
773.029960	0.003076
773.224407	0.003244
773.418836	0.003347
773.613247	0.003447
773.807640	0.003465
774.002014	0.003410
774.196370	0.003577
774.390708	0.003173
774.585028	0.003100
774.779330	0.003063
774.973613	0.002940
775.167878	0.002874
775.362125	0.002823
775.556354	0.002808
775.750564	0.002784
775.944756	0.002664
776.138930	0.002856
776.333086	0.002820
776.527223	0.003059
776.721343	0.003226
776.915444	0.003256
777.109526	0.003074
777.303591	0.003056
777.497637	0.003044
777.691666	0.003084
777.885676	0.003041
778.079667	0.003113
778.273641	0.002898
778.467596	0.002667
778.661533	0.002437
778.855452	0.002639
779.049352	0.002690
779.243235	0.002920
779.437099	0.003037
779.630945	0.003106
779.824773	0.003278
780.018582	0.003180
780.212373	0.003214
780.406146	0.003544
780.599901	0.003278
780.793638	0.003201
780.987356	0.002712
781.181056	0.002655
781.374738	0.002589
781.568402	0.002297
781.762047	0.002196
781.955674	0.002116
782.149283	0.001988
782.342874	0.002291
782.536447	0.002432
782.730001	0.002568
782.923537	0.002434
783.117055	0.002352
783.310555	0.002384
783.504036	0.002598
783.697499	0.002953
783.890944	0.002979
784.084371	0.003014
784.277780	0.003026
784.471170	0.003168
784.664542	0.003467
784.857896	0.003758
785.051231	0.003958
785.244549	0.004139
785.437848	0.003914
785.631129	0.004027
785.824392	0.003975
786.017636	0.003953
786.210863	0.003970
786.404071	0.003865
786.597260	0.003722
786.790432	0.003872
786.983585	0.003976
787.176721	0.004094
787.369838	0.004217
787.562936	0.004370
787.756017	0.004320
787.949079	0.004366
788.142123	0.004427
788.335149	0.004417
788.528156	0.004251
788.721146	0.004199
788.914117	0.004313
789.107070	0.004086
789.300005	0.004069
789.492921	0.004149
789.685819	0.004289
789.878699	0.004337
790.071561	0.004454
790.264405	0.004582
790.457230	0.004487
790.650037	0.004497
790.842826	0.004449
791.035597	0.004415
791.228349	0.004513
791.421084	0.004482
791.613800	0.004527
791.806497	0.004530
791.999177	0.004435
792.191838	0.004536
792.384481	0.004569
792.577106	0.004708
792.769713	0.004636
792.962301	0.004614
793.154871	0.004657
793.347423	0.004638
793.539957	0.004556
793.732473	0.004622
793.924970	0.004507
794.117449	0.004363
794.309910	0.004447
794.502353	0.004640
794.694777	0.004728
794.887183	0.004691
795.079571	0.004632
795.271941	0.004879
795.464293	0.005098
795.656626	0.005229
795.848941	0.005403
796.041238	0.005624
796.233516	0.005675
796.425777	0.005765
796.618019	0.005960
796.810243	0.006237
797.002449	0.006208
797.194636	0.006216
797.386805	0.006207
797.578956	0.006327
797.771089	0.006142
797.963204	0.006148
798.155300	0.006112
798.347378	0.005967
798.539438	0.005673
798.731480	0.005684
798.923503	0.005394
799.115509	0.005487
799.307496	0.005375
799.499465	0.005455
799.691415	0.005376
799.883348	0.005352
800.075262	0.005244
800.267158	0.005473
800.459035	0.005579
800.650895	0.005623
800.842736	0.005587
801.034559	0.005523
801.226364	0.005590
801.418150	0.005425
801.609919	0.005507
801.801669	0.005595
801.993401	0.005507
802.185114	0.005379
802.376810	0.005543
802.568487	0.005353
802.760146	0.005367
802.951787	0.005344
803.143409	0.005683
803.335014	0.005538
803.526600	0.005704
803.718168	0.005735
803.909717	0.005812
804.101249	0.005844
804.292762	0.006076
804.484257	0.006250
804.675734	0.006376
804.867192	0.006418
805.058632	0.006496
805.250054	0.006484
805.441458	0.006661
805.632844	0.006701
805.824211	0.006757
806.015561	0.006831
806.206891	0.006777
806.398204	0.006765
806.589499	0.006735
806.780775	0.006864
806.972033	0.006977
807.163273	0.007148
807.354495	0.007295
807.545698	0.007258
807.736883	0.007386
807.928050	0.007520
808.119199	0.007603
808.310329	0.007599
808.501441	0.007708
808.692535	0.007675
808.883611	0.007585
809.074669	0.007463
809.265708	0.007547
809.456729	0.007617
809.647732	0.007708
809.838717	0.007615
810.029683	0.007653
810.220632	0.007582
810.411562	0.007743
810.602474	0.007684
810.793367	0.007713
810.984242	0.007754
811.175100	0.007596
811.365938	0.007597
811.556759	0.007664
811.747562	0.007684
811.938346	0.007755
812.129112	0.007652
812.319860	0.007735
812.510589	0.007912
812.701300	0.008120
812.891994	0.008394
813.082668	0.008268
813.273325	0.008588
813.463964	0.008625
813.654584	0.008518
813.845186	0.008551
814.035769	0.008474
814.226335	0.008286
814.416882	0.008126
814.607411	0.007859
814.797922	0.008033
814.988415	0.007771
815.178889	0.007716
815.369345	0.007902
815.559783	0.008045
815.750203	0.008174
815.940605	0.008447
816.130988	0.008698
816.321353	0.008829
816.511700	0.008880
816.702028	0.008840
816.892339	0.008978
817.082631	0.009083
817.272905	0.008858
817.463161	0.008842
817.653398	0.008585
817.843617	0.008379
818.033819	0.008599
818.224001	0.008634
818.414166	0.008739
818.604312	0.008833
818.794440	0.008859
818.984550	0.009195
819.174642	0.009242
819.364716	0.009527
819.554771	0.009672
819.744808	0.009627
819.934827	0.009678
820.124827	0.009763
820.314810	0.009771
820.504774	0.009920
820.694720	0.010015
820.884647	0.010033
821.074557	0.010151
821.264448	0.010296
821.454321	0.010512
821.644176	0.010631
821.834012	0.010519
822.023831	0.010585
822.213631	0.010532
822.403413	0.010555
822.593176	0.010832
822.782922	0.010648
822.972649	0.010847
823.162358	0.010560
823.352049	0.010627
823.541721	0.010888
823.731376	0.010969
823.921012	0.010950
824.110629	0.010843
824.300229	0.010730
824.489811	0.010936
824.679374	0.010791
824.868919	0.011190
825.058445	0.011083
825.247954	0.011025
825.437444	0.011076
825.626916	0.011126
825.816370	0.011242
826.005806	0.011357
826.195223	0.011634
826.384622	0.011794
826.574003	0.011860
826.763366	0.011945
826.952711	0.011935
827.142037	0.011806
827.331345	0.011909
827.520635	0.011688
827.709906	0.011561
827.899160	0.011249
828.088395	0.011076
828.277612	0.011032
828.466810	0.010849
828.655991	0.011002
828.845153	0.011115
829.034297	0.010982
829.223423	0.011214
829.412531	0.011252
829.601620	0.011359
829.790691	0.011267
829.979744	0.011257
830.168779	0.011416
830.357795	0.011508
830.546793	0.011593
830.735773	0.011692
830.924735	0.011834
831.113679	0.011989
831.302604	0.012154
831.491511	0.012256
831.680400	0.012072
831.869271	0.012192
832.058123	0.012278
832.246957	0.012374
832.435773	0.012499
832.624571	0.012400
832.813351	0.012418
833.002112	0.012337
833.190855	0.012378
833.379580	0.012639
833.568287	0.012880
833.756975	0.012944
833.945645	0.012909
834.134297	0.013046
834.322931	0.013257
834.511547	0.013282
834.700144	0.013259
834.888723	0.013433
835.077284	0.013312
835.265826	0.013127
835.454351	0.013204
835.642857	0.013461
835.831345	0.013363
836.019815	0.013356
836.208266	0.013625
836.396699	0.013963
836.585114	0.014133
836.773511	0.014415
836.961890	0.014567
837.150250	0.014509
837.338592	0.014548
837.526916	0.014765
837.715222	0.014799
837.903510	0.014700
838.091779	0.014901
838.280030	0.014789
838.468263	0.014955
838.656477	0.015085
838.844674	0.015324
839.032852	0.015381
839.221012	0.015347
839.409153	0.015470
839.597277	0.015751
839.785382	0.015700
839.973469	0.015662
840.161538	0.015686
840.349589	0.015913
840.537621	0.015813
840.725635	0.016019
840.913631	0.015993
841.101609	0.016083
841.289568	0.016035
841.477509	0.016031
841.665432	0.016498
841.853337	0.016495
842.041224	0.016230
842.229092	0.016280
842.416942	0.016052
842.604774	0.016209
842.792588	0.016218
842.980383	0.016368
843.168160	0.016471
843.355919	0.016362
843.543660	0.016438
843.731382	0.016777
843.919087	0.016695
844.106773	0.017003
844.294441	0.017151
844.482090	0.017420
844.669722	0.017465
844.857335	0.017336
845.044930	0.017347
845.232507	0.017362
845.420065	0.017361
845.607605	0.017714
845.795127	0.017666
845.982631	0.017973
846.170117	0.017922
846.357584	0.017977
846.545033	0.018547
846.732464	0.018972
846.919877	0.018955
847.107272	0.019186
847.294648	0.019350
847.482006	0.019469
847.669346	0.019405
847.856667	0.019590
848.043971	0.019622
848.231256	0.019397
848.418523	0.019060
848.605771	0.019165
848.793002	0.019128
848.980214	0.018970
849.167408	0.018959
849.354584	0.018926
849.541742	0.018886
849.728881	0.018963
849.916002	0.019075
850.103105	0.019315
850.290190	0.019477
850.477256	0.019410
850.664304	0.019592
850.851334	0.019838
851.038346	0.020004
851.225340	0.020254
851.412315	0.020513
851.599272	0.020648
851.786211	0.020789
851.973132	0.020965
852.160034	0.021268
852.346918	0.021352
852.533784	0.021294
852.720632	0.021374
852.907462	0.021303
853.094273	0.021132
853.281066	0.021087
853.467841	0.021184
853.654598	0.021151
853.841336	0.021119
854.028056	0.021215
854.214758	0.021452
854.401442	0.021585
854.588107	0.021818
854.774755	0.021960
854.961384	0.022144
855.147995	0.022078
855.334587	0.022151
855.521162	0.022062
855.707718	0.022136
855.894256	0.022249
856.080775	0.022308
856.267277	0.022253
856.453760	0.022325
856.640225	0.022361
856.826672	0.022432
857.013101	0.022356
857.199511	0.022543
857.385903	0.022815
857.572277	0.022881
857.758633	0.022833
857.944970	0.023005
858.131290	0.023140
858.317591	0.023168
858.503873	0.023350
858.690138	0.023396
858.876384	0.023683
859.062612	0.023699
859.248822	0.023639
859.435014	0.023832
859.621188	0.024033
859.807343	0.024108
859.993480	0.024382
860.179599	0.024453
860.365699	0.024805
860.551781	0.024672
860.737846	0.024666
860.923891	0.024834
861.109919	0.024798
861.295929	0.024573
861.481920	0.024714
861.667893	0.024715
861.853848	0.024741
862.039784	0.024638
862.225702	0.024760
862.411603	0.024791
862.597484	0.024635
862.783348	0.024801
862.969193	0.024858
863.155021	0.024928
863.340830	0.024791
863.526620	0.025206
863.712393	0.025462
863.898147	0.025538
864.083883	0.025635
864.269601	0.025788
864.455301	0.026008
864.640982	0.026360
864.826645	0.026275
865.012290	0.026674
865.197917	0.026498
865.383526	0.026523
865.569116	0.026677
865.754688	0.026721
865.940242	0.026791
866.125777	0.026962
866.311295	0.026934
866.496794	0.027039
866.682275	0.026942
866.867737	0.027034
867.053182	0.027076
867.238608	0.027106
867.424016	0.026992
867.609406	0.026914
867.794778	0.026681
867.980131	0.026778
868.165466	0.026809
868.350783	0.026736
868.536082	0.026740
868.721362	0.026715
868.906625	0.026564
869.091869	0.026707
869.277094	0.026938
869.462302	0.026903
869.647491	0.027057
869.832662	0.027024
870.017815	0.027140
870.202950	0.027129
870.388066	0.027264
870.573165	0.027420
870.758245	0.027602
870.943306	0.027706
871.128350	0.027972
871.313375	0.027484
871.498382	0.027738
871.683371	0.027771
871.868342	0.027821
872.053294	0.027954
872.238229	0.028029
872.423144	0.027863
872.608042	0.027771
872.792922	0.027612
872.977783	0.027704
873.162626	0.027446
873.347451	0.027498
873.532258	0.027770
873.717046	0.027796
873.901816	0.027824
874.086568	0.028092
874.271302	0.027934
874.456017	0.028033
874.640715	0.028534
874.825394	0.028860
875.010055	0.028947
875.194697	0.028866
875.379322	0.029020
875.563928	0.029168
875.748516	0.029550
875.933085	0.029981
876.117637	0.030176
876.302170	0.029935
876.486685	0.030003
876.671182	0.030168
876.855661	0.030273
877.040121	0.030276
877.224563	0.030384
877.408987	0.030046
877.593393	0.030083
877.777780	0.030030
877.962150	0.030607
878.146501	0.030641
878.330833	0.030882
878.515148	0.030891
878.699444	0.030767
878.883722	0.030679
879.067982	0.030828
879.252224	0.030919
879.436447	0.031031
879.620653	0.030856
879.804840	0.030936
879.989008	0.030582
880.173159	0.030574
880.357291	0.031064
880.541405	0.031581
880.725501	0.031930
880.909579	0.032007
881.093638	0.032328
881.277680	0.032648
881.461703	0.032738
881.645707	0.033039
881.829694	0.033092
882.013662	0.032986
882.197612	0.032812
882.381544	0.032288
882.565458	0.032381
882.749353	0.032395
882.933230	0.031985
883.117089	0.032116
883.300930	0.031922
883.484753	0.032205
883.668557	0.031940
883.852343	0.031787
884.036111	0.032080
884.219861	0.032133
884.403592	0.032142
884.587305	0.032052
884.771000	0.031954
884.954677	0.031944
885.138335	0.031479
885.321976	0.031611
885.505598	0.031504
885.689201	0.031562
885.872787	0.031398
886.056354	0.031521
886.239904	0.031791
886.423434	0.031663
886.606947	0.032032
886.790442	0.032619
886.973918	0.032852
887.157376	0.033083
887.340816	0.032967
887.524237	0.033138
887.707641	0.032892
887.891026	0.033125
888.074393	0.033408
888.257741	0.033465
888.441072	0.033402
888.624384	0.033173
888.807678	0.033135
888.990954	0.033491
889.174211	0.033543
889.357451	0.033855
889.540672	0.033740
889.723875	0.033697
889.907059	0.033440
890.090226	0.033176
890.273374	0.033462
890.456504	0.033408
890.639616	0.033207
890.822709	0.032977
891.005785	0.032685
891.188842	0.032456
891.371881	0.032493
891.554901	0.032571
891.737904	0.032552
891.920888	0.032082
892.103854	0.031868
892.286802	0.031854
892.469731	0.031916
892.652643	0.032186
892.835536	0.032387
893.018410	0.032245
893.201267	0.032110
893.384106	0.032390
893.566926	0.032507
893.749728	0.032680
893.932511	0.032598
894.115277	0.032810
894.298024	0.032582
894.480753	0.032552
894.663464	0.032646
894.846157	0.032779
895.028831	0.032633
895.211487	0.032756
895.394125	0.032814
895.576745	0.032847
895.759346	0.032662
895.941930	0.032984
896.124495	0.032777
896.307041	0.032699
896.489570	0.032815
896.672080	0.033072
896.854573	0.033117
897.037046	0.033379
897.219502	0.033336
897.401940	0.033158
897.584359	0.032814
897.766760	0.033182
897.949143	0.033474
898.131507	0.033221
898.313854	0.033211
898.496182	0.033295
898.678492	0.033236
898.860783	0.033397
899.043057	0.033689
899.225312	0.033809
899.407549	0.033564
899.589768	0.033279
899.771968	0.033323
899.954151	0.033351
900.136315	0.032891
900.318461	0.032596
900.500588	0.032025
900.682698	0.031941
900.864789	0.031833
901.046862	0.031830
901.228917	0.031773
901.410953	0.031737
901.592971	0.031060
901.774972	0.031462
901.956953	0.031501
902.138917	0.032047
902.320862	0.031796
902.502790	0.031593
902.684699	0.031294
902.866589	0.031240
903.048462	0.031132
903.230316	0.031358
903.412152	0.030805
903.593970	0.030891
903.775770	0.030800
903.957551	0.030911
904.139314	0.030811
904.321059	0.030881
904.502786	0.030706
904.684494	0.030684
904.866185	0.030889
905.047857	0.031200
905.229510	0.031077
905.411146	0.030953
905.592763	0.030434
905.774363	0.030475
905.955943	0.030358
906.137506	0.030110
906.319051	0.029865
906.500577	0.029190
906.682085	0.028813
906.863575	0.028432
907.045046	0.028079
907.226500	0.028007
907.407935	0.027893
907.589352	0.027606
907.770750	0.027727
907.952131	0.027784
908.133493	0.028009
908.314837	0.027916
908.496163	0.027467
908.677470	0.027385
908.858760	0.027484
909.040031	0.027173
909.221284	0.027103
909.402518	0.027107
909.583735	0.026995
909.764933	0.026832
909.946113	0.027297
910.127275	0.027836
910.308418	0.027755
910.489544	0.028074
910.670651	0.028304
910.851740	0.028443
911.032810	0.028028
911.213863	0.028020
911.394897	0.027872
911.575913	0.027554
911.756911	0.027023
911.937890	0.026977
912.118851	0.026715
912.299794	0.026079
912.480719	0.025960
912.661626	0.026160
912.842514	0.025882
913.023384	0.025675
913.204236	0.025152
913.385070	0.025023
913.565886	0.024713
913.746683	0.024337
913.927462	0.024581
914.108223	0.024506
914.288965	0.024005
914.469690	0.023353
914.650396	0.023110
914.831084	0.023165
915.011754	0.023376
915.192405	0.023261
915.373038	0.023078
915.553653	0.022748
915.734250	0.022589
915.914829	0.022361
916.095389	0.022537
916.275931	0.022194
916.456455	0.021810
916.636961	0.021751
916.817448	0.021825
916.997917	0.021599
917.178368	0.021291
917.358801	0.020880
917.539216	0.021041
917.719612	0.020840
917.899990	0.020846
918.080350	0.021017
918.260692	0.020580
918.441015	0.020727
918.621320	0.020674
918.801607	0.020512
918.981876	0.019997
919.162127	0.020242
919.342359	0.020208
919.522573	0.020516
919.702769	0.020481
919.882947	0.020458
920.063106	0.020118
920.243247	0.019753
920.423370	0.019726
920.603475	0.019883
920.783562	0.019229
920.963630	0.019377
921.143680	0.018931
921.323712	0.018325
921.503725	0.017917
921.683721	0.017400
921.863698	0.017305
922.043657	0.017374
922.223598	0.017498
922.403520	0.017752
922.583424	0.017637
922.763311	0.017472
922.943178	0.017392
923.123028	0.017294
923.302859	0.017295
923.482673	0.017619
923.662467	0.017198
923.842244	0.016710
924.022003	0.016453
924.201743	0.016151
924.381465	0.015632
924.561169	0.015743
924.740854	0.015580
924.920522	0.014998
925.100171	0.014730
925.279802	0.014796
925.459414	0.014963
925.639009	0.014635
925.818585	0.014445
925.998143	0.014757
926.177683	0.014608
926.357205	0.014434
926.536708	0.014281
926.716193	0.013801
926.895660	0.013744
927.075109	0.013124
927.254539	0.012321
927.433951	0.011711
927.613345	0.011430
927.792721	0.010744
927.972079	0.010621
928.151418	0.010901
928.330739	0.010740
928.510042	0.009712
928.689327	0.009474
928.868593	0.009635
929.047841	0.009816
929.227071	0.009169
929.406283	0.009780
929.585476	0.009351
929.764652	0.008765
929.943809	0.008502
930.122948	0.008619
930.302068	0.008216
930.481171	0.008151
930.660255	0.007845
930.839321	0.007398
931.018369	0.006445
931.197398	0.006003
931.376409	0.005449
931.555402	0.004889
931.734377	0.004725
931.913334	0.004732
932.092272	0.003925
932.271192	0.003668
932.450094	0.003590
932.628978	0.003128
932.807844	0.003306
932.986691	0.003403
933.165520	0.003239
933.344331	0.003002
933.523123	0.002659
933.701898	0.002764
933.880654	0.002571
934.059392	0.002638
934.238111	0.002598
934.416813	0.002090
934.595496	0.001813
934.774161	0.001743
934.952808	0.001044
935.131437	0.000718
935.310047	0.000590
935.488639	-0.000386
935.667213	-0.000472
935.845769	-0.001083
936.024306	-0.001115
936.202825	-0.001493
936.381326	-0.002330
936.559809	-0.002253
936.738274	-0.002601
936.916720	-0.003591
937.095148	-0.003284
937.273558	-0.003454
937.451950	-0.003017
937.630323	-0.003404
937.808678	-0.004069
937.987015	-0.004169
938.165334	-0.005011
938.343635	-0.004912
938.521917	-0.004805
938.700181	-0.005553
938.878427	-0.006424
939.056655	-0.007208
939.234864	-0.007813
939.413055	-0.007770
939.591228	-0.008425
939.769383	-0.008614
939.947519	-0.009082
940.125638	-0.010255
940.303738	-0.010585
940.481820	-0.011053
940.659883	-0.011024
940.837929	-0.011223
941.015956	-0.010690
941.193965	-0.010078
941.371955	-0.009950
941.549928	-0.009375
941.727882	-0.008483
941.905818	-0.008250
942.083736	-0.008216
942.261636	-0.009273
942.439517	-0.009904
942.617380	-0.011031
942.795225	-0.010926
942.973052	-0.011649
943.150860	-0.012800
943.328651	-0.012135
943.506423	-0.012838
943.684176	-0.012964
943.861912	-0.012431
944.039629	-0.011536
944.217328	-0.011749
944.395009	-0.012985
944.572672	-0.012341
944.750317	-0.011420
944.927943	-0.012439
945.105551	-0.012950
945.283141	-0.013208
945.460712	-0.013944
945.638265	-0.014556
945.815801	-0.015060
945.993317	-0.015201
946.170816	-0.015564
946.348297	-0.016490
946.525759	-0.016724
946.703203	-0.016458
946.880629	-0.016927
947.058036	-0.016629
947.235425	-0.017457
947.412797	-0.016474
947.590149	-0.015980
947.767484	-0.015680
947.944800	-0.016705
948.122099	-0.016695
948.299379	-0.016830
948.476640	-0.016851
948.653884	-0.016511
948.831109	-0.016505
949.008316	-0.017536
949.185505	-0.018141
949.362676	-0.018586
949.539828	-0.018219
949.716962	-0.018728
949.894078	-0.018694
950.071176	-0.018144
950.248256	-0.018893
950.425317	-0.018587
950.602360	-0.018900
950.779385	-0.019162
950.956391	-0.019990
951.133380	-0.019865
951.310350	-0.019390
951.487302	-0.019015
951.664235	-0.018366
951.841151	-0.018145
952.018048	-0.018833
952.194927	-0.018102
952.371788	-0.017546
952.548631	-0.018133
952.725455	-0.017821
952.902261	-0.018259
953.079049	-0.018572
953.255819	-0.020286
953.432570	-0.020681
953.609303	-0.020411
953.786018	-0.020453
953.962715	-0.019845
954.139394	-0.018480
954.316054	-0.019318
954.492696	-0.018402
954.669320	-0.019420
954.845926	-0.018323
955.022513	-0.016767
955.199083	-0.016137
955.375634	-0.015646
955.552166	-0.017546
955.728681	-0.017651
955.905177	-0.018139
956.081655	-0.018820
956.258115	-0.015721
956.434557	-0.014662
956.610980	-0.015230
956.787385	-0.014047
956.963772	-0.013716
957.140141	-0.010985
957.316492	-0.010340
957.492824	-0.007918
957.669138	-0.007912
957.845434	-0.008279
958.021712	-0.010599
958.197971	-0.009711
958.374212	-0.010086
958.550435	-0.011668
958.726640	-0.012397
958.902826	-0.012609
959.078995	-0.011855
959.255145	-0.011277
959.431277	-0.012074
959.607390	-0.009193
959.783486	-0.008795
959.959563	-0.010044
960.135622	-0.008155
960.311662	-0.006722
960.487685	-0.004907
960.663689	-0.005647
960.839675	-0.006919
961.015643	-0.005913
961.191593	-0.006968
961.367524	-0.007212
961.543437	-0.004656
961.719332	-0.004510
961.895209	-0.006100
962.071067	-0.005537
962.246907	-0.004605
962.422730	-0.003872
962.598533	-0.004543
962.774319	-0.003496
962.950086	-0.004002
963.125835	-0.006165
963.301566	-0.007995
963.477279	-0.007358
963.652973	-0.008840
963.828650	-0.010556
964.004308	-0.008482
964.179947	-0.008449
964.355569	-0.009947
964.531172	-0.010981
964.706757	-0.008510
964.882324	-0.007183
965.057873	-0.006424
965.233403	-0.006985
965.408916	-0.005073
965.584410	-0.006385
965.759885	-0.006595
965.935343	-0.005147
966.110782	-0.004023
966.286203	-0.005612
966.461606	-0.004063
966.636991	-0.004534
966.812357	-0.004559
966.987705	-0.006707
967.163035	-0.006957
967.338347	-0.007453
967.513641	-0.008103
967.688916	-0.007457
967.864173	-0.007649
968.039412	-0.008250
968.214632	-0.008382
968.389835	-0.008427
968.565019	-0.007348
968.740185	-0.006549
968.915333	-0.005308
969.090462	-0.005001
969.265573	-0.005921
969.440667	-0.003666
969.615741	-0.003124
969.790798	-0.002882
969.965836	-0.001485
970.140856	-0.000291
970.315858	-0.000576
970.490842	0.000988
970.665808	0.001231
970.840755	0.000763
971.015684	-0.000589
971.190595	-0.000676
971.365487	-0.000545
971.540362	-0.001341
971.715218	-0.003346
971.890056	-0.003309
972.064875	-0.006673
972.239677	-0.007664
972.414460	-0.006521
972.589225	-0.006745
972.763972	-0.007539
972.938700	-0.006020
973.113411	-0.005745
973.288103	-0.004361
973.462777	-0.004974
973.637432	-0.005371
973.812070	-0.004283
973.986689	-0.004813
974.161290	-0.004138
974.335873	-0.004353
974.510437	-0.005746
974.684984	-0.005409
974.859512	-0.006602
975.034022	-0.006111
975.208513	-0.004593
975.382987	-0.005708
975.557442	-0.007177
975.731879	-0.007189
975.906298	-0.007559
976.080698	-0.008186
976.255080	-0.009250
976.429445	-0.008879
976.603790	-0.009751
976.778118	-0.010496
976.952427	-0.009627
977.126719	-0.008496
977.300992	-0.010546
977.475246	-0.010165
977.649483	-0.008398
977.823701	-0.007987
977.997901	-0.008041
978.172083	-0.005574
978.346247	-0.003860
978.520392	-0.003355
978.694519	-0.000348
978.868628	0.001343
979.042719	0.001378
979.216791	0.000244
979.390845	-0.000422
979.564882	0.000943
979.738899	-0.001408
979.912899	-0.001412
980.086880	-0.002342
980.260843	-0.002332
980.434788	-0.003755
980.608715	-0.003801
980.782623	-0.002490
980.956514	-0.001045
981.130386	-0.002271
981.304240	-0.000344
981.478075	-0.001465
981.651892	0.000791
981.825692	-0.001287
981.999472	-0.000832
982.173235	-0.002029
982.346980	-0.003086
982.520706	-0.004207
982.694414	-0.004663
982.868104	-0.006063
983.041775	-0.004234
983.215428	-0.005049
983.389064	-0.004931
983.562680	-0.004927
983.736279	-0.003631
983.909860	-0.004593
984.083422	-0.003644
984.256966	-0.004728
984.430491	-0.005495
984.603999	-0.006357
984.777488	-0.006401
984.950959	-0.005623
985.124412	-0.004656
985.297847	-0.005737
985.471263	-0.005497
985.644661	-0.004899
985.818041	-0.003189
985.991403	-0.002068
986.164747	-0.002286
986.338072	-0.003872
986.511379	-0.005223
986.684668	-0.005841
986.857938	-0.005257
987.031191	-0.004605
987.204425	-0.004928
987.377641	-0.005616
987.550839	-0.006158
987.724018	-0.006056
987.897179	-0.004241
988.070322	-0.004332
988.243447	-0.004609
988.416554	-0.004633
988.589642	-0.004792
988.762712	-0.006822
988.935764	-0.006256
989.108798	-0.006809
989.281813	-0.007027
989.454811	-0.009003
989.627790	-0.009477
989.800751	-0.007613
989.973693	-0.006813
990.146617	-0.005420
990.319524	-0.004276
990.492412	-0.004217
990.665281	-0.001991
990.838133	-0.002471
991.010966	-0.000196
991.183781	0.001505
991.356578	0.001240
991.529356	0.002028
991.702117	0.000785
991.874859	0.000802
992.047583	0.001401
992.220288	-0.000333
992.392976	-0.000717
992.565645	-0.002111
992.738296	-0.002957
992.910929	-0.004315
993.083543	-0.004095
993.256139	-0.003791
993.428718	-0.003384
993.601277	-0.004606
993.773819	-0.003355
993.946342	-0.003242
994.118848	-0.001915
994.291335	-0.000518
994.463803	0.000549
994.636254	-0.000246
994.808686	-0.000692
994.981100	-0.002366
995.153496	-0.002237
995.325874	-0.003652
995.498233	-0.002972
995.670574	-0.005444
995.842897	-0.006943
996.015202	-0.006847
996.187488	-0.006374
996.359757	-0.007263
996.532007	-0.005195
996.704239	-0.004682
996.876452	-0.004249
997.048648	-0.004852
997.220825	-0.004145
997.392984	-0.004085
997.565124	-0.003993
997.737247	-0.005147
997.909351	-0.004571
998.081437	-0.005617
998.253505	-0.004902
998.425554	-0.004733
998.597586	-0.003793
998.769599	-0.005045
998.941594	-0.005366
999.113571	-0.006687
999.285529	-0.006757
999.457469	-0.006880
999.629391	-0.006344
999.801295	-0.006909
999.973181	-0.007477
1000.145048	-0.008824
1000.316897	-0.006636
1000.488728	-0.006522
1000.660541	-0.007162
1000.832335	-0.007734
1001.004111	-0.007922
1001.175869	-0.008109
1001.347609	-0.009333
1001.519331	-0.009231
1001.691034	-0.010774
1001.862719	-0.010589
1002.034386	-0.010794
1002.206035	-0.009861
1002.377665	-0.008040
1002.549277	-0.008912
1002.720871	-0.008201
1002.892447	-0.006992
1003.064004	-0.007287
1003.235544	-0.004821
1003.407065	-0.005003
1003.578568	-0.004346
1003.750052	-0.004533
1003.921519	-0.005857
1004.092967	-0.005139
1004.264397	-0.004936
1004.435809	-0.004528
1004.607202	-0.003453
1004.778577	-0.003993
1004.949934	-0.005681
1005.121273	-0.006483
1005.292594	-0.007520
1005.463896	-0.008893
1005.635180	-0.008549
1005.806446	-0.009598
1005.977694	-0.011022
1006.148923	-0.011320
1006.320135	-0.011065
1006.491328	-0.011024
1006.662503	-0.011398
1006.833659	-0.011248
1007.004798	-0.009021
1007.175918	-0.008894
1007.347020	-0.006515
1007.518103	-0.006181
1007.689169	-0.005657
1007.860216	-0.005047
1008.031245	-0.003683
1008.202256	-0.004464
1008.373248	-0.002548
1008.544223	-0.003453
1008.715179	-0.002946
1008.886117	-0.006532
1009.057036	-0.006515
1009.227938	-0.006952
1009.398821	-0.008461
1009.569686	-0.008501
1009.740533	-0.006962
1009.911361	-0.008066
1010.082172	-0.006594
1010.252964	-0.006844
1010.423738	-0.006578
1010.594493	-0.007308
1010.765231	-0.006868
1010.935950	-0.006849
1011.106651	-0.008086
1011.277334	-0.008442
1011.447998	-0.008436
1011.618645	-0.010349
1011.789273	-0.010074
1011.959882	-0.007901
1012.130474	-0.007187
1012.301048	-0.007949
1012.471603	-0.008124
1012.642140	-0.007346
1012.812658	-0.006274
1012.983159	-0.006741
1013.153641	-0.006045
1013.324105	-0.007502
1013.494551	-0.010384
1013.664979	-0.009958
1013.835388	-0.011344
1014.005779	-0.011019
1014.176152	-0.012231
1014.346507	-0.013685
1014.516843	-0.013020
1014.687162	-0.013050
1014.857462	-0.013077
1015.027744	-0.011923
1015.198007	-0.012474
1015.368252	-0.010714
1015.538480	-0.010005
1015.708689	-0.009161
1015.878879	-0.007703
1016.049052	-0.007701
1016.219206	-0.006942
1016.389342	-0.007250
1016.559460	-0.007205
1016.729559	-0.006876
1016.899641	-0.007170
1017.069704	-0.008663
1017.239749	-0.008183
1017.409775	-0.009374
1017.579784	-0.009143
1017.749774	-0.009055
1017.919746	-0.009273
1018.089700	-0.009274
1018.259635	-0.008628
1018.429553	-0.008441
1018.599452	-0.006861
1018.769333	-0.007422
1018.939195	-0.007720
1019.109040	-0.008034
1019.278866	-0.008177
1019.448674	-0.005975
1019.618464	-0.006161
1019.788235	-0.006939
1019.957989	-0.008081
1020.127724	-0.009503
1020.297441	-0.008499
1020.467139	-0.007166
1020.636820	-0.007367
1020.806482	-0.008800
1020.976126	-0.009938
1021.145752	-0.009918
1021.315359	-0.008346
1021.484948	-0.007349
1021.654519	-0.005936
1021.824072	-0.006333
1021.993607	-0.007172
1022.163123	-0.007086
1022.332621	-0.005592
1022.502101	-0.003421
1022.671563	-0.002935
1022.841007	-0.004384
1023.010432	-0.005020
1023.179839	-0.005521
1023.349228	-0.006242
1023.518598	-0.006330
1023.687951	-0.005669
1023.857285	-0.007600
1024.026601	-0.009780
1024.195899	-0.010475
1024.365178	-0.010788
1024.534439	-0.010949
1024.703682	-0.011725
1024.872907	-0.010585
1025.042114	-0.010502
1025.211302	-0.011040
1025.380472	-0.009504
1025.549624	-0.008925
1025.718758	-0.007418
1025.887873	-0.006166
1026.056970	-0.004505
1026.226049	-0.003802
1026.395110	-0.004969
1026.564153	-0.005150
1026.733177	-0.005712
1026.902183	-0.005831
1027.071171	-0.007553
1027.240141	-0.009587
1027.409092	-0.010417
1027.578026	-0.011424
1027.746940	-0.010307
1027.915837	-0.009713
1028.084716	-0.008796
1028.253576	-0.007710
1028.422418	-0.009337
1028.591242	-0.008049
1028.760048	-0.005950
1028.928835	-0.005740
1029.097604	-0.003611
1029.266355	-0.003943
1029.435088	-0.003788
1029.603803	-0.003566
1029.772499	-0.004153
1029.941177	-0.003190
1030.109837	-0.002936
1030.278478	-0.003349
1030.447102	-0.004347
1030.615707	-0.006737
1030.784294	-0.006337
1030.952863	-0.006423
1031.121413	-0.008166
1031.289945	-0.008200
1031.458460	-0.008931
1031.626955	-0.010183
1031.795433	-0.010763
1031.963892	-0.009944
1032.132334	-0.010093
1032.300756	-0.011784
1032.469161	-0.013447
1032.637548	-0.012412
1032.805916	-0.011154
1032.974266	-0.010014
1033.142598	-0.008638
1033.310911	-0.008725
1033.479207	-0.008412
1033.647484	-0.007507
1033.815743	-0.006577
1033.983983	-0.002800
1034.152206	-0.003243
1034.320410	-0.004429
1034.488596	-0.004565
1034.656764	-0.003596
1034.824914	-0.004490
1034.993045	-0.005684
1035.161158	-0.005991
1035.329253	-0.005895
1035.497330	-0.008064
1035.665388	-0.009397
1035.833428	-0.010086
1036.001450	-0.010400
1036.169454	-0.010163
1036.337440	-0.007640
1036.505407	-0.007789
1036.673356	-0.007431
1036.841287	-0.008282
1037.009200	-0.008577
1037.177094	-0.007519
1037.344970	-0.008428
1037.512828	-0.009416
1037.680668	-0.010473
1037.848489	-0.012125
1038.016293	-0.011726
1038.184078	-0.012270
1038.351845	-0.011144
1038.519593	-0.012223
1038.687324	-0.010341
1038.855036	-0.009375
1039.022730	-0.008610
1039.190406	-0.009619
1039.358063	-0.008767
1039.525702	-0.009997
1039.693323	-0.010070
1039.860926	-0.010551
1040.028511	-0.008527
1040.196077	-0.009551
1040.363625	-0.009806
1040.531155	-0.009864
1040.698667	-0.009320
1040.866161	-0.009860
1041.033636	-0.008393
1041.201093	-0.007465
1041.368532	-0.007312
1041.535952	-0.008108
1041.703355	-0.008483
1041.870739	-0.006485
1042.038105	-0.007308
1042.205452	-0.008173
1042.372782	-0.008181
1042.540093	-0.007472
1042.707386	-0.008449
1042.874661	-0.007928
1043.041918	-0.007504
1043.209156	-0.008327
1043.376376	-0.008432
1043.543578	-0.007588
1043.710762	-0.005726
1043.877927	-0.005030
1044.045074	-0.003825
1044.212203	-0.003742
1044.379314	-0.004483
1044.546407	-0.005499
1044.713481	-0.004059
1044.880537	-0.005513
1045.047575	-0.005769
1045.214595	-0.005916
1045.381596	-0.005541
1045.548579	-0.009005
1045.715544	-0.009910
1045.882491	-0.009904
1046.049420	-0.009284
1046.216330	-0.010624
1046.383222	-0.011800
1046.550096	-0.011061
1046.716951	-0.012328
1046.883789	-0.013518
1047.050608	-0.011600
1047.217409	-0.010205
1047.384192	-0.011815
1047.550956	-0.012657
1047.717703	-0.012358
1047.884431	-0.012215
1048.051140	-0.012272
1048.217832	-0.012878
1048.384505	-0.012379
1048.551161	-0.012866
1048.717798	-0.012173
1048.884416	-0.010881
1049.051017	-0.008528
1049.217599	-0.008735
1049.384163	-0.006405
1049.550709	-0.005384
1049.717237	-0.003067
1049.883746	-0.004350
1050.050237	-0.005029
1050.216710	-0.005092
1050.383165	-0.005067
1050.549601	-0.006776
1050.716019	-0.006195
1050.882420	-0.009594
1051.048801	-0.010121
1051.215165	-0.012944
1051.381510	-0.011757
1051.547837	-0.010952
1051.714146	-0.011599
1051.880437	-0.012318
1052.046709	-0.012424
1052.212964	-0.012993
1052.379200	-0.012043
1052.545417	-0.012601
1052.711617	-0.010918
1052.877798	-0.011171
1053.043961	-0.010523
1053.210106	-0.012521
1053.376233	-0.012123
1053.542341	-0.012275
1053.708432	-0.011138
1053.874504	-0.011053
1054.040557	-0.011063
1054.206593	-0.011528
1054.372610	-0.012956
1054.538609	-0.012840
1054.704590	-0.011351
1054.870553	-0.011603
1055.036497	-0.012985
1055.202424	-0.012968
1055.368331	-0.011958
1055.534221	-0.012528
1055.700093	-0.012887
1055.865946	-0.012775
1056.031781	-0.014695
1056.197598	-0.016832
1056.363397	-0.015502
1056.529177	-0.015136
1056.694939	-0.016203
1056.860683	-0.015923
1057.026409	-0.015438
1057.192116	-0.015908
1057.357806	-0.014838
1057.523477	-0.014880
1057.689130	-0.012628
1057.854764	-0.015629
1058.020381	-0.014094
1058.185979	-0.013692
1058.351559	-0.014017
1058.517120	-0.013968
1058.682664	-0.012593
1058.848189	-0.013150
1059.013696	-0.011548
1059.179185	-0.012870
1059.344656	-0.012246
1059.510108	-0.013164
1059.675542	-0.012665
1059.840958	-0.012881
1060.006356	-0.011676
1060.171735	-0.012948
1060.337096	-0.012928
1060.502439	-0.012418
1060.667764	-0.011435
1060.833071	-0.009486
1060.998359	-0.009928
1061.163629	-0.011600
1061.328881	-0.012215
1061.494115	-0.013260
1061.659330	-0.013061
1061.824527	-0.012067
1061.989706	-0.012120
1062.154867	-0.012554
1062.320010	-0.013463
1062.485134	-0.011034
1062.650240	-0.009246
1062.815328	-0.007964
1062.980398	-0.008933
1063.145449	-0.008709
1063.310482	-0.008493
1063.475497	-0.010034
1063.640494	-0.010228
1063.805473	-0.010656
1063.970433	-0.011737
1064.135375	-0.012815
1064.300299	-0.013554
1064.465204	-0.012234
1064.630092	-0.012877
1064.794961	-0.014117
1064.959812	-0.013178
1065.124645	-0.013013
1065.289459	-0.012238
1065.454256	-0.013469
1065.619034	-0.012760
1065.783793	-0.012867
1065.948535	-0.014781
1066.113258	-0.014345
1066.277964	-0.015071
1066.442651	-0.016099
1066.607319	-0.015336
1066.771970	-0.015209
1066.936602	-0.015021
1067.101216	-0.015666
1067.265812	-0.015554
1067.430389	-0.014417
1067.594949	-0.015782
1067.759490	-0.015180
1067.924013	-0.015154
1068.088518	-0.014702
1068.253004	-0.013204
1068.417472	-0.013175
1068.581922	-0.012641
1068.746354	-0.013672
1068.910768	-0.013558
1069.075163	-0.011934
1069.239540	-0.011612
1069.403899	-0.011454
1069.568240	-0.011574
1069.732562	-0.014668
1069.896866	-0.015212
1070.061152	-0.015806
1070.225420	-0.015088
1070.389670	-0.014612
1070.553901	-0.016553
1070.718114	-0.015754
1070.882309	-0.017818
1071.046486	-0.019318
1071.210644	-0.018795
1071.374784	-0.017356
1071.538906	-0.015775
1071.703010	-0.016313
1071.867096	-0.016025
1072.031163	-0.015915
1072.195212	-0.017646
1072.359243	-0.015133
1072.523256	-0.013994
1072.687250	-0.012024
1072.851226	-0.012431
1073.015184	-0.014610
1073.179124	-0.014799
1073.343045	-0.016605
1073.506949	-0.014753
1073.670834	-0.013028
1073.834701	-0.013234
1073.998549	-0.014914
1074.162380	-0.015689
1074.326192	-0.015836
1074.489986	-0.015802
1074.653761	-0.015218
1074.817519	-0.013352
1074.981258	-0.013549
1075.144979	-0.015918
1075.308682	-0.015584
1075.472367	-0.016592
1075.636033	-0.017544
1075.799681	-0.019568
1075.963311	-0.018322
1076.126923	-0.018608
1076.290516	-0.019927
1076.454092	-0.019806
1076.617649	-0.017747
1076.781187	-0.017440
1076.944708	-0.014656
1077.108210	-0.012471
1077.271695	-0.010928
1077.435160	-0.011639
1077.598608	-0.011176
1077.762038	-0.011751
1077.925449	-0.011623
1078.088842	-0.013646
1078.252217	-0.014218
1078.415573	-0.013701
1078.578912	-0.015742
1078.742232	-0.015082
1078.905534	-0.016805
1079.068817	-0.017706
1079.232083	-0.017148
1079.395330	-0.017816
1079.558559	-0.017586
1079.721770	-0.019188
1079.884962	-0.021359
1080.048136	-0.020744
1080.211293	-0.021762
1080.374430	-0.019411
1080.537550	-0.016763
1080.700651	-0.017528
1080.863735	-0.016771
1081.026800	-0.015253
1081.189846	-0.013586
1081.352875	-0.011754
1081.515885	-0.012667
1081.678877	-0.010815
1081.841851	-0.011492
1082.004807	-0.012243
1082.167744	-0.010812
1082.330663	-0.010291
1082.493564	-0.011109
1082.656447	-0.013127
1082.819312	-0.014924
1082.982158	-0.013683
1083.144986	-0.014443
1083.307796	-0.016219
1083.470587	-0.017465
1083.633361	-0.017671
1083.796116	-0.018035
1083.958853	-0.016900
1084.121571	-0.017235
1084.284272	-0.018833
1084.446954	-0.018123
1084.609618	-0.020067
1084.772264	-0.019247
1084.934892	-0.018510
1085.097501	-0.019570
1085.260092	-0.020214
1085.422665	-0.021851
1085.585220	-0.021069
1085.747756	-0.018386
1085.910274	-0.019363
1086.072774	-0.019279
1086.235256	-0.018094
1086.397720	-0.019789
1086.560165	-0.019108
1086.722592	-0.019881
1086.885001	-0.018094
1087.047392	-0.016905
1087.209764	-0.017128
1087.372119	-0.018616
1087.534455	-0.018442
1087.696772	-0.020922
1087.859072	-0.018658
1088.021353	-0.017967
1088.183616	-0.017040
1088.345861	-0.019336
1088.508088	-0.021160
1088.670296	-0.022735
1088.832486	-0.024177
1088.994658	-0.024971
1089.156812	-0.023196
1089.318948	-0.024601
1089.481065	-0.025346
1089.643164	-0.025711
1089.805245	-0.024641
1089.967308	-0.022149
1090.129352	-0.020615
1090.291378	-0.020586
1090.453386	-0.017437
1090.615376	-0.018791
1090.777347	-0.019002
1090.939301	-0.019382
1091.101236	-0.019995
1091.263153	-0.018541
1091.425051	-0.019570
1091.586932	-0.018021
1091.748794	-0.018206
1091.910638	-0.017222
1092.072463	-0.017493
1092.234271	-0.018179
1092.396060	-0.019093
1092.557831	-0.018412
1092.719584	-0.021934
1092.881319	-0.022543
1093.043035	-0.025182
1093.204733	-0.025043
1093.366413	-0.028179
1093.528075	-0.027970
1093.689718	-0.027612
1093.851343	-0.027520
1094.012950	-0.028402
1094.174539	-0.025948
1094.336110	-0.024908
1094.497662	-0.024273
1094.659196	-0.023547
1094.820712	-0.021869
1094.982210	-0.019579
1095.143689	-0.015566
1095.305151	-0.015061
1095.466594	-0.014841
1095.628018	-0.013423
1095.789425	-0.013109
1095.950813	-0.013090
1096.112183	-0.009870
1096.273535	-0.010177
1096.434869	-0.010737
1096.596184	-0.013653
1096.757482	-0.016083
1096.918761	-0.017870
1097.080021	-0.022036
1097.241264	-0.022659
1097.402488	-0.021434
1097.563694	-0.024065
1097.724882	-0.024100
1097.886052	-0.025879
1098.047203	-0.028028
1098.208336	-0.020982
1098.369451	-0.020665
1098.530548	-0.019545
1098.691627	-0.021225
1098.852687	-0.019935
1099.013729	-0.022672
1099.174753	-0.024919
1099.335758	-0.023045
1099.496746	-0.021358
1099.657715	-0.023983
1099.818666	-0.021194
1099.979599	-0.019414
1100.140513	-0.018139
1100.301409	-0.019172
1100.462287	-0.014371
1100.623147	-0.012879
1100.783989	-0.012743
1100.944812	-0.014744
1101.105617	-0.014679
1101.266404	-0.015234
1101.427173	-0.014211
1101.587923	-0.019010
1101.748656	-0.019755
1101.909370	-0.021300
1102.070066	-0.022960
1102.230743	-0.027335
1102.391403	-0.026637
1102.552044	-0.027815
1102.712667	-0.027823
1102.873271	-0.030080
1103.033858	-0.025508
1103.194426	-0.028442
1103.354976	-0.029368
1103.515508	-0.023999
1103.676021	-0.023663
1103.836517	-0.022256
1103.996994	-0.022624
1104.157453	-0.024076
1104.317893	-0.022358
1104.478316	-0.022442
1104.638720	-0.019319
1104.799106	-0.014922
1104.959474	-0.020060
1105.119823	-0.017861
1105.280155	-0.016061
1105.440468	-0.015710
1105.600763	-0.016392
1105.761039	-0.017705
1105.921298	-0.018046
1106.081538	-0.018238
1106.241760	-0.020034
1106.401964	-0.019597
1106.562149	-0.017342
1106.722316	-0.020436
1106.882465	-0.022849
1107.042596	-0.016590
1107.202709	-0.015922
1107.362803	-0.014250
1107.522879	-0.015449
1107.682937	-0.017372
1107.842977	-0.019273
1108.002999	-0.020944
1108.163002	-0.018752
1108.322987	-0.015917
1108.482954	-0.021552
1108.642902	-0.022809
1108.802833	-0.029411
1108.962745	-0.029979
1109.122639	-0.025904
1109.282515	-0.020832
1109.442372	-0.018823
1109.602211	-0.023196
1109.762032	-0.025007
1109.921835	-0.022970
1110.081620	-0.022915
1110.241386	-0.017801
1110.401134	-0.016832
1110.560864	-0.023031
1110.720576	-0.026386
1110.880269	-0.029073
1111.039945	-0.026203
1111.199602	-0.024501
1111.359240	-0.027314
1111.518861	-0.027653
1111.678463	-0.024838
1111.838047	-0.025732
1111.997613	-0.026923
1112.157161	-0.028192
1112.316690	-0.027859
1112.476202	-0.029374
1112.635695	-0.032558
1112.795169	-0.031898
1112.954626	-0.031621
1113.114064	-0.035914
1113.273484	-0.035234
1113.432886	-0.028293
1113.592270	-0.025372
1113.751635	-0.024301
1113.910983	-0.025064
1114.070312	-0.023100
1114.229622	-0.021513
1114.388915	-0.016835
1114.548189	-0.016778
1114.707445	-0.016338
1114.866683	-0.023269
1115.025903	-0.023134
1115.185104	-0.024989
1115.344287	-0.020898
1115.503452	-0.022285
1115.662599	-0.021220
1115.821727	-0.024832
1115.980838	-0.019029
1116.139930	-0.017307
1116.299004	-0.012666
1116.458059	-0.016837
1116.617097	-0.013681
1116.776116	-0.016695
1116.935117	-0.017938
1117.094099	-0.018246
1117.253064	-0.020614
1117.412010	-0.021624
1117.570938	-0.021030
1117.729848	-0.021763
1117.888740	-0.022502
1118.047613	-0.024510
1118.206468	-0.023436
1118.365305	-0.021467
1118.524124	-0.022747
1118.682924	-0.022157
1118.841707	-0.025959
1119.000471	-0.031029
1119.159216	-0.031984
1119.317944	-0.031246
1119.476653	-0.032427
1119.635344	-0.030508
1119.794017	-0.029281
1119.952672	-0.028183
1120.111308	-0.026658
1120.269927	-0.025601
1120.428527	-0.023670
1120.587108	-0.023896
1120.745672	-0.019034
1120.904217	-0.014543
1121.062744	-0.013587
1121.221253	-0.014972
1121.379744	-0.016829
1121.538216	-0.018637
1121.696671	-0.016790
1121.855107	-0.016043
1122.013524	-0.013518
1122.171924	-0.019285
1122.330305	-0.024427
1122.488668	-0.025058
1122.647013	-0.026042
1122.805340	-0.024012
1122.963648	-0.022423
1123.121938	-0.025299
1123.280210	-0.029813
1123.438464	-0.027156
1123.596700	-0.024179
1123.754917	-0.023315
1123.913116	-0.031367
1124.071297	-0.027367
1124.229459	-0.031055
1124.387604	-0.033315
1124.545730	-0.033239
1124.703838	-0.033637
1124.861928	-0.034656
1125.019999	-0.033009
1125.178052	-0.032011
1125.336088	-0.023654
1125.494104	-0.028084
1125.652103	-0.023145
1125.810083	-0.023896
1125.968045	-0.020101
1126.125989	-0.015944
1126.283915	-0.020271
1126.441823	-0.021450
1126.599712	-0.026953
1126.757583	-0.032433
1126.915436	-0.027400
1127.073270	-0.029191
1127.231087	-0.029722
1127.388885	-0.032639
1127.546665	-0.028116
1127.704426	-0.025152
1127.862170	-0.026071
1128.019895	-0.016366
1128.177602	-0.011867
1128.335291	-0.014181
1128.492961	-0.014611
1128.650614	-0.012201
1128.808248	-0.010093
1128.965864	-0.015424
1129.123461	-0.016298
1129.281041	-0.015109
1129.438602	-0.016198
1129.596145	-0.013307
1129.753670	-0.009804
1129.911176	-0.008443
1130.068665	-0.009830
1130.226135	-0.008400
1130.383587	-0.006922
1130.541020	-0.007199
1130.698436	-0.008862
1130.855833	-0.014690
1131.013212	-0.021942
1131.170573	-0.029814
1131.327915	-0.033334
1131.485239	-0.028462
1131.642545	-0.030718
1131.799833	-0.030037
1131.957103	-0.030114
1132.114354	-0.031067
1132.271588	-0.025813
1132.428803	-0.019010
1132.585999	-0.010681
1132.743178	-0.006468
1132.900338	-0.009616
1133.057480	-0.005756
1133.214604	-0.006080
1133.371710	-0.007270
1133.528797	-0.003038
1133.685866	-0.000530
1133.842917	0.000493
1133.999950	-0.000080
1134.156964	-0.002457
1134.313960	0.000942
1134.470938	-0.004029
1134.627898	-0.005167
1134.784840	-0.007828
1134.941763	-0.007787
1135.098668	-0.016562
1135.255555	-0.019109
1135.412424	-0.019594
1135.569274	-0.012950
1135.726107	-0.012145
1135.882921	-0.011447
1136.039716	-0.011079
1136.196494	-0.007601
1136.353253	-0.009177
1136.509995	-0.005225
1136.666717	-0.006162
1136.823422	-0.009510
1136.980109	-0.016922
1137.136777	-0.017801
1137.293427	-0.022520
1137.450059	-0.029963
1137.606672	-0.026758
1137.763267	-0.026007
1137.919844	-0.026710
1138.076403	-0.024332
1138.232944	-0.023070
1138.389466	-0.019055
1138.545971	-0.019759
1138.702457	-0.017650
1138.858924	-0.012026
1139.015374	-0.017635
1139.171805	-0.018473
1139.328218	-0.017140
1139.484613	-0.019490
1139.640990	-0.019121
1139.797348	-0.023329
1139.953688	-0.025570
1140.110010	-0.026152
1140.266314	-0.026533
1140.422600	-0.026483
1140.578867	-0.024383
1140.735116	-0.021891
1140.891347	-0.023460
1141.047559	-0.025633
1141.203754	-0.026096
1141.359930	-0.023180
1141.516088	-0.023066
1141.672228	-0.017662
1141.828349	-0.012937
1141.984452	-0.018928
1142.140537	-0.021644
1142.296604	-0.023916
1142.452653	-0.019412
1142.608683	-0.017117
1142.764695	-0.026354
1142.920689	-0.025793
1143.076665	-0.029114
1143.232622	-0.029217
1143.388562	-0.018830
1143.544483	-0.021886
1143.700385	-0.020947
1143.856270	-0.021287
1144.012136	-0.025203
1144.167985	-0.013785
1144.323814	-0.009344
1144.479626	-0.006836
1144.635420	-0.011576
1144.791195	-0.014887
1144.946952	-0.006913
1145.102691	-0.010996
1145.258411	-0.019148
1145.414113	-0.015207
1145.569798	-0.017407
1145.725463	-0.021384
1145.881111	-0.026465
1146.036741	-0.026553
1146.192352	-0.026925
1146.347945	-0.026721
1146.503519	-0.018759
1146.659076	-0.016582
1146.814614	-0.020279
1146.970134	-0.023736
1147.125636	-0.027379
1147.281120	-0.025787
1147.436585	-0.023018
1147.592032	-0.025876
1147.747461	-0.031183
1147.902872	-0.032758
1148.058265	-0.030700
1148.213639	-0.024434
1148.368995	-0.028962
1148.524333	-0.026640
1148.679653	-0.024274
1148.834954	-0.033176
1148.990237	-0.028347
1149.145502	-0.027384
1149.300749	-0.030561
1149.455977	-0.026736
1149.611188	-0.032310
1149.766380	-0.026608
1149.921553	-0.019629
1150.076709	-0.018023
1150.231846	-0.004937
1150.386966	-0.003446
1150.542066	-0.007786
1150.697149	-0.005648
1150.852214	-0.016492
1151.007260	-0.008285
1151.162288	-0.012492
1151.317298	-0.010418
1151.472289	-0.014482
1151.627263	-0.029504
1151.782218	-0.038090
1151.937155	-0.036593
1152.092073	-0.039383
1152.246974	-0.038491
1152.401856	-0.039107
1152.556720	-0.033879
1152.711566	-0.045137
1152.866393	-0.051768
1153.021203	-0.048525
1153.175994	-0.040457
1153.330767	-0.036136
1153.485521	-0.036997
1153.640258	-0.038336
1153.794976	-0.039389
1153.949676	-0.036738
1154.104358	-0.034272
1154.259021	-0.023625
1154.413667	-0.014417
1154.568294	-0.023025
1154.722903	-0.025972
1154.877493	-0.020889
1155.032066	-0.023047
1155.186620	-0.033412
1155.341156	-0.036890
1155.495674	-0.041528
1155.650173	-0.035753
1155.804654	-0.031859
1155.959118	-0.028514
1156.113562	-0.019993
1156.267989	-0.027587
1156.422397	-0.020071
1156.576788	-0.007913
1156.731160	-0.007113
1156.885513	0.001194
1157.039849	-0.002588
1157.194166	-0.007578
1157.348465	-0.007612
1157.502746	-0.022493
1157.657009	-0.007649
1157.811253	-0.005960
1157.965479	-0.013727
1158.119687	-0.009760
1158.273877	-0.011139
1158.428048	-0.013447
1158.582201	-0.021351
1158.736337	-0.029138
1158.890453	-0.024902
1159.044552	-0.034318
1159.198632	-0.037999
1159.352694	-0.032090
1159.506738	-0.036761
1159.660764	-0.033573
1159.814771	-0.036641
1159.968761	-0.036146
1160.122732	-0.025999
1160.276685	-0.032199
1160.430619	-0.032280
1160.584535	-0.024566
1160.738434	-0.030783
1160.892313	-0.031565
1161.046175	-0.034628
1161.200019	-0.037854
1161.353844	-0.034512
1161.507651	-0.043141
1161.661440	-0.036719
1161.815210	-0.030263
1161.968962	-0.036598
1162.122697	-0.030130
1162.276412	-0.024954
1162.430110	-0.025327
1162.583789	-0.021062
1162.737451	-0.015558
1162.891094	-0.008997
1163.044718	-0.003064
1163.198325	-0.012126
1163.351913	-0.011034
1163.505483	-0.020794
1163.659035	-0.032859
1163.812569	-0.034824
1163.966084	-0.041433
1164.119581	-0.041136
1164.273060	-0.043761
1164.426521	-0.046098
1164.579964	-0.050533
1164.733388	-0.057617
1164.886794	-0.058784
1165.040182	-0.054202
1165.193551	-0.048945
1165.346903	-0.041214
1165.500236	-0.039171
1165.653551	-0.023978
1165.806848	-0.006598
1165.960126	0.004064
1166.113386	0.017070
1166.266628	0.027314
1166.419852	0.033454
1166.573058	0.036189
1166.726245	0.032217
1166.879414	0.034169
1167.032565	0.022767
1167.185698	0.009658
1167.338812	0.001014
1167.491909	-0.012811
1167.644987	-0.007062
1167.798046	-0.009728
1167.951088	-0.021832
1168.104111	-0.025239
1168.257117	-0.027613
1168.410103	-0.024701
1168.563072	-0.035092
1168.716023	-0.034526
1168.868955	-0.025167
1169.021869	-0.043648
1169.174765	-0.039943
1169.327642	-0.033950
1169.480501	-0.032380
1169.633343	-0.037994
1169.786165	-0.038089
1169.938970	-0.046635
1170.091757	-0.032691
1170.244525	-0.034557
1170.397275	-0.037017
1170.550007	-0.045673
1170.702720	-0.059666
1170.855415	-0.054351
1171.008092	-0.054135
1171.160751	-0.060742
1171.313392	-0.048386
1171.466014	-0.005181
1171.618619	-0.028108
1171.771205	-0.028108
1171.923772	-0.028108
