sample name	sample
index	190
start time	 02-18-2021  11:49:03 AM
880	-0.060803
Peak Time (s)	91.537
Peak Height 	-0.0608
calc peak height	90,93
Baseline Time (s)	10.537
Baseline Value 	-0.001391
subtract baseline	10,4
Abs	-0.012280
Peak Time (s)	91.039
Peak Height 	-0.01228
calc peak height	90,93
Baseline Time (s)	10.537
Baseline Value 	0.00158
subtract baseline	10,3
PK_550	-0.004979
Peak Time (s)	92.537
Peak Height 	-0.004979
calc peak height	90,93
Baseline Time (s)	10.037
Baseline Value 	3.3146E-4
subtract baseline	10,2
PK_880	-0.012601
Peak Time (s)	91.039
Peak Height 	-0.0126
calc peak height	90,93
Baseline Time (s)	10.537
Baseline Value 	9.0431E-4
subtract baseline	10,1


Time (s)	A880-A510	A880-A775	A880-A975	A880	I510	I775	I975	I880	
0.036000	-0.003853	-0.000345	-0.005409	0.006414	6617.641035	42980.256003	3870.284689	22691.889552
0.537000	-0.000467	0.000352	-0.002653	0.004635	6662.351089	43209.405904	3881.007164	22773.258700
1.039500	-0.000075	0.000561	0.003177	0.003672	6674.165885	43318.265744	3897.278927	22817.453338
1.537000	-0.000819	-0.000770	0.001293	0.000111	6698.855980	43526.372537	3901.335782	22981.708098
2.034500	-0.002635	-0.000611	-0.000163	0.003232	6655.694140	43250.262668	3890.300757	22837.682384
2.537500	0.000371	0.000120	0.003569	0.000446	6706.382320	43578.316581	3906.050048	22966.206318
3.035500	0.001779	0.000081	0.003703	-0.001344	6734.660309	43742.663049	3910.744708	23049.235947
3.536000	0.001214	0.000064	-0.001734	0.000812	6710.591081	43538.834876	3892.340314	22949.288130
4.035500	-0.000382	-0.000049	0.001649	0.001160	6693.486270	43495.652418	3899.656338	22933.195838
4.536000	-0.000104	0.000112	0.000197	-0.000183	6707.737397	43636.489240	3899.392778	22995.337873
5.039000	-0.002262	-0.000237	-0.000407	0.000027	6686.928484	43584.168728	3897.425812	22985.625050
5.537000	0.000165	-0.000263	-0.003002	-0.000001	6708.513752	43584.342130	3891.246981	22986.928290
6.036500	0.001803	-0.000121	-0.003168	0.000462	6718.883351	43554.304488	3889.738693	22965.494338
6.537000	0.002236	0.000528	-0.000767	0.000624	6721.278475	43599.942041	3895.119459	22957.998216
7.034500	-0.000366	0.000769	-0.001403	0.000420	6700.123406	43641.576788	3894.077080	22967.419349
7.534500	-0.001479	0.000357	0.002122	0.000567	6689.060755	43589.145864	3902.240830	22960.615922
8.035500	0.000960	0.000367	0.001151	0.000163	6714.076155	43627.974884	3900.863574	22979.303244
8.535500	-0.001039	-0.000095	-0.001400	-0.000031	6698.174489	43602.801711	3895.171531	22988.296809
9.036000	0.000202	-0.000155	0.002898	0.000135	6707.640260	43581.682047	3905.174005	22980.632536
9.536000	-0.002252	0.000059	0.003352	0.000430	6683.487877	43574.103971	3905.561762	22966.973251
10.036500	0.000100	0.000000	-0.002738	0.000123	6706.838558	43597.284356	3891.582598	22981.149803
10.537000	0.000000	0.000299	0.000000	0.000000	6707.044838	43636.920859	3898.474733	22986.865180
11.034000	0.000497	0.000137	0.006018	-0.000217	6713.346195	43642.039408	3913.652716	22996.937438
11.537000	-0.001364	-0.001131	-0.001582	-0.001102	6704.734746	43606.129530	3897.316040	23037.994307
12.035000	-0.002653	-0.000151	0.000908	0.000125	6682.645265	43583.036725	3900.368523	22981.079834
12.535500	-0.000917	0.000027	0.004153	0.000043	6698.594955	43607.371782	3908.455948	22984.891532
13.035500	0.002468	0.000450	0.005044	-0.002221	6748.578917	43859.951257	3916.181453	23090.011026
13.535000	-0.000284	0.000260	0.000862	-0.000144	6705.816939	43646.792072	3900.908949	22993.553669
14.035500	0.000982	-0.000045	0.005539	-0.000881	6723.493406	43687.258745	3914.104492	23027.702491
14.536500	-0.001000	-0.000584	-0.003908	0.002590	6675.539341	43312.448734	3882.887647	22867.224898
15.036500	-0.003543	-0.000268	0.001020	0.004893	6633.424367	43127.927487	3889.154234	22761.419269
15.571000	0.001549	0.000329	0.005867	-0.000708	6726.980111	43706.097741	3914.485415	23019.672766
16.034500	-0.000983	0.000209	0.006860	-0.000784	6705.292518	43702.068367	3917.112495	23023.225831
16.534500	0.000005	-0.000316	-0.001358	-0.001051	6716.368016	43677.800767	3897.734524	23035.633607
17.037500	-0.003464	-0.000098	-0.000559	0.004563	6636.964434	43174.331580	3886.168093	22776.564174
17.538000	0.001633	-0.000427	0.003533	-0.001007	6730.376300	43663.292099	3909.504800	23033.580458
18.035500	0.002688	0.000598	0.003742	-0.002711	6754.913624	43920.207580	3914.188185	23112.871276
18.536000	-0.000290	-0.000849	0.004711	0.000260	6702.202464	43505.051436	3909.287890	22974.837384
19.036500	-0.001958	-0.000033	0.003888	0.001226	6679.092056	43491.053197	3904.929897	22930.164103
19.536000	-0.000213	-0.000679	0.002019	0.000868	6697.527387	43464.113850	3901.259525	22946.669851
20.037000	0.000224	0.000209	0.002395	0.001176	6698.661113	43518.257445	3901.425035	22932.440514
20.536500	-0.002301	-0.000438	0.001797	0.000277	6684.399660	43541.898838	3902.156982	22974.057123
21.037500	-0.000215	0.000438	0.000997	0.001151	6695.024157	43542.089709	3898.102743	22933.616244
21.537500	-0.000400	0.000126	0.000827	0.000979	6694.909480	43528.998380	3898.106806	22941.562161
22.035000	-0.002294	-0.000850	0.001835	0.000187	6685.240790	43511.776509	3902.463594	22978.187975
22.535500	-0.000870	-0.000059	0.002142	0.000892	6691.547581	43519.848058	3901.501447	22945.580663
23.035500	-0.001261	-0.000674	0.000493	0.000826	6688.700221	43468.519253	3897.671263	22948.643804
23.536000	0.000619	-0.000074	0.000337	0.000502	6708.072238	43554.870526	3898.075322	22963.622362
24.036500	-0.000388	0.000426	0.000711	0.001024	6694.623356	43552.804275	3897.718825	22939.462354
24.536500	-0.001290	0.000751	-0.002297	0.001423	6683.217415	43545.951962	3889.523882	22921.055295
25.037000	0.001378	-0.000578	0.002910	0.000861	6711.601829	43474.235755	3903.439718	22947.025314
25.537500	-0.000906	-0.001074	-0.000555	0.000046	6698.670946	43504.041840	3897.023698	22984.751596
26.037500	0.000951	-0.000644	0.001416	0.000405	6711.863447	43510.672650	3900.921274	22968.127236
26.534500	-0.002255	-0.000411	0.005325	0.000061	6686.687519	43564.666318	3911.275667	22984.035949
27.038000	-0.001721	-0.000066	0.006368	0.000926	6683.791640	43516.024678	3911.710091	22944.021013
27.535500	-0.001902	0.000143	0.004730	0.001211	6679.712083	43508.841033	3907.014450	22930.817181
28.036000	0.000783	0.000238	-0.000309	-0.001610	6728.186517	43782.426317	3901.621737	23061.578330
28.535500	0.000123	0.000482	0.001078	-0.000632	6713.697835	43713.405478	3902.614765	23016.157966
29.039000	-0.000645	0.000513	-0.001777	-0.000940	6709.652172	43745.294312	3896.453527	23030.480198
29.537000	0.001254	0.000078	0.006915	-0.000247	6720.293814	43639.291286	3915.929909	22998.321628
30.037000	-0.000358	-0.000593	0.001446	-0.000926	6712.054213	43640.138942	3904.224924	23029.833551
30.537000	0.000600	0.000380	0.003723	-0.000621	6717.816375	43702.772083	3909.026137	23015.652675
31.035000	0.001300	0.000424	-0.000061	-0.001043	6727.742830	43746.559763	3900.851025	23035.250625
31.543500	-0.001091	0.000014	0.000675	0.000324	6694.591833	43579.787862	3899.321926	22971.845953
32.035500	-0.001220	-0.000658	-0.000890	0.002544	6674.023688	43309.783688	3890.208044	22869.336528
32.536000	-0.000375	0.000648	0.003552	0.000397	6700.248409	43632.373878	3906.127734	22968.486853
33.049500	0.002278	0.000258	0.005069	-0.000895	6735.105529	43717.079351	3912.987266	23028.367935
33.536500	-0.001739	-0.000259	0.004512	0.000099	6690.885360	43575.301892	3909.194195	22982.268892
34.039000	0.000165	0.000702	0.003406	-0.000448	6712.451309	43716.722220	3907.830313	23007.616092
34.539500	0.001452	0.000227	0.001078	-0.001049	6729.140792	43728.576278	3903.627555	23035.517140
35.037500	-0.003086	-0.000217	-0.000092	0.002530	6657.870928	43352.164394	3892.156161	22869.971681
35.537500	-0.001873	-0.000490	-0.003131	0.001194	6680.117183	43451.320032	3888.073158	22931.634890
36.037000	-0.002453	-0.000049	0.003578	0.001151	6675.416957	43496.581045	3904.357539	22933.620818
36.535000	-0.000920	0.000605	0.000909	0.001844	6682.766563	43492.900452	3896.216544	22901.615871
37.035000	-0.000752	0.000419	-0.001068	0.002345	6679.856652	43428.762888	3890.258084	22878.524355
37.536000	-0.001214	-0.000359	0.002983	0.001590	6682.417146	43426.654615	3901.846755	22913.351827
38.038500	-0.000239	-0.000226	0.000015	0.001177	6694.584076	43477.587048	3895.670490	22932.400806
38.536500	-0.001730	0.000097	0.000049	0.001419	6679.396708	43485.151318	3895.169276	22921.227027
39.036000	-0.001229	-0.000146	-0.002292	0.001895	6679.620282	43418.015563	3888.405315	22899.271027
39.537000	-0.000721	0.000768	0.000935	0.001805	6684.851105	43511.811134	3896.374705	22903.417880
40.037000	-0.001397	-0.000303	0.002640	0.001224	6684.013928	43465.915968	3901.902132	22930.224654
40.534500	-0.000138	0.000622	0.002500	0.001749	6690.445624	43503.345741	3900.290390	22905.974554
41.038000	-0.000760	-0.000161	0.002060	0.001767	6684.844732	43428.591664	3899.183166	22905.167249
41.535000	-0.001700	-0.000110	-0.002331	0.001397	6679.849487	43467.822238	3889.502400	22922.234545
42.035500	-0.000573	0.000555	0.000418	0.001270	6690.836791	43541.811753	3896.415725	22928.092296
42.538500	-0.000593	-0.000816	-0.000660	0.001169	6691.542146	43423.217517	3894.062947	22932.754162
43.036500	-0.002498	-0.000146	0.003186	0.002694	6661.572708	43343.528822	3899.665960	22862.450500
43.536500	-0.001034	-0.000478	-0.000583	0.000973	6689.401525	43473.102360	3894.719979	22941.834329
44.036500	0.001171	0.000664	-0.001208	0.002102	6698.849360	43474.298835	3890.503535	22889.701052
44.537500	-0.001472	-0.000728	-0.002665	0.000554	6689.226915	43488.794411	3890.721583	22961.196207
45.037500	-0.001389	-0.000051	0.001347	0.001121	6684.987176	43499.082375	3899.021322	22934.983166
45.534500	0.000176	0.000244	-0.001289	0.002431	6687.225675	43404.377331	3889.522093	22874.554764
46.035000	-0.000223	0.000046	0.001898	-0.000487	6709.368221	43658.861428	3904.255134	23009.432420
46.535500	-0.000683	0.000180	0.001307	-0.000911	6709.048500	43711.243005	3903.848820	23029.106959
47.036000	-0.001948	0.000516	0.001563	0.003476	6659.549827	43332.381281	3893.861064	22826.460351
47.536000	-0.001011	-0.000028	-0.002149	0.003243	6669.743186	43303.356787	3885.522628	22837.163163
48.039000	-0.000722	0.000129	0.002321	-0.000599	6705.965807	43677.134240	3905.555152	23014.642172
48.536500	-0.000498	-0.000087	0.003403	-0.001232	6713.517889	43716.225323	3909.737100	23044.005139
49.037000	-0.002916	-0.000274	0.000507	0.002615	6658.616452	43338.976220	3893.394192	22866.092336
49.537000	-0.000542	-0.000252	0.000251	0.003185	6674.351710	43288.016649	3891.408515	22839.858744
50.037500	0.000117	0.000364	0.008441	-0.000407	6711.664726	43681.196885	3920.080235	23005.740595
50.538000	0.000961	-0.000035	0.004733	-0.000781	6722.431273	43678.819994	3911.886050	23023.094769
51.038000	-0.001060	-0.000004	0.000627	0.003369	6668.219479	43293.931163	3891.867795	22831.378596
51.535500	-0.001896	0.000663	0.001213	0.003428	6660.420058	43350.576767	3893.136485	22828.685537
52.038500	0.001613	0.000073	0.003933	-0.001349	6733.235962	43742.389488	3911.318495	23049.477678
52.536000	-0.003558	-0.004812	0.016009	0.123774	5734.555027	33177.311166	3667.816588	17997.065339
53.039000	-0.042519	-0.023311	-0.011123	0.061732	5890.358651	36369.879572	3736.367414	20320.718124
53.536500	-0.048900	-0.027141	-0.024481	-0.086010	7048.429870	49517.868326	4058.236039	27393.805780
54.039500	-0.020232	-0.037101	-0.002411	-0.191970	8563.217809	61049.374203	4472.892512	34171.448040
54.540000	-0.017423	-0.023820	-0.005814	-0.159653	8189.913287	58555.776449	4344.657278	31926.435521
55.034500	-0.028554	-0.018644	-0.009254	-0.108439	7479.868277	52958.326733	4167.780613	28693.825150
55.535000	-0.027905	-0.015306	-0.018019	-0.109399	7496.932376	53456.018023	4144.286813	28750.953437
56.034500	-0.018612	-0.012477	-0.013313	-0.117963	7690.723540	54799.823825	4184.481465	29266.470967
56.535500	-0.011191	-0.008884	-0.013187	-0.117136	7764.311550	55131.337486	4182.326575	29216.235085
57.036000	-0.007135	-0.007329	-0.010046	-0.113653	7770.763404	54900.007809	4181.276605	29005.761293
57.536500	-0.008465	-0.006906	-0.013142	-0.097404	7576.768677	53039.402133	4123.229174	28045.823184
58.036500	-0.006222	-0.007504	-0.019622	-0.100879	7639.012703	53372.695225	4114.441373	28248.129666
58.537000	-0.009629	-0.002450	-0.015709	-0.060062	7178.269056	49383.085253	4011.335505	25971.180811
59.037000	-0.024358	-0.015001	-0.013234	-0.057431	7009.855950	47786.409971	4010.917848	25831.638463
59.537500	-0.012812	-0.006441	-0.013972	-0.054361	7091.250347	48357.387461	4000.774428	25669.885691
60.035000	-0.012959	-0.005152	-0.017776	-0.074012	7284.674851	50602.714297	4043.585641	26725.431013
60.535500	-0.013268	-0.007934	-0.014264	-0.099301	7545.434182	53139.742453	4125.501564	28156.019711
61.035500	-0.019340	-0.006101	-0.012078	-0.050686	6993.467908	48009.683938	3996.060454	25477.724656
61.538500	-0.015166	-0.004243	-0.019903	-0.044575	6975.163558	47570.037628	3959.830478	25161.758073
62.038500	-0.016346	-0.004341	-0.021778	-0.056450	7077.255403	48797.916346	3985.708317	25779.818298
62.536000	-0.016144	-0.006464	-0.018873	-0.064148	7154.310157	49390.861212	4013.809176	26189.643596
63.036500	-0.018295	-0.007005	-0.021243	-0.064017	7131.908364	49318.997641	4007.118322	26182.604067
63.537000	-0.018692	-0.003835	-0.023039	-0.057930	7068.895987	49008.238603	3986.283756	25858.052594
64.055000	-0.016529	-0.005352	-0.020613	-0.081843	7328.102855	51448.233018	4057.401774	27159.562188
64.537500	-0.021679	-0.008548	-0.020539	-0.100375	7467.288194	53192.997707	4110.305851	28218.673451
65.034500	-0.020145	-0.007949	-0.027148	-0.100230	7481.987751	53245.620857	4090.838919	28210.217844
65.550500	-0.021923	-0.007975	-0.022368	-0.092822	7385.670767	52391.285087	4083.347831	27781.567096
66.035000	-0.018924	-0.007966	-0.018711	-0.095502	7444.966048	52698.522359	4101.491454	27935.762257
66.536000	-0.018731	-0.007975	-0.021267	-0.092026	7410.600790	52300.679822	4084.214338	27735.926266
67.041500	-0.021942	-0.007914	-0.022482	-0.084082	7295.705782	51412.049964	4058.430865	27285.111118
67.536500	-0.022854	-0.007493	-0.025236	-0.077816	7223.331047	50763.574815	4033.569189	26935.334059
68.037000	-0.018999	-0.007501	-0.020796	-0.079805	7282.171276	50982.432980	4051.239244	27045.839306
68.536500	-0.017502	-0.007058	-0.020169	-0.075623	7255.036351	50570.285518	4041.434298	26814.086811
69.037500	-0.019911	-0.006254	-0.023519	-0.068080	7155.927542	49836.426688	4011.894953	26401.767972
69.535000	-0.021680	-0.005374	-0.024217	-0.062455	7083.746883	49326.366846	3995.081696	26098.858998
70.035000	-0.018320	-0.005896	-0.024415	-0.065888	7150.013894	49638.489865	4003.653207	26283.241967
70.535500	-0.018516	-0.005125	-0.020407	-0.063189	7121.639905	49431.484112	4007.138152	26138.159853
71.041000	-0.022845	-0.006040	-0.026902	-0.057330	7023.297668	48711.411941	3974.653307	25826.287332
71.536000	-0.021259	-0.005042	-0.024382	-0.054014	7006.833042	48467.645870	3972.592646	25651.677170
72.036500	-0.019386	-0.005168	-0.019024	-0.058998	7072.504089	48980.185124	3999.673727	25914.664365
72.536500	-0.017405	-0.005251	-0.023012	-0.058781	7089.574116	48948.333351	3988.585891	25903.173265
73.037000	-0.017817	-0.004811	-0.024488	-0.054143	7040.905456	48505.399047	3972.651552	25658.420612
73.537000	-0.016731	-0.005196	-0.015217	-0.058645	7094.783249	48939.725007	4008.862816	25895.927986
74.034500	-0.016933	-0.004596	-0.019565	-0.058031	7086.870535	48938.242043	3995.683817	25863.400717
74.535000	-0.017332	-0.004792	-0.015625	-0.058297	7085.583395	48945.591345	4006.844984	25877.469639
75.041000	-0.018544	-0.004734	-0.013844	-0.058945	7080.124206	49020.529719	4013.340720	25911.841962
75.535500	-0.020020	-0.005183	-0.023934	-0.053785	7016.441355	48428.812913	3973.159376	25639.644616
76.035500	-0.016773	-0.005815	-0.016244	-0.060069	7108.219877	49025.131833	4009.925646	25971.581037
76.536000	-0.016252	-0.006330	-0.017032	-0.060391	7116.434428	49004.684775	4008.679576	25988.699468
77.039000	-0.015755	-0.004826	-0.017974	-0.059770	7115.227923	49098.594678	4004.513620	25955.703424
77.537000	-0.021977	-0.006057	-0.026272	-0.055935	7018.280585	48562.718373	3972.671314	25752.671733
78.037000	-0.016962	-0.006387	-0.016333	-0.061438	7119.718361	49109.857815	4013.352890	26044.526197
78.537500	-0.015056	-0.005819	-0.020037	-0.061592	7139.873946	49186.665068	4003.869050	26052.724462
79.037500	-0.016917	-0.005666	-0.021803	-0.061911	7124.788063	49237.084253	4000.030982	26069.807973
79.535000	-0.019260	-0.005697	-0.021108	-0.056337	7048.105701	48642.949724	3987.169714	25773.894459
80.035500	-0.017292	-0.005813	-0.018287	-0.062522	7127.091287	49286.657852	4011.022439	26102.477669
80.536000	-0.017285	-0.006201	-0.016821	-0.063250	7134.288518	49323.031960	4016.907792	26141.463908
81.036000	-0.016067	-0.005982	-0.022368	-0.063130	7145.053582	49333.523136	4001.766251	26135.028760
81.536000	-0.016902	-0.006023	-0.013290	-0.063176	7137.309054	49334.021131	4026.242182	26137.451059
82.039000	-0.016561	-0.005816	-0.020689	-0.063412	7142.971856	49381.465381	4006.983451	26150.148393
82.536500	-0.015394	-0.005251	-0.019125	-0.063028	7150.672953	49400.857854	4010.133761	26129.572734
83.039500	-0.015024	-0.005393	-0.015884	-0.063063	7154.649148	49389.374202	4018.927277	26131.440020
83.540500	-0.014156	-0.005346	-0.020336	-0.063230	7164.840333	49412.222816	4007.437035	26140.347676
84.034500	-0.014504	-0.005437	-0.017480	-0.063577	7164.833712	49439.639395	4016.013932	26158.967704
84.535500	-0.016696	-0.005585	-0.017770	-0.064155	7148.938074	49485.790269	4016.788260	26189.989734
85.037500	-0.018010	-0.005623	-0.020098	-0.058755	7083.452458	48906.163400	3996.189677	25901.760318
85.536000	-0.015316	-0.005200	-0.018809	-0.064201	7162.988109	49532.061995	4014.121950	26192.475416
86.035500	-0.015250	-0.005913	-0.013761	-0.064734	7168.895779	49512.750766	4029.194895	26221.119576
86.536500	-0.013167	-0.005220	-0.016166	-0.064132	7183.547855	49522.545789	4021.048272	26188.776404
87.036500	-0.014002	-0.005338	-0.022648	-0.062646	7160.606523	49350.574406	3999.737298	26109.076278
87.540000	-0.013818	-0.004928	-0.018040	-0.064128	7177.049705	49553.393056	4015.990729	26188.521590
88.040000	-0.014322	-0.005601	-0.020080	-0.065069	7181.384803	49582.227852	4013.041993	26239.150054
88.534500	-0.013366	-0.005318	-0.016537	-0.065157	7191.738344	49622.152016	4022.815764	26243.879720
89.035000	-0.016997	-0.005653	-0.016117	-0.059946	7104.841130	49029.312235	4009.934064	25965.028270
89.535000	-0.016637	-0.005734	-0.023225	-0.060137	7110.209556	49041.002046	3991.590141	25975.206262
90.035500	-0.012752	-0.005761	-0.017418	-0.064492	7191.235613	49503.070240	4018.643801	26208.116561
90.535500	-0.012902	-0.005364	-0.014701	-0.064451	7189.334079	49541.236396	4025.874410	26205.892582
91.039000	-0.012601	-0.005738	-0.012280	-0.064645	7194.248194	49522.002951	4032.982096	26216.329414
91.536500	-0.014144	-0.005998	-0.018227	-0.060803	7141.088406	49083.745670	4006.589910	26010.678121
92.043000	-0.012653	-0.005761	-0.018585	-0.064049	7187.815164	49455.539747	4014.316173	26184.305792
92.537000	-0.013396	-0.004979	-0.023064	-0.063289	7172.934376	49457.900671	4000.338954	26143.516339
93.037000	-0.012878	-0.005429	-0.017620	-0.063888	7183.990209	49473.913195	4016.474952	26175.658335
93.535000	-0.014846	-0.005320	-0.017994	-0.059232	7118.849216	48988.900476	4003.029827	25927.094405
94.037500	-0.013162	-0.005363	-0.019069	-0.063336	7175.716714	49421.817630	4011.107406	26146.062031
94.535500	-0.011581	-0.004317	-0.010421	-0.061743	7175.600012	49363.271451	4030.144492	26060.834199
95.035500	-0.011950	-0.004859	-0.013055	-0.062008	7174.570438	49333.679582	4023.716010	26074.973266
95.579500	-0.012362	-0.004995	-0.014979	-0.060547	7156.084908	49163.162177	4014.593401	25997.006867
96.036000	-0.011964	-0.005218	-0.014204	-0.061269	7167.125523	49216.435759	4018.620510	26035.519245
96.553000	-0.012270	-0.005163	-0.017669	-0.061478	7166.167049	49244.483470	4009.881166	26046.652323
97.037000	-0.016169	-0.004697	-0.020270	-0.056235	7076.893585	48737.678590	3989.101306	25768.509363
97.540000	-0.014127	-0.005531	-0.010209	-0.060719	7140.430927	49124.465671	4027.935071	26006.197727
98.037000	-0.012028	-0.004776	-0.014917	-0.060061	7154.585016	49134.804118	4013.456810	25971.160143
98.556000	-0.012605	-0.004753	-0.012607	-0.059439	7142.804015	49071.145048	4017.992328	25938.106649
99.041500	-0.011495	-0.004779	-0.016125	-0.058917	7148.582383	49012.814368	4007.166020	25910.360758
