sample name	sample
index	1353
start time	 05-03-2021  01:12:08 PM
880	0.008932
Peak Time (s)	92.036
Peak Height 	0.008932
calc peak height	90,93
Baseline Time (s)	11.036
Baseline Value 	-0.002793
subtract baseline	10,4
Abs	0.008091
Peak Time (s)	92.036
Peak Height 	0.008091
calc peak height	90,93
Baseline Time (s)	9.034
Baseline Value 	0.001144
subtract baseline	10,3
PK_550	0.015011
Peak Time (s)	92.036
Peak Height 	0.01501
calc peak height	90,93
Baseline Time (s)	10.034
Baseline Value 	4.2176E-6
subtract baseline	10,2
PK_880	0.014975
Peak Time (s)	92.535
Peak Height 	0.01498
calc peak height	90,93
Baseline Time (s)	11.036
Baseline Value 	-1.8146E-4
subtract baseline	10,1


Time (s)	A880-A510	A880-A775	A880-A975	A880	I510	I775	I975	I880	
0.035000	0.000789	0.000483	-0.001651	0.002075	6121.348451	42553.423506	3897.849856	22051.598273
0.535500	-0.003139	-0.000320	-0.004192	0.006874	6058.238986	42046.223628	3881.548640	21841.605170
1.035500	-0.000447	-0.000035	-0.002069	0.004128	6097.414700	42319.857985	3892.331070	21961.464378
1.536500	0.000519	0.000042	0.001092	0.000901	6127.959203	42620.270813	3906.663203	22103.332231
2.036000	0.001684	-0.000084	-0.002930	0.000625	6138.524311	42633.969452	3898.232053	22115.517890
2.539500	-0.002908	-0.000233	-0.005499	0.003759	6082.281880	42335.304727	3885.536450	21977.636536
3.041000	0.002281	0.000231	0.003152	-0.001141	6155.932441	42824.461226	3915.978365	22193.642304
3.539500	0.000549	0.000337	-0.004106	0.001320	6125.117921	42608.978380	3894.049727	22084.871174
4.035000	0.001755	-0.000118	-0.002846	0.000777	6137.937388	42617.060895	3898.080589	22108.823475
4.534500	0.001059	0.000045	-0.004139	0.000808	6132.596532	42629.014930	3895.118186	22107.427706
5.035000	-0.000191	0.000161	0.001891	0.000528	6125.498514	42665.238543	3909.315914	22119.796858
5.535500	0.002740	0.001112	-0.000731	0.001184	6142.178412	42692.141983	3901.913992	22090.831261
6.035500	-0.001385	0.000028	-0.000791	0.000659	6115.817224	42641.091903	3902.960676	22113.996382
6.536000	0.000881	0.000232	0.001495	0.000760	6131.646012	42650.516611	3907.893884	22109.569145
7.036000	0.000667	-0.000526	-0.002899	-0.000266	6137.596915	42675.042391	3900.300305	22154.881429
7.536500	0.003179	0.000430	0.000563	0.000074	6153.586033	42731.330277	3907.335194	22139.832452
8.040000	-0.000255	0.000139	-0.006050	-0.000410	6131.893796	42748.997335	3893.570977	22161.258072
8.537000	0.003118	-0.000280	0.001240	0.000071	6153.164431	42666.742399	3908.875792	22139.998349
9.034500	0.001350	0.000390	0.000000	0.000193	6139.246416	42716.832175	3905.794975	22134.590363
9.535000	-0.000174	-0.000756	-0.008295	-0.000697	6134.590311	42693.367077	3889.215550	22173.963708
10.034000	-0.000899	0.000000	0.000155	0.000019	6124.046350	42697.092934	3906.539608	22142.306281
10.536000	0.000038	0.000203	-0.000472	-0.000046	6131.379108	42721.649550	3905.269352	22145.178772
11.035500	0.000000	0.000387	0.003245	0.000000	6130.758538	42734.162628	3913.588474	22143.125769
11.535500	-0.001504	-0.000392	-0.001215	-0.000512	6123.496582	42709.725783	3904.643873	22165.768300
12.036500	-0.000720	0.001157	0.001584	0.001723	6112.912205	42647.062411	3905.917141	22067.117918
12.539000	0.000412	0.000322	0.003442	0.000019	6133.636037	42726.536377	3913.994117	22142.280596
13.037000	0.000204	0.000274	-0.000917	-0.000748	6137.744893	42792.415836	3905.850799	22176.234644
13.536500	0.000072	-0.000083	0.000258	-0.001019	6138.761472	42784.525215	3909.120727	22188.243979
14.035000	-0.000306	0.000522	0.004170	0.002342	6111.416907	42532.677379	3910.369121	22039.840085
14.535000	-0.002040	0.000113	-0.003021	0.001791	6102.816774	42545.619623	3895.420821	22064.122431
15.035000	0.002222	-0.000118	0.002371	-0.001203	6155.952747	42798.231783	3914.340028	22196.410533
15.538500	0.000139	-0.000162	-0.000021	-0.001484	6142.673337	42819.880389	3909.541913	22208.871436
16.036000	0.000096	0.000317	0.000722	0.000361	6128.812438	42694.705844	3907.046381	22127.157229
16.540500	0.002141	0.000469	-0.000464	-0.000970	6153.637764	42830.668747	3907.374941	22186.073266
17.039000	0.002112	0.000567	0.003153	-0.002716	6166.324718	43000.188935	3919.580226	22263.589120
17.539500	-0.000405	-0.000437	-0.002816	-0.000284	6129.870767	42684.781896	3900.526752	22155.665271
18.037000	0.001461	-0.000107	-0.001544	0.000652	6136.693580	42629.397203	3901.283710	22114.325885
18.537500	0.000176	0.000554	0.002441	0.000720	6126.773252	42683.603311	3910.125615	22111.316948
19.038000	0.000901	0.000935	0.000086	0.001412	6127.012290	42655.149304	3903.240624	22080.788722
19.549000	-0.000120	-0.000378	-0.001764	0.000329	6127.474704	42634.185518	3901.514151	22128.588223
20.036000	-0.002405	-0.000427	-0.001646	0.000083	6112.583787	42652.144082	3902.332786	22139.460866
20.538500	0.001477	0.001302	0.001542	0.001650	6129.489778	42666.914776	3905.985738	22070.291393
21.036000	0.001588	0.000434	0.000030	0.000898	6135.818704	42656.347134	3904.272796	22103.468494
21.539000	0.001441	0.001009	0.000657	0.000852	6135.073180	42713.159694	3905.790464	22105.478421
22.036500	0.000314	0.000286	-0.001123	0.001018	6125.604347	42631.872916	3901.405137	22098.164885
22.537000	-0.000149	0.000789	-0.006633	0.001178	6121.051358	42663.136147	3888.741310	22091.091307
23.037000	0.000422	0.000606	0.001831	0.000685	6128.830076	42691.572832	3908.823118	22112.854373
23.534000	0.002260	0.000046	0.001245	0.000326	6144.960701	42673.182118	3908.309510	22128.708577
24.035000	0.000551	0.000220	-0.002234	0.000641	6130.095427	42660.258276	3899.756195	22114.797218
24.535000	0.001050	0.000318	-0.007610	0.000782	6132.719708	42656.360738	3887.454133	22108.580003
25.035500	0.000789	0.000111	0.000066	0.000696	6131.434347	42645.295083	3904.808264	22112.357018
25.536000	-0.001551	0.001241	-0.000083	0.001377	6109.379649	42686.367875	3902.938591	22082.354628
26.039000	0.000963	0.000729	0.001599	0.000931	6130.994710	42680.346207	3907.742936	22102.024982
26.536500	-0.000069	-0.000373	-0.001263	-0.000055	6130.662241	42669.735352	3903.507110	22145.577433
27.037000	0.000384	0.000003	-0.001155	0.000719	6128.298886	42633.307887	3902.006568	22111.342756
27.536500	0.000463	0.000991	-0.000955	-0.000834	6140.274408	42866.058217	3905.956887	22180.031455
28.037500	0.000320	0.000920	0.007917	0.000242	6131.326982	42760.810451	3923.723787	22132.418328
28.537000	0.000969	0.000090	0.004673	-0.000504	6141.567279	42753.153603	3917.996887	22165.412929
29.035000	0.000258	-0.000608	0.005693	-0.001679	6144.981205	42796.856651	3923.025958	22217.487969
29.535500	0.003045	0.000785	0.003443	-0.000347	6155.705260	42802.393929	3914.830568	22158.457505
30.035000	0.001813	0.000942	-0.003410	-0.000459	6147.443624	42827.117703	3899.587293	22163.426464
30.539000	0.001875	0.000543	0.004046	-0.000562	6148.662382	42800.019491	3916.697161	22167.987285
31.036000	-0.002569	-0.000098	-0.002438	0.001955	6097.788228	42511.485149	3896.355614	22056.882238
31.536500	-0.000038	0.000365	0.000767	-0.000803	6136.368077	42805.677235	3909.783835	22178.643262
32.037000	-0.000704	0.000004	0.001612	0.000970	6118.518483	42610.514828	3907.682912	22100.271971
32.536500	0.001657	0.000035	-0.005874	-0.000390	6145.795802	42737.721345	3893.921243	22160.390514
33.034500	0.003172	0.000972	0.000348	-0.000295	6156.255918	42814.802069	3907.684254	22156.164039
33.535000	0.001186	0.000405	-0.002208	-0.001000	6146.813271	42827.567266	3903.507265	22187.402801
34.035000	0.000861	0.000110	-0.001339	0.000134	6136.093465	42696.645256	3902.908535	22137.208880
34.538000	0.001608	0.000134	0.002591	0.000882	6136.084472	42630.455798	3910.100069	22104.183660
35.091500	0.000530	0.001036	-0.000444	0.001556	6123.254184	42651.307797	3901.723694	22074.459035
35.536000	-0.002020	0.000221	0.002103	0.000803	6110.144343	42645.568589	3909.171662	22107.647746
36.090000	-0.001089	0.000557	0.004501	0.001561	6111.407026	42607.113546	3912.895448	22074.237825
36.537000	-0.002444	0.000163	-0.001199	0.000891	6106.422256	42632.286499	3901.520830	22103.785693
37.102500	0.001082	0.000794	-0.003930	0.001218	6129.765873	42660.030363	3894.668665	22089.350782
37.564500	-0.000496	0.000390	0.000245	0.000658	6122.317301	42674.323825	3905.299545	22114.070139
38.038000	0.000582	0.000893	-0.003856	0.002613	6115.912978	42541.744388	3891.723768	22027.925478
38.607000	-0.001201	0.000056	-0.003877	0.000828	6115.924836	42628.193056	3895.658836	22106.533079
39.035500	0.001167	0.001324	-0.000750	0.001853	6125.741851	42650.481564	3900.368970	22061.386143
39.580500	-0.000541	-0.000040	0.004055	0.001196	6118.058194	42585.901980	3912.712879	22090.336915
40.036000	0.001577	-0.000103	0.000210	0.000624	6137.746326	42632.351081	3905.294295	22115.538374
40.536500	0.000616	0.000529	-0.003080	0.001085	6127.325391	42648.007627	3896.868103	22095.227964
41.036500	0.000397	0.000408	-0.000200	0.001209	6124.812379	42625.590614	3903.052787	22089.736567
41.594500	0.001289	0.001137	0.003488	0.001533	6128.976918	42662.663805	3910.659655	22075.482561
42.038500	-0.004106	0.000133	-0.000695	0.000496	6097.219438	42665.631014	3903.543706	22121.220605
42.537500	-0.000304	0.000183	-0.003248	0.000742	6123.109516	42647.752705	3897.260216	22110.363665
43.035000	-0.000407	-0.000521	-0.001900	0.000563	6123.661853	42599.783928	3900.682055	22118.243074
43.535000	0.001316	0.000999	0.000737	0.001700	6127.948284	42634.759320	3904.058208	22068.108473
44.038500	0.001720	0.000317	-0.000176	-0.002140	6159.167064	42924.161515	3910.679124	22237.995408
44.537500	0.002993	0.000246	0.005566	-0.000420	6155.867172	42759.802650	3919.848520	22161.725465
45.036000	0.001539	0.000467	0.005588	-0.000559	6146.164982	42792.759985	3920.215844	22167.859537
45.536500	0.003537	0.000187	-0.001225	-0.001006	6164.216706	42808.080145	3905.735398	22187.655508
46.039500	-0.003792	-0.000064	0.001521	0.004685	6069.255490	42266.774413	3899.108544	21937.088326
46.537000	0.001510	-0.000608	-0.000873	-0.001705	6154.399346	42799.240427	3908.110932	22218.639937
47.037000	0.000093	0.000937	0.001286	-0.000447	6134.716995	42825.586289	3910.154018	22162.917287
47.535000	-0.001075	0.000196	0.001493	0.001111	6114.782315	42615.134741	3907.093564	22094.050218
48.035000	-0.001238	0.000003	0.000837	0.003620	6095.370574	42369.426365	3899.963793	21983.753761
48.538000	0.002194	0.001242	0.000138	-0.000811	6152.846537	42886.995910	3908.376455	22179.011809
49.036000	-0.000442	0.000323	0.003208	-0.001690	6139.918420	42883.320041	3917.359684	22217.994046
49.535500	0.001939	0.000615	0.002173	-0.001062	6152.818670	42852.498720	3913.566905	22190.135355
50.036500	-0.000313	0.000238	0.000560	0.003108	6105.796252	42437.220517	3900.491671	22006.214875
50.536500	0.001269	0.000258	-0.000459	0.000681	6135.069524	42660.081597	3903.658729	22113.034010
51.036500	0.022028	-0.006070	0.003255	0.030938	6066.140929	39454.175381	3845.642490	20822.822613
51.537000	0.027799	-0.017209	0.000470	0.170005	5242.287947	28788.851899	3589.135046	15923.194297
52.034500	0.011494	-0.029019	-0.027663	-0.093666	7002.487865	49074.252645	4067.269085	26764.944958
52.534500	0.014043	-0.081988	-0.019387	-0.273770	9121.803878	64751.143734	4687.522313	39008.397259
53.037500	0.015683	-0.092600	-0.020761	-0.288757	9362.726308	65376.796910	4743.646501	40274.802066
53.535000	0.009620	-0.083019	-0.020196	-0.276489	9097.648283	64991.827439	4695.296206	39234.970866
54.035500	0.004256	-0.050448	-0.022201	-0.228569	8387.694382	62838.291064	4503.057715	35443.318618
54.536000	-0.001290	-0.038691	-0.018017	-0.212068	8118.492876	62188.132505	4458.934383	34231.606138
55.036500	-0.002619	-0.038202	-0.024191	-0.214842	8135.714884	62634.663649	4446.973877	34432.115960
55.536500	-0.005571	-0.056355	-0.030444	-0.244965	8470.581804	64301.714797	4532.963111	36693.849455
56.037000	-0.003915	-0.037857	-0.024387	-0.210360	8067.172119	62069.072922	4430.671008	34108.807329
56.537500	-0.002559	-0.024728	-0.021175	-0.177507	7709.116232	59445.412149	4331.339364	31838.044076
57.037500	-0.003845	-0.018849	-0.021982	-0.145188	7354.663406	56110.152122	4228.067676	29765.683170
57.537500	-0.000375	-0.011431	-0.017848	-0.112565	7068.634073	53114.203745	4145.336784	27824.523163
58.035500	0.000465	-0.009153	-0.018912	-0.105610	7011.031179	52577.248721	4123.012350	27429.239558
58.535500	0.002376	-0.006647	-0.018970	-0.101465	6990.185655	52390.417234	4111.474167	27196.605727
59.036000	-0.000934	-0.002835	-0.016267	-0.084952	6809.878057	50966.326614	4074.342963	26291.693602
59.536000	0.003421	-0.000440	-0.010266	-0.066673	6688.064631	49242.927136	4042.310944	25329.322480
60.077000	0.001403	-0.000452	-0.015481	-0.053402	6558.714440	47849.246433	3995.749780	24655.502310
60.537000	0.001247	0.001322	-0.008563	-0.036623	6420.663668	46325.379095	3971.716293	23832.592317
61.061500	0.001726	0.002437	-0.016781	-0.027955	6355.816754	45578.017934	3931.803397	23419.776764
61.535000	0.000543	0.001252	-0.014906	-0.014609	6243.729629	44176.252279	3905.561091	22800.038460
62.038000	-0.003069	0.006353	-0.014696	0.022791	5946.832067	41223.430510	3825.095600	21161.441534
62.535000	0.000253	0.007889	-0.014134	-0.020181	6284.043962	45350.895648	3919.987745	23056.476354
63.035500	-0.001183	0.007814	-0.015081	-0.016307	6243.519940	44967.318118	3909.006221	22877.840382
63.536000	-0.002477	0.009541	-0.019976	-0.018629	6251.320843	45360.642349	3903.192459	22984.709573
64.036000	-0.007092	0.008164	-0.017694	-0.014910	6188.557336	44866.222958	3899.963414	22813.816381
64.536500	-0.001929	0.008212	-0.013817	-0.021954	6280.903462	45555.815815	3924.786462	23138.735109
65.036500	0.000211	0.010091	-0.011837	-0.022600	6302.350633	45804.166879	3930.850563	23168.811378
65.537000	-0.000049	0.010304	-0.012575	-0.023855	6310.042590	45949.151948	3932.047798	23227.359892
66.037500	-0.002863	0.011798	-0.010179	-0.018087	6244.274407	45528.322972	3924.261287	22959.717141
66.537000	-0.001750	0.011822	-0.012948	-0.025749	6311.531860	46288.111719	3935.581665	23316.010207
67.035000	-0.000105	0.012773	-0.010918	-0.026690	6331.613579	46477.116062	3942.517522	23360.191159
67.535500	0.000336	0.012933	-0.005018	-0.028975	6352.910104	46722.740775	3961.874303	23467.907571
68.035500	-0.002469	0.013564	-0.014017	-0.023628	6289.615358	46250.281784	3928.185011	23216.732944
68.535500	0.003143	0.015760	-0.010354	-0.029874	6382.081151	47099.658125	3951.335534	23510.447355
69.036500	-0.000181	0.016669	-0.010999	-0.031246	6366.694470	47332.070329	3953.056894	23575.549835
69.536500	0.001755	0.017582	-0.008850	-0.030936	6379.508799	47393.717348	3957.416539	23560.822900
70.036500	0.000499	0.016775	-0.008439	-0.031414	6373.364117	47360.029124	3959.532353	23583.504025
70.537000	0.000197	0.017628	-0.005281	-0.031605	6372.491959	47466.849099	3967.540353	23592.603086
71.037500	0.001057	0.017877	-0.010317	-0.031609	6379.311610	47492.822357	3955.533043	23592.807302
71.535000	0.001227	0.016808	-0.006065	-0.032525	6387.906704	47477.100131	3967.867329	23636.414529
72.035000	0.000219	0.017372	-0.008545	-0.032153	6376.992031	47496.841972	3961.043119	23618.687593
72.535500	-0.000191	0.018016	-0.011844	-0.031875	6371.562190	47534.293499	3952.544871	23605.442549
73.036000	0.002435	0.018136	-0.009450	-0.031052	6385.803880	47462.218439	3956.267090	23566.331809
73.536000	0.000152	0.017622	-0.009487	-0.031094	6368.115951	47413.945539	3956.278881	23568.313973
74.036000	0.000473	0.018534	-0.004093	-0.029757	6360.119193	47370.401831	3965.955585	23504.892100
74.537000	0.000666	0.019535	-0.009456	-0.028644	6352.903187	47358.957711	3950.550397	23452.261133
75.036500	0.002481	0.019588	-0.008704	-0.028039	6362.401023	47302.618903	3950.898718	23423.717385
75.539500	0.002002	0.019589	-0.007155	-0.027018	6350.629954	47198.631334	3952.146372	23375.608987
76.034500	0.001533	0.018426	-0.006051	-0.026190	6340.493217	46996.381047	3952.801218	23336.731760
76.540000	0.000945	0.019398	-0.004286	-0.025259	6328.650307	47000.622093	3954.775706	23293.053486
77.038000	0.000482	0.018888	-0.003118	-0.024954	6322.681717	46918.089530	3956.824799	23278.765578
77.535000	0.001612	0.018415	-0.008221	-0.024438	6327.448892	46818.092461	3943.560367	23254.600125
78.036000	-0.002201	0.018125	-0.007379	-0.018018	6248.775072	46145.922471	3930.562421	22956.509466
78.536000	0.000829	0.017833	-0.000874	-0.022323	6304.983659	46546.675472	3955.902915	23155.907331
79.036500	0.002070	0.017800	-0.004942	-0.021224	6306.085220	46433.250854	3943.712813	23104.846035
79.537000	0.003780	0.017531	0.000329	-0.020883	6316.680171	46372.251978	3955.342728	23089.013789
80.037000	-0.000434	0.015612	-0.005030	-0.015432	6242.560872	45642.015256	3930.013285	22837.696010
80.540000	0.003153	0.016784	-0.003176	-0.018739	6295.262398	46084.320350	3942.026913	22989.781587
81.035000	0.003467	0.015588	-0.003573	-0.018048	6292.359206	45897.460701	3939.484198	22957.929210
81.535500	0.004310	0.014957	-0.004671	-0.017338	6293.379244	45765.114706	3935.270990	22925.227024
82.035000	0.002693	0.016016	0.000329	-0.011176	6234.005502	45265.263782	3932.569668	22643.671027
82.559000	0.004077	0.015009	-0.001629	-0.014215	6267.636749	45463.632462	3935.081501	22782.044022
83.036000	0.004433	0.015367	-0.002274	-0.012791	6259.486330	45359.535907	3930.280908	22717.092065
83.536000	0.004764	0.014874	-0.003566	-0.011291	6250.583965	45165.422135	3923.839343	22648.891456
84.036000	0.003483	0.015006	-0.010345	-0.004970	6193.300547	44568.503595	3894.162960	22364.146160
84.729000	0.006870	0.014910	0.000004	-0.007455	6237.459301	44797.938959	3923.227084	22475.583878
85.037500	0.008922	0.014398	-0.000088	-0.007009	6249.644661	44705.771537	3921.991463	22455.535590
85.537500	0.005575	0.014217	0.004424	-0.005438	6212.481007	44537.792504	3928.766302	22385.089556
86.037500	0.003038	0.014434	-0.003060	0.000190	6151.691614	44023.156440	3898.914407	22134.711344
86.535500	0.006768	0.014663	-0.001219	-0.002958	6202.819876	44343.532283	3910.166032	22274.342043
87.036000	0.006670	0.013803	0.001340	-0.002022	6195.078065	44172.885769	3913.855426	22232.737975
87.536000	0.008720	0.014360	0.004380	-0.000488	6198.943190	44080.261184	3917.290106	22164.713734
88.036000	0.009145	0.015031	-0.005323	0.004948	6161.654483	43631.732821	3883.298936	21925.576443
88.536500	0.010410	0.013733	0.005495	0.000880	6201.350073	43891.846225	3916.711293	22104.239369
89.039500	0.012358	0.015092	0.010255	0.003106	6199.273386	43810.333366	3922.515656	22006.295430
89.536500	0.011904	0.015012	0.002987	0.003773	6190.889118	43740.125738	3904.457465	21977.026649
90.037500	0.009430	0.014060	-0.002549	0.008398	6138.331075	43220.034905	3881.809497	21775.398487
90.535000	0.012105	0.014298	0.004372	0.005625	6178.589575	43500.005160	3903.404929	21896.020030
91.037500	0.014205	0.014944	0.007237	0.006558	6187.281016	43473.171648	3907.765711	21855.341245
91.535500	0.013532	0.014483	0.005763	0.007167	6177.735402	43373.527847	3903.063304	21828.842344
92.036000	0.013609	0.015011	0.008091	0.008932	6165.208877	43258.705465	3904.334249	21752.262152
92.535500	0.014975	0.014317	0.000196	0.007935	6182.756339	43286.767770	3888.903137	21795.469909
93.036500	0.016699	0.014318	0.006312	0.008901	6188.409407	43197.383443	3900.399783	21753.596378
93.536500	0.012933	0.013888	0.004860	0.009351	6157.107373	43115.923006	3896.135933	21734.086444
94.036000	0.015836	0.014444	0.010719	0.010894	6167.169454	43024.800300	3905.834790	21667.445730
94.537000	0.015914	0.015156	0.006413	0.010395	6171.443928	43136.604735	3897.274709	21688.961833
95.037000	0.014943	0.013421	0.001986	0.009575	6170.324382	43052.085096	3889.234175	21724.392181
95.535000	0.016649	0.014474	0.009130	0.011364	6169.720363	42984.251155	3901.197452	21647.218645
96.035500	0.016940	0.014695	0.007112	0.011666	6169.634491	42976.837418	3895.997310	21634.202547
96.535500	0.017083	0.014519	0.012019	0.011792	6169.758457	42949.002367	3906.745398	21628.781417
