sample name	sample
index	1328
start time	 05-03-2021  11:15:39 AM
880	0.162779
Peak Time (s)	92.538
Peak Height 	0.1628
calc peak height	90,93
Baseline Time (s)	10.536
Baseline Value 	-0.004474
subtract baseline	10,4
Abs	0.133226
Peak Time (s)	91.535
Peak Height 	0.1332
calc peak height	90,93
Baseline Time (s)	11.039
Baseline Value 	-1.3559E-4
subtract baseline	10,3
PK_550	0.074019
Peak Time (s)	92.035
Peak Height 	0.07402
calc peak height	90,93
Baseline Time (s)	10.536
Baseline Value 	2.2183E-4
subtract baseline	10,2
PK_880	0.123064
Peak Time (s)	92.538
Peak Height 	0.1231
calc peak height	90,93
Baseline Time (s)	9.037
Baseline Value 	1.1877E-4
subtract baseline	10,1


Time (s)	A880-A510	A880-A775	A880-A975	A880	I510	I775	I975	I880	
0.035000	-0.003043	-0.000953	0.000610	0.004102	6073.985558	42477.095040	3869.260556	22021.505308
0.535000	-0.001874	-0.000616	-0.001792	0.003861	6084.308763	42529.715810	3864.316985	22032.114086
1.035000	-0.003808	-0.000373	0.000553	0.003901	6069.870131	42548.168231	3869.591818	22030.365137
1.536000	-0.001370	-0.001603	-0.005091	0.003803	6088.427698	42445.217815	3856.948355	22034.672264
2.036000	-0.000237	-0.000646	-0.003893	0.001334	6114.989188	42757.789775	3865.291457	22143.719533
2.536500	0.000505	-0.000087	0.004378	0.000494	6126.719150	42886.043626	3886.323756	22180.939074
3.036000	0.001611	-0.000058	0.002877	-0.001642	6150.892432	43085.421993	3887.804175	22275.922987
3.544500	-0.004506	-0.000870	-0.002022	0.004738	6058.683958	42426.853560	3861.792603	21993.540523
4.037500	0.000655	0.000072	0.002524	0.000776	6125.739232	42874.731436	3881.353298	22168.434406
4.534500	0.001662	0.000460	0.001609	0.000726	6133.594188	42914.962651	3879.346810	22170.636190
5.034500	-0.001583	-0.000299	-0.000384	0.000192	6113.474473	42894.265762	3875.969967	22194.316921
5.534500	0.002240	-0.000198	0.002376	0.000313	6140.980257	42892.424641	3882.083437	22188.951530
6.035000	0.000401	-0.000033	0.004601	0.000248	6127.775206	42913.588801	3887.419568	22191.865562
6.536000	-0.002423	-0.000345	-0.001047	0.000468	6105.232155	42864.759257	3873.806231	22182.088606
7.036500	0.002137	0.000025	0.003125	0.000530	6138.600499	42893.066504	3883.322295	22179.355357
7.536500	-0.000345	-0.000121	-0.001881	0.000496	6120.398376	42882.694750	3871.821672	22180.851180
8.036000	0.002532	0.000456	0.005652	0.000365	6142.775019	42947.827133	3889.600450	22186.650693
8.537000	-0.000898	-0.000356	-0.000036	-0.000151	6121.089551	42920.596041	3877.567887	22209.575260
9.037000	0.000000	0.000664	0.002491	0.000412	6123.575982	42962.596434	3882.120619	22184.566979
9.534000	-0.001359	-0.000209	-0.002253	-0.000080	6117.145225	42927.599070	3872.290575	22206.419650
10.041000	-0.002922	-0.000186	0.000645	0.003602	6078.535879	42592.520851	3870.489722	22043.548965
10.535500	0.001133	0.000000	-0.001032	0.000000	6135.066609	42939.428592	3874.918343	22202.861926
11.038500	0.001031	0.000017	0.000000	-0.000315	6136.648470	42969.903384	3878.030180	22216.838197
11.536500	0.001583	0.000284	0.002030	0.000228	6136.719173	42944.575743	3881.479148	22192.757392
12.036500	-0.001740	0.000072	0.003683	0.004106	6083.500391	42570.088018	3876.325724	22021.354036
12.539500	0.000554	-0.000757	0.006043	-0.000678	6135.798941	42932.114776	3892.963607	22232.992789
13.037000	0.000703	-0.000277	0.003188	-0.001480	6142.896811	43050.242017	3888.152651	22268.706525
13.537000	0.001574	0.000375	0.003480	-0.000265	6140.333056	42998.408038	3885.999794	22214.652238
14.037500	-0.001980	0.000641	-0.000510	0.004479	6079.004667	42587.885924	3865.831659	22004.926583
14.538000	-0.001276	0.000481	0.004468	0.002351	6099.804241	42767.840158	3882.209803	22098.740510
15.035000	0.001715	0.000353	-0.000887	-0.000614	6143.985921	43028.407943	3876.671032	22230.136934
15.535500	-0.004956	-0.000986	0.000704	0.004815	6054.855890	42409.381694	3867.843105	21990.176367
16.041500	-0.001797	-0.000042	0.001848	0.004159	6082.687918	42554.862469	3871.973378	22019.020588
16.536500	-0.000440	-0.000882	0.001716	-0.001186	6132.182736	42967.402456	3884.034549	22255.626744
17.036500	0.002800	0.000218	0.004014	-0.002962	6169.726737	43232.970392	3893.562646	22334.865197
17.536500	-0.003410	-0.001217	-0.002965	0.001657	6089.213441	42675.930624	3866.673447	22129.417334
18.037000	-0.001934	0.001070	0.000380	0.003132	6089.223718	42750.223583	3870.960433	22064.271388
18.534500	0.000494	0.000144	0.004531	0.001174	6121.587637	42844.815211	3885.094677	22150.803307
19.035000	0.001385	-0.000510	-0.002113	0.000343	6134.379485	42860.981160	3871.639103	22187.612310
19.535000	-0.000977	-0.000918	0.002183	0.000051	6119.006886	42850.410057	3882.245108	22200.611024
20.035000	-0.002635	-0.000060	-0.001420	0.002043	6092.065840	42746.481869	3869.327053	22112.333074
20.536000	-0.000648	-0.000566	0.003356	0.000520	6117.974298	42839.661341	3883.880830	22179.783889
21.036000	0.000384	-0.000614	0.003177	0.000480	6125.926243	42838.924208	3883.558657	22181.556630
21.536500	0.000867	0.000783	0.005009	0.001720	6120.306032	42853.335225	3884.935914	22126.632294
22.039500	0.001434	0.000456	0.004468	0.003061	6114.570748	42700.547299	3880.559743	22067.378720
22.537000	0.001629	0.000283	-0.000724	0.001417	6128.209655	42835.239166	3872.363303	22140.006048
23.036500	0.002376	0.000763	0.002098	0.001381	6134.034071	42882.550205	3878.959947	22141.600289
23.537000	0.001528	0.001463	0.005097	0.002146	6122.047778	42876.659184	3884.149434	22107.790837
24.035000	-0.002156	-0.000736	0.001403	0.002030	6095.689209	42685.829157	3875.854342	22112.918170
24.536000	0.001366	0.000327	0.002790	0.000912	6130.007381	42885.620851	3881.653678	22162.394368
25.035500	-0.000646	0.000068	0.005465	0.001020	6114.281363	42851.952109	3887.631142	22157.597500
25.536000	0.002597	0.000882	0.002467	0.001128	6137.571371	42916.785186	3880.402719	22152.826623
26.036500	-0.003146	-0.000008	0.002111	0.002521	6084.810258	42707.469669	3876.355848	22091.214006
26.542000	0.001686	-0.000023	0.004025	0.000737	6133.695722	42869.585787	3884.934106	22170.160702
27.042500	0.001854	0.000009	0.003281	-0.001361	6150.614658	43065.683046	3888.093591	22263.422742
27.537000	0.001202	0.000529	0.004449	-0.001371	6145.810724	43114.570360	3890.851477	22263.866794
28.037500	-0.001702	0.000449	0.003051	-0.000103	6114.780832	42990.201998	3884.622468	22207.442817
28.537500	0.000604	-0.000011	0.003202	-0.000778	6136.915671	43010.031529	3886.547277	22237.431965
29.035000	-0.000174	0.000386	0.004902	-0.000149	6126.454271	42988.675217	3889.050401	22209.503154
29.535000	-0.002358	0.000286	-0.006225	0.004936	6072.899560	42513.985180	3851.825744	21984.848485
30.035500	0.001155	0.001383	0.004881	0.000330	6132.769709	43036.426500	3887.880742	22188.207304
30.541000	-0.002600	0.000163	0.000919	0.001523	6096.152907	42814.485550	3875.908066	22135.332451
31.036500	0.000412	0.000592	0.003373	0.002264	6112.905980	42785.965350	3879.869127	22102.566796
31.537000	-0.000902	0.000306	0.006867	0.004698	6085.296932	42537.444454	3882.328888	21995.300241
32.036500	0.000614	0.000995	0.003376	0.000179	6129.862417	43014.550988	3884.720742	22194.892576
32.534500	0.001654	0.001343	0.001212	0.000488	6135.308661	43018.135780	3878.978056	22181.180049
33.035000	0.001426	-0.000318	0.006199	-0.000394	6140.190414	42946.418108	3892.662779	22220.385457
33.537500	-0.000886	0.000626	0.003025	0.003233	6096.183689	42700.310889	3876.821980	22059.804206
34.035500	0.000025	0.001188	0.006842	0.002257	6110.100617	42841.197369	3887.959031	22102.882161
34.535000	0.001054	0.001158	0.003529	0.002230	6117.914860	42840.972715	3880.312261	22104.088755
35.035500	0.000817	0.000609	0.002925	0.001929	6118.387057	42818.241656	3879.609009	22117.383641
35.539000	-0.000062	0.000944	0.000033	0.002292	6109.197134	42815.644835	3872.094252	22101.331294
36.039000	0.001185	0.000743	0.001897	0.001949	6120.965091	42828.622804	3877.182539	22116.475840
36.536500	-0.000304	-0.000570	-0.000103	0.000975	6117.150907	42797.568808	3874.812479	22159.607939
37.034500	-0.000190	0.001361	0.002010	0.002203	6108.910565	42862.065976	3876.856769	22105.278835
37.537500	-0.000116	0.000153	0.001171	0.001644	6113.580701	42802.440346	3876.208515	22129.962997
38.037500	-0.001385	0.000405	0.001164	0.003232	6092.520843	42680.250278	3872.532652	22059.853056
38.545000	0.002530	0.000899	0.004305	0.002259	6128.644745	42814.521512	3882.044517	22102.771675
39.035500	0.000456	0.000262	0.002142	0.001509	6118.829312	42824.904674	3878.767084	22135.972477
39.535000	-0.001807	-0.000072	0.004086	0.001303	6103.616104	42813.123071	3883.758664	22145.075266
40.036000	-0.000725	-0.000585	0.001095	0.002622	6101.869959	42645.593822	3873.780307	22086.772180
40.536500	0.000570	-0.000356	0.000003	0.000741	6125.363827	42838.696570	3875.597392	22169.979499
41.036500	0.000872	0.000584	0.002364	0.001708	6120.429701	42836.161475	3878.821480	22127.157351
41.540000	-0.002299	0.000653	0.002715	0.001894	6095.635947	42825.436764	3879.201956	22118.919439
42.037000	-0.001159	0.000475	0.001304	0.002005	6103.219304	42798.908198	3875.684080	22114.015782
42.537500	-0.002619	-0.000162	0.004696	0.001859	6093.540040	42753.969436	3883.882259	22120.452435
43.034500	0.001481	0.000067	0.002837	0.001196	6128.757495	42835.731394	3881.104387	22149.833779
43.534500	-0.000141	-0.000104	0.001119	0.000699	6120.405095	42865.604771	3878.275338	22171.842570
44.035500	-0.003290	0.000013	0.002497	0.005062	6065.183443	42477.642053	3871.388832	21979.331518
44.535500	0.000304	0.000501	0.000800	0.000093	6128.206986	42977.015947	3878.940341	22198.748428
45.036000	0.001136	0.000522	0.006347	-0.000168	6136.339815	43002.948629	3892.480726	22210.344484
45.578000	0.000427	0.000064	0.007864	-0.000767	6135.523439	43016.002238	3897.458570	22236.973240
46.036500	-0.002113	0.000917	0.003550	0.004341	6079.041921	42625.668196	3875.475071	22011.000944
46.575000	-0.002032	-0.000612	0.003158	-0.000850	6117.867626	42961.306008	3886.613327	22240.662416
47.034000	0.001141	0.000896	0.004375	0.000806	6129.126675	42947.740999	3885.589796	22167.105023
47.537500	0.001070	0.000830	0.007514	0.002865	6113.326396	42752.708562	3888.109066	22076.023077
48.035000	-0.000038	0.000905	0.002502	0.004826	6090.697424	42580.354321	3871.944217	21989.687644
48.535500	0.000758	0.001210	0.003185	0.000482	6128.690893	43006.481729	3883.572790	22181.471982
49.035500	0.001375	0.000034	0.002326	0.000163	6135.649579	42927.574314	3882.316718	22195.623865
49.536000	0.002564	0.001185	0.002735	0.001964	6131.094071	42867.840743	3879.087226	22115.829887
50.036500	-0.000300	0.000223	0.004622	0.005892	6080.962131	42421.393517	3874.370016	21942.938079
50.536500	0.004540	0.001367	0.006363	0.014455	6053.809815	41753.517692	3858.767162	21571.393143
51.036500	0.035918	-0.018484	0.052489	0.508054	3988.098662	14874.985163	3224.915986	8901.052785
51.537000	0.012915	-0.018684	0.000343	-0.050557	6634.375530	45981.497871	4002.163097	24584.333289
52.037000	0.001937	-0.031002	-0.002831	-0.137468	7347.826017	54037.452907	4242.246090	29385.574279
52.534500	-0.008863	-0.039683	-0.015478	-0.203007	7945.263977	61177.611812	4419.563031	33697.653725
53.035500	-0.004196	-0.059730	-0.013741	-0.242569	8486.138005	63851.995801	4573.832904	36633.682580
53.535500	0.002046	-0.061994	-0.006595	-0.248294	8642.208287	64338.938704	4624.990455	37081.155713
54.036000	0.005946	-0.031612	-0.003167	-0.166881	7703.618306	57537.769306	4337.047708	31240.551842
54.536000	0.011006	-0.028396	0.000921	-0.182529	7938.195407	59959.156977	4405.105117	32279.766271
55.039000	0.004634	-0.020583	0.001037	-0.129394	7293.091828	54313.859610	4229.049360	28897.939719
55.536500	0.003192	-0.012961	0.002236	-0.118800	7173.022027	53963.780862	4200.033227	28271.739016
56.037000	0.006210	-0.009068	0.002141	-0.108352	7100.538889	53200.176811	4168.210975	27668.966313
56.537500	0.006874	-0.007161	0.001504	-0.117310	7194.644697	54472.175988	4193.261985	28184.888119
57.037500	0.011461	-0.005268	0.000670	-0.121042	7277.690176	55143.286357	4202.101100	28402.986208
57.534500	0.012004	-0.002404	0.003797	-0.108297	7156.417674	53970.114380	4172.993701	27665.838131
58.035000	0.019684	0.000374	0.009934	-0.093338	7085.683694	52560.187765	4146.858447	26827.790251
58.535000	0.023405	0.001784	0.020218	-0.068221	6884.472764	49926.856536	4104.091783	25483.945630
59.035500	0.029690	0.006328	0.020456	-0.047895	6757.722396	48251.860256	4048.452128	24451.908649
59.539000	0.032398	0.013936	0.027635	-0.019012	6532.089263	46088.073820	3991.160537	23066.057457
60.035500	0.034913	0.013517	0.030338	-0.000449	6400.336882	44244.961854	3951.070614	22222.834441
60.537000	0.035438	0.011429	0.034799	0.055688	5979.653608	39068.886333	3830.147893	19881.439528
61.037000	0.039826	0.014865	0.036129	0.048009	6066.411588	40004.143858	3850.206858	20184.129967
61.540500	0.049652	0.016228	0.042008	0.024803	6316.628539	42158.450143	3917.880573	21132.088855
62.035000	0.046956	0.027666	0.041847	0.087899	5836.360006	37765.912465	3776.276781	18668.455475
62.538000	0.043236	0.029732	0.045773	0.089145	5802.979359	37831.699253	3781.868072	18623.324699
63.035000	0.046587	0.031377	0.049154	0.088224	5831.675195	38038.147209	3790.915233	18656.691275
63.538500	0.048374	0.033704	0.045459	0.084240	5870.890881	38551.155746	3791.524635	18801.766293
64.036000	0.047044	0.033311	0.047149	0.075942	5918.929731	39204.320186	3812.887612	19108.244211
64.536500	0.049049	0.035468	0.049164	0.073191	5952.177666	39615.909666	3823.258306	19211.172812
65.036500	0.053065	0.035733	0.053131	0.068047	6017.233330	40074.916076	3843.402702	19405.373827
65.542500	0.045912	0.034886	0.051880	0.063415	5999.187437	40399.589765	3850.983578	19582.210647
66.037500	0.048830	0.037202	0.050731	0.059750	6046.518362	40918.248997	3856.664208	19723.453483
66.534500	0.053152	0.039041	0.057981	0.059544	6079.496379	41097.254134	3873.694806	19731.429393
67.035000	0.051794	0.039009	0.056312	0.058355	6078.257018	41198.959662	3872.589458	19777.539955
67.535000	0.054904	0.039775	0.060543	0.058887	6097.185198	41219.528944	3881.139847	19756.908228
68.035500	0.052981	0.040399	0.055418	0.064045	6045.474213	40822.437786	3857.552042	19558.025521
68.537500	0.057810	0.041858	0.065173	0.058183	6123.860821	41465.620232	3893.594715	19784.215451
69.039000	0.058856	0.042104	0.059149	0.057992	6133.063146	41504.369052	3879.981602	19791.646203
69.536000	0.056367	0.043573	0.065135	0.058994	6107.180577	41545.860811	3891.603099	19752.764225
70.036500	0.058227	0.043784	0.064828	0.058113	6127.489625	41642.928025	3892.949784	19786.966893
70.537000	0.060374	0.043967	0.062516	0.057530	6147.835482	41711.146947	3888.898489	19809.626540
71.034000	0.061455	0.044945	0.063219	0.057966	6152.661354	41759.491807	3889.522161	19792.677672
71.543000	0.064454	0.046895	0.067831	0.060488	6156.238229	41708.436949	3894.424109	19694.927753
72.035000	0.061760	0.046435	0.066601	0.065975	6095.469539	41181.883709	3878.751230	19484.232507
72.535500	0.065204	0.047732	0.071071	0.061919	6151.134929	41655.512606	3898.687357	19639.714578
73.036000	0.066532	0.048488	0.071868	0.063771	6147.208291	41558.064512	3896.199417	19568.535361
73.536000	0.068836	0.050235	0.075417	0.065883	6148.647905	41525.715165	3899.590375	19487.753204
74.039000	0.065682	0.049243	0.069627	0.072800	6074.187095	40830.311945	3869.994826	19225.864912
74.536500	0.071757	0.051621	0.077126	0.071182	6130.910518	41180.011387	3891.139085	19286.727559
75.036500	0.076179	0.052716	0.081212	0.074018	6142.728773	41027.228844	3894.072794	19180.161849
75.537500	0.072580	0.052797	0.078507	0.076760	6095.732392	40794.856613	3881.349167	19077.777918
76.035000	0.071204	0.051853	0.077175	0.084626	6028.454188	40035.781304	3860.222862	18787.665246
76.535000	0.076181	0.053208	0.074907	0.083095	6075.677205	40282.673410	3858.548530	18843.693693
77.035500	0.077502	0.055619	0.087366	0.087938	6050.029722	40074.484146	3875.980863	18667.030437
77.535500	0.078982	0.055666	0.090997	0.091679	6033.673894	39760.384837	3875.726908	18531.932473
78.036000	0.076554	0.055483	0.088698	0.100763	5951.704976	38984.150153	3849.790406	18208.631900
78.539000	0.083734	0.056951	0.087997	0.098113	6021.561313	39327.048790	3854.184375	18302.253161
79.036500	0.083808	0.057197	0.092608	0.100657	6003.861971	39135.312091	3858.865367	18212.373057
79.536500	0.086642	0.059278	0.090642	0.105709	5988.047610	38888.887164	3843.064159	18035.418411
80.037000	0.081442	0.057753	0.086072	0.112479	5904.102501	38209.747544	3818.066582	17801.522521
80.536500	0.086444	0.058529	0.092833	0.109029	5963.135769	38554.115832	3840.545337	17920.264565
81.035000	0.088065	0.059283	0.095097	0.111711	5955.660715	38396.585495	3839.615949	17827.868213
81.535500	0.087654	0.059899	0.094476	0.114657	5932.132460	38207.085519	3831.708545	17727.029588
82.035000	0.091414	0.060775	0.096098	0.117475	5938.718211	38050.039372	3829.074770	17631.232205
82.535500	0.091656	0.061155	0.100031	0.119548	5925.937134	37913.585779	3833.176708	17561.136761
83.036500	0.091033	0.061753	0.102523	0.122308	5902.456854	37740.160821	3832.582936	17468.343740
83.536000	0.095954	0.063178	0.098675	0.126755	5905.742664	37499.289102	3814.433839	17320.081646
84.036500	0.097285	0.063171	0.109360	0.128263	5904.516297	37379.072778	3834.535787	17270.143654
84.536500	0.100518	0.065007	0.105632	0.131878	5901.872204	37238.532370	3818.417897	17151.136088
85.037000	0.100250	0.064592	0.110176	0.133361	5889.790553	37089.111210	3825.103484	17102.587068
85.537000	0.097702	0.065371	0.110532	0.135626	5856.842180	36972.640427	3820.925892	17028.763252
86.035000	0.096915	0.065140	0.107239	0.142599	5804.480832	36413.624076	3798.785748	16803.948912
86.535500	0.102677	0.066945	0.108780	0.139542	5864.057791	36789.889401	3808.636603	16902.054952
87.035500	0.103881	0.068265	0.117531	0.141959	5855.801145	36704.643103	3822.382710	16824.445551
87.536000	0.104560	0.067914	0.123227	0.143982	5846.664929	36520.866881	3830.443385	16759.792988
88.035500	0.109027	0.067867	0.110240	0.144919	5870.705501	36444.921493	3800.237832	16729.931558
88.536000	0.107462	0.068529	0.119758	0.146803	5847.210892	36350.994524	3816.678050	16670.129343
89.036000	0.110354	0.069207	0.126328	0.149209	5850.515033	36218.557873	3825.768710	16594.138846
89.536500	0.113157	0.069965	0.121966	0.151935	5851.037083	36068.263202	3810.349029	16508.536632
90.037000	0.112646	0.070800	0.125725	0.153375	5837.811428	36022.238415	3815.365327	16463.518383
90.537500	0.114687	0.071087	0.125559	0.155112	5839.868697	35912.185103	3811.247691	16409.451135
91.035000	0.119340	0.071703	0.125548	0.157286	5856.695932	35794.262302	3806.538674	16342.057204
91.535500	0.117255	0.072589	0.133226	0.159326	5828.750017	35707.181861	3818.733821	16279.117939
92.035500	0.122937	0.074019	0.131131	0.162175	5847.917878	35600.501431	3808.031487	16191.731819
92.538500	0.123064	0.073876	0.131447	0.162779	5844.677424	35544.494870	3807.412773	16173.280454
93.036500	0.123298	0.075403	0.130702	0.166544	5820.832214	35377.116666	3797.760341	16058.803722
93.536500	0.123269	0.074038	0.130034	0.165635	5826.759350	35343.125236	3798.273569	16086.349667
94.037000	0.129137	0.076511	0.140928	0.169254	5841.954080	35257.911934	3813.901607	15977.046652
94.537000	0.129976	0.077610	0.138734	0.171164	5834.705119	35197.701480	3805.053453	15919.712522
95.037500	0.129719	0.078368	0.140582	0.175404	5804.479548	34940.457139	3799.933476	15793.341699
95.534500	0.131934	0.079191	0.138167	0.174653	5824.381668	35056.543288	3796.390899	15815.648320
96.035000	0.128165	0.078706	0.142117	0.181885	5751.236654	34491.701687	3789.438808	15602.550145
