sample name	sample
index	1288
start time	 04-29-2021  03:00:25 PM


Wavelength (nm)	Absorbance
494.344910	-0.247811
494.563924	-0.247811
494.782919	-0.247811
495.001897	0.156910
495.220856	0.110617
495.439797	0.119277
495.658719	0.151741
495.877624	0.202782
496.096510	0.169866
496.315378	0.096789
496.534227	0.128317
496.753059	0.102119
496.971872	0.156318
497.190667	0.043284
497.409444	0.030344
497.628203	0.022742
497.846943	0.022087
498.065665	0.021286
498.284369	0.020785
498.503055	0.019889
498.721723	0.019313
498.940372	0.019185
499.159003	0.018176
499.377616	0.017259
499.596210	0.018110
499.814787	0.017761
500.033345	0.017722
500.251885	0.017873
500.470406	0.018565
500.688910	0.018183
500.907395	0.017690
501.125862	0.017103
501.344311	0.017674
501.562742	0.017840
501.781154	0.018005
501.999548	0.018698
502.217924	0.019334
502.436282	0.019479
502.654621	0.020208
502.872942	0.020294
503.091245	0.020986
503.309530	0.020125
503.527797	0.020278
503.746045	0.019797
503.964275	0.019237
504.182487	0.018096
504.400681	0.018073
504.618856	0.017138
504.837013	0.016475
505.055152	0.016607
505.273273	0.017033
505.491376	0.016978
505.709460	0.017447
505.927526	0.017206
506.145574	0.017904
506.363604	0.017082
506.581615	0.018434
506.799608	0.018629
507.017583	0.018801
507.235540	0.019235
507.453478	0.018309
507.671399	0.017760
507.889301	0.017821
508.107185	0.017130
508.325050	0.017373
508.542898	0.016490
508.760727	0.016110
508.978538	0.016240
509.196330	0.016282
509.414105	0.016457
509.631861	0.017495
509.849599	0.018975
510.067319	0.018704
510.285021	0.018304
510.502704	0.019610
510.720369	0.020159
510.938016	0.019721
511.155645	0.019787
511.373255	0.020115
511.590848	0.019804
511.808422	0.018435
512.025977	0.019872
512.243515	0.020658
512.461034	0.019630
512.678536	0.020158
512.896018	0.019957
513.113483	0.019258
513.330930	0.018677
513.548358	0.019009
513.765768	0.019090
513.983160	0.017895
514.200533	0.018429
514.417889	0.018278
514.635226	0.017662
514.852545	0.017806
515.069845	0.018665
515.287128	0.019086
515.504392	0.018022
515.721638	0.018728
515.938866	0.019538
516.156075	0.018709
516.373267	0.019608
516.590440	0.019837
516.807594	0.019798
517.024731	0.019480
517.241850	0.019161
517.458950	0.019978
517.676032	0.019147
517.893095	0.018755
518.110141	0.019567
518.327168	0.019161
518.544177	0.019400
518.761168	0.019077
518.978141	0.019382
519.195095	0.020166
519.412031	0.019965
519.628949	0.019847
519.845849	0.020632
520.062731	0.020230
520.279594	0.020930
520.496439	0.020743
520.713266	0.021416
520.930074	0.021209
521.146865	0.021440
521.363637	0.021689
521.580391	0.022465
521.797127	0.022326
522.013844	0.022771
522.230543	0.022477
522.447224	0.023332
522.663887	0.023931
522.880532	0.024234
523.097158	0.024108
523.313766	0.024094
523.530356	0.024591
523.746928	0.024558
523.963481	0.024954
524.180017	0.024431
524.396534	0.024542
524.613032	0.024624
524.829513	0.024888
525.045975	0.025795
525.262420	0.026033
525.478845	0.025647
525.695253	0.025577
525.911643	0.025147
526.128014	0.025630
526.344367	0.025566
526.560702	0.025031
526.777018	0.024757
526.993316	0.024019
527.209597	0.023685
527.425858	0.024119
527.642102	0.024261
527.858328	0.024598
528.074535	0.025142
528.290724	0.024866
528.506894	0.025491
528.723047	0.025968
528.939181	0.025956
529.155297	0.026386
529.371395	0.026616
529.587475	0.026746
529.803536	0.026889
530.019579	0.026590
530.235604	0.026797
530.451611	0.027327
530.667600	0.027355
530.883570	0.028083
531.099522	0.028301
531.315456	0.027519
531.531372	0.027160
531.747269	0.026669
531.963148	0.027015
532.179009	0.027347
532.394852	0.027075
532.610676	0.027116
532.826482	0.026888
533.042271	0.026906
533.258040	0.027476
533.473792	0.028332
533.689525	0.028722
533.905240	0.029032
534.120937	0.028520
534.336616	0.028899
534.552277	0.029089
534.767919	0.028784
534.983543	0.028749
535.199149	0.028792
535.414736	0.028274
535.630306	0.027931
535.845857	0.027610
536.061390	0.028251
536.276904	0.027772
536.492401	0.028166
536.707879	0.028740
536.923339	0.029069
537.138781	0.029701
537.354204	0.030446
537.569610	0.031593
537.784997	0.031712
538.000366	0.031843
538.215716	0.032200
538.431049	0.032001
538.646363	0.032026
538.861659	0.031986
539.076937	0.031809
539.292196	0.031911
539.507438	0.031900
539.722661	0.032422
539.937866	0.032637
540.153052	0.032621
540.368221	0.032482
540.583371	0.032382
540.798503	0.032611
541.013617	0.032808
541.228712	0.032458
541.443789	0.032437
541.658848	0.032329
541.873889	0.032191
542.088912	0.032192
542.303916	0.032404
542.518902	0.032543
542.733870	0.032267
542.948820	0.032181
543.163752	0.032489
543.378665	0.032512
543.593560	0.032826
543.808437	0.032889
544.023295	0.033004
544.238136	0.033405
544.452958	0.033605
544.667762	0.034001
544.882548	0.033945
545.097315	0.034278
545.312064	0.034028
545.526795	0.033555
545.741508	0.033379
545.956203	0.033362
546.170879	0.033335
546.385537	0.033434
546.600177	0.033649
546.814799	0.034144
547.029402	0.034309
547.243988	0.034524
547.458555	0.034876
547.673103	0.035573
547.887634	0.035568
548.102146	0.035289
548.316640	0.035530
548.531116	0.035623
548.745574	0.035949
548.960013	0.035644
549.174435	0.035807
549.388838	0.035442
549.603222	0.035366
549.817589	0.035474
550.031937	0.035664
550.246267	0.035452
550.460579	0.035270
550.674873	0.035009
550.889148	0.035278
551.103405	0.035182
551.317644	0.035549
551.531865	0.035567
551.746068	0.035939
551.960252	0.036175
552.174418	0.036361
552.388566	0.036881
552.602696	0.036826
552.816807	0.036721
553.030900	0.036947
553.244975	0.036866
553.459032	0.036864
553.673070	0.037105
553.887091	0.037088
554.101093	0.037060
554.315077	0.036583
554.529042	0.036515
554.742990	0.036381
554.956919	0.036177
555.170830	0.036305
555.384722	0.036444
555.598597	0.036113
555.812453	0.035977
556.026291	0.035678
556.240111	0.035703
556.453913	0.035481
556.667696	0.035634
556.881461	0.035923
557.095208	0.035824
557.308937	0.035300
557.522647	0.035227
557.736339	0.035281
557.950013	0.035352
558.163669	0.035356
558.377307	0.035739
558.590926	0.036074
558.804527	0.035675
559.018110	0.035460
559.231675	0.035960
559.445221	0.036080
559.658749	0.035959
559.872259	0.035917
560.085751	0.035757
560.299225	0.035651
560.512680	0.035381
560.726117	0.035519
560.939536	0.035786
561.152937	0.035372
561.366319	0.035247
561.579683	0.035418
561.793029	0.035643
562.006357	0.036189
562.219667	0.036410
562.432958	0.036800
562.646231	0.037068
562.859486	0.037386
563.072723	0.037772
563.285941	0.037905
563.499141	0.038396
563.712323	0.038634
563.925487	0.038305
564.138632	0.038531
564.351760	0.038256
564.564869	0.038179
564.777960	0.038328
564.991032	0.038683
565.204087	0.038830
565.417123	0.038663
565.630141	0.038600
565.843140	0.038895
566.056122	0.038691
566.269085	0.038730
566.482030	0.038702
566.694957	0.038367
566.907866	0.038007
567.120756	0.038118
567.333628	0.038184
567.546482	0.038173
567.759318	0.038168
567.972135	0.038091
568.184935	0.038233
568.397716	0.038418
568.610478	0.038545
568.823223	0.038822
569.035949	0.038867
569.248657	0.038531
569.461347	0.038752
569.674019	0.038477
569.886672	0.038193
570.099308	0.037982
570.311925	0.037887
570.524523	0.037435
570.737104	0.037234
570.949666	0.036914
571.162210	0.037012
571.374736	0.037144
571.587244	0.037365
571.799733	0.037758
572.012205	0.038173
572.224658	0.038212
572.437092	0.038848
572.649509	0.038944
572.861907	0.039320
573.074287	0.039341
573.286649	0.039006
573.498993	0.039344
573.711318	0.039430
573.923625	0.039157
574.135914	0.039061
574.348185	0.039025
574.560438	0.038876
574.772672	0.038569
574.984888	0.038547
575.197086	0.038630
575.409266	0.038269
575.621427	0.037945
575.833570	0.037878
576.045695	0.037860
576.257802	0.037998
576.469890	0.038219
576.681961	0.037967
576.894013	0.038208
577.106046	0.038419
577.318062	0.038268
577.530059	0.038500
577.742039	0.038471
577.954000	0.038730
578.165942	0.038583
578.377867	0.038424
578.589773	0.038795
578.801661	0.038807
579.013531	0.038560
579.225382	0.038907
579.437216	0.038986
579.649031	0.039303
579.860828	0.039329
580.072606	0.039102
580.284367	0.039108
580.496109	0.039188
580.707833	0.038868
580.919539	0.038837
581.131227	0.038872
581.342896	0.038914
581.554547	0.038849
581.766180	0.039125
581.977795	0.039566
582.189391	0.039976
582.400969	0.040155
582.612529	0.040580
582.824071	0.040624
583.035595	0.040503
583.247100	0.040696
583.458587	0.040633
583.670056	0.040482
583.881506	0.040493
584.092939	0.040310
584.304353	0.040466
584.515749	0.040476
584.727127	0.040822
584.938486	0.040930
585.149828	0.040856
585.361151	0.041132
585.572456	0.041491
585.783742	0.041463
585.995011	0.041414
586.206261	0.041193
586.417493	0.040910
586.628706	0.040828
586.839902	0.040874
587.051079	0.041090
587.262238	0.041061
587.473379	0.040485
587.684502	0.040663
587.895606	0.040883
588.106692	0.040908
588.317760	0.041248
588.528810	0.041701
588.739841	0.042098
588.950855	0.041892
589.161850	0.041816
589.372827	0.042326
589.583785	0.042267
589.794726	0.042454
590.005648	0.042702
590.216552	0.042928
590.427437	0.042601
590.638305	0.042502
590.849154	0.042708
591.059985	0.042928
591.270798	0.042708
591.481592	0.042927
591.692369	0.042588
591.903127	0.042660
592.113867	0.042498
592.324588	0.042353
592.535292	0.042330
592.745977	0.042249
592.956644	0.042261
593.167293	0.042254
593.377923	0.042223
593.588536	0.042360
593.799130	0.042360
594.009706	0.042536
594.220263	0.042719
594.430803	0.042796
594.641324	0.042715
594.851827	0.042554
595.062312	0.042787
595.272778	0.042789
595.483227	0.042933
595.693657	0.042934
595.904069	0.042834
596.114462	0.043149
596.324838	0.043359
596.535195	0.043595
596.745534	0.043806
596.955855	0.043867
597.166157	0.044194
597.376441	0.044232
597.586707	0.044410
597.796955	0.044573
598.007185	0.044446
598.217396	0.044216
598.427589	0.044347
598.637764	0.044349
598.847921	0.044479
599.058060	0.044443
599.268180	0.044318
599.478282	0.044191
599.688366	0.044195
599.898431	0.044495
600.108479	0.044738
600.318508	0.044353
600.528519	0.044361
600.738511	0.044412
600.948486	0.044273
601.158442	0.044650
601.368380	0.044771
601.578300	0.044727
601.788202	0.044212
601.998085	0.044184
602.207950	0.044609
602.417797	0.044615
602.627626	0.044575
602.837436	0.044515
603.047228	0.044746
603.257002	0.044697
603.466758	0.044934
603.676496	0.045505
603.886215	0.045583
604.095916	0.045514
604.305599	0.045868
604.515264	0.045960
604.724910	0.046285
604.934538	0.045776
605.144148	0.045774
605.353740	0.045654
605.563314	0.045523
605.772869	0.045619
605.982406	0.045847
606.191925	0.045707
606.401425	0.045756
606.610908	0.045807
606.820372	0.046280
607.029818	0.046313
607.239246	0.046325
607.448655	0.046453
607.658047	0.046450
607.867420	0.046516
608.076775	0.046773
608.286111	0.046843
608.495430	0.046784
608.704730	0.046912
608.914012	0.047260
609.123275	0.047596
609.332521	0.047763
609.541748	0.048138
609.750957	0.048214
609.960148	0.048239
610.169321	0.048577
610.378475	0.048616
610.587611	0.049006
610.796729	0.049032
611.005829	0.049050
611.214910	0.049139
611.423974	0.049168
611.633019	0.049425
611.842045	0.049519
612.051054	0.049137
612.260044	0.049134
612.469017	0.048793
612.677970	0.048724
612.886906	0.048576
613.095824	0.048575
613.304723	0.048141
613.513604	0.047869
613.722467	0.047846
613.931311	0.047966
614.140138	0.048141
614.348946	0.047801
614.557736	0.047776
614.766507	0.048221
614.975261	0.048173
615.183996	0.048413
615.392713	0.048608
615.601412	0.048719
615.810092	0.048819
616.018754	0.048590
616.227399	0.049019
616.436024	0.049126
616.644632	0.048626
616.853222	0.048763
617.061793	0.048839
617.270346	0.048778
617.478880	0.048665
617.687397	0.048629
617.895895	0.049045
618.104375	0.048884
618.312837	0.049060
618.521281	0.049432
618.729706	0.049494
618.938113	0.049407
619.146502	0.049483
619.354873	0.049342
619.563226	0.049437
619.771560	0.049134
619.979876	0.049140
620.188174	0.049072
620.396453	0.048975
620.604715	0.048787
620.812958	0.048906
621.021183	0.048801
621.229390	0.049017
621.437578	0.049046
621.645748	0.049284
621.853900	0.049254
622.062034	0.049316
622.270150	0.049450
622.478247	0.049542
622.686326	0.049641
622.894387	0.049710
623.102430	0.049794
623.310454	0.049772
623.518461	0.049637
623.726449	0.049658
623.934418	0.049584
624.142370	0.049330
624.350303	0.049357
624.558218	0.049235
624.766115	0.049248
624.973994	0.049071
625.181855	0.049238
625.389697	0.049402
625.597521	0.049611
625.805327	0.049565
626.013114	0.049898
626.220883	0.049972
626.428634	0.049856
626.636367	0.049972
626.844082	0.050118
627.051778	0.050132
627.259457	0.049879
627.467117	0.050185
627.674758	0.050335
627.882382	0.050501
628.089987	0.050498
628.297574	0.050708
628.505143	0.050714
628.712694	0.050743
628.920226	0.050608
629.127740	0.050901
629.335236	0.050606
629.542714	0.050477
629.750174	0.050379
629.957615	0.050318
630.165038	0.050284
630.372443	0.050165
630.579829	0.050055
630.787198	0.050325
630.994548	0.050357
631.201880	0.050584
631.409194	0.050638
631.616489	0.050466
631.823766	0.050535
632.031025	0.050697
632.238266	0.051040
632.445489	0.051221
632.652693	0.051331
632.859879	0.051209
633.067047	0.051008
633.274197	0.051273
633.481329	0.051474
633.688442	0.051621
633.895537	0.051745
634.102614	0.051806
634.309672	0.051885
634.516713	0.051772
634.723735	0.052080
634.930739	0.052257
635.137724	0.052146
635.344692	0.052282
635.551641	0.052433
635.758572	0.052519
635.965485	0.052476
636.172379	0.052556
636.379256	0.052651
636.586114	0.052645
636.792954	0.052791
636.999775	0.053068
637.206579	0.053106
637.413364	0.053150
637.620131	0.053233
637.826880	0.053415
638.033610	0.053601
638.240323	0.053893
638.447017	0.053906
638.653692	0.053926
638.860350	0.054001
639.066990	0.054138
639.273611	0.054098
639.480214	0.054060
639.686798	0.054000
639.893365	0.053961
640.099913	0.053745
640.306443	0.053851
640.512955	0.053774
640.719449	0.053941
640.925924	0.053850
641.132381	0.054038
641.338820	0.054026
641.545241	0.054139
641.751644	0.054137
641.958028	0.054221
642.164394	0.054340
642.370742	0.054576
642.577071	0.054678
642.783383	0.054930
642.989676	0.054768
643.195951	0.055044
643.402207	0.055089
643.608446	0.055209
643.814666	0.055335
644.020868	0.055487
644.227052	0.055357
644.433218	0.055206
644.639365	0.055105
644.845494	0.055268
645.051605	0.055071
645.257698	0.055093
645.463772	0.055147
645.669828	0.055247
645.875866	0.055289
646.081886	0.055542
646.287888	0.055610
646.493871	0.055591
646.699836	0.055744
646.905783	0.055959
647.111712	0.055873
647.317622	0.055963
647.523514	0.055904
647.729388	0.055779
647.935244	0.055670
648.141082	0.055596
648.346901	0.055847
648.552702	0.055921
648.758485	0.056140
648.964250	0.056273
649.169996	0.056245
649.375724	0.056421
649.581434	0.056475
649.787126	0.056672
649.992800	0.057064
650.198455	0.057021
650.404092	0.056968
650.609711	0.056929
650.815311	0.056881
651.020894	0.057000
651.226458	0.056837
651.432004	0.056983
651.637532	0.056881
651.843041	0.056665
652.048532	0.056554
652.254006	0.056627
652.459460	0.056560
652.664897	0.056756
652.870315	0.056673
653.075716	0.056809
653.281097	0.056939
653.486461	0.056998
653.691807	0.057083
653.897134	0.057162
654.102443	0.057207
654.307734	0.057180
654.513006	0.057218
654.718261	0.057446
654.923497	0.057573
655.128715	0.057603
655.333915	0.057799
655.539096	0.057710
655.744259	0.057833
655.949404	0.058074
656.154531	0.058259
656.359640	0.058452
656.564730	0.058429
656.769802	0.058484
656.974856	0.058439
657.179892	0.058571
657.384909	0.058877
657.589908	0.059114
657.794889	0.058951
657.999852	0.059034
658.204797	0.059069
658.409723	0.059321
658.614631	0.059309
658.819521	0.059427
659.024393	0.059597
659.229246	0.059527
659.434081	0.059445
659.638898	0.059713
659.843697	0.059672
660.048478	0.059856
660.253240	0.059769
660.457984	0.059984
660.662710	0.060100
660.867417	0.060047
661.072107	0.060342
661.276778	0.060386
661.481431	0.060482
661.686066	0.060637
661.890682	0.060648
662.095281	0.060859
662.299861	0.060996
662.504422	0.060924
662.708966	0.060862
662.913491	0.060993
663.117999	0.061210
663.322488	0.061102
663.526958	0.061264
663.731411	0.061328
663.935845	0.061352
664.140261	0.061504
664.344659	0.061783
664.549038	0.061984
664.753400	0.061948
664.957743	0.062076
665.162068	0.062335
665.366375	0.062388
665.570663	0.062387
665.774933	0.062299
665.979185	0.062224
666.183419	0.062231
666.387635	0.062353
666.591832	0.062302
666.796011	0.062257
667.000172	0.062062
667.204315	0.062007
667.408439	0.061971
667.612545	0.062171
667.816634	0.062104
668.020703	0.062026
668.224755	0.062039
668.428788	0.061945
668.632803	0.062040
668.836800	0.062217
669.040779	0.062457
669.244739	0.062630
669.448681	0.062692
669.652605	0.062817
669.856511	0.062930
670.060399	0.062967
670.264268	0.063363
670.468119	0.063651
670.671952	0.063860
670.875767	0.063707
671.079563	0.063684
671.283341	0.063843
671.487101	0.063912
671.690843	0.064128
671.894567	0.064207
672.098272	0.064229
672.301959	0.064157
672.505628	0.064075
672.709278	0.064346
672.912911	0.064496
673.116525	0.064596
673.320121	0.064727
673.523699	0.064743
673.727258	0.064931
673.930799	0.064877
674.134322	0.064934
674.337827	0.065147
674.541314	0.065232
674.744782	0.065296
674.948232	0.065194
675.151664	0.065340
675.355078	0.065217
675.558474	0.065196
675.761851	0.065371
675.965210	0.065296
676.168551	0.065354
676.371873	0.065475
676.575178	0.065656
676.778464	0.065941
676.981732	0.066000
677.184981	0.066143
677.388213	0.066171
677.591426	0.066077
677.794621	0.066219
677.997798	0.066194
678.200956	0.065823
678.404097	0.065663
678.607219	0.065345
678.810323	0.065367
679.013408	0.065539
679.216476	0.065751
679.419525	0.066014
679.622556	0.065992
679.825569	0.065944
680.028563	0.066120
680.231540	0.066157
680.434498	0.066679
680.637438	0.066751
680.840359	0.066819
681.043263	0.066666
681.246148	0.066692
681.449015	0.066943
681.651864	0.067111
681.854694	0.067035
682.057506	0.067296
682.260301	0.067176
682.463076	0.067162
682.665834	0.067170
682.868573	0.067220
683.071295	0.067362
683.273998	0.067442
683.476682	0.067527
683.679349	0.068079
683.881997	0.068306
684.084627	0.068448
684.287239	0.068615
684.489833	0.068697
684.692408	0.068958
684.894965	0.069042
685.097504	0.068899
685.300025	0.068998
685.502527	0.068880
685.705012	0.068855
685.907478	0.068983
686.109925	0.069073
686.312355	0.069320
686.514766	0.069566
686.717159	0.069523
686.919534	0.069935
687.121891	0.070177
687.324230	0.070466
687.526550	0.070647
687.728852	0.070694
687.931136	0.070811
688.133401	0.070650
688.335649	0.070628
688.537878	0.070884
688.740089	0.070794
688.942281	0.070774
689.144456	0.070735
689.346612	0.070716
689.548750	0.070703
689.750870	0.070714
689.952971	0.071051
690.155055	0.070864
690.357120	0.070812
690.559167	0.071050
690.761195	0.071245
690.963206	0.071463
691.165198	0.071322
691.367172	0.071261
691.569128	0.071261
691.771065	0.071162
691.972984	0.071411
692.174885	0.071479
692.376768	0.071473
692.578633	0.071453
692.780479	0.071135
692.982308	0.071200
693.184118	0.071257
693.385909	0.071268
693.587683	0.071311
693.789438	0.071453
693.991175	0.071335
694.192894	0.071235
694.394595	0.071183
694.596277	0.071329
694.797941	0.071512
694.999587	0.071616
695.201215	0.071714
695.402824	0.071968
695.604416	0.071752
695.805989	0.071928
696.007543	0.072043
696.209080	0.071946
696.410598	0.071981
696.612099	0.072038
696.813580	0.071992
697.015044	0.071938
697.216490	0.071685
697.417917	0.071731
697.619326	0.071668
697.820717	0.071408
698.022089	0.071359
698.223444	0.071391
698.424780	0.071272
698.626098	0.071228
698.827397	0.071084
699.028679	0.071048
699.229942	0.070988
699.431187	0.070842
699.632414	0.071042
699.833622	0.071308
700.034813	0.071343
700.235985	0.071324
700.437139	0.071499
700.638274	0.071728
700.839392	0.071847
701.040491	0.072070
701.241572	0.072329
701.442635	0.072513
701.643679	0.072544
701.844706	0.072749
702.045714	0.072920
702.246704	0.072959
702.447675	0.073114
702.648629	0.073313
702.849564	0.073222
703.050481	0.073363
703.251380	0.073213
703.452260	0.073112
703.653122	0.072883
703.853966	0.072889
704.054792	0.072818
704.255600	0.072602
704.456389	0.072438
704.657160	0.072572
704.857913	0.072327
705.058648	0.072450
705.259365	0.072625
705.460063	0.072748
705.660743	0.072629
705.861405	0.072754
706.062048	0.072825
706.262674	0.072910
706.463281	0.072617
706.663870	0.072663
706.864441	0.072634
707.064993	0.072390
707.265527	0.072363
707.466043	0.072472
707.666541	0.072238
707.867021	0.072362
708.067482	0.072375
708.267925	0.072717
708.468350	0.072802
708.668757	0.072719
708.869145	0.073031
709.069516	0.073093
709.269868	0.073262
709.470201	0.073460
709.670517	0.073375
709.870814	0.073465
710.071093	0.073457
710.271354	0.073581
710.471597	0.073858
710.671821	0.073889
710.872028	0.074140
711.072216	0.074116
711.272385	0.074089
711.472537	0.074153
711.672670	0.074063
711.872785	0.074103
712.072882	0.074056
712.272961	0.073806
712.473021	0.073874
712.673063	0.073566
712.873087	0.073599
713.073093	0.073672
713.273081	0.073704
713.473050	0.073521
713.673001	0.073398
713.872934	0.073240
714.072849	0.073226
714.272745	0.072946
714.472623	0.072930
714.672483	0.072744
714.872325	0.072821
715.072148	0.072835
715.271954	0.072897
715.471741	0.072705
715.671509	0.072747
715.871260	0.072814
716.070992	0.072735
716.270707	0.072670
716.470403	0.072587
716.670080	0.072320
716.869740	0.072276
717.069381	0.072450
717.269004	0.072573
717.468609	0.072513
717.668195	0.072431
717.867764	0.072602
718.067314	0.072644
718.266846	0.072733
718.466360	0.072835
718.665855	0.072896
718.865332	0.072601
719.064791	0.072650
719.264232	0.072575
719.463655	0.072467
719.663059	0.072291
719.862445	0.072399
720.061813	0.072387
720.261163	0.072422
720.460494	0.072343
720.659807	0.072544
720.859102	0.072503
721.058379	0.072621
721.257638	0.072689
721.456878	0.072511
721.656100	0.072178
721.855304	0.072160
722.054490	0.072020
722.253657	0.071689
722.452806	0.071498
722.651937	0.071249
722.851050	0.071120
723.050145	0.071232
723.249221	0.071357
723.448279	0.071495
723.647319	0.071383
723.846340	0.071216
724.045344	0.071554
724.244329	0.071521
724.443296	0.071627
724.642245	0.071660
724.841175	0.071513
725.040088	0.071604
725.238982	0.071519
725.437857	0.071569
725.636715	0.071650
725.835554	0.071299
726.034376	0.071164
726.233179	0.071203
726.431963	0.071116
726.630730	0.070976
726.829478	0.070634
727.028208	0.070478
727.226920	0.070368
727.425614	0.070314
727.624289	0.070402
727.822946	0.070483
728.021585	0.070304
728.220206	0.070284
728.418808	0.070269
728.617392	0.070325
728.815958	0.070344
729.014506	0.070093
729.213036	0.069932
729.411547	0.069784
729.610040	0.069577
729.808515	0.069392
730.006972	0.069342
730.205410	0.069201
730.403831	0.069024
730.602233	0.069043
730.800616	0.069036
730.998982	0.069204
731.197329	0.069058
731.395658	0.069110
731.593969	0.069286
731.792262	0.069270
731.990536	0.069428
732.188793	0.069518
732.387031	0.069387
732.585250	0.069409
732.783452	0.069293
732.981635	0.069552
733.179800	0.069511
733.377947	0.069490
733.576076	0.069240
733.774186	0.069033
733.972278	0.069012
734.170352	0.069123
734.368408	0.069154
734.566446	0.069008
734.764465	0.068787
734.962466	0.068886
735.160449	0.068708
735.358413	0.068846
735.556360	0.068623
735.754288	0.068480
735.952198	0.068369
736.150090	0.068126
736.347963	0.068337
736.545818	0.068355
736.743655	0.068143
736.941474	0.068107
737.139275	0.068123
737.337057	0.068243
737.534821	0.068301
737.732567	0.068200
737.930295	0.068286
738.128005	0.068146
738.325696	0.068025
738.523369	0.067898
738.721024	0.067955
738.918660	0.067751
739.116279	0.067724
739.313879	0.067531
739.511461	0.067472
739.709024	0.067391
739.906570	0.067301
740.104097	0.067203
740.301606	0.067239
740.499097	0.067101
740.696569	0.067179
740.894024	0.067223
741.091460	0.067109
741.288878	0.066908
741.486277	0.066910
741.683659	0.066839
741.881022	0.066819
742.078367	0.067019
742.275694	0.066903
742.473002	0.066787
742.670293	0.066789
742.867565	0.067095
743.064819	0.067383
743.262054	0.067314
743.459272	0.067244
743.656471	0.067209
743.853652	0.067078
744.050815	0.067173
744.247959	0.067045
744.445085	0.066908
744.642194	0.066719
744.839283	0.066532
745.036355	0.066538
745.233408	0.066455
745.430444	0.066615
745.627461	0.066537
745.824459	0.066344
746.021440	0.066414
746.218402	0.066426
746.415346	0.066437
746.612272	0.066503
746.809180	0.066472
747.006069	0.066480
747.202940	0.066354
747.399793	0.066297
747.596628	0.066521
747.793444	0.066517
747.990243	0.066316
748.187023	0.066291
748.383784	0.066127
748.580528	0.066226
748.777253	0.066182
748.973960	0.066342
749.170649	0.066342
749.367320	0.066452
749.563973	0.066402
749.760607	0.066422
749.957223	0.066346
750.153821	0.066357
750.350400	0.066172
750.546962	0.066077
750.743505	0.065729
750.940030	0.065383
751.136536	0.064914
751.333025	0.064821
751.529495	0.064606
751.725947	0.064645
751.922381	0.064487
752.118796	0.064384
752.315194	0.064234
752.511573	0.064019
752.707934	0.064309
752.904276	0.064313
753.100601	0.064193
753.296907	0.064250
753.493195	0.064077
753.689465	0.064001
753.885716	0.063969
754.081949	0.063975
754.278164	0.064150
754.474361	0.063803
754.670540	0.063814
754.866700	0.063697
755.062843	0.063653
755.258967	0.063466
755.455072	0.063383
755.651160	0.063225
755.847229	0.063277
756.043280	0.063288
756.239313	0.063291
756.435328	0.063204
756.631324	0.063392
756.827302	0.063327
757.023262	0.063413
757.219204	0.063584
757.415127	0.063660
757.611033	0.063679
757.806920	0.063565
758.002788	0.063556
758.198639	0.063529
758.394471	0.063306
758.590286	0.063199
758.786081	0.062963
758.981859	0.062703
759.177619	0.062712
759.373360	0.062602
759.569083	0.062531
759.764788	0.062505
759.960474	0.062425
760.156143	0.062358
760.351793	0.062360
760.547425	0.062489
760.743038	0.062294
760.938634	0.062088
761.134211	0.061916
761.329770	0.061775
761.525311	0.061691
761.720833	0.061434
761.916338	0.061343
762.111824	0.061282
762.307292	0.061023
762.502741	0.061126
762.698173	0.061090
762.893586	0.060981
763.088981	0.060867
763.284358	0.060918
763.479716	0.060992
763.675057	0.061001
763.870379	0.061060
764.065683	0.061064
764.260968	0.061207
764.456236	0.061089
764.651485	0.061050
764.846716	0.061152
765.041929	0.061159
765.237123	0.060983
765.432299	0.060857
765.627457	0.060563
765.822597	0.060518
766.017719	0.060411
766.212822	0.060446
766.407907	0.060465
766.602974	0.060266
766.798023	0.060114
766.993054	0.060163
767.188066	0.060053
767.383060	0.060341
767.578036	0.060410
767.772993	0.060364
767.967933	0.060276
768.162854	0.060188
768.357757	0.060254
768.552642	0.060073
768.747508	0.060184
768.942356	0.060256
769.137186	0.060078
769.331998	0.059972
769.526792	0.059911
769.721567	0.059953
769.916324	0.060124
770.111063	0.060176
770.305784	0.060224
770.500486	0.060254
770.695171	0.060325
770.889837	0.060169
771.084484	0.060163
771.279114	0.060080
771.473725	0.059843
771.668318	0.059690
771.862893	0.059576
772.057450	0.059435
772.251988	0.059336
772.446509	0.059279
772.641011	0.059289
772.835494	0.059310
773.029960	0.059246
773.224407	0.059227
773.418836	0.059266
773.613247	0.059130
773.807640	0.058976
774.002014	0.059012
774.196370	0.059039
774.390708	0.059115
774.585028	0.059016
774.779330	0.058990
774.973613	0.059246
775.167878	0.059297
775.362125	0.059363
775.556354	0.059651
775.750564	0.059667
775.944756	0.059767
776.138930	0.059759
776.333086	0.059969
776.527223	0.060061
776.721343	0.060078
776.915444	0.059830
777.109526	0.059809
777.303591	0.059745
777.497637	0.059756
777.691666	0.059831
777.885676	0.059859
778.079667	0.059640
778.273641	0.059797
778.467596	0.059664
778.661533	0.059750
778.855452	0.059922
779.049352	0.059895
779.243235	0.059853
779.437099	0.059592
779.630945	0.059614
779.824773	0.059733
780.018582	0.059682
780.212373	0.060052
780.406146	0.060304
780.599901	0.060395
780.793638	0.060520
780.987356	0.060484
781.181056	0.060673
781.374738	0.060757
781.568402	0.060747
781.762047	0.060783
781.955674	0.060547
782.149283	0.060479
782.342874	0.060507
782.536447	0.060589
782.730001	0.060469
782.923537	0.060409
783.117055	0.060259
783.310555	0.060311
783.504036	0.060284
783.697499	0.060076
783.890944	0.060060
784.084371	0.059860
784.277780	0.059581
784.471170	0.059759
784.664542	0.059605
784.857896	0.059716
785.051231	0.059407
785.244549	0.059293
785.437848	0.059239
785.631129	0.059151
785.824392	0.059091
786.017636	0.059357
786.210863	0.059428
786.404071	0.059472
786.597260	0.059423
786.790432	0.059831
786.983585	0.059979
787.176721	0.060220
787.369838	0.060258
787.562936	0.060547
787.756017	0.060530
787.949079	0.060375
788.142123	0.060518
788.335149	0.060594
788.528156	0.060651
788.721146	0.060820
788.914117	0.060875
789.107070	0.061006
789.300005	0.061054
789.492921	0.061347
789.685819	0.061650
789.878699	0.061931
790.071561	0.062259
790.264405	0.062420
790.457230	0.062270
790.650037	0.062279
790.842826	0.062566
791.035597	0.062749
791.228349	0.062626
791.421084	0.062589
791.613800	0.062726
791.806497	0.062585
791.999177	0.062558
792.191838	0.062535
792.384481	0.062916
792.577106	0.062926
792.769713	0.062649
792.962301	0.062577
793.154871	0.062614
793.347423	0.062433
793.539957	0.062241
793.732473	0.061951
793.924970	0.062066
794.117449	0.061637
794.309910	0.061229
794.502353	0.061212
794.694777	0.061246
794.887183	0.061186
795.079571	0.061113
795.271941	0.061231
795.464293	0.061242
795.656626	0.061293
795.848941	0.061480
796.041238	0.061747
796.233516	0.061924
796.425777	0.061983
796.618019	0.062156
796.810243	0.062180
797.002449	0.062253
797.194636	0.062506
797.386805	0.062348
797.578956	0.062440
797.771089	0.062428
797.963204	0.062325
798.155300	0.062471
798.347378	0.062302
798.539438	0.062266
798.731480	0.062286
798.923503	0.062340
799.115509	0.062522
799.307496	0.062265
799.499465	0.062251
799.691415	0.062297
799.883348	0.062284
800.075262	0.062542
800.267158	0.062697
800.459035	0.062797
800.650895	0.062889
800.842736	0.062905
801.034559	0.063219
801.226364	0.063391
801.418150	0.063539
801.609919	0.063568
801.801669	0.063431
801.993401	0.063466
802.185114	0.063487
802.376810	0.063505
802.568487	0.063708
802.760146	0.063794
802.951787	0.063895
803.143409	0.063980
803.335014	0.063908
803.526600	0.064064
803.718168	0.063985
803.909717	0.064099
804.101249	0.064261
804.292762	0.064297
804.484257	0.064319
804.675734	0.064308
804.867192	0.064314
805.058632	0.064488
805.250054	0.064592
805.441458	0.064974
805.632844	0.065044
805.824211	0.065004
806.015561	0.065145
806.206891	0.065333
806.398204	0.065481
806.589499	0.065708
806.780775	0.065866
806.972033	0.065761
807.163273	0.065614
807.354495	0.065472
807.545698	0.065687
807.736883	0.065403
807.928050	0.065487
808.119199	0.065546
808.310329	0.065349
808.501441	0.065325
808.692535	0.065515
808.883611	0.065506
809.074669	0.065797
809.265708	0.065670
809.456729	0.065879
809.647732	0.065912
809.838717	0.065869
810.029683	0.065900
810.220632	0.066039
810.411562	0.066020
810.602474	0.065891
810.793367	0.065878
810.984242	0.065824
811.175100	0.065828
811.365938	0.065659
811.556759	0.065772
811.747562	0.065752
811.938346	0.065766
812.129112	0.065810
812.319860	0.066080
812.510589	0.066191
812.701300	0.066322
812.891994	0.066374
813.082668	0.066258
813.273325	0.066174
813.463964	0.066486
813.654584	0.066477
813.845186	0.066509
814.035769	0.066400
814.226335	0.066370
814.416882	0.066564
814.607411	0.066811
814.797922	0.067158
814.988415	0.067345
815.178889	0.067475
815.369345	0.067671
815.559783	0.067765
815.750203	0.068172
815.940605	0.068349
816.130988	0.068374
816.321353	0.068483
816.511700	0.068649
816.702028	0.068648
816.892339	0.068526
817.082631	0.068518
817.272905	0.068854
817.463161	0.068897
817.653398	0.068893
817.843617	0.068886
818.033819	0.068676
818.224001	0.068541
818.414166	0.068656
818.604312	0.068774
818.794440	0.068721
818.984550	0.068584
819.174642	0.068593
819.364716	0.068678
819.554771	0.068825
819.744808	0.069006
819.934827	0.069264
820.124827	0.069296
820.314810	0.069651
820.504774	0.069934
820.694720	0.070073
820.884647	0.070246
821.074557	0.070198
821.264448	0.070468
821.454321	0.070690
821.644176	0.070698
821.834012	0.070826
822.023831	0.070680
822.213631	0.070777
822.403413	0.070957
822.593176	0.071090
822.782922	0.071379
822.972649	0.071361
823.162358	0.071470
823.352049	0.071726
823.541721	0.071710
823.731376	0.072086
823.921012	0.072206
824.110629	0.072314
824.300229	0.072306
824.489811	0.072542
824.679374	0.072783
824.868919	0.072959
825.058445	0.073000
825.247954	0.073095
825.437444	0.072944
825.626916	0.072956
825.816370	0.072841
826.005806	0.072863
826.195223	0.072792
826.384622	0.072687
826.574003	0.072515
826.763366	0.072379
826.952711	0.072643
827.142037	0.072602
827.331345	0.072575
827.520635	0.072648
827.709906	0.072746
827.899160	0.072244
828.088395	0.072088
828.277612	0.072013
828.466810	0.072278
828.655991	0.072087
828.845153	0.072261
829.034297	0.072444
829.223423	0.072503
829.412531	0.072689
829.601620	0.073626
829.790691	0.073750
829.979744	0.074031
830.168779	0.074021
830.357795	0.074525
830.546793	0.074789
830.735773	0.074939
830.924735	0.075287
831.113679	0.075303
831.302604	0.075221
831.491511	0.075403
831.680400	0.075577
831.869271	0.076017
832.058123	0.075866
832.246957	0.075845
832.435773	0.075981
832.624571	0.075904
832.813351	0.076057
833.002112	0.076012
833.190855	0.076195
833.379580	0.076509
833.568287	0.076313
833.756975	0.076585
833.945645	0.076721
834.134297	0.076746
834.322931	0.076912
834.511547	0.077048
834.700144	0.077201
834.888723	0.077443
835.077284	0.077541
835.265826	0.077789
835.454351	0.078173
835.642857	0.078212
835.831345	0.078574
836.019815	0.078890
836.208266	0.079082
836.396699	0.079314
836.585114	0.079296
836.773511	0.079509
836.961890	0.079974
837.150250	0.079998
837.338592	0.080136
837.526916	0.080366
837.715222	0.080642
837.903510	0.080745
838.091779	0.080802
838.280030	0.081208
838.468263	0.081262
838.656477	0.081118
838.844674	0.081162
839.032852	0.081551
839.221012	0.081367
839.409153	0.081249
839.597277	0.081258
839.785382	0.081171
839.973469	0.081316
840.161538	0.081470
840.349589	0.081594
840.537621	0.081626
840.725635	0.081644
840.913631	0.081664
841.101609	0.081710
841.289568	0.081908
841.477509	0.082298
841.665432	0.082183
841.853337	0.081847
842.041224	0.081831
842.229092	0.082048
842.416942	0.082171
842.604774	0.082437
842.792588	0.082491
842.980383	0.082591
843.168160	0.082545
843.355919	0.082735
843.543660	0.083005
843.731382	0.083386
843.919087	0.083417
844.106773	0.083367
844.294441	0.083658
844.482090	0.083686
844.669722	0.084001
844.857335	0.084361
845.044930	0.084560
845.232507	0.084825
845.420065	0.084804
845.607605	0.084948
845.795127	0.085071
845.982631	0.084752
846.170117	0.084989
846.357584	0.084825
846.545033	0.084778
846.732464	0.084973
846.919877	0.085129
847.107272	0.085077
847.294648	0.085380
847.482006	0.085514
847.669346	0.086176
847.856667	0.086394
848.043971	0.086760
848.231256	0.087052
848.418523	0.087036
848.605771	0.087359
848.793002	0.087719
848.980214	0.087701
849.167408	0.088252
849.354584	0.088185
849.541742	0.088463
849.728881	0.088534
849.916002	0.088820
850.103105	0.089104
850.290190	0.089389
850.477256	0.089610
850.664304	0.089886
850.851334	0.089777
851.038346	0.090067
851.225340	0.090328
851.412315	0.090427
851.599272	0.090368
851.786211	0.090569
851.973132	0.090405
852.160034	0.090286
852.346918	0.090198
852.533784	0.090413
852.720632	0.090574
852.907462	0.090373
853.094273	0.090747
853.281066	0.091004
853.467841	0.091056
853.654598	0.091370
853.841336	0.091504
854.028056	0.091581
854.214758	0.091808
854.401442	0.091675
854.588107	0.091990
854.774755	0.091956
854.961384	0.092055
855.147995	0.092164
855.334587	0.092173
855.521162	0.092593
855.707718	0.093101
855.894256	0.093039
856.080775	0.093227
856.267277	0.093241
856.453760	0.093035
856.640225	0.092957
856.826672	0.093134
857.013101	0.093167
857.199511	0.093343
857.385903	0.093241
857.572277	0.093415
857.758633	0.093814
857.944970	0.093920
858.131290	0.094638
858.317591	0.095024
858.503873	0.095382
858.690138	0.095927
858.876384	0.095709
859.062612	0.095592
859.248822	0.095594
859.435014	0.095456
859.621188	0.095613
859.807343	0.095513
859.993480	0.095533
860.179599	0.095294
860.365699	0.095111
860.551781	0.095217
860.737846	0.095884
860.923891	0.096056
861.109919	0.096326
861.295929	0.096611
861.481920	0.096566
861.667893	0.096428
861.853848	0.096437
862.039784	0.096295
862.225702	0.096489
862.411603	0.096016
862.597484	0.096033
862.783348	0.095704
862.969193	0.095424
863.155021	0.095577
863.340830	0.095996
863.526620	0.096143
863.712393	0.096113
863.898147	0.095842
864.083883	0.096044
864.269601	0.095914
864.455301	0.095830
864.640982	0.096070
864.826645	0.096002
865.012290	0.095944
865.197917	0.095857
865.383526	0.096085
865.569116	0.096487
865.754688	0.096327
865.940242	0.096793
866.125777	0.097246
866.311295	0.097069
866.496794	0.097376
866.682275	0.097419
866.867737	0.097352
867.053182	0.097357
867.238608	0.097491
867.424016	0.097731
867.609406	0.097653
867.794778	0.097939
867.980131	0.098044
868.165466	0.098278
868.350783	0.098405
868.536082	0.098531
868.721362	0.098867
868.906625	0.098802
869.091869	0.098863
869.277094	0.098731
869.462302	0.098664
869.647491	0.098932
869.832662	0.098696
870.017815	0.098520
870.202950	0.098773
870.388066	0.098580
870.573165	0.098655
870.758245	0.099043
870.943306	0.099163
871.128350	0.098935
871.313375	0.099042
871.498382	0.098946
871.683371	0.099222
871.868342	0.099250
872.053294	0.099465
872.238229	0.099575
872.423144	0.099589
872.608042	0.099839
872.792922	0.100351
872.977783	0.100425
873.162626	0.100430
873.347451	0.100230
873.532258	0.100184
873.717046	0.100113
873.901816	0.100465
874.086568	0.100280
874.271302	0.100208
874.456017	0.099889
874.640715	0.100008
874.825394	0.100103
875.010055	0.100103
875.194697	0.100462
875.379322	0.100560
875.563928	0.100195
875.748516	0.100386
875.933085	0.100540
876.117637	0.100773
876.302170	0.100919
876.486685	0.101242
876.671182	0.101711
876.855661	0.101884
877.040121	0.102345
877.224563	0.102502
877.408987	0.102502
877.593393	0.102667
877.777780	0.102806
877.962150	0.102648
878.146501	0.102800
878.330833	0.102678
878.515148	0.102512
878.699444	0.102326
878.883722	0.102434
879.067982	0.102381
879.252224	0.102696
879.436447	0.102711
879.620653	0.102744
879.804840	0.102645
879.989008	0.102626
880.173159	0.102667
880.357291	0.102385
880.541405	0.102350
880.725501	0.102494
880.909579	0.102330
881.093638	0.102346
881.277680	0.102572
881.461703	0.102798
881.645707	0.103148
881.829694	0.103107
882.013662	0.103338
882.197612	0.103716
882.381544	0.104052
882.565458	0.103734
882.749353	0.104048
882.933230	0.103916
883.117089	0.103871
883.300930	0.103598
883.484753	0.103542
883.668557	0.103694
883.852343	0.103707
884.036111	0.103617
884.219861	0.103912
884.403592	0.103972
884.587305	0.104160
884.771000	0.104043
884.954677	0.104431
885.138335	0.104929
885.321976	0.104709
885.505598	0.104411
885.689201	0.104341
885.872787	0.104332
886.056354	0.103959
886.239904	0.104014
886.423434	0.104079
886.606947	0.103964
886.790442	0.103705
886.973918	0.103767
887.157376	0.104035
887.340816	0.104127
887.524237	0.104374
887.707641	0.104679
887.891026	0.104621
888.074393	0.104587
888.257741	0.104556
888.441072	0.104233
888.624384	0.104231
888.807678	0.104215
888.990954	0.103953
889.174211	0.103451
889.357451	0.103105
889.540672	0.102832
889.723875	0.102643
889.907059	0.102597
890.090226	0.102700
890.273374	0.102916
890.456504	0.102630
890.639616	0.102748
890.822709	0.102806
891.005785	0.103024
891.188842	0.103065
891.371881	0.103298
891.554901	0.103456
891.737904	0.103806
891.920888	0.103449
892.103854	0.103449
892.286802	0.103307
892.469731	0.103470
892.652643	0.103216
892.835536	0.103358
893.018410	0.103293
893.201267	0.103158
893.384106	0.103113
893.566926	0.103169
893.749728	0.102822
893.932511	0.102755
894.115277	0.102487
894.298024	0.102419
894.480753	0.102300
894.663464	0.101905
894.846157	0.101845
895.028831	0.101555
895.211487	0.101477
895.394125	0.101955
895.576745	0.102045
895.759346	0.101890
895.941930	0.101784
896.124495	0.101717
896.307041	0.102163
896.489570	0.102328
896.672080	0.102448
896.854573	0.102908
897.037046	0.102654
897.219502	0.102599
897.401940	0.102678
897.584359	0.102353
897.766760	0.101821
897.949143	0.101518
898.131507	0.101000
898.313854	0.100717
898.496182	0.100180
898.678492	0.100021
898.860783	0.099877
899.043057	0.100099
899.225312	0.100316
899.407549	0.100524
899.589768	0.100319
899.771968	0.100029
899.954151	0.099956
900.136315	0.099789
900.318461	0.099810
900.500588	0.099432
900.682698	0.099101
900.864789	0.098680
901.046862	0.098463
901.228917	0.098303
901.410953	0.098360
901.592971	0.097923
901.774972	0.097764
901.956953	0.097539
902.138917	0.097614
902.320862	0.097200
902.502790	0.097148
902.684699	0.097575
902.866589	0.097020
903.048462	0.096837
903.230316	0.097107
903.412152	0.097049
903.593970	0.097182
903.775770	0.096898
903.957551	0.097065
904.139314	0.097530
904.321059	0.097178
904.502786	0.097625
904.684494	0.097532
904.866185	0.097490
905.047857	0.097100
905.229510	0.096734
905.411146	0.096511
905.592763	0.096370
905.774363	0.095865
905.955943	0.095427
906.137506	0.095004
906.319051	0.095092
906.500577	0.094976
906.682085	0.095317
906.863575	0.095359
907.045046	0.095170
907.226500	0.095020
907.407935	0.094841
907.589352	0.094403
907.770750	0.094245
907.952131	0.094133
908.133493	0.094016
908.314837	0.093950
908.496163	0.094146
908.677470	0.094016
908.858760	0.094002
909.040031	0.093953
909.221284	0.094696
909.402518	0.095285
909.583735	0.094861
909.764933	0.094486
909.946113	0.094013
910.127275	0.093430
910.308418	0.093632
910.489544	0.093371
910.670651	0.093488
910.851740	0.092952
911.032810	0.092465
911.213863	0.092287
911.394897	0.092158
911.575913	0.092180
911.756911	0.091783
911.937890	0.091375
912.118851	0.091451
912.299794	0.091103
912.480719	0.091200
912.661626	0.090582
912.842514	0.090648
913.023384	0.089942
913.204236	0.089644
913.385070	0.089601
913.565886	0.089606
913.746683	0.088966
913.927462	0.088668
914.108223	0.087691
914.288965	0.087364
914.469690	0.087090
914.650396	0.087274
914.831084	0.086471
915.011754	0.085945
915.192405	0.085355
915.373038	0.084745
915.553653	0.084287
915.734250	0.084331
915.914829	0.084453
916.095389	0.084170
916.275931	0.083853
916.456455	0.084177
916.636961	0.084172
916.817448	0.084298
916.997917	0.084499
917.178368	0.084088
917.358801	0.084036
917.539216	0.083565
917.719612	0.083068
917.899990	0.082433
918.080350	0.082218
918.260692	0.081846
918.441015	0.080877
918.621320	0.079928
918.801607	0.079910
918.981876	0.079103
919.162127	0.078897
919.342359	0.078540
919.522573	0.078268
919.702769	0.077465
919.882947	0.077018
920.063106	0.076747
920.243247	0.076560
920.423370	0.076054
920.603475	0.076146
920.783562	0.075744
920.963630	0.075110
921.143680	0.074823
921.323712	0.074740
921.503725	0.073973
921.683721	0.073690
921.863698	0.073683
922.043657	0.073008
922.223598	0.072381
922.403520	0.072270
922.583424	0.072336
922.763311	0.071994
922.943178	0.071709
923.123028	0.071999
923.302859	0.072064
923.482673	0.071515
923.662467	0.071154
923.842244	0.070687
924.022003	0.070395
924.201743	0.069737
924.381465	0.069196
924.561169	0.068346
924.740854	0.067546
924.920522	0.066795
925.100171	0.066413
925.279802	0.066265
925.459414	0.066064
925.639009	0.064939
925.818585	0.064553
925.998143	0.064695
926.177683	0.064776
926.357205	0.064456
926.536708	0.064438
926.716193	0.064273
926.895660	0.064216
927.075109	0.063973
927.254539	0.064653
927.433951	0.064221
927.613345	0.063908
927.792721	0.063572
927.972079	0.063065
928.151418	0.062773
928.330739	0.061759
928.510042	0.061349
928.689327	0.061095
928.868593	0.060035
929.047841	0.060259
929.227071	0.059759
929.406283	0.059247
929.585476	0.058837
929.764652	0.057888
929.943809	0.057991
930.122948	0.057597
930.302068	0.056708
930.481171	0.056260
930.660255	0.056273
930.839321	0.055865
931.018369	0.055569
931.197398	0.055647
931.376409	0.055658
931.555402	0.055118
931.734377	0.053792
931.913334	0.053529
932.092272	0.052789
932.271192	0.051268
932.450094	0.050880
932.628978	0.050043
932.807844	0.048869
932.986691	0.048567
933.165520	0.048063
933.344331	0.047906
933.523123	0.046695
933.701898	0.046291
933.880654	0.045571
934.059392	0.044290
934.238111	0.043807
934.416813	0.043865
934.595496	0.042850
934.774161	0.043120
934.952808	0.043201
935.131437	0.043589
935.310047	0.043104
935.488639	0.042789
935.667213	0.042865
935.845769	0.043191
936.024306	0.042313
936.202825	0.041351
936.381326	0.040140
936.559809	0.039483
936.738274	0.039015
936.916720	0.039218
937.095148	0.038768
937.273558	0.037519
937.451950	0.035707
937.630323	0.035940
937.808678	0.036082
937.987015	0.036330
938.165334	0.035504
938.343635	0.034746
938.521917	0.033900
938.700181	0.034030
938.878427	0.034392
939.056655	0.034845
939.234864	0.034080
939.413055	0.033482
939.591228	0.033073
939.769383	0.033374
939.947519	0.033096
940.125638	0.031886
940.303738	0.031351
940.481820	0.030372
940.659883	0.029785
940.837929	0.029158
941.015956	0.028743
941.193965	0.027157
941.371955	0.025744
941.549928	0.026200
941.727882	0.025785
941.905818	0.025547
942.083736	0.025851
942.261636	0.025381
942.439517	0.025267
942.617380	0.025654
942.795225	0.026055
942.973052	0.026116
943.150860	0.024794
943.328651	0.025384
943.506423	0.024938
943.684176	0.024390
943.861912	0.023858
944.039629	0.023116
944.217328	0.022096
944.395009	0.021916
944.572672	0.021349
944.750317	0.020432
944.927943	0.020167
945.105551	0.019875
945.283141	0.019567
945.460712	0.018756
945.638265	0.017598
945.815801	0.017030
945.993317	0.015668
946.170816	0.015669
946.348297	0.016129
946.525759	0.014480
946.703203	0.013245
946.880629	0.012224
947.058036	0.012761
947.235425	0.013012
947.412797	0.013303
947.590149	0.013049
947.767484	0.012154
947.944800	0.011631
948.122099	0.012355
948.299379	0.012082
948.476640	0.011892
948.653884	0.011711
948.831109	0.011873
949.008316	0.010408
949.185505	0.009015
949.362676	0.009874
949.539828	0.009130
949.716962	0.007694
949.894078	0.008053
950.071176	0.007834
950.248256	0.006996
950.425317	0.005512
950.602360	0.005986
950.779385	0.007322
950.956391	0.006383
951.133380	0.005737
951.310350	0.005269
951.487302	0.004467
951.664235	0.002680
951.841151	0.002618
952.018048	0.004140
952.194927	0.003835
952.371788	0.003771
952.548631	0.002786
952.725455	0.002326
952.902261	0.002300
953.079049	0.002641
953.255819	0.002809
953.432570	0.001408
953.609303	0.000832
953.786018	0.001103
953.962715	0.001130
954.139394	0.000821
954.316054	0.000626
954.492696	0.001234
954.669320	0.000154
954.845926	0.001216
955.022513	0.001798
955.199083	0.001431
955.375634	0.001492
955.552166	0.000614
955.728681	0.001071
955.905177	0.000343
956.081655	0.001294
956.258115	0.000851
956.434557	-0.000177
956.610980	-0.000925
956.787385	-0.001862
956.963772	-0.003185
957.140141	-0.004167
957.316492	-0.002446
957.492824	-0.001587
957.669138	-0.002883
957.845434	-0.000321
958.021712	0.000258
958.197971	-0.001151
958.374212	0.001268
958.550435	0.003056
958.726640	0.005111
958.902826	0.002494
959.078995	0.003051
959.255145	0.003293
959.431277	0.002640
959.607390	0.002670
959.783486	0.004537
959.959563	0.003305
960.135622	0.003476
960.311662	0.002122
960.487685	0.003558
960.663689	0.004070
960.839675	0.004741
961.015643	0.004199
961.191593	0.005324
961.367524	0.005362
961.543437	0.004683
961.719332	0.002640
961.895209	0.003813
962.071067	0.004602
962.246907	0.005035
962.422730	0.003911
962.598533	0.004260
962.774319	0.003979
962.950086	0.004254
963.125835	0.006276
963.301566	0.007731
963.477279	0.006322
963.652973	0.004967
963.828650	0.004770
964.004308	0.006302
964.179947	0.005742
964.355569	0.005197
964.531172	0.004700
964.706757	0.003374
964.882324	0.002208
965.057873	0.001622
965.233403	0.001317
965.408916	0.001598
965.584410	0.001379
965.759885	-0.000025
965.935343	0.001657
966.110782	0.003120
966.286203	0.002778
966.461606	0.003916
966.636991	0.005070
966.812357	0.003971
966.987705	0.005808
967.163035	0.005886
967.338347	0.006885
967.513641	0.004049
967.688916	0.003348
967.864173	0.003389
968.039412	0.003141
968.214632	0.003393
968.389835	0.004645
968.565019	0.003310
968.740185	0.002306
968.915333	0.001828
969.090462	0.002617
969.265573	0.002907
969.440667	0.002406
969.615741	0.003589
969.790798	0.004135
969.965836	0.003323
970.140856	0.002408
970.315858	0.003577
970.490842	0.003608
970.665808	0.004655
970.840755	0.006038
971.015684	0.007810
971.190595	0.006364
971.365487	0.006936
971.540362	0.009468
971.715218	0.008713
971.890056	0.008168
972.064875	0.008833
972.239677	0.010532
972.414460	0.008144
972.589225	0.004763
972.763972	0.005066
972.938700	0.003462
973.113411	0.004570
973.288103	0.004584
973.462777	0.003998
973.637432	0.003588
973.812070	0.001120
973.986689	0.002773
974.161290	0.006100
974.335873	0.005326
974.510437	0.005972
974.684984	0.005153
974.859512	0.005870
975.034022	0.006253
975.208513	0.005130
975.382987	0.007374
975.557442	0.005559
975.731879	0.005689
975.906298	0.007012
976.080698	0.006694
976.255080	0.006292
976.429445	0.005946
976.603790	0.006658
976.778118	0.008569
976.952427	0.005856
977.126719	0.009548
977.300992	0.009229
977.475246	0.009099
977.649483	0.008559
977.823701	0.008045
977.997901	0.009821
978.172083	0.009802
978.346247	0.008847
978.520392	0.009197
978.694519	0.009187
978.868628	0.009401
979.042719	0.009373
979.216791	0.011525
979.390845	0.012972
979.564882	0.011812
979.738899	0.012601
979.912899	0.011722
980.086880	0.013355
980.260843	0.011016
980.434788	0.012410
980.608715	0.012038
980.782623	0.011555
980.956514	0.009337
981.130386	0.009353
981.304240	0.008285
981.478075	0.011297
981.651892	0.010232
981.825692	0.010174
981.999472	0.008434
982.173235	0.008827
982.346980	0.006552
982.520706	0.006411
982.694414	0.008132
982.868104	0.008822
983.041775	0.007403
983.215428	0.007683
983.389064	0.008250
983.562680	0.007825
983.736279	0.006709
983.909860	0.009587
984.083422	0.008706
984.256966	0.005764
984.430491	0.005979
984.603999	0.006950
984.777488	0.007847
984.950959	0.006824
985.124412	0.007221
985.297847	0.007066
985.471263	0.005816
985.644661	0.006647
985.818041	0.005994
985.991403	0.005062
986.164747	0.004461
986.338072	0.003292
986.511379	0.004665
986.684668	0.003178
986.857938	0.005878
987.031191	0.006590
987.204425	0.006846
987.377641	0.009443
987.550839	0.010121
987.724018	0.011012
987.897179	0.010385
988.070322	0.009946
988.243447	0.011917
988.416554	0.008145
988.589642	0.007945
988.762712	0.008104
988.935764	0.006275
989.108798	0.004986
989.281813	0.002723
989.454811	0.004751
989.627790	0.004442
989.800751	0.005278
989.973693	0.006732
990.146617	0.006307
990.319524	0.006016
990.492412	0.006196
990.665281	0.008399
990.838133	0.009268
991.010966	0.007193
991.183781	0.006424
991.356578	0.003148
991.529356	0.002717
991.702117	0.002967
991.874859	0.002230
992.047583	0.002259
992.220288	0.001786
992.392976	0.002028
992.565645	0.003397
992.738296	0.003569
992.910929	0.006277
993.083543	0.006914
993.256139	0.006456
993.428718	0.007372
993.601277	0.006961
993.773819	0.004503
993.946342	0.004138
994.118848	0.004455
994.291335	0.003608
994.463803	0.003579
994.636254	0.003487
994.808686	0.003509
994.981100	0.003845
995.153496	0.003362
995.325874	0.003151
995.498233	0.004763
995.670574	0.004234
995.842897	0.005588
996.015202	0.003416
996.187488	0.004225
996.359757	0.003536
996.532007	0.003996
996.704239	0.004884
996.876452	0.005268
997.048648	0.003300
997.220825	0.002969
997.392984	0.003303
997.565124	0.005436
997.737247	0.006518
997.909351	0.008235
998.081437	0.006841
998.253505	0.007594
998.425554	0.009190
998.597586	0.011144
998.769599	0.010219
998.941594	0.010703
999.113571	0.008194
999.285529	0.006396
999.457469	0.003765
999.629391	0.004107
999.801295	0.002723
999.973181	0.002027
1000.145048	-0.000950
1000.316897	-0.000644
1000.488728	-0.001058
1000.660541	-0.000493
1000.832335	-0.001041
1001.004111	0.000883
1001.175869	0.002134
1001.347609	0.002568
1001.519331	0.003037
1001.691034	0.003662
1001.862719	0.004825
1002.034386	0.005551
1002.206035	0.005684
1002.377665	0.005824
1002.549277	0.005436
1002.720871	0.004224
1002.892447	0.005044
1003.064004	0.002299
1003.235544	0.002845
1003.407065	0.003042
1003.578568	0.002367
1003.750052	0.002319
1003.921519	0.002762
1004.092967	0.002573
1004.264397	0.003527
1004.435809	0.002983
1004.607202	0.005631
1004.778577	0.005893
1004.949934	0.002731
1005.121273	0.001201
1005.292594	0.001671
1005.463896	0.001498
1005.635180	0.001038
1005.806446	0.000420
1005.977694	0.002640
1006.148923	0.002334
1006.320135	0.003721
1006.491328	0.006050
1006.662503	0.007075
1006.833659	0.007714
1007.004798	0.009003
1007.175918	0.010405
1007.347020	0.008748
1007.518103	0.006944
1007.689169	0.006487
1007.860216	0.005348
1008.031245	0.005142
1008.202256	0.004764
1008.373248	0.003317
1008.544223	0.003109
1008.715179	0.001640
1008.886117	0.001836
1009.057036	0.001301
1009.227938	0.001444
1009.398821	0.001362
1009.569686	0.001963
1009.740533	0.001919
1009.911361	0.003975
1010.082172	0.002641
1010.252964	0.003221
1010.423738	0.002865
1010.594493	0.004774
1010.765231	0.006674
1010.935950	0.007015
1011.106651	0.004976
1011.277334	0.004352
1011.447998	0.002635
1011.618645	0.002857
1011.789273	0.002773
1011.959882	0.004138
1012.130474	0.001600
1012.301048	-0.000468
1012.471603	-0.001512
1012.642140	0.000332
1012.812658	0.000781
1012.983159	-0.000617
1013.153641	-0.000383
1013.324105	-0.000268
1013.494551	-0.000280
1013.664979	0.002972
1013.835388	0.003456
1014.005779	0.003389
1014.176152	0.003814
1014.346507	0.003690
1014.516843	0.005108
1014.687162	0.004525
1014.857462	0.003457
1015.027744	0.003711
1015.198007	0.000471
1015.368252	0.000008
1015.538480	0.000200
1015.708689	-0.001131
1015.878879	-0.000410
1016.049052	0.000036
1016.219206	0.000879
1016.389342	0.001262
1016.559460	-0.000174
1016.729559	0.002852
1016.899641	0.003184
1017.069704	0.003189
1017.239749	0.001508
1017.409775	0.000231
1017.579784	0.000858
1017.749774	0.000215
1017.919746	0.000551
1018.089700	0.001324
1018.259635	-0.000132
1018.429553	-0.000604
1018.599452	-0.002123
1018.769333	-0.000651
1018.939195	-0.000162
1019.109040	-0.002070
1019.278866	-0.001848
1019.448674	-0.001636
1019.618464	-0.000800
1019.788235	-0.002201
1019.957989	-0.002202
1020.127724	-0.000499
1020.297441	-0.000494
1020.467139	-0.001462
1020.636820	-0.001828
1020.806482	-0.003751
1020.976126	-0.003603
1021.145752	-0.004108
1021.315359	-0.003694
1021.484948	-0.004177
1021.654519	-0.004091
1021.824072	-0.003605
1021.993607	-0.002507
1022.163123	-0.000765
1022.332621	0.000729
1022.502101	-0.000259
1022.671563	-0.001075
1022.841007	-0.000976
1023.010432	-0.001099
1023.179839	-0.001916
1023.349228	-0.001922
1023.518598	-0.003165
1023.687951	-0.004245
1023.857285	-0.006660
1024.026601	-0.005815
1024.195899	-0.004758
1024.365178	-0.005056
1024.534439	-0.004978
1024.703682	-0.004315
1024.872907	-0.004796
1025.042114	-0.003506
1025.211302	-0.002472
1025.380472	0.000154
1025.549624	0.000064
1025.718758	-0.000696
1025.887873	-0.001456
1026.056970	-0.001115
1026.226049	-0.000634
1026.395110	0.000470
1026.564153	0.000028
1026.733177	0.000553
1026.902183	-0.000067
1027.071171	-0.001176
1027.240141	-0.001750
1027.409092	-0.001753
1027.578026	-0.000956
1027.746940	-0.001461
1027.915837	-0.001851
1028.084716	-0.002005
1028.253576	-0.003834
1028.422418	-0.003693
1028.591242	-0.002044
1028.760048	-0.001734
1028.928835	0.000048
1029.097604	-0.000917
1029.266355	-0.000217
1029.435088	-0.000912
1029.603803	0.000973
1029.772499	0.002488
1029.941177	0.004695
1030.109837	0.003399
1030.278478	0.003925
1030.447102	0.002198
1030.615707	0.001716
1030.784294	0.000978
1030.952863	0.000621
1031.121413	-0.001442
1031.289945	-0.002025
1031.458460	-0.004915
1031.626955	-0.005183
1031.795433	-0.004890
1031.963892	-0.002726
1032.132334	-0.002062
1032.300756	-0.001463
1032.469161	-0.000782
1032.637548	0.000614
1032.805916	-0.000018
1032.974266	0.000870
1033.142598	0.002469
1033.310911	0.002090
1033.479207	-0.000644
1033.647484	-0.000732
1033.815743	-0.002621
1033.983983	-0.002107
1034.152206	-0.003021
1034.320410	-0.002982
1034.488596	-0.003344
1034.656764	-0.005034
1034.824914	-0.005643
1034.993045	-0.002493
1035.161158	-0.001461
1035.329253	-0.001011
1035.497330	-0.001362
1035.665388	-0.001859
1035.833428	-0.002272
1036.001450	-0.001927
1036.169454	-0.000232
1036.337440	-0.000357
1036.505407	-0.002121
1036.673356	-0.002592
1036.841287	-0.002411
1037.009200	-0.004224
1037.177094	-0.003228
1037.344970	-0.001802
1037.512828	-0.002241
1037.680668	-0.003443
1037.848489	-0.002346
1038.016293	-0.002476
1038.184078	-0.002404
1038.351845	-0.002584
1038.519593	-0.000792
1038.687324	-0.000726
1038.855036	0.000189
1039.022730	0.000820
1039.190406	0.000230
1039.358063	-0.000967
1039.525702	-0.000925
1039.693323	-0.000749
1039.860926	-0.000508
1040.028511	-0.000786
1040.196077	-0.001410
1040.363625	-0.003077
1040.531155	-0.003276
1040.698667	-0.002947
1040.866161	-0.001478
1041.033636	-0.000724
1041.201093	-0.001877
1041.368532	-0.001754
1041.535952	-0.001478
1041.703355	-0.001365
1041.870739	-0.000733
1042.038105	-0.000379
1042.205452	0.000234
1042.372782	0.000143
1042.540093	0.000588
1042.707386	0.000830
1042.874661	0.001434
1043.041918	0.000044
1043.209156	0.000451
1043.376376	-0.000817
1043.543578	-0.000198
1043.710762	-0.000345
1043.877927	-0.000384
1044.045074	-0.001372
1044.212203	-0.000521
1044.379314	-0.001782
1044.546407	-0.001935
1044.713481	-0.002107
1044.880537	-0.001651
1045.047575	-0.003418
1045.214595	-0.003669
1045.381596	-0.003846
1045.548579	-0.003823
1045.715544	-0.004991
1045.882491	-0.004208
1046.049420	-0.002913
1046.216330	-0.001947
1046.383222	-0.001961
1046.550096	-0.002469
1046.716951	-0.001332
1046.883789	-0.002280
1047.050608	-0.002377
1047.217409	-0.000894
1047.384192	-0.000277
1047.550956	-0.001117
1047.717703	-0.001948
1047.884431	-0.001989
1048.051140	0.000821
1048.217832	0.000741
1048.384505	0.000950
1048.551161	-0.000912
1048.717798	-0.001646
1048.884416	-0.002435
1049.051017	-0.003329
1049.217599	-0.003520
1049.384163	-0.002555
1049.550709	-0.002966
1049.717237	-0.003825
1049.883746	-0.002198
1050.050237	-0.000834
1050.216710	-0.000799
1050.383165	-0.000921
1050.549601	0.001708
1050.716019	0.001230
1050.882420	0.000502
1051.048801	-0.000434
1051.215165	0.000159
1051.381510	-0.002775
1051.547837	-0.002780
1051.714146	-0.003494
1051.880437	-0.002324
1052.046709	-0.004184
1052.212964	-0.004500
1052.379200	-0.006608
1052.545417	-0.007578
1052.711617	-0.008544
1052.877798	-0.008744
1053.043961	-0.007846
1053.210106	-0.008102
1053.376233	-0.008572
1053.542341	-0.008484
1053.708432	-0.008458
1053.874504	-0.006521
1054.040557	-0.006022
1054.206593	-0.006199
1054.372610	-0.004736
1054.538609	-0.004675
1054.704590	-0.004322
1054.870553	-0.005418
1055.036497	-0.005214
1055.202424	-0.004495
1055.368331	-0.004601
1055.534221	-0.003650
1055.700093	-0.003540
1055.865946	-0.003709
1056.031781	-0.004487
1056.197598	-0.003520
1056.363397	-0.003583
1056.529177	-0.003794
1056.694939	-0.005625
1056.860683	-0.006107
1057.026409	-0.007931
1057.192116	-0.007080
1057.357806	-0.007890
1057.523477	-0.008980
1057.689130	-0.011403
1057.854764	-0.011802
1058.020381	-0.011527
1058.185979	-0.010541
1058.351559	-0.009978
1058.517120	-0.009285
1058.682664	-0.009605
1058.848189	-0.007419
1059.013696	-0.006674
1059.179185	-0.005443
1059.344656	-0.005127
1059.510108	-0.005337
1059.675542	-0.006572
1059.840958	-0.005448
1060.006356	-0.006266
1060.171735	-0.005916
1060.337096	-0.005565
1060.502439	-0.006026
1060.667764	-0.006528
1060.833071	-0.005189
1060.998359	-0.004052
1061.163629	-0.001590
1061.328881	-0.003124
1061.494115	-0.001709
1061.659330	-0.001810
1061.824527	-0.003563
1061.989706	-0.001428
1062.154867	0.000128
1062.320010	-0.000732
1062.485134	-0.001204
1062.650240	-0.002972
1062.815328	-0.002973
1062.980398	-0.002088
1063.145449	-0.002553
1063.310482	-0.003037
1063.475497	-0.005867
1063.640494	-0.004873
1063.805473	-0.004761
1063.970433	-0.005269
1064.135375	-0.005332
1064.300299	-0.006284
1064.465204	-0.009130
1064.630092	-0.009431
1064.794961	-0.009176
1064.959812	-0.008217
1065.124645	-0.011153
1065.289459	-0.010550
1065.454256	-0.010811
1065.619034	-0.010158
1065.783793	-0.008659
1065.948535	-0.007008
1066.113258	-0.006439
1066.277964	-0.004636
1066.442651	-0.004339
1066.607319	-0.002673
1066.771970	-0.003241
1066.936602	-0.005127
1067.101216	-0.004264
1067.265812	-0.004555
1067.430389	-0.002675
1067.594949	-0.002922
1067.759490	-0.003407
1067.924013	-0.002495
1068.088518	-0.002383
1068.253004	-0.001702
1068.417472	0.001342
1068.581922	0.000762
1068.746354	0.002370
1068.910768	0.001671
1069.075163	0.001571
1069.239540	0.001205
1069.403899	0.001189
1069.568240	0.001055
1069.732562	-0.000023
1069.896866	0.000072
1070.061152	-0.000824
1070.225420	-0.001824
1070.389670	-0.002018
1070.553901	-0.002006
1070.718114	-0.002856
1070.882309	-0.003334
1071.046486	-0.003405
1071.210644	-0.003409
1071.374784	-0.005203
1071.538906	-0.005235
1071.703010	-0.003382
1071.867096	-0.004321
1072.031163	-0.005322
1072.195212	-0.004124
1072.359243	-0.004306
1072.523256	-0.004495
1072.687250	-0.004595
1072.851226	-0.002764
1073.015184	-0.001296
1073.179124	-0.004316
1073.343045	-0.005606
1073.506949	-0.005601
1073.670834	-0.006499
1073.834701	-0.004937
1073.998549	-0.004575
1074.162380	-0.005089
1074.326192	-0.007279
1074.489986	-0.008525
1074.653761	-0.007039
1074.817519	-0.005163
1074.981258	-0.003537
1075.144979	-0.002033
1075.308682	-0.000873
1075.472367	-0.002306
1075.636033	-0.000936
1075.799681	0.001878
1075.963311	0.004526
1076.126923	0.005575
1076.290516	0.005823
1076.454092	0.008302
1076.617649	0.009646
1076.781187	0.009701
1076.944708	0.009866
1077.108210	0.009372
1077.271695	0.010492
1077.435160	0.009226
1077.598608	0.007111
1077.762038	0.005400
1077.925449	0.002179
1078.088842	-0.001037
1078.252217	-0.002972
1078.415573	-0.001625
1078.578912	-0.001506
1078.742232	-0.002976
1078.905534	-0.002124
1079.068817	-0.000403
1079.232083	0.000146
1079.395330	0.001304
1079.558559	0.003468
1079.721770	0.002531
1079.884962	0.001859
1080.048136	0.002272
1080.211293	0.002104
1080.374430	-0.001608
1080.537550	-0.004151
1080.700651	-0.002438
1080.863735	-0.002468
1081.026800	-0.002038
1081.189846	-0.002671
1081.352875	-0.000440
1081.515885	0.000137
1081.678877	-0.000020
1081.841851	0.003352
1082.004807	0.002785
1082.167744	0.001410
1082.330663	0.000285
1082.493564	-0.002918
1082.656447	-0.001237
1082.819312	-0.004343
1082.982158	-0.004206
1083.144986	-0.003274
1083.307796	-0.002265
1083.470587	-0.000293
1083.633361	0.000618
1083.796116	0.000180
1083.958853	0.001024
1084.121571	0.002473
1084.284272	0.003299
1084.446954	0.003932
1084.609618	0.005607
1084.772264	0.005324
1084.934892	0.005290
1085.097501	0.007428
1085.260092	0.009750
1085.422665	0.013271
1085.585220	0.009459
1085.747756	0.009550
1085.910274	0.007696
1086.072774	0.005525
1086.235256	0.005830
1086.397720	0.006185
1086.560165	0.004010
1086.722592	0.002743
1086.885001	0.000585
1087.047392	0.002703
1087.209764	0.004602
1087.372119	0.003954
1087.534455	0.005327
1087.696772	0.002949
1087.859072	0.001347
1088.021353	0.000473
1088.183616	0.000531
1088.345861	0.000716
1088.508088	-0.000147
1088.670296	-0.001286
1088.832486	0.001380
1088.994658	-0.002022
1089.156812	0.001057
1089.318948	0.001449
1089.481065	0.002366
1089.643164	0.000812
1089.805245	-0.000367
1089.967308	0.000969
1090.129352	0.000982
1090.291378	0.001067
1090.453386	0.004190
1090.615376	0.002836
1090.777347	0.005720
1090.939301	0.005392
1091.101236	0.007360
1091.263153	0.009985
1091.425051	0.010946
1091.586932	0.010744
1091.748794	0.010851
1091.910638	0.006384
1092.072463	0.004162
1092.234271	0.004377
1092.396060	0.003214
1092.557831	0.004741
1092.719584	0.002337
1092.881319	-0.002048
1093.043035	-0.001271
1093.204733	0.000175
1093.366413	0.002546
1093.528075	0.006001
1093.689718	0.002997
1093.851343	0.005098
1094.012950	0.004104
1094.174539	0.003311
1094.336110	0.008343
1094.497662	0.004292
1094.659196	0.003051
1094.820712	0.003874
1094.982210	0.001656
1095.143689	0.002425
1095.305151	0.000996
1095.466594	0.000789
1095.628018	0.001570
1095.789425	0.001583
1095.950813	0.007126
1096.112183	0.006558
1096.273535	0.006499
1096.434869	0.009078
1096.596184	0.007056
1096.757482	0.006744
1096.918761	0.004307
1097.080021	0.003846
1097.241264	0.003022
1097.402488	-0.002304
1097.563694	-0.001027
1097.724882	-0.000539
1097.886052	-0.004526
1098.047203	0.000479
1098.208336	-0.000356
1098.369451	0.001959
1098.530548	0.002240
1098.691627	0.002946
1098.852687	0.007191
1099.013729	0.006248
1099.174753	0.003118
1099.335758	0.006835
1099.496746	0.002495
1099.657715	0.004606
1099.818666	0.005034
1099.979599	0.003819
1100.140513	0.003014
1100.301409	0.004994
1100.462287	0.003255
1100.623147	0.008879
1100.783989	0.007106
1100.944812	0.010264
1101.105617	0.011663
1101.266404	0.010662
1101.427173	0.011430
1101.587923	0.011580
1101.748656	0.007333
1101.909370	0.006821
1102.070066	0.003252
1102.230743	0.002932
1102.391403	0.003960
1102.552044	0.005918
1102.712667	0.006851
1102.873271	0.008997
1103.033858	0.004647
1103.194426	0.006492
1103.354976	0.007603
1103.515508	0.003925
1103.676021	0.006780
1103.836517	-0.000565
1103.996994	-0.005368
1104.157453	-0.003489
1104.317893	-0.003624
1104.478316	-0.002642
1104.638720	-0.002392
1104.799106	-0.003574
1104.959474	0.001529
1105.119823	-0.001540
1105.280155	0.004712
1105.440468	0.005958
1105.600763	0.006911
1105.761039	0.003904
1105.921298	0.007730
1106.081538	0.007173
1106.241760	0.007136
1106.401964	0.009639
1106.562149	0.009447
1106.722316	0.007916
1106.882465	0.006000
1107.042596	0.003647
1107.202709	0.005290
1107.362803	0.000905
1107.522879	-0.001714
1107.682937	0.000852
1107.842977	-0.003700
1108.002999	-0.004693
1108.163002	-0.002480
1108.322987	-0.005608
1108.482954	-0.005939
1108.642902	-0.006880
1108.802833	-0.001245
1108.962745	0.000423
1109.122639	-0.002423
1109.282515	0.001661
1109.442372	0.002410
1109.602211	-0.001528
1109.762032	0.000449
1109.921835	-0.000158
1110.081620	-0.001541
1110.241386	-0.006565
1110.401134	-0.005344
1110.560864	-0.003242
1110.720576	-0.007936
1110.880269	-0.005889
1111.039945	-0.001431
1111.199602	0.004954
1111.359240	0.003794
1111.518861	0.007044
1111.678463	0.008145
1111.838047	0.004605
1111.997613	0.003049
1112.157161	0.006660
1112.316690	0.005359
1112.476202	0.001880
1112.635695	-0.003478
1112.795169	-0.005193
1112.954626	-0.000008
1113.114064	-0.001663
1113.273484	0.000941
1113.432886	0.002636
1113.592270	-0.000727
1113.751635	-0.000894
1113.910983	0.000642
1114.070312	0.004982
1114.229622	0.007763
1114.388915	0.001056
1114.548189	0.000859
1114.707445	-0.000748
1114.866683	-0.005147
1115.025903	-0.003422
1115.185104	-0.003197
1115.344287	-0.004023
1115.503452	-0.006202
1115.662599	-0.008030
1115.821727	-0.007826
1115.980838	-0.006528
1116.139930	-0.003339
1116.299004	-0.003026
1116.458059	-0.004174
1116.617097	-0.004866
1116.776116	-0.003373
1116.935117	-0.004167
1117.094099	0.001277
1117.253064	0.001482
1117.412010	-0.000369
1117.570938	-0.000451
1117.729848	0.002235
1117.888740	0.006368
1118.047613	0.005411
1118.206468	0.002125
1118.365305	-0.001047
1118.524124	-0.004895
1118.682924	-0.004345
1118.841707	0.000785
1119.000471	0.000609
1119.159216	-0.000169
1119.317944	-0.004328
1119.476653	-0.005450
1119.635344	-0.001286
1119.794017	0.002540
1119.952672	-0.002689
1120.111308	-0.001168
1120.269927	-0.001016
1120.428527	-0.002968
1120.587108	0.000241
1120.745672	0.003436
1120.904217	0.001514
1121.062744	-0.001801
1121.221253	-0.003122
1121.379744	-0.004219
1121.538216	-0.004951
1121.696671	-0.008242
1121.855107	-0.007475
1122.013524	-0.011233
1122.171924	-0.016751
1122.330305	-0.015838
1122.488668	-0.008608
1122.647013	-0.007437
1122.805340	0.000973
1122.963648	0.001883
1123.121938	0.003252
1123.280210	0.004372
1123.438464	0.004068
1123.596700	0.001593
1123.754917	0.002543
1123.913116	-0.007473
1124.071297	-0.006643
1124.229459	-0.006688
1124.387604	-0.007526
1124.545730	-0.006923
1124.703838	-0.006084
1124.861928	-0.007658
1125.019999	-0.003783
1125.178052	-0.001641
1125.336088	0.001124
1125.494104	-0.002371
1125.652103	-0.005955
1125.810083	-0.007471
1125.968045	-0.006859
1126.125989	-0.009569
1126.283915	-0.002493
1126.441823	0.003264
1126.599712	0.000434
1126.757583	-0.004541
1126.915436	0.000582
1127.073270	0.000676
1127.231087	-0.000552
1127.388885	-0.001407
1127.546665	-0.002852
1127.704426	-0.002499
1127.862170	-0.006775
1128.019895	-0.003293
1128.177602	0.001941
1128.335291	-0.000768
1128.492961	0.003567
1128.650614	0.009531
1128.808248	0.010581
1128.965864	0.008363
1129.123461	0.002430
1129.281041	0.000983
1129.438602	0.003622
1129.596145	0.006106
1129.753670	0.009818
1129.911176	0.008929
1130.068665	0.002154
1130.226135	0.004156
1130.383587	0.007081
1130.541020	0.008703
1130.698436	0.010031
1130.855833	0.007938
1131.013212	0.006896
1131.170573	-0.000416
1131.327915	0.003862
1131.485239	0.005572
1131.642545	0.000970
1131.799833	-0.003364
1131.957103	-0.000847
1132.114354	-0.002340
1132.271588	-0.002720
1132.428803	-0.003382
1132.585999	0.004350
1132.743178	-0.001293
1132.900338	0.000451
1133.057480	-0.001525
1133.214604	-0.001180
1133.371710	-0.003478
1133.528797	-0.000234
1133.685866	0.001644
1133.842917	0.005343
1133.999950	0.004483
1134.156964	0.002248
1134.313960	-0.000945
1134.470938	0.002232
1134.627898	0.006571
1134.784840	0.013068
1134.941763	0.009813
1135.098668	0.001719
1135.255555	-0.004066
1135.412424	-0.002831
1135.569274	-0.000677
1135.726107	-0.004796
1135.882921	-0.004869
1136.039716	-0.007754
1136.196494	-0.019370
1136.353253	-0.019633
1136.509995	-0.014769
1136.666717	-0.009347
1136.823422	-0.008593
1136.980109	-0.011755
1137.136777	-0.009405
1137.293427	-0.010644
1137.450059	0.001652
1137.606672	0.010039
1137.763267	0.011164
1137.919844	0.013422
1138.076403	0.009279
1138.232944	0.002831
1138.389466	0.007690
1138.545971	0.011435
1138.702457	0.012020
1138.858924	0.002185
1139.015374	-0.004404
1139.171805	-0.001457
1139.328218	-0.004162
1139.484613	0.002536
1139.640990	-0.008647
1139.797348	-0.010333
1139.953688	-0.012647
1140.110010	-0.007222
1140.266314	-0.004104
1140.422600	0.002801
1140.578867	-0.003246
1140.735116	-0.004877
1140.891347	-0.008495
1141.047559	0.001608
1141.203754	0.004969
1141.359930	0.003780
1141.516088	0.004692
1141.672228	0.005565
1141.828349	-0.002080
1141.984452	0.001142
1142.140537	0.001432
1142.296604	0.001680
1142.452653	0.001253
1142.608683	-0.010238
1142.764695	-0.004164
1142.920689	-0.009168
1143.076665	-0.007335
1143.232622	0.001299
1143.388562	0.001810
1143.544483	0.003473
1143.700385	0.008421
1143.856270	0.006261
1144.012136	0.012994
1144.167985	0.014757
1144.323814	0.008214
1144.479626	0.008371
1144.635420	0.008814
1144.791195	0.011438
1144.946952	0.012870
1145.102691	0.000988
1145.258411	0.008268
1145.414113	0.008167
1145.569798	0.012702
1145.725463	0.011347
1145.881111	0.005009
1146.036741	0.004916
1146.192352	0.017540
1146.347945	0.013275
1146.503519	0.018815
1146.659076	0.015111
1146.814614	0.028604
1146.970134	0.019053
1147.125636	0.030196
1147.281120	0.031456
1147.436585	0.026943
1147.592032	0.013763
1147.747461	0.012987
1147.902872	0.008347
1148.058265	-0.001261
1148.213639	-0.021130
1148.368995	-0.013284
1148.524333	-0.020445
1148.679653	-0.014425
1148.834954	-0.011910
1148.990237	-0.012265
1149.145502	-0.000953
1149.300749	-0.002432
1149.455977	0.001109
1149.611188	0.005902
1149.766380	-0.003794
1149.921553	-0.004974
1150.076709	-0.013809
1150.231846	-0.013154
1150.386966	-0.014417
1150.542066	-0.021279
1150.697149	-0.012024
1150.852214	-0.008125
1151.007260	-0.002022
1151.162288	0.000855
1151.317298	-0.001500
1151.472289	0.001099
1151.627263	0.005734
1151.782218	0.009477
1151.937155	0.006981
1152.092073	-0.004747
1152.246974	-0.004578
1152.401856	-0.009487
1152.556720	-0.007451
1152.711566	0.003258
1152.866393	0.001951
1153.021203	-0.009550
1153.175994	-0.011470
1153.330767	-0.009876
1153.485521	-0.004142
1153.640258	-0.004194
1153.794976	0.002799
1153.949676	0.005004
1154.104358	0.007200
1154.259021	0.010075
1154.413667	0.007791
1154.568294	0.010047
1154.722903	0.011146
1154.877493	0.020731
1155.032066	0.024219
1155.186620	0.015723
1155.341156	0.017376
1155.495674	0.015157
1155.650173	0.008396
1155.804654	0.010743
1155.959118	0.003899
1156.113562	-0.000464
1156.267989	-0.004993
1156.422397	-0.014208
1156.576788	-0.013145
1156.731160	-0.018241
1156.885513	-0.024311
1157.039849	-0.016738
1157.194166	-0.009104
1157.348465	-0.004055
1157.502746	0.001822
1157.657009	-0.008996
1157.811253	-0.005353
1157.965479	0.005922
1158.119687	0.013267
1158.273877	0.011693
1158.428048	0.011238
1158.582201	0.010814
1158.736337	0.006521
1158.890453	0.010451
1159.044552	0.012798
1159.198632	0.022415
1159.352694	0.010765
1159.506738	0.009101
1159.660764	0.013851
1159.814771	0.007314
1159.968761	0.006837
1160.122732	0.015015
1160.276685	0.015438
1160.430619	0.022625
1160.584535	0.017664
1160.738434	0.011554
1160.892313	-0.000157
1161.046175	-0.005634
1161.200019	0.002447
1161.353844	-0.002581
1161.507651	-0.001518
1161.661440	-0.016752
1161.815210	-0.010014
1161.968962	-0.014076
1162.122697	-0.008397
1162.276412	-0.004972
1162.430110	-0.006883
1162.583789	-0.020137
1162.737451	-0.012180
1162.891094	-0.021140
1163.044718	-0.009978
1163.198325	-0.017446
1163.351913	-0.012159
1163.505483	-0.022183
1163.659035	-0.011492
1163.812569	-0.000569
1163.966084	0.002659
1164.119581	-0.004996
1164.273060	-0.009387
1164.426521	-0.004131
1164.579964	-0.001017
1164.733388	-0.000008
1164.886794	0.017392
1165.040182	0.009145
1165.193551	-0.005971
1165.346903	0.001339
1165.500236	-0.008369
1165.653551	0.002712
1165.806848	-0.003846
1165.960126	-0.000719
1166.113386	-0.002045
1166.266628	0.001298
1166.419852	0.012097
1166.573058	0.025214
1166.726245	0.034161
1166.879414	0.051420
1167.032565	0.041491
1167.185698	0.051275
1167.338812	0.036657
1167.491909	0.047128
1167.644987	0.050714
1167.798046	0.042521
1167.951088	0.029184
1168.104111	0.033315
1168.257117	0.038652
1168.410103	0.043961
1168.563072	0.037307
1168.716023	0.033976
1168.868955	0.026705
1169.021869	0.027187
1169.174765	0.025986
1169.327642	0.050645
1169.480501	0.028331
1169.633343	0.029449
1169.786165	0.034304
1169.938970	0.024874
1170.091757	0.035590
1170.244525	0.025486
1170.397275	0.027306
1170.550007	0.012626
1170.702720	-0.007529
1170.855415	0.000280
1171.008092	-0.000262
1171.160751	0.008705
1171.313392	0.029231
1171.466014	-0.030763
1171.618619	0.148021
1171.771205	0.148021
1171.923772	0.148021
