sample name	sample
index	495
start time	 03-11-2021  02:30:00 PM
880	-0.015600
Peak Time (s)	92.535
Peak Height 	-0.0156
calc peak height	90,93
Baseline Time (s)	8.537
Baseline Value 	-0.006783
subtract baseline	10,4
Abs	-0.011835
Peak Time (s)	90.037
Peak Height 	-0.01183
calc peak height	90,93
Baseline Time (s)	9.037
Baseline Value 	0.003749
subtract baseline	10,3
PK_550	-0.001237
Peak Time (s)	92.035
Peak Height 	-0.001237
calc peak height	90,93
Baseline Time (s)	11.535
Baseline Value 	1.9415E-4
subtract baseline	10,2
PK_880	-0.007673
Peak Time (s)	90.037
Peak Height 	-0.007673
calc peak height	90,93
Baseline Time (s)	9.537
Baseline Value 	0.002917
subtract baseline	10,1


Time (s)	A880-A510	A880-A775	A880-A975	A880	I510	I775	I975	I880	
0.037000	0.000514	-0.000392	0.000224	0.003123	7068.789462	45449.616480	3981.196071	24174.407396
0.538000	-0.001864	0.000197	-0.002522	0.006030	7018.364876	45223.463415	3966.742443	24032.482787
1.035000	-0.004914	-0.000506	-0.007427	0.008228	6968.893922	44942.180376	3948.849625	23925.804483
1.538000	-0.001493	0.000321	0.003126	0.002368	7056.793535	45593.431588	3990.644675	24211.416375
2.035500	0.000568	0.000497	-0.000578	0.001679	7083.200524	45678.421975	3982.847491	24245.261624
2.536000	-0.001638	0.000910	-0.000908	0.001899	7059.894903	45697.391509	3981.431538	24234.443941
3.036000	-0.003444	0.000398	-0.001409	0.002069	7041.008868	45630.425512	3979.706047	24226.109407
3.536000	-0.002436	0.000142	-0.000894	0.001479	7056.272276	45663.175571	3982.547559	24255.066855
4.037000	-0.001240	0.000473	-0.002466	0.001320	7069.255829	45711.345729	3978.913026	24262.872239
4.537000	-0.001785	-0.000038	0.000402	0.001119	7065.960038	45680.842428	3986.822753	24272.768196
5.037500	-0.001536	-0.000267	0.001387	0.000741	7071.975764	45695.514719	3990.352402	24291.372728
5.535000	-0.001697	0.000017	-0.000429	0.000745	7070.397559	45723.100782	3985.641820	24291.185147
6.038000	-0.000701	-0.000239	-0.000085	0.000661	7080.782178	45706.172669	3986.748596	24295.328486
6.535500	0.000099	-0.000347	0.001059	0.000204	7092.893771	45740.479208	3990.895238	24317.831410
7.035500	-0.000040	0.000191	0.004907	0.000520	7088.503188	45762.392641	4000.098081	24302.270253
7.535500	0.000601	0.000095	-0.000952	0.000470	7095.175256	45757.825042	3985.001468	24304.722483
8.036000	0.002091	0.001139	0.000770	0.001490	7099.720586	45760.301598	3986.816522	24254.550642
8.536500	-0.000830	-0.000319	-0.001754	0.000000	7085.900004	45763.404086	3984.143826	24327.913023
9.037000	0.000812	0.000568	0.000000	0.000929	7092.782355	45759.306010	3986.276164	24282.155725
9.537000	0.000000	0.000924	-0.000998	0.000798	7086.211228	45807.194055	3984.035861	24288.577247
10.037500	-0.000907	-0.000240	0.001259	0.000280	7082.462214	45743.543427	3991.216585	24314.108124
10.538000	-0.000003	0.000085	0.002942	-0.000088	7094.730283	45811.911289	3996.553852	24332.250350
11.035500	0.001516	-0.000334	-0.000190	-0.000332	7111.794035	45794.619655	3989.044500	24344.277184
11.535000	0.000908	0.000000	0.002442	-0.000114	7103.791595	45806.087962	3995.318300	24333.549412
12.036000	0.000040	0.000764	-0.000200	0.000581	7088.684665	45812.874266	3986.655504	24299.255542
12.536500	-0.001166	0.000258	0.000514	-0.000222	7084.804520	45842.148097	3990.585701	24338.849226
13.036000	0.000776	0.000311	-0.001878	0.000074	7100.702628	45818.257807	3983.634126	24324.285812
13.537000	-0.000221	0.000184	-0.002920	-0.000167	7093.395958	45829.481959	3981.570540	24336.164499
14.037000	-0.002449	-0.000122	-0.001451	0.002493	7046.461684	45537.765112	3978.509036	24205.294637
14.541500	-0.003096	0.000503	-0.002687	0.005034	7016.126475	45350.391408	3968.856381	24080.996759
15.037500	0.001456	0.000246	-0.001624	-0.000197	7109.902433	45838.494476	3984.987490	24337.638813
15.535000	-0.000558	0.000138	0.001293	-0.000106	7089.548176	45818.900658	3992.306682	24333.132886
16.035000	-0.000891	-0.000101	-0.002967	-0.000337	7088.564849	45818.104162	3981.887600	24344.555010
16.535500	-0.002628	0.000147	-0.003013	0.004581	7024.860605	45359.766952	3969.179001	24103.090259
17.036000	0.002500	0.000427	0.003819	-0.002580	7143.251804	46092.312376	4005.374411	24455.559177
17.536000	-0.000232	0.000747	0.002639	0.001115	7080.925265	45758.568199	3992.633278	24272.964889
18.036500	-0.000165	0.000555	0.000956	0.001767	7075.295863	45675.446069	3986.578955	24240.901559
18.537000	0.000161	0.000546	0.003074	0.002934	7067.212344	45560.007770	3989.039766	24183.649939
19.037000	0.000244	0.000176	-0.002380	0.001199	7084.701503	45694.053417	3979.447066	24268.844715
19.540000	0.000734	0.000283	0.003145	0.001677	7084.812129	45657.540441	3992.487822	24245.328194
20.035000	-0.002969	0.000389	-0.003450	0.001437	7051.574520	45691.615625	3976.091345	24257.118445
20.535000	-0.001932	-0.001120	-0.004652	0.002443	7051.873046	45444.917118	3970.448964	24207.723228
21.035000	0.000187	0.000668	0.001620	0.001353	7082.667111	45727.311285	3989.369152	24261.251251
21.535500	-0.001447	0.000305	-0.001788	0.001056	7069.800458	45720.829525	3981.335675	24275.860483
22.036000	-0.000692	0.000704	0.002870	0.001296	7074.749900	45736.435661	3992.761228	24264.053384
22.536500	-0.000772	-0.000236	0.002068	0.002615	7061.336444	45514.666777	3987.262806	24199.318518
23.036500	-0.001075	0.000711	0.001244	0.001630	7067.870959	45704.345831	3987.679793	24247.651531
23.537000	0.002080	0.000779	-0.000534	0.001459	7099.915107	45727.792307	3983.526988	24256.048206
24.040000	0.000212	0.000703	-0.003614	0.001684	7079.720885	45698.182292	3975.040014	24245.007894
24.534500	-0.000978	0.000743	0.001443	0.001360	7071.392201	45733.973717	3988.892589	24260.913989
25.035000	-0.000734	0.000146	-0.002224	0.001397	7073.384399	45671.681174	3979.338275	24259.110957
25.535500	-0.002155	-0.000106	-0.000766	0.000921	7064.317157	45693.731460	3984.317306	24282.543136
26.035500	0.000483	0.000350	0.000659	0.001608	7083.064651	45670.971379	3986.223421	24248.741383
26.536000	-0.001441	0.000679	0.003272	0.003193	7049.399856	45547.667105	3988.884687	24170.983140
27.036000	0.001871	0.000396	0.002575	-0.001064	7122.352226	45939.008308	3998.144938	24380.467248
27.539000	-0.000193	-0.000210	0.002762	-0.000813	7099.909030	45854.321787	3997.976708	24368.074632
28.037000	-0.000727	0.001284	0.002955	0.000567	7081.437581	45865.545756	3994.880347	24299.965591
28.539500	-0.001304	0.001084	0.000240	0.006037	7023.614672	45309.226037	3973.763510	24032.141577
29.037500	0.000376	0.000609	0.002714	0.000228	7095.344628	45832.390739	3995.136625	24316.664219
29.535000	0.000621	0.000782	0.002365	0.000800	7092.184167	45792.997585	3992.738025	24288.466883
30.035500	0.000868	-0.000122	0.000650	-0.000386	7106.033405	45820.811322	3991.364142	24346.941816
30.535500	-0.001342	0.000521	0.001044	0.004254	7040.209193	45428.286316	3980.393738	24119.057477
31.036000	-0.000035	0.000135	-0.002899	0.001723	7076.976196	45638.563712	3976.770394	24243.103702
31.536000	0.001792	0.000569	0.009487	0.000605	7105.386747	45791.277205	4011.919965	24298.073009
32.036000	0.000685	-0.000318	0.003040	-0.000337	7103.789570	45796.641959	3997.458367	24344.535519
32.537000	-0.000791	0.000126	0.003501	0.004777	7040.489042	45338.707896	3985.379379	24093.561496
33.039500	0.001769	0.000179	0.003519	-0.001181	7122.496598	45929.186332	4000.919953	24386.257528
33.537500	0.000772	0.001028	-0.002252	0.002400	7078.225439	45659.765317	3976.694206	24209.861299
34.037000	-0.001864	0.000365	-0.002876	0.001921	7057.513268	45641.678981	3976.320650	24233.353487
34.535000	-0.001458	0.000308	-0.002254	0.004055	7041.010598	45426.946213	3972.456658	24128.807303
35.035500	-0.000360	0.000068	0.000680	0.002156	7069.681235	45589.349845	3984.860969	24221.798796
35.535500	0.001186	0.001018	-0.001161	0.002795	7078.401432	45620.028013	3978.478757	24190.485283
36.035500	0.001652	0.000414	0.004047	0.002613	7084.638458	45578.531988	3992.397140	24199.374769
36.536000	-0.002356	0.000367	-0.003585	0.004193	7031.140617	45419.157088	3968.710390	24122.044784
37.036000	-0.000439	0.000049	-0.001646	0.001981	7070.613375	45604.778844	3979.323626	24230.429502
37.539500	0.000289	0.000069	-0.004803	0.002456	7073.033648	45560.082222	3970.033183	24207.078628
38.037000	-0.001201	0.000648	0.003934	0.002753	7055.894350	45587.722593	3991.742139	24192.524691
38.537000	-0.001431	0.000568	-0.002646	0.003097	7050.407196	45546.156474	3973.899498	24175.664046
39.035000	-0.001640	0.000462	-0.001905	0.002495	7054.175826	45594.825818	3977.339670	24205.201931
39.535500	0.000214	0.000081	-0.000150	0.002599	7070.943275	45547.253669	3981.582778	24200.099443
40.035000	0.000348	0.000677	-0.001065	0.002571	7072.498604	45608.432135	3979.299510	24201.445224
40.535500	-0.000823	0.000756	0.001178	0.003619	7051.235776	45513.486068	3982.374526	24150.117381
41.036000	-0.001038	0.000729	0.000042	0.002473	7060.145256	45623.290152	3982.401500	24206.281525
41.536500	0.000845	0.000217	-0.000424	0.002529	7077.679278	45567.415886	3981.053696	24203.487725
42.039500	-0.001652	-0.000342	0.002251	0.002109	7057.747958	45553.832091	3989.047513	24224.126165
42.537000	-0.000601	0.000486	-0.003457	0.003729	7052.307346	45476.255917	3970.219728	24144.757375
43.037000	-0.000774	0.000629	0.003262	0.002447	7062.920627	45615.922173	3990.792076	24207.539527
43.534500	0.001647	0.000949	-0.001947	-0.002473	7133.896215	46133.570674	3990.042486	24450.274249
44.035000	0.000996	0.000830	0.004663	0.000644	7097.310738	45813.133875	3999.136606	24296.145683
44.538500	-0.003896	0.000195	0.002054	0.006511	6994.595260	45176.509288	3977.192562	24009.076867
45.035500	0.001884	0.000626	0.004955	0.000491	7107.384380	45808.122407	4000.301307	24303.707381
45.536000	0.000989	-0.000290	0.001376	-0.000393	7107.279882	45805.036252	3993.269654	24347.323118
46.036000	0.002880	0.000548	0.001014	0.000165	7120.214076	45832.585272	3990.880435	24319.765503
46.536000	-0.001740	0.000940	0.002459	0.005331	7026.179761	45364.101785	3981.265270	24066.547863
47.036500	-0.003212	-0.000071	-0.004657	0.003102	7033.374521	45483.050058	3968.760052	24175.412058
47.537000	0.001740	0.000811	0.000704	0.001828	7093.063093	45694.641391	3985.771646	24237.919515
48.037500	-0.000519	0.000248	0.000946	0.000167	7087.288184	45802.803503	3990.698021	24319.668253
48.535000	-0.001766	0.000892	-0.000361	0.005471	7024.595331	45345.685601	3973.673275	24059.696999
49.034500	0.002047	0.001305	-0.001152	-0.000905	7122.516312	46013.322965	3988.038923	24372.619933
49.535500	0.002434	0.001055	0.006685	-0.001310	7130.218546	46028.603757	4009.579425	24392.623670
50.036000	0.004766	0.001664	0.002800	0.001006	7130.383274	45859.777435	3993.333896	24278.339758
50.536000	-0.002004	0.000399	-0.003296	0.007456	7003.542340	45104.567181	3961.172343	23963.231858
51.038500	-0.034222	-0.012507	-0.008614	0.251159	5073.780421	26306.733970	3482.279401	14918.914213
51.537000	-0.042746	-0.011655	-0.020378	0.092748	5969.842176	36644.094085	3730.716237	20207.933457
52.037000	-0.054153	-0.025089	-0.026290	-0.109007	7658.565555	54923.009043	4224.693088	30440.628989
52.537000	-0.043930	-0.089768	-0.015855	-0.254379	9708.914878	65530.802552	4811.999420	41388.728598
53.037000	-0.032890	-0.069120	-0.003533	-0.226984	9457.257325	64566.515149	4745.541117	39036.059524
53.534500	-0.033768	-0.042925	-0.012907	-0.187074	8869.423133	62651.651582	4543.668595	35863.557469
54.035000	-0.024590	-0.041858	-0.017022	-0.189517	9031.319314	63135.991366	4537.213811	36049.504005
54.535500	-0.016404	-0.021520	-0.019584	-0.150317	8608.710839	60578.800882	4383.790460	33188.636408
55.035000	-0.008640	-0.018512	-0.013879	-0.141731	8597.921713	59843.725362	4373.738995	32595.781498
55.539000	-0.009490	-0.003678	-0.013188	-0.067088	7688.730304	52526.951760	4137.324429	27906.912767
56.036000	-0.026030	-0.008178	-0.020031	-0.052975	7362.372755	50447.876289	4077.330465	27107.431530
56.537000	-0.012246	-0.011751	-0.018461	-0.111508	8170.911982	56852.712114	4257.449842	30599.675107
57.036500	-0.015213	-0.010089	-0.021199	-0.096930	7962.203912	55273.896152	4202.976248	29685.394968
57.534500	-0.019291	-0.006756	-0.020256	-0.056402	7468.062968	50980.929124	4086.309632	27299.178414
58.034500	-0.020552	-0.005013	-0.016808	-0.025044	7137.520473	47816.236052	4010.216267	25599.744527
58.535000	-0.021475	-0.005612	-0.022738	-0.017371	7054.466545	46970.158617	3974.862471	25202.238928
59.035500	-0.023582	-0.006409	-0.026181	-0.019501	7054.681620	47105.367395	3971.508179	25311.882306
59.535500	-0.021261	-0.006351	-0.020897	-0.025288	7132.980034	47703.346746	4000.108375	25612.461383
60.038500	-0.019667	-0.005613	-0.018719	-0.034261	7237.252520	48714.968973	4029.663953	26086.582466
60.536500	-0.028017	-0.008440	-0.028108	-0.038102	7192.442167	48821.864407	4014.866291	26292.528548
61.036000	-0.018526	-0.004079	-0.017541	-0.032142	7227.489213	48653.327465	4027.139416	25973.711525
61.537000	-0.013563	-0.000336	-0.019893	-0.011225	7071.390027	46882.080684	3966.448828	24888.878290
62.037000	-0.009652	-0.004011	-0.023834	-0.063545	7648.045952	52086.605359	4096.388294	27703.744721
62.537000	-0.007366	-0.002480	-0.023766	-0.061556	7651.293323	52034.833216	4090.946057	27590.418813
63.034500	-0.003056	-0.002531	-0.023060	-0.063722	7722.674652	52274.287927	4099.090133	27713.848560
63.534500	-0.004809	-0.002872	-0.017970	-0.057957	7639.909467	51586.011846	4097.168990	27386.664792
64.035500	-0.005625	-0.001971	-0.020173	-0.052148	7568.156487	51039.774792	4074.624564	27061.386393
64.538000	-0.009022	-0.001883	-0.027052	-0.041611	7420.737428	49896.974059	4027.028301	26482.255522
65.036000	-0.005307	-0.001069	-0.014834	-0.041498	7458.393091	49972.760473	4059.906842	26476.134747
65.536000	-0.005546	-0.001399	-0.018352	-0.038349	7422.968763	49597.755106	4041.685912	26305.815736
66.036500	-0.006372	-0.000642	-0.021682	-0.034647	7376.057216	49282.662113	4022.766482	26107.183153
66.536500	-0.008586	-0.000828	-0.022921	-0.029603	7301.870920	48728.363454	4006.119957	25839.261736
67.037000	-0.007519	0.000342	-0.020229	-0.029372	7310.354746	48827.368523	4012.612836	25827.057725
67.535000	-0.007947	-0.000559	-0.017681	-0.028641	7298.596720	48655.319759	4017.428681	25788.488133
68.037500	-0.006499	-0.000396	-0.021250	-0.027575	7302.470442	48560.492436	4005.180498	25732.392338
68.535500	-0.009444	-0.000302	-0.023169	-0.021196	7208.952693	47905.448076	3983.579283	25399.519414
69.038500	-0.007534	-0.001143	-0.021571	-0.026471	7280.840706	48366.513980	4001.442804	25674.421581
69.536000	-0.005637	-0.001077	-0.019361	-0.026189	7297.169112	48344.006402	4006.506286	25659.665951
70.036000	-0.007420	-0.000408	-0.019400	-0.025454	7271.734037	48337.020493	4004.468089	25621.153932
70.536500	-0.010995	-0.000392	-0.018268	-0.019754	7179.354164	47747.231106	3992.532836	25324.929987
71.039500	-0.005596	-0.000099	-0.018428	-0.025551	7291.121864	48379.537486	4007.280905	25626.258284
71.537000	-0.008930	-0.000513	-0.020996	-0.026669	7268.773383	48453.257522	4003.470620	25684.827251
72.036500	-0.008788	-0.000702	-0.016490	-0.026799	7271.503645	48446.989942	4015.698835	25691.625775
72.535000	-0.012399	-0.000871	-0.020317	-0.022338	7191.010310	47964.757956	3993.927668	25458.769169
73.035000	-0.009222	-0.001413	-0.015764	-0.028610	7285.384554	48562.311620	4022.447924	25786.834693
73.538000	-0.007323	-0.000529	-0.017376	-0.028717	7305.694788	48666.469076	4018.440644	25792.501580
74.036000	-0.009524	-0.000896	-0.012863	-0.029342	7289.734178	48693.695096	4032.182173	25825.469891
74.536000	-0.013751	-0.002464	-0.019504	-0.026720	7221.048771	48254.619566	4007.525393	25687.485988
75.036000	-0.008611	-0.001850	-0.018200	-0.031586	7321.764936	48829.604532	4023.890162	25944.209230
75.536500	-0.011166	-0.001820	-0.012758	-0.032565	7305.752546	48936.317755	4041.171410	25996.231808
76.036500	-0.008495	-0.001763	-0.016520	-0.033086	7338.246805	48997.520465	4032.417037	26023.935706
76.534500	-0.013318	-0.001900	-0.019620	-0.030810	7266.289769	48742.538684	4018.039890	25903.098424
77.035000	-0.011739	-0.002447	-0.017334	-0.035167	7326.384923	49145.867503	4035.830614	26135.011011
77.535000	-0.009875	-0.001568	-0.012268	-0.035341	7347.203026	49257.934843	4050.058242	26144.322377
78.038000	-0.012100	-0.001189	-0.012745	-0.035903	7330.207260	49358.286040	4050.290094	26174.397141
78.535500	-0.012228	-0.002726	-0.021336	-0.033824	7307.743658	48973.764521	4021.495469	26063.265586
79.035500	-0.010017	-0.002295	-0.016380	-0.037827	7371.275021	49445.775779	4045.624440	26277.733485
79.536000	-0.009699	-0.002397	-0.016575	-0.038221	7378.608422	49477.102347	4046.168326	26298.959877
80.036500	-0.010580	-0.003169	-0.017132	-0.038968	7377.219550	49474.319619	4046.683517	26339.204210
80.536500	-0.011591	-0.003060	-0.013810	-0.036403	7340.505513	49212.085343	4048.747172	26201.184570
81.037000	-0.010194	-0.002965	-0.013763	-0.039266	7384.276955	49528.124119	4056.712655	26355.284771
81.537500	-0.011725	-0.003003	-0.014117	-0.039269	7368.531815	49524.412599	4055.749751	26355.473161
82.037000	-0.010624	-0.003781	-0.016271	-0.039531	7382.572215	49469.096791	4050.566960	26369.597915
82.538000	-0.013379	-0.003392	-0.019001	-0.036612	7324.387685	49198.944868	4035.232401	26212.404526
83.035500	-0.011229	-0.003788	-0.015011	-0.039421	7375.197756	49456.564376	4053.713517	26363.653232
83.535500	-0.011476	-0.003723	-0.015139	-0.039130	7369.656351	49432.330505	4052.567063	26347.927348
84.036000	-0.008827	-0.002994	-0.013691	-0.037765	7382.897866	49364.381884	4052.794044	26274.365175
84.536000	-0.010972	-0.003489	-0.020778	-0.031183	7293.705926	48614.492110	4015.952927	25922.822654
85.036000	-0.010443	-0.003542	-0.013690	-0.037173	7360.155699	49242.774663	4051.176810	26242.525101
85.536500	-0.010149	-0.003716	-0.014425	-0.036559	7356.877250	49158.970771	4047.496368	26209.579083
86.037000	-0.009916	-0.002642	-0.012908	-0.035108	7344.400134	49118.824151	4047.676459	26131.850139
86.534500	-0.011467	-0.003209	-0.014075	-0.030112	7277.888106	48531.482315	4030.994095	25866.130353
87.038000	-0.008611	-0.003382	-0.013185	-0.033552	7341.825756	48875.449526	4042.688563	26048.747921
87.535500	-0.008863	-0.002870	-0.013692	-0.031906	7322.461546	48755.795249	4036.859171	25961.203787
88.035000	-0.009268	-0.002857	-0.014218	-0.031081	7309.950684	48670.357587	4033.217426	25917.454766
88.536000	-0.008848	-0.001777	-0.014322	-0.029393	7297.086452	48606.256095	4028.398724	25828.131606
89.036500	-0.009708	-0.002678	-0.014330	-0.029030	7284.730485	48473.740873	4027.406212	25809.025291
89.536500	-0.007496	-0.001514	-0.009449	-0.027290	7289.493312	48413.444358	4035.853749	25717.416996
90.036500	-0.007673	-0.001372	-0.011835	-0.025901	7273.697726	48283.190852	4025.710174	25644.581865
90.536500	-0.009401	-0.001855	-0.012280	-0.023934	7236.636150	48028.246260	4019.273188	25541.791008
91.037500	-0.007863	-0.001271	-0.012211	-0.023576	7248.439533	48051.703997	4018.504886	25523.158104
91.540000	-0.008750	-0.002188	-0.015294	-0.023503	7238.833838	47949.019324	4010.143004	25519.342922
92.035500	-0.009124	-0.001237	-0.017048	-0.021689	7217.029592	47859.702306	4000.763979	25425.052301
92.535500	-0.013110	-0.001548	-0.015829	-0.015600	7118.028147	47203.109302	3988.084833	25111.496352
93.035500	-0.009240	-0.000923	-0.015163	-0.019928	7198.409325	47710.380262	4001.086376	25333.905686
93.536000	-0.007871	-0.000958	-0.012496	-0.019006	7202.840275	47611.898787	4005.666305	25286.352361
94.036000	-0.009602	-0.001566	-0.009449	-0.018208	7177.847701	47467.662277	4011.596294	25245.254011
94.536500	-0.011767	-0.001521	-0.018574	-0.011581	7092.111734	46798.311417	3970.710200	24906.901879
95.037000	-0.009951	-0.002083	-0.014281	-0.016793	7160.513289	47270.115545	3995.204706	25172.597179
95.534500	-0.010803	-0.001569	-0.011065	-0.016128	7145.659330	47254.740233	4001.869482	25138.528009
