sample name	sample
index	1099
start time	 04-22-2021  12:32:58 PM
880	-0.025129
Peak Time (s)	101.536
Peak Height 	-0.02513
calc peak height	100,103
Baseline Time (s)	9.536
Baseline Value 	-0.004145
subtract baseline	10,4
Abs	-0.010730
Peak Time (s)	101.065
Peak Height 	-0.01073
calc peak height	100,103
Baseline Time (s)	11.037
Baseline Value 	0.00297
subtract baseline	10,3
PK_550	0.000375
Peak Time (s)	101.065
Peak Height 	3.7506E-4
calc peak height	100,103
Baseline Time (s)	8.536
Baseline Value 	3.9265E-4
subtract baseline	10,2
PK_880	-0.011669
Peak Time (s)	102.537
Peak Height 	-0.01167
calc peak height	100,103
Baseline Time (s)	10.037
Baseline Value 	0.001256
subtract baseline	10,1


Time (s)	A880-A510	A880-A775	A880-A975	A880	I510	I775	I975	I880	
0.036000	-0.005314	-0.000260	-0.004383	0.009160	6188.411333	42655.919836	3885.473637	22396.217463
0.536000	-0.003474	-0.000447	-0.000306	0.004769	6235.572887	43041.884675	3904.823808	22594.053151
1.036500	-0.001484	-0.000182	-0.003645	0.004824	6250.365679	43061.283594	3897.022717	22591.589396
1.537000	-0.000239	-0.000579	-0.004253	0.001869	6282.680585	43297.994962	3902.410180	22725.830455
2.037500	-0.001470	-0.000181	-0.004357	0.006046	6241.120468	42948.719468	3892.604545	22536.308994
2.537000	-0.001645	-0.000328	-0.002708	0.001753	6272.717914	43332.127568	3906.241414	22731.136891
3.037000	0.002487	0.000134	-0.001787	-0.001167	6327.526463	43647.669227	3915.157320	22864.735396
3.535000	-0.000793	0.000601	-0.002022	0.001029	6284.896900	43486.079669	3909.504869	22764.189484
4.035500	0.001603	0.000914	0.003574	0.002023	6295.752431	43422.572560	3920.228549	22718.807714
4.535500	-0.000589	0.000151	-0.000555	0.000794	6288.291359	43466.061593	3913.459096	22774.932387
5.036000	0.001012	-0.000483	-0.005408	0.000385	6303.894005	43445.054209	3903.168567	22793.624040
5.536500	0.001699	0.000424	0.002382	0.000959	6304.767200	43476.018336	3919.929597	22767.355443
6.037000	-0.000568	0.000132	0.001885	0.000516	6290.604070	43490.166100	3919.804194	22787.623587
6.540000	0.000126	0.000874	0.000181	0.001231	6290.442208	43492.683544	3914.154153	22754.947690
7.037000	0.000445	0.000133	-0.001888	0.000082	6301.845185	43530.816301	3912.013776	22807.488771
7.534500	-0.002525	-0.000451	-0.000510	-0.000466	6283.060981	43527.397623	3916.499788	22832.595660
8.035000	0.001527	-0.000601	-0.004997	-0.000080	6311.528105	43477.394237	3905.187983	22814.900550
8.535500	-0.000961	0.000000	-0.003202	-0.000019	6291.704001	43527.740052	3909.197879	22812.087405
9.036000	-0.000489	0.000644	-0.000763	0.000353	6292.486482	43553.177008	3914.001863	22795.084814
9.536000	0.000601	-0.000014	0.002844	0.000000	6303.689948	43524.730948	3923.263818	22811.235434
10.036500	0.000000	-0.000615	0.002060	-0.000453	6302.542782	43510.883205	3922.487924	22831.999070
10.536500	0.000462	-0.000065	0.000611	-0.000169	6303.925330	43535.696316	3918.425285	22818.954155
11.037000	0.000664	0.000943	0.000000	0.000799	6297.973143	43539.430761	3914.739508	22774.687922
11.537000	-0.001534	0.000053	-0.000625	0.000217	6285.443604	43510.671789	3914.638376	22801.295232
12.037500	0.000605	0.000194	0.002166	0.000133	6302.688043	43531.754100	3921.361541	22805.152289
12.535000	-0.001865	0.000455	-0.000722	-0.000120	6285.489999	43579.672779	3915.198943	22816.723347
13.035500	0.000116	0.000393	-0.002194	-0.000065	6300.421727	43568.744875	3911.644420	22814.192962
13.535500	-0.000076	0.000203	0.001946	0.000761	6292.517215	43473.893217	3919.372628	22776.410941
14.036000	-0.001132	0.000146	-0.006186	0.002657	6269.712595	43292.246362	3896.167038	22689.966075
14.536000	-0.002337	-0.000080	0.002390	0.002254	6263.531746	43308.597431	3916.918737	22708.284967
15.036000	-0.000504	0.000399	-0.000631	0.000303	6292.759415	43534.985990	3914.425907	22797.380388
15.536500	-0.000583	0.000323	-0.000771	0.000560	6290.147190	43503.904437	3913.499513	22785.606351
16.040000	0.000014	-0.000040	0.007374	0.000558	6294.796723	43470.209713	3932.640365	22785.712385
16.537000	0.000281	-0.000268	-0.004774	-0.000268	6303.291222	43525.964813	3906.138562	22823.514616
17.034500	0.001658	-0.000027	-0.000202	-0.003287	6337.666016	43831.545609	3923.831304	22962.328294
17.535500	-0.000922	0.000708	-0.000340	0.001600	6279.480893	43442.789637	3912.083268	22738.106025
18.035500	0.000355	0.000892	0.002570	0.002514	6282.281315	43374.766565	3916.733981	22696.447126
18.535500	-0.000317	0.000769	-0.003952	0.002058	6280.622624	43405.884794	3902.670589	22717.241473
19.036000	-0.002424	0.000061	0.000963	0.001086	6271.860628	43430.419729	3916.315634	22761.570639
19.536000	-0.000694	0.000145	0.001799	0.001513	6281.912876	43398.427898	3917.271550	22742.076103
20.036000	-0.000717	0.000390	-0.001443	0.001435	6282.343520	43428.550136	3909.907206	22745.642641
20.539500	-0.000510	-0.000079	0.000682	0.001223	6285.578786	43404.639302	3915.339666	22755.315549
21.037000	0.000379	-0.000116	-0.002959	0.001551	6289.923073	43370.597828	3906.128492	22740.339184
21.537000	0.000506	-0.000001	0.003093	0.001074	6294.611095	43425.779382	3921.327355	22762.137864
22.034500	0.000027	0.000461	-0.001045	0.002207	6282.123109	43363.278628	3909.040631	22710.450228
22.535000	-0.001231	0.000813	-0.000945	0.002229	6272.240134	43393.962803	3909.218380	22709.422737
23.035500	-0.001831	0.000750	0.001457	0.001694	6271.742492	43437.953127	3916.048993	22733.826819
23.535500	-0.000143	-0.000279	-0.000519	0.001265	6288.091453	43382.071940	3912.445566	22753.381273
24.036000	0.000059	0.000566	-0.000432	0.001683	6286.425943	43421.863882	3911.678985	22734.337922
24.536000	-0.002305	-0.000239	0.002313	0.000990	6273.511562	43411.412623	3919.696006	22765.952631
25.036500	0.000500	0.000384	0.000622	0.001829	6288.711479	43391.299112	3913.789463	22727.659057
25.537000	-0.001414	-0.001232	-0.000109	0.000674	6282.833405	43348.397504	3914.776775	22780.402222
26.037000	-0.000943	0.000395	0.002682	0.001631	6279.079796	43410.698049	3919.058804	22736.684661
26.537500	-0.001406	0.000308	0.003372	0.001283	6278.189999	43435.031329	3921.491746	22752.562419
27.035000	-0.000032	0.000434	0.005438	-0.000327	6301.309992	43597.120933	3930.152132	22826.216818
27.535000	0.001026	0.000169	0.001034	0.001150	6298.052147	43434.508449	3916.332917	22758.647130
28.036000	-0.001545	0.000136	0.005804	0.000861	6280.375928	43458.369936	3928.207922	22771.842476
28.536000	-0.001180	-0.000861	-0.000641	-0.000118	6290.773492	43456.685262	3915.382338	22816.617429
29.036000	0.000906	0.000224	0.003506	0.000221	6304.345351	43526.357797	3924.301705	22801.135323
29.536500	-0.002624	-0.000167	-0.003657	0.002636	6258.393070	43265.038616	3902.016036	22690.888709
30.039000	0.000196	0.000786	-0.004920	0.000837	6294.038896	43521.243350	3903.251726	22772.947007
30.536500	-0.002063	0.000301	-0.001578	0.002461	6264.051770	43324.777717	3907.217004	22698.869339
31.037500	-0.002592	-0.000848	0.000779	0.001834	6264.802532	43276.378877	3914.142431	22727.444493
31.535000	-0.001260	-0.000906	-0.001468	0.002416	6270.581492	43217.050191	3907.575998	22700.933745
32.035000	0.000916	0.000006	-0.001592	0.000179	6304.752032	43509.888916	3912.477790	22803.046136
32.538000	0.000257	0.000762	0.004406	0.000664	6295.861475	43535.203631	3925.377152	22780.876168
33.035500	0.000650	-0.000546	-0.000970	-0.000516	6308.087498	43523.200066	3915.543046	22834.865664
33.539500	-0.001498	0.000371	-0.000283	0.003577	6259.814106	43227.759906	3907.630840	22648.113334
34.036000	-0.000559	0.000591	-0.006417	0.002322	6276.713230	43364.729878	3896.404605	22705.207719
34.536500	-0.001426	-0.000043	-0.003661	0.002479	6268.807433	43291.121646	3902.368109	22698.031086
35.036500	-0.000482	0.000763	-0.000884	0.002764	6273.891760	43339.515341	3908.120624	22685.062662
35.537000	-0.001636	-0.000219	-0.003548	0.003446	6259.765241	43185.231066	3900.407220	22654.092461
36.037000	-0.000950	-0.000269	-0.001231	0.002031	6275.943051	43311.837982	3909.016359	22718.471407
36.538000	-0.004079	-0.000284	-0.004112	0.001552	6255.555097	43354.927549	3903.466313	22740.316202
37.035500	-0.001387	-0.000114	-0.001052	0.002143	6271.709339	43315.819346	3909.173160	22713.373195
37.535500	-0.000630	0.000318	0.000941	0.002161	6277.407665	43354.295007	3913.759855	22712.550248
38.035500	-0.000642	0.000588	0.004577	0.002230	6276.780129	43372.946630	3922.097241	22709.395065
38.536000	-0.000462	0.000030	-0.004053	0.002027	6279.736879	43340.007826	3902.507024	22718.651051
39.036500	-0.001683	-0.000032	-0.005792	0.001514	6274.264991	43381.881454	3899.687598	22742.021807
39.539000	-0.000669	-0.000296	-0.001274	0.001470	6282.434827	43361.368092	3910.217433	22744.025807
40.037000	-0.000354	-0.000071	-0.003873	0.001787	6282.423018	43352.887593	3903.474283	22729.577508
40.534000	-0.002160	-0.000087	-0.002321	0.001730	6268.929125	43356.696708	3907.188756	22732.166551
41.037000	0.000316	0.000985	0.000852	0.002165	6284.690521	43415.985092	3913.542118	22712.370939
41.535000	-0.001709	-0.000162	0.001172	0.001625	6273.212493	43359.513184	3915.547556	22736.982849
42.035500	-0.001017	0.000824	-0.001203	0.002067	6275.139620	43410.143180	3908.997201	22716.817065
42.536000	-0.000631	-0.000404	0.000565	0.001496	6282.530828	43348.970353	3914.431244	22742.845984
43.036000	-0.000047	0.001103	0.000659	0.002365	6280.336203	43408.400498	3912.628359	22703.255005
43.536000	-0.001265	0.000198	0.003645	0.003992	6258.426272	43173.290526	3915.793696	22629.305390
44.037000	-0.001423	0.000214	0.004446	0.000032	6287.726769	43542.988013	3926.960268	22809.750052
44.539500	-0.001764	-0.000247	0.002304	-0.000097	6286.094659	43511.996384	3922.223314	22815.672959
45.040000	0.000571	-0.000807	0.001430	-0.000177	6304.831530	43467.172777	3920.362127	22819.336059
45.534500	-0.003552	-0.000733	-0.001214	0.005226	6231.498567	42973.360093	3901.678835	22573.374407
46.034500	0.000302	0.000006	-0.000710	0.000514	6297.365962	43478.535944	3913.748063	22787.697375
46.538000	0.000088	0.000761	0.003470	0.001017	6291.812403	43502.057476	3922.344654	22764.722149
47.035500	-0.000108	0.000134	0.001543	0.002645	6277.696853	43292.129594	3914.033261	22690.474918
47.535500	-0.003178	-0.000387	-0.005621	0.004781	6237.743548	43046.316518	3892.608160	22593.547287
48.036000	-0.001823	-0.000694	-0.003143	-0.000211	6286.519523	43480.953265	3909.781959	22820.898146
48.536000	0.000900	0.000121	0.000375	0.000530	6301.891974	43487.818067	3916.239464	22786.961329
49.039000	0.001829	0.001490	0.003105	0.001738	6299.721510	43502.872832	3919.799237	22731.802816
49.537000	-0.003597	0.000074	-0.002984	0.004910	6233.571301	43076.969546	3898.342049	22587.702681
50.037000	0.003387	0.000635	0.007670	0.008458	6259.842565	42802.054998	3914.764295	22427.693291
50.537000	0.014816	-0.006608	0.018476	0.263151	4829.483097	24763.712399	3479.896723	13774.692554
51.037500	0.012875	-0.014346	-0.007694	0.175784	5243.557003	29148.650449	3567.238116	16192.153462
51.535000	-0.014152	-0.027701	-0.027348	-0.144494	7480.134836	56038.784185	4230.528040	30660.840480
52.038000	-0.014827	-0.056865	-0.017582	-0.230665	8471.295064	63482.071812	4558.765898	36747.796929
52.541000	-0.003437	-0.054824	-0.004300	-0.233057	8650.139332	64102.806264	4619.626437	36934.583491
53.036500	-0.006406	-0.027908	-0.004722	-0.178176	7936.087543	60290.607631	4414.340787	32897.425642
53.539000	-0.008728	-0.019864	-0.006275	-0.144715	7539.737042	57032.421737	4297.252829	30674.933882
54.036500	-0.011959	-0.019729	-0.005217	-0.137411	7429.134542	56147.444566	4277.341799	30212.149954
54.536500	-0.010277	-0.018744	-0.005130	-0.151976	7600.842402	58085.847444	4324.510110	31142.812874
55.034500	-0.009275	-0.017670	-0.011087	-0.158779	7685.645488	59094.564298	4327.284746	31588.296985
55.539500	-0.009131	-0.013563	-0.011152	-0.139680	7482.304410	57190.291096	4265.786849	30355.074267
56.038000	-0.005175	-0.011886	-0.010697	-0.134729	7471.881599	56783.135052	4251.750673	30044.201717
56.539500	-0.003458	-0.007703	-0.011434	-0.104078	7178.792044	53601.563362	4157.686563	28196.215491
57.035500	-0.006462	-0.010235	-0.006503	-0.099013	7100.489135	52723.736419	4157.301353	27903.208279
57.536000	-0.010317	-0.010942	-0.013953	-0.095829	7033.360588	52280.069267	4126.954475	27720.799293
58.036000	-0.012146	-0.007907	-0.009849	-0.049838	6604.966828	47636.572188	4014.394754	25229.299731
58.536500	-0.012548	-0.007648	-0.015685	-0.004835	6239.615931	43264.166790	3891.585679	23033.833104
59.036000	-0.011604	-0.008991	-0.014577	0.017561	6079.851774	41120.900416	3844.282050	22023.176797
59.537500	-0.016903	-0.007845	-0.016198	0.053762	5792.303774	38162.815371	3765.751611	20495.848683
60.037500	-0.022343	-0.005618	-0.013450	0.050225	5779.765934	38632.969487	3778.330832	20639.522424
60.534500	-0.018059	-0.003746	-0.017904	0.045526	5839.436620	39176.566343	3778.825349	20832.228823
61.043000	-0.019642	-0.002113	-0.016641	0.036708	5888.408747	40058.390305	3799.401915	21199.537836
61.535500	-0.025971	-0.001542	-0.017845	0.035150	5856.023285	40240.626288	3800.133172	21265.207999
62.035500	-0.021705	-0.002820	-0.020139	0.023577	5964.907062	41134.643038	3819.513175	21760.489868
62.541500	-0.019845	-0.001183	-0.013907	0.019382	6007.596014	41650.479239	3841.790960	21943.298957
63.039000	-0.020931	-0.001727	-0.018680	0.012090	6051.957739	42256.127065	3847.253027	22265.275257
63.536500	-0.021586	-0.000842	-0.019277	0.009797	6063.780490	42544.638793	3850.948496	22367.654888
64.037500	-0.018767	-0.000768	-0.013200	-0.005126	6194.677363	43934.972048	3897.927921	23047.328296
64.537500	-0.020088	-0.000753	-0.019327	-0.014686	6257.310531	44848.092237	3905.827354	23495.181890
65.035000	-0.018935	-0.000928	-0.024820	-0.023469	6334.428379	45686.298021	3913.453088	23915.388013
65.535000	-0.024914	-0.001688	-0.020773	-0.025759	6305.591383	45837.117421	3928.311240	24026.367694
66.038500	-0.022660	-0.002029	-0.019235	-0.038097	6421.118324	47037.666317	3961.609607	24634.419009
66.536000	-0.018382	-0.001088	-0.024720	-0.042478	6491.531643	47580.966411	3958.920627	24854.514269
67.038500	-0.018681	-0.002289	-0.020639	-0.047389	6529.611972	47963.637379	3981.016583	25103.881533
67.536500	-0.020945	-0.000582	-0.017509	-0.049535	6528.635859	48364.578156	3994.196564	25213.747954
68.037000	-0.018609	-0.002141	-0.023399	-0.052836	6575.711689	48546.969945	3987.708419	25383.789175
68.536500	-0.017777	-0.002172	-0.017710	-0.054372	6595.683079	48705.243824	4005.910861	25463.382543
69.037500	-0.018265	-0.001528	-0.021078	-0.054927	6596.246088	48831.619201	3998.786340	25492.186941
69.534500	-0.019182	-0.002311	-0.015753	-0.055419	6592.651574	48800.906700	4013.566186	25517.753219
70.035000	-0.017275	-0.002539	-0.015004	-0.055992	6613.658121	48837.293973	4016.952341	25547.576750
70.535000	-0.016907	-0.002882	-0.013027	-0.055857	6615.638214	48786.897200	4021.690810	25540.579840
71.035500	-0.016278	-0.002197	-0.017619	-0.054444	6608.978696	48710.170934	4006.323114	25467.101474
71.535500	-0.018609	-0.002258	-0.016977	-0.047760	6533.285343	48005.245228	3991.075260	25122.824023
72.036500	-0.014857	-0.002476	-0.013639	-0.052124	6601.361691	48437.204185	4010.548871	25346.999153
72.539000	-0.013980	-0.002301	-0.014356	-0.050566	6595.605804	48292.789860	4004.762910	25266.725716
73.036500	-0.014941	-0.002662	-0.010662	-0.049381	6577.511540	48131.717340	4011.148203	25205.843158
73.536500	-0.017266	-0.001470	-0.014965	-0.043926	6512.651187	47690.580760	3986.519671	24927.719116
74.038000	-0.014216	-0.001445	-0.014469	-0.046118	6556.227317	47919.516737	3993.248619	25039.086896
74.537500	-0.013115	-0.001558	-0.013267	-0.045169	6557.491630	47809.598925	3993.884995	24990.796899
75.035500	-0.015297	-0.001898	-0.012599	-0.044069	6530.147511	47661.299093	3992.798875	24934.990959
75.535500	-0.013760	-0.001134	-0.011771	-0.042526	6530.091679	47581.206482	3991.006216	24856.941746
76.039000	-0.014628	-0.000960	-0.011228	-0.041511	6514.491899	47494.824941	3989.822872	24805.723037
76.536000	-0.015030	-0.001246	-0.016203	-0.040812	6505.409094	47394.053496	3975.714398	24770.559509
77.037000	-0.016249	-0.000501	-0.015286	-0.039423	6483.970816	47328.213442	3974.549697	24700.813601
77.536500	-0.019386	-0.000784	-0.018908	-0.033837	6413.186094	46732.757211	3952.059666	24422.487902
78.037000	-0.019416	-0.000502	-0.018373	-0.037732	6444.372709	47155.733058	3962.819925	24616.163800
78.537000	-0.016924	-0.000549	-0.010952	-0.037064	6459.185659	47083.049974	3979.433020	24582.822008
79.035000	-0.017281	0.000106	-0.015575	-0.035680	6445.051778	47009.103032	3964.644670	24513.942032
79.534500	-0.021279	-0.001300	-0.021605	-0.032849	6390.128108	46581.560153	3943.195298	24373.667043
80.035500	-0.017738	-0.001091	-0.014137	-0.035953	6443.558457	46915.532041	3968.837222	24527.523528
80.535500	-0.018214	-0.001562	-0.013924	-0.036099	6440.880223	46882.645183	3969.717775	24534.771305
81.038500	-0.016442	-0.001380	-0.015363	-0.034884	6445.396798	46778.230737	3963.216099	24474.398429
81.535500	-0.021806	-0.002329	-0.014902	-0.031087	6371.908889	46302.223613	3955.102837	24286.834828
82.040000	-0.019805	-0.003350	-0.016569	-0.036443	6430.799466	46736.855818	3964.078544	24551.896808
82.536500	-0.020084	-0.002727	-0.016743	-0.036267	6427.130641	46781.901680	3963.223467	24543.148367
83.037000	-0.018588	-0.003249	-0.020667	-0.036234	6438.950576	46726.029282	3953.605135	24541.507833
83.537000	-0.018714	-0.002870	-0.012996	-0.032208	6405.517457	46360.113280	3962.462291	24342.049684
84.037500	-0.016327	-0.002283	-0.018799	-0.036098	6456.189827	46809.710437	3957.804744	24534.723203
84.535000	-0.019264	-0.002589	-0.016983	-0.036635	6436.721760	46832.930410	3963.535036	24561.431558
85.035500	-0.018188	-0.002544	-0.016917	-0.036132	6441.360918	46786.800226	3962.468677	24536.420506
85.535000	-0.020793	-0.001711	-0.013497	-0.032505	6391.260204	46505.795271	3961.964090	24356.701236
86.036000	-0.016220	-0.001625	-0.012747	-0.036746	6462.333719	46941.701534	3974.207918	24566.996292
86.539000	-0.016756	-0.000819	-0.014715	-0.035656	6449.113598	46912.988358	3966.689253	24512.754930
87.036500	-0.018021	-0.001773	-0.020202	-0.037220	6451.533080	46974.655738	3957.120135	24590.600348
87.536500	-0.016525	-0.001591	-0.022326	-0.033370	6432.473375	46604.609910	3942.716256	24399.413745
88.037500	-0.015481	-0.000608	-0.015375	-0.035739	6460.144677	46942.707651	3965.277431	24516.857659
88.534500	-0.016291	-0.001180	-0.013626	-0.036111	6456.586330	46922.478673	3970.478864	24535.376228
89.037500	-0.015514	-0.001163	-0.014443	-0.035866	6460.920390	46899.392020	3967.872441	24523.192968
89.535500	-0.020218	-0.000933	-0.019955	-0.032980	6399.650055	46631.549037	3947.469890	24380.123096
90.035500	-0.017658	-0.000719	-0.012549	-0.035698	6442.143794	46927.369803	3972.112847	24514.840270
90.535500	-0.016179	-0.000861	-0.016458	-0.035763	6454.668985	46919.540468	3962.689651	24518.061907
91.036000	-0.017039	-0.001008	-0.016892	-0.035372	6444.509273	46865.082020	3960.677068	24498.626242
91.536000	-0.016899	-0.000070	-0.009327	-0.031969	6418.166021	46616.624132	3970.864522	24330.237231
92.036500	-0.016535	0.000405	-0.016607	-0.033697	6435.036883	46838.654529	3957.298505	24415.600607
92.536500	-0.015332	0.000544	-0.012188	-0.034001	6447.240424	46883.410203	3968.826704	24430.630696
93.037500	-0.013928	0.000307	-0.009033	-0.033461	6454.254300	46804.929793	3975.266616	24403.901564
93.537000	-0.016987	0.000467	-0.006037	-0.030879	6408.703512	46561.194998	3976.289389	24276.598240
94.035000	-0.014470	0.000031	-0.011581	-0.033032	6446.365895	46733.756370	3967.937957	24382.682268
94.535000	-0.015948	0.000135	-0.011477	-0.032499	6430.102362	46690.631224	3966.886626	24356.381662
95.036000	-0.014349	0.000117	-0.013065	-0.031376	6433.942980	46575.940606	3960.265866	24301.043023
95.536000	-0.014366	-0.000187	-0.010938	-0.031877	6437.854004	46595.658497	3966.682196	24325.690304
96.039000	-0.015332	0.000439	-0.011302	-0.031111	6423.866126	46581.579123	3963.918886	24287.979938
96.536500	-0.015935	-0.000014	-0.012175	-0.031219	6419.889684	46546.987248	3962.052294	24293.318528
97.036500	-0.016520	-0.000664	-0.014027	-0.031133	6414.488253	46473.259558	3957.335841	24289.081461
97.534500	-0.017098	-0.000456	-0.013240	-0.029186	6394.261471	46299.423251	3954.522509	24193.517981
98.037500	-0.014043	-0.000043	-0.015090	-0.030339	6428.043561	46455.979533	3952.836386	24250.083582
98.535000	-0.016139	-0.000681	-0.015442	-0.030171	6409.827801	46375.302281	3951.579195	24241.816402
99.035500	-0.013914	-0.000460	-0.015179	-0.029870	6425.295661	46367.204749	3951.487153	24227.026717
99.535500	-0.015460	-0.000161	-0.009476	-0.027408	6393.137527	46151.601455	3959.341814	24106.608610
100.038500	-0.014474	-0.000710	-0.014207	-0.029052	6414.210232	46260.729491	3951.859280	24186.955926
100.536500	-0.013937	-0.000878	-0.015303	-0.028822	6416.674034	46221.001380	3948.661496	24175.702852
101.065000	-0.013531	0.000375	-0.010730	-0.027072	6405.885303	46171.573626	3955.480679	24090.242822
101.536000	-0.015500	0.000155	-0.011812	-0.025129	6374.673490	45956.977163	3948.174931	23995.785111
102.036500	-0.012689	-0.000597	-0.011141	-0.026866	6410.995323	46054.595344	3953.987488	24080.234851
102.537000	-0.011669	0.000042	-0.014388	-0.026073	6412.818297	46039.326436	3944.254667	24041.638367
103.034500	-0.015257	-0.000926	-0.015815	-0.025494	6379.508749	45886.220838	3939.453695	24013.504104
103.534500	-0.013973	-0.000310	-0.017460	-0.024877	6384.808399	45886.067559	3934.065114	23983.531707
104.035000	-0.016584	-0.000483	-0.013108	-0.025141	6366.169208	45895.133341	3945.089690	23996.372827
