sample name	sample
index	250
start time	 02-25-2021  10:26:14 AM
880	-0.001088
Peak Time (s)	92.536
Peak Height 	-0.001088
calc peak height	90,93
Baseline Time (s)	9.535
Baseline Value 	-0.003873
subtract baseline	10,4
Abs	-0.006596
Peak Time (s)	91.535
Peak Height 	-0.006596
calc peak height	90,93
Baseline Time (s)	10.036
Baseline Value 	0.002227
subtract baseline	10,3
PK_550	-0.006008
Peak Time (s)	91.535
Peak Height 	-0.006008
calc peak height	90,93
Baseline Time (s)	8.537
Baseline Value 	4.6257E-5
subtract baseline	10,2
PK_880	-0.008383
Peak Time (s)	91.535
Peak Height 	-0.008383
calc peak height	90,93
Baseline Time (s)	10.036
Baseline Value 	0.001073
subtract baseline	10,1


Time (s)	A880-A510	A880-A775	A880-A975	A880	I510	I775	I975	I880	
0.036000	-0.002459	0.000239	-0.003770	0.007860	6756.909083	45571.237618	3867.333940	23949.747283
0.536000	-0.000361	-0.000124	-0.003754	0.005087	6801.615580	45809.207608	3874.449888	24085.355685
1.035500	-0.000332	0.000426	-0.000899	0.004643	6805.983732	45907.696242	3882.925294	24107.165944
1.537000	-0.002695	-0.000217	-0.005748	0.004354	6786.864538	45872.548986	3871.225043	24121.344780
2.036500	-0.002814	-0.000434	-0.007322	0.004285	6786.407510	45857.942924	3867.392914	24124.752675
2.536500	0.000301	-0.000253	-0.000704	-0.000254	6857.391695	46328.308602	3896.133901	24349.020841
3.037500	0.002382	0.001300	0.001099	-0.000352	6877.841408	46494.137027	3901.107975	24353.922116
3.534500	-0.000094	0.000038	-0.005629	0.003880	6815.231808	45944.947175	3872.739785	24144.646377
4.034500	0.001960	0.000026	-0.001004	0.000951	6861.651296	46235.668819	3892.214843	24289.264680
4.535500	-0.000877	-0.000070	-0.001910	0.000481	6839.543188	46273.144003	3891.081006	24312.575573
5.035000	-0.000917	-0.000014	-0.002865	0.000506	6838.928794	46276.198206	3888.539203	24311.317693
5.536000	0.000859	0.000396	0.003682	0.000773	6853.010351	46290.460430	3904.932823	24298.057038
6.036000	-0.000466	-0.000384	-0.004610	0.000022	6847.653635	46287.637802	3885.275972	24335.336289
6.536500	-0.000955	0.000242	-0.003359	0.000137	6842.014697	46338.734922	3888.213949	24329.611105
7.036000	-0.000862	-0.000250	-0.006842	-0.000400	6847.886200	46343.294574	3880.605050	24356.274002
7.537000	-0.000565	0.000136	-0.005892	-0.000098	6847.842375	46351.748467	3882.276748	24341.279803
8.037000	0.001391	-0.000102	-0.003151	0.000036	6864.886611	46314.442383	3889.015388	24334.631802
8.537500	0.000089	0.000000	-0.006558	0.000205	6851.122849	46307.757173	3879.780700	24326.258650
9.035000	-0.000346	0.000315	0.000745	-0.000109	6849.994953	46370.778573	3899.542142	24341.841948
9.535000	-0.000449	-0.000203	-0.001144	0.000000	6848.014316	46307.883059	3894.325457	24336.419703
10.036000	0.000000	-0.000344	0.000000	-0.000489	6856.775818	46342.794619	3898.586226	24360.684245
10.535500	-0.001950	-0.000115	-0.002856	-0.000469	6838.395627	46363.731525	3891.091007	24359.719918
11.036000	0.001061	0.000558	0.003058	0.000583	6856.678088	46325.745474	3903.793736	24307.501153
11.536500	0.000079	0.001150	0.003520	0.001588	6838.127734	46284.424095	3902.367575	24257.726102
12.037000	0.000468	0.000416	-0.002464	0.000637	6850.625504	46306.097328	3889.239132	24304.814318
12.537000	-0.002114	0.000106	-0.003536	0.004326	6792.471163	45907.413086	3876.957882	24122.730834
13.040000	0.000990	0.000425	0.001982	-0.000546	6866.584384	46425.632403	3903.931756	24363.521389
13.535500	-0.001286	0.000634	-0.000198	-0.000004	6840.249432	46392.214078	3896.802656	24336.615104
14.035000	0.001457	0.000963	-0.002365	0.003639	6831.863533	46060.938712	3881.733240	24156.524133
14.536000	0.000211	0.000408	-0.001381	0.004626	6811.159860	45907.687252	3881.727904	24108.019541
15.036000	-0.000249	0.000432	-0.001129	-0.000475	6854.320663	46419.223611	3895.603993	24360.019581
15.536000	0.003244	0.001013	0.004984	-0.000058	6883.184834	46435.800378	3910.556579	24339.316436
16.036500	0.001316	0.000055	-0.003129	-0.000842	6872.425995	46418.297933	3891.351193	24378.275813
16.537000	-0.002960	0.000283	-0.000468	0.004756	6780.740410	45882.383212	3883.748146	24101.637848
17.037000	0.002564	0.000273	-0.001235	-0.002464	6899.458742	46603.325837	3900.524050	24459.058244
17.537000	-0.000526	0.000322	-0.000345	0.001149	6836.591132	46245.520623	3893.413127	24279.469646
18.034500	-0.001221	0.000256	-0.004836	0.001207	6829.574934	46233.044203	3881.632420	24276.567346
18.535000	-0.001417	0.000179	0.000770	0.002419	6816.524185	46104.459332	3893.010635	24216.685271
19.035500	0.000401	0.001538	0.000583	0.001840	6838.782051	46298.018199	3894.031463	24245.272393
19.536000	0.001214	0.000346	-0.002294	0.001808	6846.653360	46181.988374	3886.643003	24246.835053
20.036000	-0.000048	-0.000428	-0.005116	0.001023	6842.210651	46183.070993	3881.387106	24285.681057
20.536500	0.000140	-0.000439	-0.004403	0.001781	6836.902603	46106.311585	3881.271257	24248.177069
21.037000	-0.000154	0.000786	-0.005653	0.001771	6834.267452	46229.758682	3878.082475	24248.706639
21.537000	-0.000133	0.000914	0.006627	0.001778	6834.391863	46241.788248	3910.047482	24248.359028
22.037000	0.000289	-0.000773	-0.002977	0.000437	6850.820123	46207.194560	3888.427555	24314.729255
22.540500	-0.001875	-0.000264	-0.001517	0.002751	6809.211240	46027.191729	3886.215276	24200.289795
23.037500	0.000119	0.000370	0.003720	0.001657	6837.866611	46199.526140	3902.712281	24254.332649
23.535500	0.000099	0.000901	0.002143	0.001909	6835.333242	46227.467649	3897.920932	24241.887059
24.035000	-0.001182	-0.000037	-0.004388	0.001165	6830.327968	46207.992851	3882.895841	24278.647302
24.535500	-0.000197	0.000627	-0.001401	0.003812	6814.917175	46010.263159	3883.776015	24148.028161
25.036000	-0.000560	0.000169	0.001890	0.001410	6833.844812	46204.081580	3898.564365	24266.541320
25.536500	-0.000925	-0.000183	0.000077	0.001161	6832.757431	46193.831409	3894.481586	24278.855398
26.036500	-0.000363	-0.000632	0.001407	0.000734	6841.969884	46191.587637	3899.068057	24300.008880
26.537000	0.000029	0.000441	-0.000342	0.001629	6837.276476	46209.371133	3892.171860	24255.690215
27.037500	0.000981	0.000502	-0.000566	-0.000916	6869.979535	46470.582793	3898.224462	24381.954975
27.537500	0.000481	0.000780	0.001490	-0.000171	6858.303330	46423.711412	3901.656148	24344.915644
28.034500	0.001481	0.000911	0.000832	-0.000264	6868.543577	46446.117145	3900.175281	24349.514614
28.535500	0.000507	0.000329	-0.000240	-0.000417	6860.855622	46403.157492	3897.772170	24357.153498
29.035500	0.001169	0.000631	-0.003357	-0.000455	6867.411976	46437.146652	3889.753342	24359.001476
29.535500	-0.001883	0.000128	-0.002813	0.004913	6789.200669	45851.413886	3877.308303	24093.919609
30.036500	0.001733	0.001189	0.000199	0.000039	6868.068515	46443.690174	3897.726640	24334.485220
30.536500	-0.000277	0.000082	-0.000190	0.002562	6825.765344	46080.436271	3890.144181	24209.614489
31.037000	0.002825	0.001038	0.002879	0.001186	6867.558521	46313.440313	3901.740375	24277.629794
31.537000	-0.002522	0.000256	-0.005000	0.005215	6780.549595	45834.187767	3870.939174	24079.089107
32.040000	0.001853	0.000236	0.001272	-0.000375	6873.086783	46389.584848	3901.621514	24355.066446
32.535000	-0.002577	-0.000226	-0.004547	0.005250	6779.726895	45783.047965	3872.007478	24077.396111
33.035500	0.003088	0.000541	-0.002105	-0.001154	6892.046931	46498.522361	3894.828925	24393.796367
33.535000	-0.001116	0.000482	-0.001841	0.003620	6808.190906	46014.888766	3883.133184	24157.444299
34.038500	0.000538	-0.000156	-0.003980	0.001835	6840.112423	46129.263123	3882.222507	24245.537075
34.536000	0.000080	0.001166	0.003286	0.004316	6812.814203	46013.768024	3894.622085	24123.228213
35.036000	-0.001780	0.000180	0.004572	0.001805	6818.842825	46165.739112	3904.560472	24247.008198
35.536500	0.000395	-0.000273	-0.002047	0.002430	6833.234816	46058.253177	3885.676347	24216.138524
36.034000	0.001339	0.000825	0.002299	0.002298	6843.255591	46180.961785	3897.314164	24222.665690
36.540000	-0.001367	0.000238	0.000920	0.002091	6820.017807	46142.921974	3894.253331	24232.856644
37.034500	0.000692	0.000401	0.003031	0.001790	6841.958471	46189.327055	3900.557478	24247.755311
37.535000	-0.001085	0.000517	0.002127	0.002271	6820.964622	46152.855022	3896.931588	24223.966914
38.035000	0.001626	0.000201	0.003962	0.001879	6849.852805	46160.506322	3902.765403	24243.367568
38.535500	-0.002046	-0.000047	-0.003359	0.003575	6800.019885	45966.877453	3879.343952	24159.705611
39.036000	-0.000164	0.000380	-0.002419	0.001783	6834.050450	46187.862952	3886.384625	24248.072570
39.536000	0.001399	0.000550	0.000206	0.002119	6845.488803	46171.285800	3892.322652	24231.484757
40.036500	0.000122	0.001088	-0.000682	0.002597	6829.143598	46177.243326	3888.776100	24207.865448
40.537000	-0.001669	0.000860	-0.001999	0.003658	6802.729296	46048.818453	3882.628063	24155.589232
41.033500	-0.000536	0.000407	-0.001669	0.002047	6828.143373	46164.228590	3887.645275	24235.036859
41.537500	-0.000149	0.000673	-0.002106	0.001932	6832.812176	46202.310865	3886.811905	24240.747693
42.037000	-0.000568	0.000195	0.004578	0.001432	6833.560022	46204.535868	3905.556960	24265.460166
42.535000	-0.000528	0.000481	-0.002064	0.003524	6814.521463	46024.392429	3882.806364	24162.200138
43.035000	0.001882	0.000299	0.001567	0.001797	6853.001457	46178.402813	3896.707017	24247.374667
43.535500	0.003142	0.000278	0.003843	-0.002839	6908.488730	46641.787728	3914.898786	24477.836469
44.038500	0.001966	0.000824	-0.002989	-0.000378	6874.170607	46448.898354	3890.511127	24355.209477
44.536000	-0.001780	-0.000209	-0.002483	0.003871	6799.741863	45921.314351	3880.834578	24145.112808
45.036500	0.001053	0.000641	-0.000010	-0.000204	6863.973642	46413.059266	3897.815669	24346.555313
45.537000	0.000748	-0.000372	0.000189	0.000873	6851.037817	46203.659867	3895.523002	24293.110549
46.040000	0.002908	0.000818	0.003713	-0.000126	6880.667473	46422.991143	3907.383427	24342.699035
46.534500	-0.001020	0.000472	-0.002666	0.004248	6803.276742	45951.470427	3879.391359	24126.565751
47.035000	-0.001547	-0.000133	-0.000955	0.002383	6815.648766	46076.871511	3888.623499	24218.430486
47.538500	0.000452	0.001156	-0.000155	0.003220	6826.419562	46121.908053	3888.528531	24177.152193
48.035500	-0.000258	0.000403	-0.002606	-0.000364	6853.203884	46405.231927	3891.468315	24354.509082
48.536000	-0.001172	0.000244	-0.000449	0.004045	6803.743207	45949.037213	3885.631866	24136.556644
49.041500	0.002864	0.000756	0.004300	-0.000672	6885.388055	46471.647541	3910.371755	24369.814256
49.536500	0.000477	0.000808	0.003666	0.001496	6842.697720	46259.379555	3902.994260	24262.306963
50.036500	0.002960	0.000467	-0.001874	-0.001876	6897.655136	46563.692739	3897.314008	24429.748160
50.537000	-0.003036	-0.004289	0.001122	-0.001040	6833.601722	46003.961832	3902.970746	24388.127342
51.037000	-0.020764	-0.010097	-0.009586	0.145546	5561.015151	33220.526143	3556.571087	18197.410623
51.537500	-0.019738	-0.025406	-0.018416	-0.123821	7951.314734	57397.021695	4208.919991	31448.840911
52.034500	-0.022380	-0.174477	-0.014947	-0.333243	11096.556293	65535.000000	5123.718927	49215.026003
52.535500	-0.028698	-0.168275	-0.006349	-0.327040	10860.607614	65535.000000	5136.773127	48556.538708
53.038000	-0.037223	-0.142620	-0.007810	-0.301385	10250.055564	65535.000000	4993.089361	45930.562587
53.536000	-0.031695	-0.123671	-0.002511	-0.282436	10023.156487	65535.000000	4924.087293	44088.208022
54.038500	-0.028852	-0.110459	-0.010556	-0.269224	9852.600388	65535.000000	4820.851239	42850.410347
54.536500	-0.019189	-0.115093	-0.013934	-0.273858	10088.840577	65535.000000	4826.814502	43280.266068
55.037000	-0.009745	-0.102957	-0.007119	-0.261722	10043.759268	65535.000000	4801.680867	42164.116519
55.539500	-0.011325	-0.070927	-0.007352	-0.226705	9457.857193	65104.990765	4642.738419	39113.063917
56.034500	-0.008467	-0.049243	-0.006505	-0.197955	9072.161328	64099.607736	4525.759923	36785.530459
56.535000	-0.008279	-0.026587	-0.005726	-0.152938	8456.412547	61023.801491	4355.035563	33436.998017
57.035000	-0.006943	-0.015491	-0.006429	-0.116564	8017.501901	57732.116833	4224.750497	30973.699768
57.535500	-0.009314	-0.013257	-0.008030	-0.076595	7532.262828	53161.416016	4091.314140	28494.586833
58.035000	-0.005938	-0.011820	-0.007529	-0.068963	7486.059057	52448.186161	4069.681285	28046.600527
58.536000	-0.006554	-0.010232	-0.006459	-0.046274	7240.893972	50094.009428	4006.223343	26760.333089
59.036000	-0.010348	-0.008590	-0.007446	-0.025616	6997.431948	48068.338516	3945.776846	25646.290777
59.539500	-0.010360	-0.007984	-0.009871	-0.010111	6849.883685	46541.978674	3897.936183	24844.232711
60.034500	-0.012347	-0.007517	-0.012352	-0.003058	6766.324605	45883.667176	3873.290300	24488.741870
60.537000	-0.016904	-0.007796	-0.012559	0.005910	6644.515527	44976.275665	3850.079287	24045.031492
61.037500	-0.010660	-0.006428	-0.005962	-0.000056	6754.319488	45694.478078	3881.987109	24339.211036
61.535500	-0.009934	-0.004476	-0.015939	-0.004492	6801.670918	46329.911812	3867.800054	24560.562374
62.035000	-0.014218	-0.004720	-0.011514	-0.007575	6790.603474	46615.241932	3887.066152	24715.734829
62.536000	-0.012635	-0.004950	-0.014721	-0.007666	6806.037587	46601.311973	3879.030128	24720.345676
63.035500	-0.010588	-0.004630	-0.013662	-0.011022	6856.262415	46973.473674	3890.434646	24890.555674
63.539000	-0.010370	-0.004990	-0.009909	-0.012129	6868.680142	47049.544399	3903.121762	24946.983775
64.039500	-0.010252	-0.005018	-0.013797	-0.012298	6871.373298	47063.904127	3893.399976	24955.637640
64.537000	-0.012219	-0.005918	-0.017040	-0.007260	6806.128351	46462.932189	3872.048877	24699.820341
65.045500	-0.011209	-0.005278	-0.008393	-0.012964	6868.636070	47105.296368	3909.310801	24989.651490
65.537500	-0.012461	-0.005994	-0.011853	-0.011943	6847.377787	46928.494847	3897.546171	24937.526966
66.034500	-0.012217	-0.005906	-0.015419	-0.013419	6863.458361	47087.659339	3892.096876	25012.960458
66.535500	-0.015633	-0.005647	-0.015956	-0.008982	6790.520319	46663.671479	3879.238690	24786.919041
67.035500	-0.010043	-0.005572	-0.011184	-0.014076	6890.073212	47188.838984	3904.888653	25046.606664
67.536000	-0.010420	-0.004014	-0.007545	-0.013026	6876.631939	47240.777901	3911.717148	24992.824185
68.036000	-0.010865	-0.005051	-0.015194	-0.012861	6870.907970	47118.014397	3891.231575	24984.401726
68.536500	-0.012416	-0.004757	-0.013493	-0.006863	6800.653202	46539.893234	3880.125405	24679.833354
69.036500	-0.010605	-0.004664	-0.016266	-0.011398	6859.630144	47008.379082	3884.666123	24909.740649
69.539500	-0.009937	-0.003454	-0.017048	-0.009883	6851.701126	46977.287953	3878.747546	24832.623334
70.037000	-0.010464	-0.004144	-0.010995	-0.010365	6851.279177	46956.141298	3895.664396	24857.132969
70.537000	-0.014418	-0.004881	-0.016938	-0.004648	6761.929377	46304.964153	3865.658024	24568.386104
71.037000	-0.011247	-0.004808	-0.014462	-0.010448	6844.742044	46897.110344	3886.871258	24861.343236
71.535500	-0.010191	-0.003739	-0.011062	-0.009552	6846.238725	46914.634616	3893.372778	24815.836239
72.035500	-0.009707	-0.003534	-0.010459	-0.008861	6844.314315	46865.323776	3893.143921	24780.814717
72.536000	-0.014069	-0.004345	-0.019398	-0.002847	6748.678278	46178.384264	3854.891982	24478.214792
73.036000	-0.011229	-0.003481	-0.009294	-0.007480	6817.329691	46730.873463	3892.582081	24710.973996
73.536500	-0.011578	-0.004648	-0.014696	-0.006951	6809.203631	46559.685392	3877.259244	24684.257857
74.036000	-0.008442	-0.003672	-0.009064	-0.006312	6832.351195	46593.585014	3890.142373	24652.035428
74.537000	-0.009244	-0.003332	-0.010707	-0.006103	6822.957462	46606.802082	3885.345171	24641.500109
75.037500	-0.009540	-0.004297	-0.013420	-0.006386	6822.841056	46538.109737	3879.084592	24655.783023
75.535000	-0.009997	-0.004228	-0.016631	-0.005016	6805.928296	46407.365780	3867.373823	24586.875795
76.038000	-0.010590	-0.004649	-0.015875	-0.005627	6806.087243	46426.318706	3870.853897	24617.554155
76.535500	-0.008707	-0.004172	-0.009770	-0.005156	6819.156470	46426.966354	3885.321124	24593.870774
77.038500	-0.009123	-0.004468	-0.013381	-0.005260	6816.268002	46407.694493	3876.294619	24599.103782
77.536000	-0.009611	-0.004788	-0.013042	-0.004555	6805.232180	46304.880144	3875.354110	24563.705107
78.036500	-0.009038	-0.004461	-0.014078	-0.004918	6813.889232	46374.130361	3873.634403	24581.939984
78.536500	-0.010092	-0.003852	-0.014058	-0.004607	6801.273031	46403.949429	3872.889081	24566.336591
79.042500	-0.008489	-0.003653	-0.018269	-0.004798	6817.864636	46443.186832	3862.661967	24575.919918
79.537000	-0.010126	-0.003868	-0.015635	-0.004239	6797.564828	46365.523078	3867.931842	24547.893887
80.040500	-0.010878	-0.004552	-0.011736	-0.005287	6800.300623	46402.014667	3880.589127	24600.487668
80.535000	-0.013663	-0.005527	-0.021024	-0.000013	6726.631584	45779.187763	3843.734567	24337.070589
81.035500	-0.009359	-0.005253	-0.006948	-0.006070	6821.586279	46410.176725	3895.018707	24639.861531
81.535500	-0.008934	-0.004109	-0.012725	-0.004606	6811.961018	46378.087793	3876.298974	24566.262445
82.036000	-0.007429	-0.003434	-0.014082	-0.004739	6827.148979	46459.212393	3873.165723	24572.960435
82.536000	-0.009264	-0.004880	-0.012493	-0.005881	6820.719556	46428.753989	3880.171091	24630.351717
83.036000	-0.008596	-0.005102	-0.013839	-0.006212	6829.985320	46439.585708	3877.562103	24647.002366
83.537000	-0.008612	-0.005483	-0.008520	-0.006215	6829.864863	46401.656456	3891.303321	24647.134122
84.037000	-0.011533	-0.005042	-0.014115	-0.006643	6806.768882	46489.051749	3877.959328	24668.728520
84.534500	-0.013526	-0.005666	-0.014877	-0.000104	6728.697055	45774.469650	3859.371004	24341.568696
85.037500	-0.008822	-0.004594	-0.012484	-0.005654	6822.707900	46434.620639	3879.608114	24618.927905
85.535000	-0.008779	-0.005030	-0.010436	-0.006107	6827.314793	46436.347372	3886.057494	24641.721501
86.035500	-0.010605	-0.005667	-0.009613	-0.006825	6817.030869	46444.377008	3890.048765	24677.874263
86.536000	-0.012931	-0.005891	-0.010485	-0.000849	6740.861861	45825.891949	3872.417630	24378.603635
87.036000	-0.010481	-0.005355	-0.012191	-0.006587	6815.983212	46451.894512	3882.765636	24665.905635
87.536500	-0.010106	-0.006103	-0.012899	-0.007049	6823.737572	46423.127008	3882.130018	24689.174025
88.039000	-0.011584	-0.006000	-0.013030	-0.007456	6813.806770	46474.395589	3882.841669	24709.720928
88.539500	-0.014255	-0.006803	-0.012852	-0.001812	6737.580250	45831.017969	3868.836891	24426.560816
89.037000	-0.011514	-0.006292	-0.016194	-0.007333	6813.323506	46432.661763	3874.397592	24703.522753
89.535000	-0.010048	-0.005520	-0.010576	-0.006674	6820.805971	46444.034397	3887.162773	24670.289735
90.038000	-0.009825	-0.006728	-0.013206	-0.007630	6831.749301	46418.756945	3882.838519	24718.544210
90.535500	-0.013924	-0.007473	-0.014004	-0.001839	6740.831524	45767.421430	3865.975979	24427.927348
91.035500	-0.012659	-0.006829	-0.009497	-0.007658	6805.742569	46411.476106	3892.516341	24719.958387
91.535500	-0.008383	-0.006008	-0.006596	-0.007007	6839.369122	46428.461732	3898.383070	24687.072080
92.036000	-0.010299	-0.006571	-0.010258	-0.007154	6822.924013	46386.677845	3889.229217	24694.480399
92.536000	-0.014025	-0.006197	-0.013002	-0.001088	6733.099150	45819.323451	3866.613715	24390.520136
93.070000	-0.009135	-0.006669	-0.014314	-0.007500	6836.950825	46411.536898	3879.647861	24711.939255
93.878500	-0.010996	-0.007054	-0.015705	-0.007232	6817.181861	46346.069374	3875.391980	24698.426764
94.318000	-0.009465	-0.006916	-0.006770	-0.007374	6832.716966	46374.176979	3898.889085	24705.590405
94.535000	-0.014065	-0.007297	-0.013101	-0.001543	6736.860863	45755.436194	3867.517403	24413.143925
95.038000	-0.009182	-0.007074	-0.009770	-0.007514	6836.650965	46372.446694	3891.433303	24712.677822
95.535500	-0.011238	-0.007029	-0.011205	-0.007469	6817.137937	46372.325495	3887.592756	24710.372868
96.041000	-0.010855	-0.007222	-0.010107	-0.007314	6819.247876	46337.435047	3890.037042	24702.547541
96.536000	-0.013746	-0.006957	-0.011154	-0.001018	6734.987393	45737.198539	3871.139250	24387.005573
