sample name	sample
index	450
start time	 03-11-2021  11:12:17 AM


Wavelength (nm)	Absorbance
494.344910	-0.158128
494.563924	-0.158128
494.782919	-0.158128
495.001897	0.200204
495.220856	-0.120587
495.439797	-0.064301
495.658719	-0.034630
495.877624	0.019446
496.096510	-0.036503
496.315378	-0.076328
496.534227	-0.130190
496.753059	-0.047780
496.971872	-0.009677
497.190667	0.018606
497.409444	0.015043
497.628203	0.013115
497.846943	0.012923
498.065665	0.014323
498.284369	0.014258
498.503055	0.013709
498.721723	0.013565
498.940372	0.013178
499.159003	0.012110
499.377616	0.011263
499.596210	0.012118
499.814787	0.013381
500.033345	0.012940
500.251885	0.014233
500.470406	0.014256
500.688910	0.015218
500.907395	0.015470
501.125862	0.016925
501.344311	0.017823
501.562742	0.017039
501.781154	0.015977
501.999548	0.017197
502.217924	0.016946
502.436282	0.017706
502.654621	0.016636
502.872942	0.016734
503.091245	0.016066
503.309530	0.015273
503.527797	0.016357
503.746045	0.015805
503.964275	0.014637
504.182487	0.014116
504.400681	0.014138
504.618856	0.014453
504.837013	0.014645
505.055152	0.014252
505.273273	0.015027
505.491376	0.013859
505.709460	0.013571
505.927526	0.014167
506.145574	0.014287
506.363604	0.014617
506.581615	0.013997
506.799608	0.014494
507.017583	0.015045
507.235540	0.014735
507.453478	0.015774
507.671399	0.016127
507.889301	0.015374
508.107185	0.015030
508.325050	0.014511
508.542898	0.014687
508.760727	0.013992
508.978538	0.013650
509.196330	0.013274
509.414105	0.012924
509.631861	0.012947
509.849599	0.013075
510.067319	0.013287
510.285021	0.013284
510.502704	0.013490
510.720369	0.013770
510.938016	0.014414
511.155645	0.015313
511.373255	0.014942
511.590848	0.014852
511.808422	0.015209
512.025977	0.014846
512.243515	0.014863
512.461034	0.015520
512.678536	0.014776
512.896018	0.014656
513.113483	0.014745
513.330930	0.015554
513.548358	0.015991
513.765768	0.015756
513.983160	0.016720
514.200533	0.016586
514.417889	0.016119
514.635226	0.016685
514.852545	0.016340
515.069845	0.015583
515.287128	0.014569
515.504392	0.014318
515.721638	0.014098
515.938866	0.013511
516.156075	0.013142
516.373267	0.013147
516.590440	0.013033
516.807594	0.012978
517.024731	0.013638
517.241850	0.014283
517.458950	0.013849
517.676032	0.013674
517.893095	0.013769
518.110141	0.014016
518.327168	0.014039
518.544177	0.014239
518.761168	0.014270
518.978141	0.013663
519.195095	0.013173
519.412031	0.013710
519.628949	0.014025
519.845849	0.013686
520.062731	0.014125
520.279594	0.014805
520.496439	0.014748
520.713266	0.014535
520.930074	0.014956
521.146865	0.015206
521.363637	0.015199
521.580391	0.015214
521.797127	0.015137
522.013844	0.014651
522.230543	0.014112
522.447224	0.013993
522.663887	0.014361
522.880532	0.014270
523.097158	0.014335
523.313766	0.014409
523.530356	0.013999
523.746928	0.014573
523.963481	0.015465
524.180017	0.015223
524.396534	0.015499
524.613032	0.015958
524.829513	0.016027
525.045975	0.015948
525.262420	0.015847
525.478845	0.016215
525.695253	0.015883
525.911643	0.015141
526.128014	0.014939
526.344367	0.014974
526.560702	0.014176
526.777018	0.014564
526.993316	0.014665
527.209597	0.014671
527.425858	0.015111
527.642102	0.014908
527.858328	0.014765
528.074535	0.015208
528.290724	0.015071
528.506894	0.015852
528.723047	0.015138
528.939181	0.015366
529.155297	0.015705
529.371395	0.015871
529.587475	0.016289
529.803536	0.016462
530.019579	0.016306
530.235604	0.016403
530.451611	0.015810
530.667600	0.016253
530.883570	0.016224
531.099522	0.015392
531.315456	0.015147
531.531372	0.015353
531.747269	0.015736
531.963148	0.015591
532.179009	0.015551
532.394852	0.016284
532.610676	0.015591
532.826482	0.015778
533.042271	0.016261
533.258040	0.016281
533.473792	0.015707
533.689525	0.015816
533.905240	0.016022
534.120937	0.016170
534.336616	0.015789
534.552277	0.016171
534.767919	0.015862
534.983543	0.015990
535.199149	0.016162
535.414736	0.016811
535.630306	0.016538
535.845857	0.016899
536.061390	0.016904
536.276904	0.016686
536.492401	0.016975
536.707879	0.017187
536.923339	0.017195
537.138781	0.017314
537.354204	0.016690
537.569610	0.016779
537.784997	0.016810
538.000366	0.016365
538.215716	0.016837
538.431049	0.016700
538.646363	0.016313
538.861659	0.016222
539.076937	0.015830
539.292196	0.016115
539.507438	0.015963
539.722661	0.015981
539.937866	0.016273
540.153052	0.015951
540.368221	0.015759
540.583371	0.015619
540.798503	0.015825
541.013617	0.015873
541.228712	0.015852
541.443789	0.015935
541.658848	0.015738
541.873889	0.015482
542.088912	0.014985
542.303916	0.015454
542.518902	0.015686
542.733870	0.015751
542.948820	0.015672
543.163752	0.015917
543.378665	0.016279
543.593560	0.015804
543.808437	0.016112
544.023295	0.016595
544.238136	0.016437
544.452958	0.016610
544.667762	0.016668
544.882548	0.016995
545.097315	0.016739
545.312064	0.016235
545.526795	0.016850
545.741508	0.017084
545.956203	0.017266
546.170879	0.017299
546.385537	0.017114
546.600177	0.017243
546.814799	0.016937
547.029402	0.017124
547.243988	0.017201
547.458555	0.017013
547.673103	0.016949
547.887634	0.017002
548.102146	0.016683
548.316640	0.016973
548.531116	0.016741
548.745574	0.017236
548.960013	0.017493
549.174435	0.017766
549.388838	0.018103
549.603222	0.018028
549.817589	0.017700
550.031937	0.018127
550.246267	0.017922
550.460579	0.017767
550.674873	0.017517
550.889148	0.017408
551.103405	0.017343
551.317644	0.017075
551.531865	0.017288
551.746068	0.017468
551.960252	0.017337
552.174418	0.017304
552.388566	0.017126
552.602696	0.016813
552.816807	0.016716
553.030900	0.016541
553.244975	0.016613
553.459032	0.016264
553.673070	0.016399
553.887091	0.016446
554.101093	0.016719
554.315077	0.017123
554.529042	0.017526
554.742990	0.017428
554.956919	0.017791
555.170830	0.017702
555.384722	0.017910
555.598597	0.017988
555.812453	0.018059
556.026291	0.017965
556.240111	0.017619
556.453913	0.017658
556.667696	0.017821
556.881461	0.017798
557.095208	0.017633
557.308937	0.017393
557.522647	0.017298
557.736339	0.017147
557.950013	0.017228
558.163669	0.017570
558.377307	0.017476
558.590926	0.017542
558.804527	0.017412
559.018110	0.017649
559.231675	0.018015
559.445221	0.018159
559.658749	0.018095
559.872259	0.018035
560.085751	0.017921
560.299225	0.017924
560.512680	0.017590
560.726117	0.017803
560.939536	0.017838
561.152937	0.017832
561.366319	0.017756
561.579683	0.017986
561.793029	0.017897
562.006357	0.017954
562.219667	0.017992
562.432958	0.018339
562.646231	0.018135
562.859486	0.017905
563.072723	0.017501
563.285941	0.017586
563.499141	0.017739
563.712323	0.017914
563.925487	0.017704
564.138632	0.017523
564.351760	0.017627
564.564869	0.017446
564.777960	0.017517
564.991032	0.017895
565.204087	0.017724
565.417123	0.017765
565.630141	0.017578
565.843140	0.017977
566.056122	0.017811
566.269085	0.017399
566.482030	0.017731
566.694957	0.017835
566.907866	0.017710
567.120756	0.017380
567.333628	0.017273
567.546482	0.017410
567.759318	0.017273
567.972135	0.017611
568.184935	0.017581
568.397716	0.017502
568.610478	0.017601
568.823223	0.017622
569.035949	0.017903
569.248657	0.017907
569.461347	0.018231
569.674019	0.018223
569.886672	0.018326
570.099308	0.018631
570.311925	0.018753
570.524523	0.018732
570.737104	0.018724
570.949666	0.018916
571.162210	0.018827
571.374736	0.018514
571.587244	0.018600
571.799733	0.018555
572.012205	0.018514
572.224658	0.018280
572.437092	0.018192
572.649509	0.018182
572.861907	0.017860
573.074287	0.017776
573.286649	0.017840
573.498993	0.017575
573.711318	0.017136
573.923625	0.016964
574.135914	0.017142
574.348185	0.016936
574.560438	0.017015
574.772672	0.017301
574.984888	0.017355
575.197086	0.017374
575.409266	0.017750
575.621427	0.018215
575.833570	0.018554
576.045695	0.018504
576.257802	0.018804
576.469890	0.018628
576.681961	0.018756
576.894013	0.018712
577.106046	0.018654
577.318062	0.018383
577.530059	0.018296
577.742039	0.018127
577.954000	0.018249
578.165942	0.017996
578.377867	0.018247
578.589773	0.018182
578.801661	0.018306
579.013531	0.018218
579.225382	0.018413
579.437216	0.018360
579.649031	0.018386
579.860828	0.018082
580.072606	0.018329
580.284367	0.017892
580.496109	0.017751
580.707833	0.017686
580.919539	0.017798
581.131227	0.017447
581.342896	0.017256
581.554547	0.017207
581.766180	0.017450
581.977795	0.017228
582.189391	0.017661
582.400969	0.017553
582.612529	0.017892
582.824071	0.017915
583.035595	0.017985
583.247100	0.018110
583.458587	0.018459
583.670056	0.018252
583.881506	0.018237
584.092939	0.018196
584.304353	0.018169
584.515749	0.017683
584.727127	0.017711
584.938486	0.017962
585.149828	0.017750
585.361151	0.017040
585.572456	0.017210
585.783742	0.017271
585.995011	0.017188
586.206261	0.017395
586.417493	0.017496
586.628706	0.017045
586.839902	0.016681
587.051079	0.016707
587.262238	0.017348
587.473379	0.017321
587.684502	0.017390
587.895606	0.017405
588.106692	0.017388
588.317760	0.017331
588.528810	0.017733
588.739841	0.018057
588.950855	0.018466
589.161850	0.018208
589.372827	0.018302
589.583785	0.018472
589.794726	0.018610
590.005648	0.018718
590.216552	0.019196
590.427437	0.019133
590.638305	0.019173
590.849154	0.019278
591.059985	0.019392
591.270798	0.019035
591.481592	0.018935
591.692369	0.018720
591.903127	0.018510
592.113867	0.018055
592.324588	0.018042
592.535292	0.017969
592.745977	0.017837
592.956644	0.017862
593.167293	0.018085
593.377923	0.018022
593.588536	0.018114
593.799130	0.018245
594.009706	0.018187
594.220263	0.017838
594.430803	0.017966
594.641324	0.018046
594.851827	0.018228
595.062312	0.018272
595.272778	0.018177
595.483227	0.018095
595.693657	0.018171
595.904069	0.018502
596.114462	0.019050
596.324838	0.018973
596.535195	0.018830
596.745534	0.018519
596.955855	0.018822
597.166157	0.019096
597.376441	0.019446
597.586707	0.019483
597.796955	0.019245
598.007185	0.019277
598.217396	0.019216
598.427589	0.019751
598.637764	0.019682
598.847921	0.019336
599.058060	0.019379
599.268180	0.019133
599.478282	0.019155
599.688366	0.019282
599.898431	0.019324
600.108479	0.019372
600.318508	0.018971
600.528519	0.019194
600.738511	0.019300
600.948486	0.019255
601.158442	0.019200
601.368380	0.019127
601.578300	0.019007
601.788202	0.019008
601.998085	0.019104
602.207950	0.018895
602.417797	0.018791
602.627626	0.018591
602.837436	0.018595
603.047228	0.018481
603.257002	0.018566
603.466758	0.018745
603.676496	0.018689
603.886215	0.018679
604.095916	0.018613
604.305599	0.018557
604.515264	0.018922
604.724910	0.019071
604.934538	0.019342
605.144148	0.019219
605.353740	0.019033
605.563314	0.019129
605.772869	0.018832
605.982406	0.018863
606.191925	0.018953
606.401425	0.018661
606.610908	0.018574
606.820372	0.018494
607.029818	0.018323
607.239246	0.018329
607.448655	0.018247
607.658047	0.018562
607.867420	0.018776
608.076775	0.018755
608.286111	0.018675
608.495430	0.018528
608.704730	0.018495
608.914012	0.018680
609.123275	0.018883
609.332521	0.018908
609.541748	0.018932
609.750957	0.018784
609.960148	0.018889
610.169321	0.019160
610.378475	0.019318
610.587611	0.019534
610.796729	0.019497
611.005829	0.019317
611.214910	0.019411
611.423974	0.019421
611.633019	0.019439
611.842045	0.019536
612.051054	0.019374
612.260044	0.019601
612.469017	0.019509
612.677970	0.019776
612.886906	0.019934
613.095824	0.019885
613.304723	0.019897
613.513604	0.020200
613.722467	0.020131
613.931311	0.020418
614.140138	0.020216
614.348946	0.020398
614.557736	0.020338
614.766507	0.020245
614.975261	0.020022
615.183996	0.020098
615.392713	0.020165
615.601412	0.020294
615.810092	0.020192
616.018754	0.020389
616.227399	0.020318
616.436024	0.020127
616.644632	0.020287
616.853222	0.020324
617.061793	0.020219
617.270346	0.019832
617.478880	0.019811
617.687397	0.019975
617.895895	0.019738
618.104375	0.019687
618.312837	0.019830
618.521281	0.019718
618.729706	0.020020
618.938113	0.020039
619.146502	0.020169
619.354873	0.020124
619.563226	0.020113
619.771560	0.020308
619.979876	0.020564
620.188174	0.020613
620.396453	0.020774
620.604715	0.020593
620.812958	0.020605
621.021183	0.020688
621.229390	0.020739
621.437578	0.020784
621.645748	0.020688
621.853900	0.020511
622.062034	0.020605
622.270150	0.020584
622.478247	0.020483
622.686326	0.020506
622.894387	0.020436
623.102430	0.020421
623.310454	0.020374
623.518461	0.020405
623.726449	0.020396
623.934418	0.020306
624.142370	0.020458
624.350303	0.020575
624.558218	0.020630
624.766115	0.020765
624.973994	0.020777
625.181855	0.020856
625.389697	0.020841
625.597521	0.020984
625.805327	0.020956
626.013114	0.020944
626.220883	0.021022
626.428634	0.020975
626.636367	0.021013
626.844082	0.020954
627.051778	0.021028
627.259457	0.021057
627.467117	0.020903
627.674758	0.020981
627.882382	0.020995
628.089987	0.020983
628.297574	0.021033
628.505143	0.020964
628.712694	0.021006
628.920226	0.020833
629.127740	0.020850
629.335236	0.020927
629.542714	0.021067
629.750174	0.020925
629.957615	0.020816
630.165038	0.020970
630.372443	0.021130
630.579829	0.020993
630.787198	0.021148
630.994548	0.021350
631.201880	0.021409
631.409194	0.021427
631.616489	0.021570
631.823766	0.021818
632.031025	0.021843
632.238266	0.021799
632.445489	0.021977
632.652693	0.022098
632.859879	0.021865
633.067047	0.021976
633.274197	0.021889
633.481329	0.021956
633.688442	0.022008
633.895537	0.021997
634.102614	0.022065
634.309672	0.022256
634.516713	0.022228
634.723735	0.022119
634.930739	0.022068
635.137724	0.022095
635.344692	0.022125
635.551641	0.021970
635.758572	0.021859
635.965485	0.021907
636.172379	0.021756
636.379256	0.021479
636.586114	0.021715
636.792954	0.021697
636.999775	0.021737
637.206579	0.021540
637.413364	0.021588
637.620131	0.021702
637.826880	0.021603
638.033610	0.021747
638.240323	0.021915
638.447017	0.021951
638.653692	0.022022
638.860350	0.021847
639.066990	0.021954
639.273611	0.022044
639.480214	0.022087
639.686798	0.022213
639.893365	0.022134
640.099913	0.022114
640.306443	0.022054
640.512955	0.021990
640.719449	0.022094
640.925924	0.022069
641.132381	0.022128
641.338820	0.022132
641.545241	0.022098
641.751644	0.022112
641.958028	0.022149
642.164394	0.022274
642.370742	0.022270
642.577071	0.022408
642.783383	0.022735
642.989676	0.022816
643.195951	0.022897
643.402207	0.022952
643.608446	0.023167
643.814666	0.023255
644.020868	0.023349
644.227052	0.023546
644.433218	0.023596
644.639365	0.023384
644.845494	0.023300
645.051605	0.023369
645.257698	0.023229
645.463772	0.023038
645.669828	0.022903
645.875866	0.022779
646.081886	0.022750
646.287888	0.022651
646.493871	0.022661
646.699836	0.022704
646.905783	0.022699
647.111712	0.022890
647.317622	0.023189
647.523514	0.023458
647.729388	0.023491
647.935244	0.023290
648.141082	0.023374
648.346901	0.023408
648.552702	0.023557
648.758485	0.023618
648.964250	0.023677
649.169996	0.023524
649.375724	0.023573
649.581434	0.023670
649.787126	0.023792
649.992800	0.023760
650.198455	0.023821
650.404092	0.023692
650.609711	0.023592
650.815311	0.023402
651.020894	0.023354
651.226458	0.023152
651.432004	0.023098
651.637532	0.023202
651.843041	0.023331
652.048532	0.023377
652.254006	0.023509
652.459460	0.023507
652.664897	0.023707
652.870315	0.023747
653.075716	0.023827
653.281097	0.023919
653.486461	0.023911
653.691807	0.023885
653.897134	0.023937
654.102443	0.023790
654.307734	0.023892
654.513006	0.023859
654.718261	0.023797
654.923497	0.023796
655.128715	0.023696
655.333915	0.023499
655.539096	0.023439
655.744259	0.023410
655.949404	0.023420
656.154531	0.023423
656.359640	0.023386
656.564730	0.023389
656.769802	0.023577
656.974856	0.023627
657.179892	0.023882
657.384909	0.023900
657.589908	0.023969
657.794889	0.024083
657.999852	0.024043
658.204797	0.024281
658.409723	0.024546
658.614631	0.024424
658.819521	0.024501
659.024393	0.024737
659.229246	0.024843
659.434081	0.024750
659.638898	0.024763
659.843697	0.024853
660.048478	0.024584
660.253240	0.024530
660.457984	0.024660
660.662710	0.024676
660.867417	0.024527
661.072107	0.024575
661.276778	0.024590
661.481431	0.024517
661.686066	0.024588
661.890682	0.024887
662.095281	0.024709
662.299861	0.024649
662.504422	0.024728
662.708966	0.024865
662.913491	0.024848
663.117999	0.024943
663.322488	0.025012
663.526958	0.024923
663.731411	0.024943
663.935845	0.025119
664.140261	0.025077
664.344659	0.024996
664.549038	0.024923
664.753400	0.025028
664.957743	0.025102
665.162068	0.025234
665.366375	0.025305
665.570663	0.025185
665.774933	0.025218
665.979185	0.025287
666.183419	0.025095
666.387635	0.025071
666.591832	0.024986
666.796011	0.025047
667.000172	0.025120
667.204315	0.025298
667.408439	0.025475
667.612545	0.025409
667.816634	0.025465
668.020703	0.025776
668.224755	0.025737
668.428788	0.025851
668.632803	0.025731
668.836800	0.025751
669.040779	0.025662
669.244739	0.025643
669.448681	0.025705
669.652605	0.025646
669.856511	0.025854
670.060399	0.025956
670.264268	0.025909
670.468119	0.025974
670.671952	0.025674
670.875767	0.025516
671.079563	0.025489
671.283341	0.025405
671.487101	0.025497
671.690843	0.025236
671.894567	0.025277
672.098272	0.025218
672.301959	0.025267
672.505628	0.025415
672.709278	0.025525
672.912911	0.025450
673.116525	0.025512
673.320121	0.025540
673.523699	0.025568
673.727258	0.025569
673.930799	0.025657
674.134322	0.025724
674.337827	0.025965
674.541314	0.025998
674.744782	0.026029
674.948232	0.026230
675.151664	0.026202
675.355078	0.026190
675.558474	0.026218
675.761851	0.026083
675.965210	0.025928
676.168551	0.025753
676.371873	0.025639
676.575178	0.025691
676.778464	0.025717
676.981732	0.025856
677.184981	0.025969
677.388213	0.025893
677.591426	0.026126
677.794621	0.026213
677.997798	0.026344
678.200956	0.026605
678.404097	0.026754
678.607219	0.026881
678.810323	0.026822
679.013408	0.026754
679.216476	0.026892
679.419525	0.026858
679.622556	0.026837
679.825569	0.026929
680.028563	0.026765
680.231540	0.026672
680.434498	0.026509
680.637438	0.026465
680.840359	0.026436
681.043263	0.026374
681.246148	0.026279
681.449015	0.026399
681.651864	0.026416
681.854694	0.026495
682.057506	0.026480
682.260301	0.026553
682.463076	0.026548
682.665834	0.026732
682.868573	0.026831
683.071295	0.026968
683.273998	0.026993
683.476682	0.027006
683.679349	0.027090
683.881997	0.027082
684.084627	0.026982
684.287239	0.027235
684.489833	0.027255
684.692408	0.027302
684.894965	0.027341
685.097504	0.027387
685.300025	0.027371
685.502527	0.027380
685.705012	0.027635
685.907478	0.027739
686.109925	0.027692
686.312355	0.027727
686.514766	0.027748
686.717159	0.027869
686.919534	0.027742
687.121891	0.027799
687.324230	0.027824
687.526550	0.027794
687.728852	0.027752
687.931136	0.027772
688.133401	0.027723
688.335649	0.027727
688.537878	0.027568
688.740089	0.027623
688.942281	0.027605
689.144456	0.027496
689.346612	0.027404
689.548750	0.027481
689.750870	0.027441
689.952971	0.027548
690.155055	0.027574
690.357120	0.027540
690.559167	0.027623
690.761195	0.027522
690.963206	0.027522
691.165198	0.027519
691.367172	0.027480
691.569128	0.027567
691.771065	0.027729
691.972984	0.027650
692.174885	0.027949
692.376768	0.027965
692.578633	0.028193
692.780479	0.028442
692.982308	0.028464
693.184118	0.028620
693.385909	0.028544
693.587683	0.028359
693.789438	0.028444
693.991175	0.028320
694.192894	0.028443
694.394595	0.028344
694.596277	0.028202
694.797941	0.028130
694.999587	0.027959
695.201215	0.028054
695.402824	0.028038
695.604416	0.028052
695.805989	0.028137
696.007543	0.028105
696.209080	0.028086
696.410598	0.028079
696.612099	0.028123
696.813580	0.028251
697.015044	0.028227
697.216490	0.028336
697.417917	0.028315
697.619326	0.028277
697.820717	0.028205
698.022089	0.028194
698.223444	0.028457
698.424780	0.028497
698.626098	0.028596
698.827397	0.028610
699.028679	0.028669
699.229942	0.028684
699.431187	0.028692
699.632414	0.028712
699.833622	0.028709
700.034813	0.028571
700.235985	0.028702
700.437139	0.028706
700.638274	0.028663
700.839392	0.028586
701.040491	0.028762
701.241572	0.029030
701.442635	0.029092
701.643679	0.029208
701.844706	0.029335
702.045714	0.029370
702.246704	0.029506
702.447675	0.029584
702.648629	0.029654
702.849564	0.029489
703.050481	0.029268
703.251380	0.029153
703.452260	0.029105
703.653122	0.028961
703.853966	0.028929
704.054792	0.028640
704.255600	0.028598
704.456389	0.028504
704.657160	0.028532
704.857913	0.028567
705.058648	0.028862
705.259365	0.028849
705.460063	0.028845
705.660743	0.028799
705.861405	0.028847
706.062048	0.028873
706.262674	0.028938
706.463281	0.028855
706.663870	0.028630
706.864441	0.028389
707.064993	0.028431
707.265527	0.028396
707.466043	0.028419
707.666541	0.028456
707.867021	0.028414
708.067482	0.028422
708.267925	0.028583
708.468350	0.028825
708.668757	0.028861
708.869145	0.028987
709.069516	0.029054
709.269868	0.029004
709.470201	0.029086
709.670517	0.029149
709.870814	0.029245
710.071093	0.029096
710.271354	0.029138
710.471597	0.029127
710.671821	0.029140
710.872028	0.029120
711.072216	0.029235
711.272385	0.029121
711.472537	0.029061
711.672670	0.028880
711.872785	0.029076
712.072882	0.029008
712.272961	0.029128
712.473021	0.029039
712.673063	0.029186
712.873087	0.029210
713.073093	0.029291
713.273081	0.029333
713.473050	0.029455
713.673001	0.029442
713.872934	0.029538
714.072849	0.029559
714.272745	0.029547
714.472623	0.029500
714.672483	0.029393
714.872325	0.029293
715.072148	0.029209
715.271954	0.029124
715.471741	0.029084
715.671509	0.029155
715.871260	0.029090
716.070992	0.029089
716.270707	0.029115
716.470403	0.029079
716.670080	0.029216
716.869740	0.029215
717.069381	0.029155
717.269004	0.029018
717.468609	0.028731
717.668195	0.028600
717.867764	0.028527
718.067314	0.028498
718.266846	0.028475
718.466360	0.028228
718.665855	0.028299
718.865332	0.028342
719.064791	0.028500
719.264232	0.028431
719.463655	0.028349
719.663059	0.028257
719.862445	0.028190
720.061813	0.028290
720.261163	0.028481
720.460494	0.028546
720.659807	0.028606
720.859102	0.028388
721.058379	0.028641
721.257638	0.028861
721.456878	0.028907
721.656100	0.028842
721.855304	0.028807
722.054490	0.028645
722.253657	0.028623
722.452806	0.028541
722.651937	0.028456
722.851050	0.028293
723.050145	0.028095
723.249221	0.028193
723.448279	0.028359
723.647319	0.028260
723.846340	0.028195
724.045344	0.028085
724.244329	0.028100
724.443296	0.028058
724.642245	0.028019
724.841175	0.028101
725.040088	0.027996
725.238982	0.027690
725.437857	0.027641
725.636715	0.027640
725.835554	0.027479
726.034376	0.027340
726.233179	0.027505
726.431963	0.027488
726.630730	0.027374
726.829478	0.027382
727.028208	0.027329
727.226920	0.027359
727.425614	0.027425
727.624289	0.027388
727.822946	0.027447
728.021585	0.027431
728.220206	0.027487
728.418808	0.027635
728.617392	0.027623
728.815958	0.027736
729.014506	0.027727
729.213036	0.027721
729.411547	0.027959
729.610040	0.027985
729.808515	0.027963
730.006972	0.027924
730.205410	0.027941
730.403831	0.028017
730.602233	0.028026
730.800616	0.028037
730.998982	0.028018
731.197329	0.027831
731.395658	0.027864
731.593969	0.027929
731.792262	0.027984
731.990536	0.027996
732.188793	0.027923
732.387031	0.028083
732.585250	0.027894
732.783452	0.027854
732.981635	0.027853
733.179800	0.027782
733.377947	0.027657
733.576076	0.027504
733.774186	0.027251
733.972278	0.027156
734.170352	0.026934
734.368408	0.027070
734.566446	0.027106
734.764465	0.027192
734.962466	0.026922
735.160449	0.026913
735.358413	0.026859
735.556360	0.026816
735.754288	0.026700
735.952198	0.026708
736.150090	0.026538
736.347963	0.026343
736.545818	0.026362
736.743655	0.026588
736.941474	0.026451
737.139275	0.026483
737.337057	0.026471
737.534821	0.026461
737.732567	0.026342
737.930295	0.026382
738.128005	0.026364
738.325696	0.026267
738.523369	0.026180
738.721024	0.026036
738.918660	0.025805
739.116279	0.025957
739.313879	0.026006
739.511461	0.026056
739.709024	0.026179
739.906570	0.026383
740.104097	0.026121
740.301606	0.026050
740.499097	0.026248
740.696569	0.026631
740.894024	0.026600
741.091460	0.026451
741.288878	0.026275
741.486277	0.026095
741.683659	0.025956
741.881022	0.026190
742.078367	0.026130
742.275694	0.026185
742.473002	0.025947
742.670293	0.025771
742.867565	0.025936
743.064819	0.026117
743.262054	0.026340
743.459272	0.026368
743.656471	0.026296
743.853652	0.026435
744.050815	0.026419
744.247959	0.026520
744.445085	0.026645
744.642194	0.026710
744.839283	0.026648
745.036355	0.026409
745.233408	0.026355
745.430444	0.026414
745.627461	0.026429
745.824459	0.026409
746.021440	0.026418
746.218402	0.026435
746.415346	0.026496
746.612272	0.026571
746.809180	0.026708
747.006069	0.026818
747.202940	0.026787
747.399793	0.026729
747.596628	0.026718
747.793444	0.026599
747.990243	0.026573
748.187023	0.026357
748.383784	0.026250
748.580528	0.026214
748.777253	0.025962
748.973960	0.025854
749.170649	0.025700
749.367320	0.025725
749.563973	0.025769
749.760607	0.025745
749.957223	0.026004
750.153821	0.025914
750.350400	0.026074
750.546962	0.026442
750.743505	0.026701
750.940030	0.027006
751.136536	0.026875
751.333025	0.026901
751.529495	0.026948
751.725947	0.026878
751.922381	0.027050
752.118796	0.026809
752.315194	0.026773
752.511573	0.026704
752.707934	0.026680
752.904276	0.026961
753.100601	0.026910
753.296907	0.027044
753.493195	0.026829
753.689465	0.026871
753.885716	0.026945
754.081949	0.026957
754.278164	0.026787
754.474361	0.026712
754.670540	0.026549
754.866700	0.026655
755.062843	0.026295
755.258967	0.026461
755.455072	0.026480
755.651160	0.026483
755.847229	0.026465
756.043280	0.026668
756.239313	0.026796
756.435328	0.026702
756.631324	0.026776
756.827302	0.027135
757.023262	0.027215
757.219204	0.027175
757.415127	0.027152
757.611033	0.027069
757.806920	0.027064
758.002788	0.027220
758.198639	0.027343
758.394471	0.027338
758.590286	0.027196
758.786081	0.026989
758.981859	0.026899
759.177619	0.026780
759.373360	0.026717
759.569083	0.026437
759.764788	0.026219
759.960474	0.026244
760.156143	0.026153
760.351793	0.026058
760.547425	0.026181
760.743038	0.026218
760.938634	0.026539
761.134211	0.026745
761.329770	0.027054
761.525311	0.026941
761.720833	0.026938
761.916338	0.026977
762.111824	0.027139
762.307292	0.027226
762.502741	0.027366
762.698173	0.027354
762.893586	0.027273
763.088981	0.027345
763.284358	0.027441
763.479716	0.027529
763.675057	0.027472
763.870379	0.027494
764.065683	0.027331
764.260968	0.027345
764.456236	0.027245
764.651485	0.027257
764.846716	0.027236
765.041929	0.027262
765.237123	0.027138
765.432299	0.027076
765.627457	0.027025
765.822597	0.026897
766.017719	0.026632
766.212822	0.026447
766.407907	0.026356
766.602974	0.026050
766.798023	0.025909
766.993054	0.025860
767.188066	0.025937
767.383060	0.025767
767.578036	0.025815
767.772993	0.025824
767.967933	0.025891
768.162854	0.025962
768.357757	0.026040
768.552642	0.026234
768.747508	0.026156
768.942356	0.026041
769.137186	0.026253
769.331998	0.026265
769.526792	0.026557
769.721567	0.026558
769.916324	0.026452
770.111063	0.026551
770.305784	0.026493
770.500486	0.026655
770.695171	0.026672
770.889837	0.026553
771.084484	0.026680
771.279114	0.026363
771.473725	0.026211
771.668318	0.026329
771.862893	0.026238
772.057450	0.026026
772.251988	0.025839
772.446509	0.025830
772.641011	0.025886
772.835494	0.025790
773.029960	0.025997
773.224407	0.026147
773.418836	0.026153
773.613247	0.026167
773.807640	0.026252
774.002014	0.026458
774.196370	0.026383
774.390708	0.026242
774.585028	0.026217
774.779330	0.026006
774.973613	0.026031
775.167878	0.025798
775.362125	0.025836
775.556354	0.025875
775.750564	0.025802
775.944756	0.025783
776.138930	0.025839
776.333086	0.025827
776.527223	0.025882
776.721343	0.025890
776.915444	0.026033
777.109526	0.025961
777.303591	0.025886
777.497637	0.025643
777.691666	0.025772
777.885676	0.025782
778.079667	0.025693
778.273641	0.025557
778.467596	0.025583
778.661533	0.025591
778.855452	0.025595
779.049352	0.025593
779.243235	0.025754
779.437099	0.025736
779.630945	0.025727
779.824773	0.025929
780.018582	0.026203
780.212373	0.026085
780.406146	0.026081
780.599901	0.026150
780.793638	0.026190
780.987356	0.026283
781.181056	0.026225
781.374738	0.026157
781.568402	0.026223
781.762047	0.026374
781.955674	0.026503
782.149283	0.026486
782.342874	0.026431
782.536447	0.026540
782.730001	0.026641
782.923537	0.026748
783.117055	0.026876
783.310555	0.026749
783.504036	0.026502
783.697499	0.026481
783.890944	0.026570
784.084371	0.026445
784.277780	0.026494
784.471170	0.026307
784.664542	0.026123
784.857896	0.026089
785.051231	0.026140
785.244549	0.026205
785.437848	0.026274
785.631129	0.026233
785.824392	0.026425
786.017636	0.026272
786.210863	0.026171
786.404071	0.026270
786.597260	0.026353
786.790432	0.026141
786.983585	0.026021
787.176721	0.025905
787.369838	0.025714
787.562936	0.025598
787.756017	0.025416
787.949079	0.025433
788.142123	0.025602
788.335149	0.025500
788.528156	0.025759
788.721146	0.025814
788.914117	0.025708
789.107070	0.025891
789.300005	0.025732
789.492921	0.025945
789.685819	0.026028
789.878699	0.025782
790.071561	0.025909
790.264405	0.025770
790.457230	0.025922
790.650037	0.025949
790.842826	0.025910
791.035597	0.026082
791.228349	0.025916
791.421084	0.026060
791.613800	0.026070
791.806497	0.025776
791.999177	0.025895
792.191838	0.025753
792.384481	0.025865
792.577106	0.025811
792.769713	0.025874
792.962301	0.026027
793.154871	0.025957
793.347423	0.026162
793.539957	0.026266
793.732473	0.026137
793.924970	0.026169
794.117449	0.026107
794.309910	0.026138
794.502353	0.026170
794.694777	0.026068
794.887183	0.026035
795.079571	0.025915
795.271941	0.025952
795.464293	0.025947
795.656626	0.025799
795.848941	0.025704
796.041238	0.025686
796.233516	0.025614
796.425777	0.025793
796.618019	0.025828
796.810243	0.025663
797.002449	0.025684
797.194636	0.025572
797.386805	0.025742
797.578956	0.025693
797.771089	0.025424
797.963204	0.025501
798.155300	0.025256
798.347378	0.025162
798.539438	0.025263
798.731480	0.025217
798.923503	0.025345
799.115509	0.025247
799.307496	0.025469
799.499465	0.025749
799.691415	0.025703
799.883348	0.026040
800.075262	0.025924
800.267158	0.025868
800.459035	0.025994
800.650895	0.025993
800.842736	0.025988
801.034559	0.025972
801.226364	0.026113
801.418150	0.026195
801.609919	0.025958
801.801669	0.026212
801.993401	0.026416
802.185114	0.026394
802.376810	0.026347
802.568487	0.026437
802.760146	0.026429
802.951787	0.026275
803.143409	0.026129
803.335014	0.026120
803.526600	0.025884
803.718168	0.025728
803.909717	0.025625
804.101249	0.025514
804.292762	0.025661
804.484257	0.025772
804.675734	0.025850
804.867192	0.025897
805.058632	0.025962
805.250054	0.026196
805.441458	0.026244
805.632844	0.026378
805.824211	0.026731
806.015561	0.026677
806.206891	0.026719
806.398204	0.026702
806.589499	0.026809
806.780775	0.027104
806.972033	0.027182
807.163273	0.027459
807.354495	0.027717
807.545698	0.027377
807.736883	0.027409
807.928050	0.027436
808.119199	0.027476
808.310329	0.027591
808.501441	0.027545
808.692535	0.027704
808.883611	0.027662
809.074669	0.027637
809.265708	0.027965
809.456729	0.028150
809.647732	0.028381
809.838717	0.028527
810.029683	0.028481
810.220632	0.028518
810.411562	0.028412
810.602474	0.028281
810.793367	0.028206
810.984242	0.028132
811.175100	0.028036
811.365938	0.027643
811.556759	0.027724
811.747562	0.027800
811.938346	0.027709
812.129112	0.027757
812.319860	0.027996
812.510589	0.027977
812.701300	0.028181
812.891994	0.028168
813.082668	0.028221
813.273325	0.028257
813.463964	0.028351
813.654584	0.028427
813.845186	0.028360
814.035769	0.028248
814.226335	0.028197
814.416882	0.028107
814.607411	0.028111
814.797922	0.028240
814.988415	0.028034
815.178889	0.027881
815.369345	0.027755
815.559783	0.028041
815.750203	0.028084
815.940605	0.028116
816.130988	0.028357
816.321353	0.028443
816.511700	0.028421
816.702028	0.028384
816.892339	0.028443
817.082631	0.028522
817.272905	0.028126
817.463161	0.028036
817.653398	0.027984
817.843617	0.027551
818.033819	0.027214
818.224001	0.027118
818.414166	0.027317
818.604312	0.027186
818.794440	0.027054
818.984550	0.027242
819.174642	0.027411
819.364716	0.027177
819.554771	0.027247
819.744808	0.027399
819.934827	0.027517
820.124827	0.027393
820.314810	0.027570
820.504774	0.027485
820.694720	0.027283
820.884647	0.027138
821.074557	0.027430
821.264448	0.027592
821.454321	0.027634
821.644176	0.027651
821.834012	0.027693
822.023831	0.027478
822.213631	0.027710
822.403413	0.027988
822.593176	0.028120
822.782922	0.028126
822.972649	0.028123
823.162358	0.028053
823.352049	0.028126
823.541721	0.028130
823.731376	0.028351
823.921012	0.028471
824.110629	0.028507
824.300229	0.028480
824.489811	0.028580
824.679374	0.028614
824.868919	0.028851
825.058445	0.028819
825.247954	0.028957
825.437444	0.028715
825.626916	0.028651
825.816370	0.028608
826.005806	0.028752
826.195223	0.028757
826.384622	0.028658
826.574003	0.028606
826.763366	0.028659
826.952711	0.028570
827.142037	0.028813
827.331345	0.028758
827.520635	0.028743
827.709906	0.028619
827.899160	0.028569
828.088395	0.028682
828.277612	0.028877
828.466810	0.028888
828.655991	0.028792
828.845153	0.028761
829.034297	0.028924
829.223423	0.028956
829.412531	0.029017
829.601620	0.029011
829.790691	0.029131
829.979744	0.029000
830.168779	0.029113
830.357795	0.029090
830.546793	0.029203
830.735773	0.029265
830.924735	0.029375
831.113679	0.029275
831.302604	0.029238
831.491511	0.029185
831.680400	0.029060
831.869271	0.028938
832.058123	0.028982
832.246957	0.029077
832.435773	0.029005
832.624571	0.029049
832.813351	0.029233
833.002112	0.029414
833.190855	0.029709
833.379580	0.029958
833.568287	0.030019
833.756975	0.030266
833.945645	0.030472
834.134297	0.030471
834.322931	0.030314
834.511547	0.030261
834.700144	0.030516
834.888723	0.030251
835.077284	0.030150
835.265826	0.030180
835.454351	0.030188
835.642857	0.029952
835.831345	0.029885
836.019815	0.030137
836.208266	0.030153
836.396699	0.029900
836.585114	0.029981
836.773511	0.030038
836.961890	0.030096
837.150250	0.030299
837.338592	0.030286
837.526916	0.030617
837.715222	0.030290
837.903510	0.030553
838.091779	0.030807
838.280030	0.031156
838.468263	0.031309
838.656477	0.031539
838.844674	0.031411
839.032852	0.031354
839.221012	0.031128
839.409153	0.031414
839.597277	0.031269
839.785382	0.031189
839.973469	0.031021
840.161538	0.031068
840.349589	0.030826
840.537621	0.031006
840.725635	0.031044
840.913631	0.031123
841.101609	0.031015
841.289568	0.030998
841.477509	0.030993
841.665432	0.030875
841.853337	0.030884
842.041224	0.031034
842.229092	0.031087
842.416942	0.031289
842.604774	0.031176
842.792588	0.031117
842.980383	0.031130
843.168160	0.031227
843.355919	0.031172
843.543660	0.031110
843.731382	0.031110
843.919087	0.030943
844.106773	0.030958
844.294441	0.031017
844.482090	0.031399
844.669722	0.031507
844.857335	0.031359
845.044930	0.031484
845.232507	0.031645
845.420065	0.031552
845.607605	0.031753
845.795127	0.031767
845.982631	0.032137
846.170117	0.032068
846.357584	0.032522
846.545033	0.032578
846.732464	0.032969
846.919877	0.032914
847.107272	0.033207
847.294648	0.033438
847.482006	0.033634
847.669346	0.033708
847.856667	0.033839
848.043971	0.033620
848.231256	0.034107
848.418523	0.034002
848.605771	0.034152
848.793002	0.034178
848.980214	0.033897
849.167408	0.033902
849.354584	0.033810
849.541742	0.033809
849.728881	0.033941
849.916002	0.033808
850.103105	0.034012
850.290190	0.033928
850.477256	0.034038
850.664304	0.034272
850.851334	0.034276
851.038346	0.034369
851.225340	0.034409
851.412315	0.034349
851.599272	0.034362
851.786211	0.034236
851.973132	0.034530
852.160034	0.034424
852.346918	0.034209
852.533784	0.034272
852.720632	0.034297
852.907462	0.034553
853.094273	0.034650
853.281066	0.034504
853.467841	0.034763
853.654598	0.034893
853.841336	0.035000
854.028056	0.035481
854.214758	0.035606
854.401442	0.035754
854.588107	0.035705
854.774755	0.035826
854.961384	0.035985
855.147995	0.035900
855.334587	0.035778
855.521162	0.036262
855.707718	0.036221
855.894256	0.036340
856.080775	0.036370
856.267277	0.036351
856.453760	0.036389
856.640225	0.036462
856.826672	0.036310
857.013101	0.036295
857.199511	0.036077
857.385903	0.036277
857.572277	0.036292
857.758633	0.036265
857.944970	0.036177
858.131290	0.036217
858.317591	0.036301
858.503873	0.036351
858.690138	0.036398
858.876384	0.036511
859.062612	0.036365
859.248822	0.036300
859.435014	0.036505
859.621188	0.036745
859.807343	0.036779
859.993480	0.037035
860.179599	0.037477
860.365699	0.037764
860.551781	0.037816
860.737846	0.037907
860.923891	0.038190
861.109919	0.038458
861.295929	0.038507
861.481920	0.038609
861.667893	0.038271
861.853848	0.038256
862.039784	0.038152
862.225702	0.038001
862.411603	0.038021
862.597484	0.038020
862.783348	0.037892
862.969193	0.038022
863.155021	0.038017
863.340830	0.038435
863.526620	0.038378
863.712393	0.038356
863.898147	0.038473
864.083883	0.038486
864.269601	0.038525
864.455301	0.038360
864.640982	0.038110
864.826645	0.037883
865.012290	0.037677
865.197917	0.037679
865.383526	0.037580
865.569116	0.037459
865.754688	0.037667
865.940242	0.037901
866.125777	0.038015
866.311295	0.038372
866.496794	0.038663
866.682275	0.038671
866.867737	0.038717
867.053182	0.038989
867.238608	0.039211
867.424016	0.039257
867.609406	0.039095
867.794778	0.039250
867.980131	0.039064
868.165466	0.039033
868.350783	0.039056
868.536082	0.038870
868.721362	0.039034
868.906625	0.039098
869.091869	0.039014
869.277094	0.039091
869.462302	0.038975
869.647491	0.039139
869.832662	0.039186
870.017815	0.039318
870.202950	0.039299
870.388066	0.039135
870.573165	0.038935
870.758245	0.039011
870.943306	0.038875
871.128350	0.038997
871.313375	0.038894
871.498382	0.038819
871.683371	0.038741
871.868342	0.038861
872.053294	0.038960
872.238229	0.039089
872.423144	0.039050
872.608042	0.039198
872.792922	0.039192
872.977783	0.039186
873.162626	0.039199
873.347451	0.039364
873.532258	0.039515
873.717046	0.039277
873.901816	0.039323
874.086568	0.039425
874.271302	0.039072
874.456017	0.039105
874.640715	0.038994
874.825394	0.039024
875.010055	0.038815
875.194697	0.038971
875.379322	0.039134
875.563928	0.039263
875.748516	0.039020
875.933085	0.039062
876.117637	0.039065
876.302170	0.039317
876.486685	0.039234
876.671182	0.039606
876.855661	0.039420
877.040121	0.039280
877.224563	0.039198
877.408987	0.039174
877.593393	0.039470
877.777780	0.039473
877.962150	0.039496
878.146501	0.039660
878.330833	0.039642
878.515148	0.039794
878.699444	0.040084
878.883722	0.039827
879.067982	0.039943
879.252224	0.039983
879.436447	0.040186
879.620653	0.040137
879.804840	0.040280
879.989008	0.040643
880.173159	0.040728
880.357291	0.040632
880.541405	0.040755
880.725501	0.040981
880.909579	0.040891
881.093638	0.040841
881.277680	0.041095
881.461703	0.041120
881.645707	0.040951
881.829694	0.040859
882.013662	0.040742
882.197612	0.040869
882.381544	0.040683
882.565458	0.040771
882.749353	0.040587
882.933230	0.040274
883.117089	0.040073
883.300930	0.039768
883.484753	0.039560
883.668557	0.039708
883.852343	0.039761
884.036111	0.039600
884.219861	0.039434
884.403592	0.039588
884.587305	0.039887
884.771000	0.040265
884.954677	0.040233
885.138335	0.040406
885.321976	0.040451
885.505598	0.040486
885.689201	0.040773
885.872787	0.041025
886.056354	0.040981
886.239904	0.040642
886.423434	0.040077
886.606947	0.040376
886.790442	0.040313
886.973918	0.040291
887.157376	0.040219
887.340816	0.040104
887.524237	0.039982
887.707641	0.040047
887.891026	0.040222
888.074393	0.040531
888.257741	0.040344
888.441072	0.040494
888.624384	0.040440
888.807678	0.040415
888.990954	0.040298
889.174211	0.040277
889.357451	0.040294
889.540672	0.040282
889.723875	0.040149
889.907059	0.039847
890.090226	0.039782
890.273374	0.040024
890.456504	0.040174
890.639616	0.040178
890.822709	0.040210
891.005785	0.040097
891.188842	0.040050
891.371881	0.040265
891.554901	0.040334
891.737904	0.040510
891.920888	0.040595
892.103854	0.040612
892.286802	0.040607
892.469731	0.040666
892.652643	0.040559
892.835536	0.040668
893.018410	0.040375
893.201267	0.040530
893.384106	0.040537
893.566926	0.040034
893.749728	0.040037
893.932511	0.040109
894.115277	0.040000
894.298024	0.039809
894.480753	0.039722
894.663464	0.039899
894.846157	0.039793
895.028831	0.039292
895.211487	0.039398
895.394125	0.039234
895.576745	0.039095
895.759346	0.039033
895.941930	0.039105
896.124495	0.038899
896.307041	0.038719
896.489570	0.038964
896.672080	0.039284
896.854573	0.039588
897.037046	0.039655
897.219502	0.039724
897.401940	0.040091
897.584359	0.039967
897.766760	0.040082
897.949143	0.040150
898.131507	0.039991
898.313854	0.039966
898.496182	0.039861
898.678492	0.039499
898.860783	0.039438
899.043057	0.038838
899.225312	0.038688
899.407549	0.038382
899.589768	0.038206
899.771968	0.038194
899.954151	0.037811
900.136315	0.037425
900.318461	0.037246
900.500588	0.037114
900.682698	0.037440
900.864789	0.037723
901.046862	0.038137
901.228917	0.038401
901.410953	0.038287
901.592971	0.038394
901.774972	0.038480
901.956953	0.038613
902.138917	0.038386
902.320862	0.038018
902.502790	0.037940
902.684699	0.037677
902.866589	0.037135
903.048462	0.036786
903.230316	0.036969
903.412152	0.037105
903.593970	0.037340
903.775770	0.037478
903.957551	0.037401
904.139314	0.037196
904.321059	0.037252
904.502786	0.037576
904.684494	0.037587
904.866185	0.037096
905.047857	0.036883
905.229510	0.036769
905.411146	0.036659
905.592763	0.036565
905.774363	0.036391
905.955943	0.036236
906.137506	0.035998
906.319051	0.036136
906.500577	0.036336
906.682085	0.036274
906.863575	0.036101
907.045046	0.036127
907.226500	0.036575
907.407935	0.036726
907.589352	0.036832
907.770750	0.036851
907.952131	0.036718
908.133493	0.036394
908.314837	0.036297
908.496163	0.036190
908.677470	0.036174
908.858760	0.035395
909.040031	0.035289
909.221284	0.035040
909.402518	0.034848
909.583735	0.034577
909.764933	0.034521
909.946113	0.034258
910.127275	0.034183
910.308418	0.034205
910.489544	0.034408
910.670651	0.034465
910.851740	0.034440
911.032810	0.034654
911.213863	0.034803
911.394897	0.034735
911.575913	0.034691
911.756911	0.034643
911.937890	0.034435
912.118851	0.034549
912.299794	0.034141
912.480719	0.034064
912.661626	0.033906
912.842514	0.033721
913.023384	0.033779
913.204236	0.033609
913.385070	0.033396
913.565886	0.033270
913.746683	0.032922
913.927462	0.033037
914.108223	0.032774
914.288965	0.032729
914.469690	0.032796
914.650396	0.032224
914.831084	0.032320
915.011754	0.032074
915.192405	0.031785
915.373038	0.031197
915.553653	0.030846
915.734250	0.030648
915.914829	0.030447
916.095389	0.030407
916.275931	0.030464
916.456455	0.029979
916.636961	0.029673
916.817448	0.029417
916.997917	0.030077
917.178368	0.030156
917.358801	0.030232
917.539216	0.030019
917.719612	0.029502
917.899990	0.029473
918.080350	0.029658
918.260692	0.030262
918.441015	0.030289
918.621320	0.030034
918.801607	0.029855
918.981876	0.029693
919.162127	0.029462
919.342359	0.029173
919.522573	0.029213
919.702769	0.029200
919.882947	0.028454
920.063106	0.028285
920.243247	0.028022
920.423370	0.028008
920.603475	0.027419
920.783562	0.027112
920.963630	0.026950
921.143680	0.026858
921.323712	0.026207
921.503725	0.026424
921.683721	0.026794
921.863698	0.026870
922.043657	0.027195
922.223598	0.027389
922.403520	0.027317
922.583424	0.027303
922.763311	0.027062
922.943178	0.027219
923.123028	0.026937
923.302859	0.026107
923.482673	0.025787
923.662467	0.024884
923.842244	0.024668
924.022003	0.024598
924.201743	0.024516
924.381465	0.024372
924.561169	0.024256
924.740854	0.023926
924.920522	0.024212
925.100171	0.023701
925.279802	0.023314
925.459414	0.022975
925.639009	0.022215
925.818585	0.021973
925.998143	0.021573
926.177683	0.021094
926.357205	0.021293
926.536708	0.020973
926.716193	0.021071
926.895660	0.021191
927.075109	0.021062
927.254539	0.021359
927.433951	0.021444
927.613345	0.021320
927.792721	0.021510
927.972079	0.020998
928.151418	0.020717
928.330739	0.020450
928.510042	0.020202
928.689327	0.019959
928.868593	0.019819
929.047841	0.019091
929.227071	0.018664
929.406283	0.018079
929.585476	0.017822
929.764652	0.017568
929.943809	0.017220
930.122948	0.017088
930.302068	0.017031
930.481171	0.017015
930.660255	0.016607
930.839321	0.016246
931.018369	0.015906
931.197398	0.015707
931.376409	0.015455
931.555402	0.014754
931.734377	0.014538
931.913334	0.014141
932.092272	0.013553
932.271192	0.013816
932.450094	0.014233
932.628978	0.014221
932.807844	0.014233
932.986691	0.013942
933.165520	0.014051
933.344331	0.013427
933.523123	0.013243
933.701898	0.013200
933.880654	0.013081
934.059392	0.012660
934.238111	0.012679
934.416813	0.012174
934.595496	0.011052
934.774161	0.010985
934.952808	0.011129
935.131437	0.011230
935.310047	0.011156
935.488639	0.010722
935.667213	0.010443
935.845769	0.009702
936.024306	0.009509
936.202825	0.010305
936.381326	0.010569
936.559809	0.010056
936.738274	0.009740
936.916720	0.009259
937.095148	0.008634
937.273558	0.008596
937.451950	0.008286
937.630323	0.007945
937.808678	0.007250
937.987015	0.006475
938.165334	0.006189
938.343635	0.005773
938.521917	0.005478
938.700181	0.005453
938.878427	0.004071
939.056655	0.004426
939.234864	0.004190
939.413055	0.004664
939.591228	0.004173
939.769383	0.004201
939.947519	0.004085
940.125638	0.003918
940.303738	0.003901
940.481820	0.004638
940.659883	0.004704
940.837929	0.003679
941.015956	0.002627
941.193965	0.002963
941.371955	0.002840
941.549928	0.001899
941.727882	0.001641
941.905818	0.001659
942.083736	0.001202
942.261636	0.000184
942.439517	0.000599
942.617380	0.000670
942.795225	-0.000126
942.973052	-0.000102
943.150860	0.000327
943.328651	-0.000035
943.506423	-0.000095
943.684176	-0.000146
943.861912	0.000053
944.039629	0.000593
944.217328	0.000710
944.395009	0.000681
944.572672	0.000001
944.750317	0.000019
944.927943	-0.000376
945.105551	-0.001218
945.283141	-0.002090
945.460712	-0.002226
945.638265	-0.003224
945.815801	-0.003263
945.993317	-0.003085
946.170816	-0.003056
946.348297	-0.003567
946.525759	-0.001889
946.703203	-0.000994
946.880629	-0.000645
947.058036	-0.000481
947.235425	0.000305
947.412797	0.000343
947.590149	0.000335
947.767484	0.000706
947.944800	0.000307
948.122099	-0.000272
948.299379	-0.000472
948.476640	-0.000273
948.653884	0.000392
948.831109	-0.000994
949.008316	-0.001740
949.185505	-0.002249
949.362676	-0.003007
949.539828	-0.002937
949.716962	-0.002203
949.894078	-0.002499
950.071176	-0.001965
950.248256	-0.002596
950.425317	-0.001423
950.602360	-0.000393
950.779385	-0.000479
950.956391	-0.000476
951.133380	-0.000684
951.310350	-0.003347
951.487302	-0.003066
951.664235	-0.004495
951.841151	-0.005252
952.018048	-0.005292
952.194927	-0.005340
952.371788	-0.005697
952.548631	-0.005742
952.725455	-0.005117
952.902261	-0.004592
953.079049	-0.005438
953.255819	-0.004294
953.432570	-0.003490
953.609303	-0.002422
953.786018	-0.003983
953.962715	-0.002473
954.139394	-0.001293
954.316054	-0.000350
954.492696	-0.000178
954.669320	0.000686
954.845926	0.000070
955.022513	0.001024
955.199083	-0.000426
955.375634	0.000047
955.552166	0.000217
955.728681	-0.000540
955.905177	-0.002180
956.081655	-0.001926
956.258115	-0.003098
956.434557	-0.002187
956.610980	-0.004340
956.787385	-0.005223
956.963772	-0.004407
957.140141	-0.006317
957.316492	-0.007316
957.492824	-0.004805
957.669138	-0.004560
957.845434	-0.003619
958.021712	-0.003427
958.197971	-0.003259
958.374212	-0.001966
958.550435	-0.002289
958.726640	-0.000719
958.902826	0.000627
959.078995	-0.000840
959.255145	-0.002352
959.431277	-0.002557
959.607390	-0.002759
959.783486	-0.003337
959.959563	-0.003630
960.135622	-0.003426
960.311662	-0.004473
960.487685	-0.005116
960.663689	-0.005416
960.839675	-0.004426
961.015643	-0.005195
961.191593	-0.003494
961.367524	-0.001808
961.543437	-0.000992
961.719332	-0.000760
961.895209	0.001247
962.071067	0.001148
962.246907	0.001117
962.422730	0.001870
962.598533	0.002410
962.774319	0.000174
962.950086	-0.000044
963.125835	0.001081
963.301566	0.001235
963.477279	0.001091
963.652973	-0.000153
963.828650	0.001167
964.004308	0.002614
964.179947	0.003509
964.355569	0.005975
964.531172	0.005694
964.706757	0.005772
964.882324	0.004749
965.057873	0.005857
965.233403	0.007378
965.408916	0.007360
965.584410	0.006594
965.759885	0.005874
965.935343	0.002917
966.110782	0.002276
966.286203	0.000457
966.461606	0.001182
966.636991	-0.000761
966.812357	0.000206
966.987705	-0.000366
967.163035	0.000027
967.338347	0.003602
967.513641	0.006014
967.688916	0.006372
967.864173	0.007626
968.039412	0.008426
968.214632	0.009703
968.389835	0.009623
968.565019	0.010037
968.740185	0.009689
968.915333	0.008384
969.090462	0.005369
969.265573	0.007654
969.440667	0.007401
969.615741	0.007031
969.790798	0.007114
969.965836	0.006769
970.140856	0.006775
970.315858	0.005728
970.490842	0.005366
970.665808	0.007396
970.840755	0.006507
971.015684	0.007667
971.190595	0.007161
971.365487	0.007599
971.540362	0.006476
971.715218	0.006621
971.890056	0.008377
972.064875	0.008021
972.239677	0.009427
972.414460	0.008481
972.589225	0.009199
972.763972	0.011221
972.938700	0.010759
973.113411	0.012799
973.288103	0.012417
973.462777	0.011634
973.637432	0.011713
973.812070	0.009470
973.986689	0.010418
974.161290	0.010087
974.335873	0.009717
974.510437	0.011028
974.684984	0.010783
974.859512	0.011828
975.034022	0.012003
975.208513	0.012845
975.382987	0.013744
975.557442	0.014360
975.731879	0.013906
975.906298	0.011347
976.080698	0.009895
976.255080	0.009775
976.429445	0.008866
976.603790	0.011002
976.778118	0.009845
976.952427	0.010619
977.126719	0.009992
977.300992	0.008606
977.475246	0.009550
977.649483	0.009609
977.823701	0.010058
977.997901	0.010797
978.172083	0.009317
978.346247	0.009205
978.520392	0.008900
978.694519	0.009816
978.868628	0.010753
979.042719	0.011688
979.216791	0.012628
979.390845	0.013473
979.564882	0.011811
979.738899	0.012131
979.912899	0.012035
980.086880	0.010782
980.260843	0.010818
980.434788	0.010467
980.608715	0.011398
980.782623	0.011598
980.956514	0.011500
981.130386	0.012505
981.304240	0.012172
981.478075	0.012612
981.651892	0.013032
981.825692	0.010859
981.999472	0.010797
982.173235	0.011262
982.346980	0.009992
982.520706	0.009365
982.694414	0.009881
982.868104	0.010274
983.041775	0.011539
983.215428	0.012222
983.389064	0.014661
983.562680	0.015554
983.736279	0.013536
983.909860	0.014014
984.083422	0.013772
984.256966	0.013285
984.430491	0.012740
984.603999	0.010796
984.777488	0.010577
984.950959	0.009544
985.124412	0.008601
985.297847	0.009911
985.471263	0.010868
985.644661	0.009866
985.818041	0.011382
985.991403	0.011907
986.164747	0.013524
986.338072	0.013630
986.511379	0.013217
986.684668	0.012448
986.857938	0.011935
987.031191	0.011507
987.204425	0.013274
987.377641	0.012099
987.550839	0.011180
987.724018	0.010774
987.897179	0.010446
988.070322	0.010318
988.243447	0.010543
988.416554	0.010554
988.589642	0.010891
988.762712	0.010778
988.935764	0.010726
989.108798	0.011888
989.281813	0.011428
989.454811	0.011538
989.627790	0.012874
989.800751	0.013449
989.973693	0.012115
990.146617	0.010687
990.319524	0.011261
990.492412	0.010963
990.665281	0.010553
990.838133	0.011211
991.010966	0.012460
991.183781	0.010126
991.356578	0.011900
991.529356	0.012443
991.702117	0.013873
991.874859	0.013605
992.047583	0.013739
992.220288	0.013517
992.392976	0.012998
992.565645	0.011598
992.738296	0.011575
992.910929	0.008848
993.083543	0.008739
993.256139	0.007896
993.428718	0.007892
993.601277	0.008719
993.773819	0.007696
993.946342	0.006867
994.118848	0.006777
994.291335	0.008187
994.463803	0.008943
994.636254	0.009506
994.808686	0.009168
994.981100	0.007835
995.153496	0.006618
995.325874	0.007364
995.498233	0.009861
995.670574	0.010367
995.842897	0.010225
996.015202	0.010589
996.187488	0.011085
996.359757	0.010017
996.532007	0.011043
996.704239	0.011559
996.876452	0.011263
997.048648	0.008172
997.220825	0.008924
997.392984	0.009563
997.565124	0.009145
997.737247	0.008770
997.909351	0.009756
998.081437	0.008269
998.253505	0.009102
998.425554	0.009974
998.597586	0.010797
998.769599	0.009058
998.941594	0.008576
999.113571	0.008272
999.285529	0.007889
999.457469	0.008421
999.629391	0.008204
999.801295	0.006301
999.973181	0.004892
1000.145048	0.006207
1000.316897	0.006703
1000.488728	0.007707
1000.660541	0.008108
1000.832335	0.008883
1001.004111	0.008729
1001.175869	0.009850
1001.347609	0.010516
1001.519331	0.013043
1001.691034	0.012373
1001.862719	0.012011
1002.034386	0.012753
1002.206035	0.013476
1002.377665	0.012804
1002.549277	0.012170
1002.720871	0.011917
1002.892447	0.012933
1003.064004	0.011001
1003.235544	0.011222
1003.407065	0.011612
1003.578568	0.009960
1003.750052	0.009298
1003.921519	0.009212
1004.092967	0.009464
1004.264397	0.010172
1004.435809	0.010539
1004.607202	0.009888
1004.778577	0.008992
1004.949934	0.009375
1005.121273	0.009278
1005.292594	0.010151
1005.463896	0.010438
1005.635180	0.010321
1005.806446	0.009607
1005.977694	0.009082
1006.148923	0.009790
1006.320135	0.009311
1006.491328	0.009037
1006.662503	0.009486
1006.833659	0.008615
1007.004798	0.008574
1007.175918	0.008340
1007.347020	0.008190
1007.518103	0.007705
1007.689169	0.008516
1007.860216	0.009781
1008.031245	0.010152
1008.202256	0.010965
1008.373248	0.011426
1008.544223	0.011258
1008.715179	0.012768
1008.886117	0.014518
1009.057036	0.014784
1009.227938	0.014302
1009.398821	0.014949
1009.569686	0.015895
1009.740533	0.013711
1009.911361	0.012849
1010.082172	0.011959
1010.252964	0.010968
1010.423738	0.008897
1010.594493	0.007672
1010.765231	0.006254
1010.935950	0.005603
1011.106651	0.004968
1011.277334	0.008194
1011.447998	0.008679
1011.618645	0.008886
1011.789273	0.009030
1011.959882	0.010053
1012.130474	0.010604
1012.301048	0.011317
1012.471603	0.011630
1012.642140	0.011266
1012.812658	0.008436
1012.983159	0.008559
1013.153641	0.008602
1013.324105	0.008620
1013.494551	0.007434
1013.664979	0.006815
1013.835388	0.007312
1014.005779	0.007016
1014.176152	0.006615
1014.346507	0.006454
1014.516843	0.007480
1014.687162	0.006969
1014.857462	0.006330
1015.027744	0.008296
1015.198007	0.009233
1015.368252	0.008084
1015.538480	0.008572
1015.708689	0.008863
1015.878879	0.009167
1016.049052	0.008210
1016.219206	0.009987
1016.389342	0.010060
1016.559460	0.008202
1016.729559	0.007627
1016.899641	0.009810
1017.069704	0.008045
1017.239749	0.007344
1017.409775	0.007871
1017.579784	0.007623
1017.749774	0.006167
1017.919746	0.006301
1018.089700	0.006651
1018.259635	0.007513
1018.429553	0.006382
1018.599452	0.007651
1018.769333	0.008488
1018.939195	0.008145
1019.109040	0.009107
1019.278866	0.010238
1019.448674	0.009222
1019.618464	0.008934
1019.788235	0.008090
1019.957989	0.008665
1020.127724	0.008607
1020.297441	0.009680
1020.467139	0.008805
1020.636820	0.008134
1020.806482	0.006819
1020.976126	0.008558
1021.145752	0.008142
1021.315359	0.007858
1021.484948	0.007864
1021.654519	0.008402
1021.824072	0.006861
1021.993607	0.008135
1022.163123	0.008342
1022.332621	0.009864
1022.502101	0.010646
1022.671563	0.010090
1022.841007	0.012271
1023.010432	0.012852
1023.179839	0.013328
1023.349228	0.015611
1023.518598	0.014013
1023.687951	0.014663
1023.857285	0.015440
1024.026601	0.013631
1024.195899	0.015062
1024.365178	0.013161
1024.534439	0.010977
1024.703682	0.010646
1024.872907	0.009929
1025.042114	0.010961
1025.211302	0.009646
1025.380472	0.010067
1025.549624	0.010324
1025.718758	0.009328
1025.887873	0.008818
1026.056970	0.009796
1026.226049	0.008762
1026.395110	0.007124
1026.564153	0.007584
1026.733177	0.007214
1026.902183	0.005876
1027.071171	0.005748
1027.240141	0.007219
1027.409092	0.007930
1027.578026	0.007060
1027.746940	0.006347
1027.915837	0.007093
1028.084716	0.006204
1028.253576	0.005572
1028.422418	0.004946
1028.591242	0.004307
1028.760048	0.004726
1028.928835	0.005534
1029.097604	0.005644
1029.266355	0.006350
1029.435088	0.006999
1029.603803	0.008678
1029.772499	0.009293
1029.941177	0.010629
1030.109837	0.012902
1030.278478	0.011750
1030.447102	0.009899
1030.615707	0.009888
1030.784294	0.009395
1030.952863	0.008370
1031.121413	0.006913
1031.289945	0.007841
1031.458460	0.007465
1031.626955	0.005843
1031.795433	0.004285
1031.963892	0.004659
1032.132334	0.004894
1032.300756	0.004827
1032.469161	0.004089
1032.637548	0.004008
1032.805916	0.003625
1032.974266	0.003771
1033.142598	0.004122
1033.310911	0.006790
1033.479207	0.007587
1033.647484	0.008774
1033.815743	0.009930
1033.983983	0.009100
1034.152206	0.010551
1034.320410	0.010193
1034.488596	0.009818
1034.656764	0.010168
1034.824914	0.009193
1034.993045	0.008930
1035.161158	0.007966
1035.329253	0.006091
1035.497330	0.006882
1035.665388	0.005458
1035.833428	0.006897
1036.001450	0.005978
1036.169454	0.006317
1036.337440	0.004806
1036.505407	0.004705
1036.673356	0.004861
1036.841287	0.005445
1037.009200	0.006002
1037.177094	0.007654
1037.344970	0.007155
1037.512828	0.007598
1037.680668	0.005807
1037.848489	0.007257
1038.016293	0.006947
1038.184078	0.006335
1038.351845	0.006928
1038.519593	0.006255
1038.687324	0.005080
1038.855036	0.004647
1039.022730	0.003375
1039.190406	0.002336
1039.358063	0.002589
1039.525702	0.003951
1039.693323	0.003987
1039.860926	0.004648
1040.028511	0.005079
1040.196077	0.005280
1040.363625	0.004110
1040.531155	0.005519
1040.698667	0.007005
1040.866161	0.007131
1041.033636	0.007503
1041.201093	0.007911
1041.368532	0.006465
1041.535952	0.007320
1041.703355	0.007170
1041.870739	0.008260
1042.038105	0.007886
1042.205452	0.008036
1042.372782	0.006446
1042.540093	0.005737
1042.707386	0.004884
1042.874661	0.006122
1043.041918	0.005245
1043.209156	0.006199
1043.376376	0.004901
1043.543578	0.005265
1043.710762	0.004954
1043.877927	0.006409
1044.045074	0.005006
1044.212203	0.006161
1044.379314	0.005285
1044.546407	0.005845
1044.713481	0.004680
1044.880537	0.005878
1045.047575	0.005959
1045.214595	0.005584
1045.381596	0.005041
1045.548579	0.006337
1045.715544	0.005930
1045.882491	0.005312
1046.049420	0.004389
1046.216330	0.003931
1046.383222	0.002505
1046.550096	0.002372
1046.716951	0.002686
1046.883789	0.003206
1047.050608	0.001238
1047.217409	0.000409
1047.384192	0.001909
1047.550956	0.001639
1047.717703	0.001907
1047.884431	0.003741
1048.051140	0.003120
1048.217832	0.002283
1048.384505	0.002208
1048.551161	0.005059
1048.717798	0.004988
1048.884416	0.003690
1049.051017	0.003951
1049.217599	0.003217
1049.384163	0.003041
1049.550709	0.003735
1049.717237	0.005335
1049.883746	0.006045
1050.050237	0.004302
1050.216710	0.006253
1050.383165	0.007505
1050.549601	0.007633
1050.716019	0.009475
1050.882420	0.010177
1051.048801	0.009843
1051.215165	0.009701
1051.381510	0.007889
1051.547837	0.008646
1051.714146	0.007303
1051.880437	0.005501
1052.046709	0.005659
1052.212964	0.003689
1052.379200	0.002942
1052.545417	0.003080
1052.711617	0.002817
1052.877798	0.003344
1053.043961	0.002873
1053.210106	0.003310
1053.376233	0.003314
1053.542341	0.003307
1053.708432	0.004977
1053.874504	0.004906
1054.040557	0.004308
1054.206593	0.004614
1054.372610	0.005592
1054.538609	0.004575
1054.704590	0.003806
1054.870553	0.004027
1055.036497	0.004732
1055.202424	0.003228
1055.368331	0.002726
1055.534221	0.003731
1055.700093	0.002518
1055.865946	0.003179
1056.031781	0.003689
1056.197598	0.004539
1056.363397	0.006496
1056.529177	0.005972
1056.694939	0.004948
1056.860683	0.006554
1057.026409	0.005390
1057.192116	0.005822
1057.357806	0.004045
1057.523477	0.003487
1057.689130	0.002953
1057.854764	0.001780
1058.020381	0.003559
1058.185979	0.005369
1058.351559	0.005353
1058.517120	0.005961
1058.682664	0.006521
1058.848189	0.006459
1059.013696	0.008055
1059.179185	0.009500
1059.344656	0.009292
1059.510108	0.007991
1059.675542	0.006653
1059.840958	0.005403
1060.006356	0.006210
1060.171735	0.006351
1060.337096	0.007390
1060.502439	0.008261
1060.667764	0.006571
1060.833071	0.007158
1060.998359	0.006718
1061.163629	0.007357
1061.328881	0.006467
1061.494115	0.005052
1061.659330	0.005304
1061.824527	0.003915
1061.989706	0.002347
1062.154867	0.003488
1062.320010	0.003594
1062.485134	0.002900
1062.650240	0.002695
1062.815328	0.003712
1062.980398	0.003911
1063.145449	0.004962
1063.310482	0.005530
1063.475497	0.004472
1063.640494	0.003004
1063.805473	0.003254
1063.970433	0.004207
1064.135375	0.004600
1064.300299	0.003853
1064.465204	0.002488
1064.630092	0.000913
1064.794961	0.000917
1064.959812	0.001501
1065.124645	0.002352
1065.289459	0.002651
1065.454256	0.001317
1065.619034	0.001858
1065.783793	0.002001
1065.948535	0.003637
1066.113258	0.004020
1066.277964	0.003495
1066.442651	0.002614
1066.607319	0.003063
1066.771970	0.003546
1066.936602	0.004817
1067.101216	0.004843
1067.265812	0.004184
1067.430389	0.004978
1067.594949	0.004542
1067.759490	0.005060
1067.924013	0.006142
1068.088518	0.006599
1068.253004	0.003371
1068.417472	0.004546
1068.581922	0.004330
1068.746354	0.003591
1068.910768	0.003862
1069.075163	0.004358
1069.239540	0.005901
1069.403899	0.006854
1069.568240	0.005823
1069.732562	0.006936
1069.896866	0.006629
1070.061152	0.007156
1070.225420	0.008196
1070.389670	0.005991
1070.553901	0.004301
1070.718114	0.004155
1070.882309	0.004343
1071.046486	0.004510
1071.210644	0.005738
1071.374784	0.003784
1071.538906	0.003783
1071.703010	0.004968
1071.867096	0.006286
1072.031163	0.008626
1072.195212	0.007117
1072.359243	0.006761
1072.523256	0.006941
1072.687250	0.006975
1072.851226	0.006651
1073.015184	0.005989
1073.179124	0.003768
1073.343045	0.003894
1073.506949	0.004389
1073.670834	0.006181
1073.834701	0.006594
1073.998549	0.006049
1074.162380	0.004559
1074.326192	0.005580
1074.489986	0.006517
1074.653761	0.008396
1074.817519	0.006562
1074.981258	0.001922
1075.144979	0.000593
1075.308682	0.000721
1075.472367	0.000725
1075.636033	0.000714
1075.799681	0.000482
1075.963311	0.001662
1076.126923	-0.000368
1076.290516	0.000741
1076.454092	0.003074
1076.617649	0.001218
1076.781187	0.000900
1076.944708	0.002561
1077.108210	0.003917
1077.271695	0.004972
1077.435160	0.002702
1077.598608	0.003769
1077.762038	0.004320
1077.925449	0.004078
1078.088842	0.004084
1078.252217	0.002641
1078.415573	-0.000171
1078.578912	-0.000002
1078.742232	0.000296
1078.905534	0.000309
1079.068817	-0.000485
1079.232083	-0.002142
1079.395330	-0.001790
1079.558559	-0.000060
1079.721770	0.001467
1079.884962	0.001529
1080.048136	-0.000044
1080.211293	-0.001602
1080.374430	-0.001264
1080.537550	-0.000416
1080.700651	-0.000167
1080.863735	0.000824
1081.026800	0.000860
1081.189846	-0.000175
1081.352875	0.000724
1081.515885	-0.000237
1081.678877	0.000685
1081.841851	0.000910
1082.004807	-0.000295
1082.167744	0.000211
1082.330663	-0.000618
1082.493564	-0.000579
1082.656447	0.000187
1082.819312	0.000227
1082.982158	0.003517
1083.144986	0.002916
1083.307796	0.001705
1083.470587	0.004510
1083.633361	0.005186
1083.796116	0.004459
1083.958853	0.003756
1084.121571	0.002303
1084.284272	0.003080
1084.446954	0.000817
1084.609618	0.000267
1084.772264	0.000059
1084.934892	-0.001000
1085.097501	-0.000436
1085.260092	0.000189
1085.422665	0.000122
1085.585220	0.000606
1085.747756	-0.000559
1085.910274	0.001176
1086.072774	0.001499
1086.235256	0.003225
1086.397720	0.003475
1086.560165	0.001798
1086.722592	0.002256
1086.885001	0.002638
1087.047392	0.002800
1087.209764	0.003846
1087.372119	0.002898
1087.534455	0.003248
1087.696772	0.003938
1087.859072	0.005249
1088.021353	0.005649
1088.183616	0.004012
1088.345861	0.005062
1088.508088	0.005655
1088.670296	0.004611
1088.832486	0.002965
1088.994658	0.002683
1089.156812	0.001863
1089.318948	0.001887
1089.481065	0.003655
1089.643164	0.004942
1089.805245	0.002477
1089.967308	0.002587
1090.129352	0.003042
1090.291378	0.003706
1090.453386	0.002184
1090.615376	0.001777
1090.777347	-0.000960
1090.939301	-0.000563
1091.101236	-0.000242
1091.263153	0.001335
1091.425051	-0.000467
1091.586932	0.000113
1091.748794	0.001864
1091.910638	0.002579
1092.072463	0.002174
1092.234271	0.003821
1092.396060	0.002547
1092.557831	0.002160
1092.719584	0.003104
1092.881319	0.004852
1093.043035	0.003939
1093.204733	0.003089
1093.366413	0.002740
1093.528075	0.002801
1093.689718	0.002499
1093.851343	0.002571
1094.012950	0.002353
1094.174539	0.003255
1094.336110	0.002617
1094.497662	0.003633
1094.659196	0.003258
1094.820712	0.005941
1094.982210	0.007277
1095.143689	0.006296
1095.305151	0.003383
1095.466594	0.003521
1095.628018	-0.000492
1095.789425	0.000516
1095.950813	0.001725
1096.112183	0.004193
1096.273535	0.003576
1096.434869	0.004556
1096.596184	0.004903
1096.757482	0.009000
1096.918761	0.009708
1097.080021	0.010583
1097.241264	0.008211
1097.402488	0.004611
1097.563694	0.002740
1097.724882	0.001661
1097.886052	0.000900
1098.047203	0.003609
1098.208336	0.002013
1098.369451	0.001820
1098.530548	0.005261
1098.691627	0.008867
1098.852687	0.010171
1099.013729	0.007648
1099.174753	0.009877
1099.335758	0.009655
1099.496746	0.009130
1099.657715	0.011918
1099.818666	0.013211
1099.979599	0.007965
1100.140513	0.006811
1100.301409	0.009189
1100.462287	0.012490
1100.623147	0.011918
1100.783989	0.009472
1100.944812	0.008323
1101.105617	0.003293
1101.266404	0.002231
1101.427173	0.005051
1101.587923	0.005622
1101.748656	0.004645
1101.909370	0.005411
1102.070066	0.006090
1102.230743	0.006177
1102.391403	0.004002
1102.552044	0.005129
1102.712667	0.005253
1102.873271	0.003155
1103.033858	-0.001297
1103.194426	-0.001751
1103.354976	-0.004527
1103.515508	-0.005649
1103.676021	-0.006363
1103.836517	-0.004670
1103.996994	-0.005148
1104.157453	-0.007097
1104.317893	-0.005951
1104.478316	-0.000152
1104.638720	0.001060
1104.799106	0.002003
1104.959474	0.001676
1105.119823	0.004802
1105.280155	0.003113
1105.440468	0.003457
1105.600763	0.001633
1105.761039	0.004130
1105.921298	0.000824
1106.081538	-0.001583
1106.241760	-0.000569
1106.401964	0.000196
1106.562149	-0.001981
1106.722316	-0.003578
1106.882465	-0.003203
1107.042596	-0.000126
1107.202709	-0.001341
1107.362803	0.003427
1107.522879	0.007064
1107.682937	0.005111
1107.842977	0.004350
1108.002999	0.008054
1108.163002	0.011821
1108.322987	0.012197
1108.482954	0.012582
1108.642902	0.012271
1108.802833	0.009420
1108.962745	0.002746
1109.122639	0.005772
1109.282515	0.004871
1109.442372	-0.000122
1109.602211	-0.000129
1109.762032	0.001144
1109.921835	0.000240
1110.081620	0.000232
1110.241386	-0.000656
1110.401134	0.003404
1110.560864	-0.000223
1110.720576	-0.000864
1110.880269	0.001800
1111.039945	0.003940
1111.199602	0.002722
1111.359240	0.004547
1111.518861	0.002840
1111.678463	0.000716
1111.838047	0.000216
1111.997613	0.000593
1112.157161	0.002640
1112.316690	0.001864
1112.476202	0.000275
1112.635695	0.000558
1112.795169	-0.000258
1112.954626	0.002897
1113.114064	0.002222
1113.273484	0.003061
1113.432886	0.003780
1113.592270	0.002293
1113.751635	-0.000347
1113.910983	0.000339
1114.070312	0.000152
1114.229622	0.003541
1114.388915	0.004197
1114.548189	0.006940
1114.707445	0.007481
1114.866683	0.008926
1115.025903	0.010513
1115.185104	0.015984
1115.344287	0.013755
1115.503452	0.015008
1115.662599	0.011557
1115.821727	0.012204
1115.980838	0.013369
1116.139930	0.011113
1116.299004	0.011562
1116.458059	0.013457
1116.617097	0.009719
1116.776116	0.008931
1116.935117	0.007014
1117.094099	0.006820
1117.253064	0.003338
1117.412010	0.001808
1117.570938	0.003280
1117.729848	0.001790
1117.888740	0.000341
1118.047613	0.003605
1118.206468	0.004586
1118.365305	0.006297
1118.524124	0.007015
1118.682924	0.009694
1118.841707	0.010293
1119.000471	0.007714
1119.159216	0.006781
1119.317944	0.005237
1119.476653	0.003300
1119.635344	0.003396
1119.794017	0.000689
1119.952672	-0.002567
1120.111308	-0.005848
1120.269927	-0.008832
1120.428527	-0.005491
1120.587108	-0.003108
1120.745672	-0.002439
1120.904217	-0.004342
1121.062744	-0.003503
1121.221253	-0.002373
1121.379744	0.001893
1121.538216	0.003031
1121.696671	0.004931
1121.855107	0.002431
1122.013524	0.000640
1122.171924	0.001340
1122.330305	0.003605
1122.488668	0.003347
1122.647013	0.004441
1122.805340	0.005294
1122.963648	0.001415
1123.121938	0.001688
1123.280210	0.000902
1123.438464	-0.002207
1123.596700	-0.000263
1123.754917	-0.001983
1123.913116	-0.002492
1124.071297	-0.002397
1124.229459	-0.002788
1124.387604	0.000403
1124.545730	-0.001747
1124.703838	0.001732
1124.861928	0.008154
1125.019999	0.003774
1125.178052	0.005720
1125.336088	0.005320
1125.494104	0.008916
1125.652103	0.006722
1125.810083	0.010493
1125.968045	0.015166
1126.125989	0.016016
1126.283915	0.014934
1126.441823	0.016719
1126.599712	0.017704
1126.757583	0.018467
1126.915436	0.015484
1127.073270	0.013565
1127.231087	0.013458
1127.388885	0.009079
1127.546665	0.000700
1127.704426	-0.000665
1127.862170	0.001482
1128.019895	-0.000230
1128.177602	-0.001394
1128.335291	-0.003265
1128.492961	0.001905
1128.650614	-0.002845
1128.808248	-0.001611
1128.965864	0.004118
1129.123461	0.003831
1129.281041	0.001410
1129.438602	0.003108
1129.596145	0.006123
1129.753670	0.006475
1129.911176	0.004159
1130.068665	0.001495
1130.226135	0.003530
1130.383587	0.001917
1130.541020	0.001945
1130.698436	0.001114
1130.855833	-0.000014
1131.013212	0.003317
1131.170573	0.004757
1131.327915	0.002470
1131.485239	0.003011
1131.642545	0.005683
1131.799833	0.004699
1131.957103	0.006690
1132.114354	0.005302
1132.271588	0.000796
1132.428803	-0.006614
1132.585999	-0.007777
1132.743178	-0.003273
1132.900338	0.001031
1133.057480	-0.002387
1133.214604	0.001129
1133.371710	-0.000285
1133.528797	0.003595
1133.685866	0.010302
1133.842917	0.009555
1133.999950	0.012413
1134.156964	0.006477
1134.313960	0.012038
1134.470938	0.008240
1134.627898	0.009252
1134.784840	0.009587
1134.941763	0.007320
1135.098668	0.005756
1135.255555	0.009972
1135.412424	0.008308
1135.569274	0.010055
1135.726107	0.004289
1135.882921	0.005836
1136.039716	0.005295
1136.196494	0.004916
1136.353253	0.000631
1136.509995	0.001559
1136.666717	-0.001642
1136.823422	-0.003211
1136.980109	0.005995
1137.136777	0.006536
1137.293427	0.011547
1137.450059	0.011254
1137.606672	0.011706
1137.763267	0.019634
1137.919844	0.018596
1138.076403	0.017414
1138.232944	0.018522
1138.389466	0.010422
1138.545971	0.012918
1138.702457	0.007390
1138.858924	0.009443
1139.015374	0.010722
1139.171805	0.008954
1139.328218	0.011352
1139.484613	0.013970
1139.640990	0.017266
1139.797348	0.016620
1139.953688	0.014433
1140.110010	0.020363
1140.266314	0.018811
1140.422600	0.014379
1140.578867	0.011167
1140.735116	0.004520
1140.891347	-0.001141
1141.047559	-0.000503
1141.203754	-0.002081
1141.359930	-0.003735
1141.516088	-0.003850
1141.672228	-0.005036
1141.828349	-0.000108
1141.984452	-0.000656
1142.140537	0.000975
1142.296604	0.005719
1142.452653	0.002569
1142.608683	0.000379
1142.764695	0.004646
1142.920689	-0.002377
1143.076665	-0.008315
1143.232622	-0.016795
1143.388562	-0.016745
1143.544483	-0.013990
1143.700385	-0.010918
1143.856270	-0.009404
1144.012136	-0.004076
1144.167985	-0.007088
1144.323814	-0.004314
1144.479626	-0.002526
1144.635420	0.002621
1144.791195	0.005968
1144.946952	0.007392
1145.102691	0.004312
1145.258411	0.001162
1145.414113	0.001686
1145.569798	0.011291
1145.725463	0.014027
1145.881111	0.020456
1146.036741	0.022143
1146.192352	0.021568
1146.347945	0.016502
1146.503519	0.019128
1146.659076	0.016888
1146.814614	0.014421
1146.970134	0.005777
1147.125636	0.000699
1147.281120	0.003121
1147.436585	0.000512
1147.592032	0.003189
1147.747461	0.005704
1147.902872	-0.001758
1148.058265	0.002016
1148.213639	0.007633
1148.368995	0.000379
1148.524333	0.005419
1148.679653	-0.002134
1148.834954	-0.001222
1148.990237	-0.006360
1149.145502	-0.001399
1149.300749	0.004322
1149.455977	0.003045
1149.611188	-0.004505
1149.766380	0.006183
1149.921553	0.007681
1150.076709	0.014507
1150.231846	0.014756
1150.386966	0.012956
1150.542066	0.005720
1150.697149	0.006209
1150.852214	0.006053
1151.007260	0.005947
1151.162288	0.004043
1151.317298	0.005754
1151.472289	0.003487
1151.627263	0.001075
1151.782218	0.004123
1151.937155	0.006974
1152.092073	0.009262
1152.246974	0.003461
1152.401856	0.005406
1152.556720	0.001125
1152.711566	-0.000617
1152.866393	0.001219
1153.021203	0.002910
1153.175994	-0.000804
1153.330767	-0.006599
1153.485521	-0.008428
1153.640258	-0.007528
1153.794976	-0.002411
1153.949676	-0.003429
1154.104358	-0.007372
1154.259021	-0.011259
1154.413667	-0.008032
1154.568294	-0.005378
1154.722903	-0.001085
1154.877493	-0.002896
1155.032066	0.005682
1155.186620	-0.000081
1155.341156	0.005231
1155.495674	0.003708
1155.650173	0.009449
1155.804654	0.013017
1155.959118	0.010788
1156.113562	0.007766
1156.267989	0.002634
1156.422397	-0.006254
1156.576788	-0.009539
1156.731160	-0.006536
1156.885513	-0.000909
1157.039849	-0.000771
1157.194166	-0.004800
1157.348465	-0.002750
1157.502746	0.004344
1157.657009	0.010439
1157.811253	0.015705
1157.965479	0.019240
1158.119687	0.013372
1158.273877	0.005504
1158.428048	-0.000344
1158.582201	-0.009993
1158.736337	-0.015199
1158.890453	-0.017508
1159.044552	-0.017444
1159.198632	-0.015134
1159.352694	-0.013482
1159.506738	-0.010874
1159.660764	-0.003438
1159.814771	-0.002868
1159.968761	0.002201
1160.122732	0.010738
1160.276685	0.008060
1160.430619	0.008451
1160.584535	0.009580
1160.738434	0.015488
1160.892313	0.007385
1161.046175	0.001354
1161.200019	0.000747
1161.353844	0.002723
1161.507651	0.007325
1161.661440	0.008448
1161.815210	0.012909
1161.968962	0.015772
1162.122697	0.010577
1162.276412	0.013781
1162.430110	0.018034
1162.583789	0.014881
1162.737451	0.019524
1162.891094	0.008817
1163.044718	0.007264
1163.198325	0.000258
1163.351913	-0.001480
1163.505483	-0.001867
1163.659035	-0.007266
1163.812569	-0.011047
1163.966084	-0.003214
1164.119581	-0.001161
1164.273060	0.004458
1164.426521	0.008941
1164.579964	0.011415
1164.733388	0.006739
1164.886794	0.009773
1165.040182	0.023991
1165.193551	0.023200
1165.346903	0.024061
1165.500236	0.019802
1165.653551	0.014119
1165.806848	0.004606
1165.960126	0.007575
1166.113386	0.009647
1166.266628	0.003316
1166.419852	-0.003305
1166.573058	-0.002265
1166.726245	-0.010823
1166.879414	-0.006863
1167.032565	-0.011844
1167.185698	-0.015026
1167.338812	-0.020416
1167.491909	-0.012973
1167.644987	-0.007000
1167.798046	-0.016234
1167.951088	-0.014618
1168.104111	-0.009455
1168.257117	-0.010183
1168.410103	-0.002429
1168.563072	0.005593
1168.716023	0.003109
1168.868955	-0.003731
1169.021869	-0.016908
1169.174765	-0.010406
1169.327642	-0.017108
1169.480501	-0.018218
1169.633343	-0.023856
1169.786165	-0.022040
1169.938970	-0.015818
1170.091757	-0.018162
1170.244525	-0.023647
1170.397275	-0.012281
1170.550007	-0.014282
1170.702720	-0.003663
1170.855415	-0.008004
1171.008092	-0.002800
1171.160751	0.003962
1171.313392	0.004364
1171.466014	-0.026590
1171.618619	0.048683
1171.771205	0.048683
1171.923772	0.048683
