sample name	sample
index	1006
start time	 04-19-2021  10:51:57 AM
880	0.035698
Peak Time (s)	121.538
Peak Height 	0.0357
calc peak height	120,123
Baseline Time (s)	9.537
Baseline Value 	-0.02903
subtract baseline	10,4
Abs	-0.000288
Peak Time (s)	122.038
Peak Height 	-2.8846E-4
calc peak height	120,123
Baseline Time (s)	10.537
Baseline Value 	0.006448
subtract baseline	10,3
PK_550	0.002823
Peak Time (s)	122.038
Peak Height 	0.002823
calc peak height	120,123
Baseline Time (s)	11.537
Baseline Value 	6.726E-4
subtract baseline	10,2
PK_880	-0.008966
Peak Time (s)	121.037
Peak Height 	-0.008966
calc peak height	120,123
Baseline Time (s)	9.039
Baseline Value 	0.003226
subtract baseline	10,1


Time (s)	A880-A510	A880-A775	A880-A975	A880	I510	I775	I975	I880	
0.040500	-0.002993	-0.000391	-0.004109	0.022608	6248.088344	43164.389889	3772.542994	22883.891396
0.536500	-0.001726	-0.000324	-0.001416	0.020585	6274.442911	43359.022549	3783.619711	22977.786572
1.037000	-0.002051	-0.000629	-0.003725	0.018096	6291.880587	43563.432032	3784.042928	23093.857552
1.550500	-0.004106	-0.001701	-0.006043	0.016098	6291.427758	43650.356356	3783.288001	23187.542525
2.037500	-0.001753	-0.001721	-0.008801	0.014599	6322.683298	43789.734494	3780.320572	23258.103645
2.535000	-0.004329	-0.002359	-0.002162	0.012851	6315.938995	43894.586419	3800.250828	23340.694370
3.035500	-0.005586	-0.001244	-0.003707	0.012040	6312.311525	44077.137895	3798.492201	23379.125590
3.536000	-0.003940	-0.001285	-0.004115	0.010599	6337.494322	44210.324222	3800.969177	23447.592798
4.035500	-0.005682	-0.000324	-0.006433	0.010521	6323.901365	44309.609938	3795.606141	23451.338530
4.536500	-0.002764	-0.000699	-0.006624	0.009584	6355.478109	44363.308237	3797.389263	23495.969155
5.036000	-0.004033	-0.000643	-0.002400	0.008887	6350.774622	44435.346877	3809.230598	23529.248227
5.537000	0.000911	-0.001324	-0.002807	0.002832	6442.296220	44953.550191	3822.989409	23820.574839
6.037000	-0.005282	-0.000258	-0.002570	0.007748	6349.865803	44581.707224	3811.578642	23583.736728
6.537500	-0.002711	-0.000795	-0.004628	0.007150	6375.998032	44587.577207	3808.045086	23612.421015
7.035000	-0.001899	-0.000302	-0.002531	0.001603	6428.998083	45172.538617	3826.685636	23880.186549
7.535000	-0.000577	-0.000336	0.001907	0.001165	6443.803128	45211.982473	3838.749976	23901.493411
8.035500	-0.005082	0.000030	-0.005372	0.005834	6367.279218	44793.987515	3809.428729	23675.644685
8.535500	0.000726	0.000486	-0.000316	0.000819	6457.729048	45326.113353	3834.091671	23918.328425
9.038500	0.000000	-0.000395	-0.002864	-0.000211	6460.304365	45340.678985	3830.334973	23968.512655
9.536500	0.000487	0.000059	0.000115	0.000000	6462.649142	45364.508081	3837.192474	23958.235190
10.036500	-0.002807	-0.000058	0.001542	0.003794	6403.068182	44983.133198	3831.328224	23774.025244
10.536500	0.000665	0.000007	0.000000	-0.000214	6465.968105	45380.405851	3837.437925	23968.670280
11.037500	-0.000300	-0.000896	-0.000017	-0.001260	6466.649053	45394.386054	3839.998370	24019.748602
11.537500	-0.001072	0.000000	0.005278	0.000341	6446.582156	45325.342968	3849.239823	23941.605324
12.037500	0.000288	-0.000929	0.001919	-0.001250	6471.566429	45390.297683	3844.807536	24019.306268
12.535500	-0.001808	-0.000203	0.002214	-0.001394	6455.013165	45475.481174	3845.904844	24026.302117
13.035500	0.000993	-0.000059	0.001945	-0.002486	6488.085996	45597.072667	3847.968965	24079.795672
13.536500	-0.003550	-0.000452	-0.000351	0.004163	6393.807753	44909.065057	3825.750980	23756.181177
14.036000	0.000250	0.000479	0.003830	-0.000865	6467.970828	45490.600118	3848.632986	24000.471517
14.536500	-0.000925	-0.000481	-0.001856	0.000475	6446.686902	45265.173310	3831.130851	23935.074552
15.036500	-0.000919	-0.000476	0.002121	-0.001807	6466.042169	45489.366967	3846.708762	24046.540934
15.561000	-0.002963	-0.000010	-0.004412	0.003905	6400.844208	44976.916704	3816.444993	23768.654225
16.037500	-0.004106	-0.000017	0.001366	0.003989	6390.635730	44968.178171	3830.411453	23764.604958
16.541500	0.000631	-0.000421	0.001202	-0.002472	6484.882451	45560.142372	3846.072386	24079.154233
17.035000	0.002095	-0.000018	0.000767	-0.002676	6499.119941	45619.913700	3845.491387	24089.122077
17.535000	-0.001496	-0.000596	-0.004249	0.001221	6435.594260	45181.086939	3823.403538	23898.757909
18.036000	-0.003166	-0.000485	0.000219	0.000891	6424.339558	45224.150890	3835.238573	23914.816871
18.538500	-0.000541	0.000113	0.004646	-0.000367	6457.048052	45405.838084	3849.430809	23976.153045
19.036000	-0.000350	-0.000132	0.002859	-0.000519	6459.954603	45396.727734	3845.331505	23983.575593
19.536500	-0.000834	0.000198	-0.002137	0.001181	6441.509044	45262.610162	3828.696032	23900.735529
20.037000	-0.003395	-0.000830	-0.001185	0.000546	6425.309989	45224.150029	3832.615246	23931.626497
20.537000	-0.001438	0.000157	0.001943	-0.000959	6454.468585	45468.233936	3844.137799	24005.043777
21.037000	-0.001979	-0.000179	0.004462	-0.000871	6449.151593	45426.605140	3850.234658	24000.751329
21.534500	-0.001491	-0.000672	0.003053	0.000407	6442.489357	45253.156725	3843.499031	23938.400206
22.035500	-0.002036	0.000392	0.000812	-0.000116	6442.309214	45408.555297	3839.214661	23963.901389
22.535000	-0.001480	0.000978	0.002956	-0.000383	6449.247297	45492.294533	3845.231356	23976.905512
23.038500	-0.001862	-0.000322	0.002614	-0.001418	6454.762268	45466.291209	3846.967588	24027.499568
23.536500	0.000168	-0.000048	0.003079	0.000900	6452.328556	45265.927673	3842.330939	23914.376279
24.036500	-0.001671	-0.000645	0.003561	-0.001266	6455.099580	45419.694873	3848.965143	24020.088362
24.537000	-0.001649	0.000180	0.002367	-0.000946	6452.576636	45469.213539	3845.166959	24004.429200
25.037000	0.001056	0.000497	0.003665	-0.000922	6475.300423	45497.991297	3848.360475	24003.256144
25.537000	-0.000874	0.000042	-0.001999	0.000568	6446.340351	45307.259214	3830.550592	23930.575994
26.035000	0.000387	0.000543	0.007832	-0.000654	6467.349121	45476.186959	3858.193531	23990.168335
26.535000	0.000024	0.000115	0.001351	-0.001455	6471.060190	45512.778836	3843.899114	24029.301308
27.035000	-0.000023	0.000526	0.003548	-0.000604	6463.447187	45469.653746	3847.270981	23987.731862
27.535500	-0.003959	-0.000663	0.003286	0.001815	6409.966639	45116.704268	3840.567199	23869.895817
28.036000	0.000222	0.000305	0.004414	-0.002246	6479.469212	45609.355653	3853.575352	24068.033032
28.536000	0.001400	0.000176	0.004944	-0.003023	6496.149308	45673.259518	3856.878553	24106.169042
29.058500	0.000313	0.000499	0.008213	-0.002558	6482.900431	45659.309656	3863.996464	24083.364104
29.537000	-0.003844	0.000049	0.002194	0.000675	6420.464848	45297.429639	3840.686662	23925.343139
30.037000	-0.002756	-0.000195	0.000341	0.003058	6409.639061	45041.262314	3830.178396	23809.641401
30.537000	0.001168	0.000862	0.005196	-0.002170	6486.885421	45656.742224	3855.359301	24064.314406
31.061000	0.002359	0.000063	0.000659	-0.002669	6501.328648	45627.262507	3845.206413	24088.810293
31.535000	-0.000577	0.000745	0.002628	0.002601	6431.720637	45177.328709	3836.972705	23831.774334
32.035500	-0.003200	0.000279	0.003967	0.003716	6400.445581	45023.375436	3837.530569	23777.780301
32.566500	-0.002877	0.000191	0.003260	0.002147	6416.236720	45167.586274	3839.674854	23853.776572
33.055000	0.001455	0.000694	0.006301	-0.002666	6493.560255	45689.096497	3859.410303	24088.625417
33.536500	-0.002397	-0.000353	0.000248	0.002749	6415.219153	45055.944695	3830.711007	23824.572314
34.036500	-0.001561	0.000686	0.002371	0.003736	6413.952270	45061.018840	3833.520966	23776.812606
34.537000	-0.003866	0.000596	-0.001038	0.003376	6397.729895	45087.280931	3825.997189	23794.211543
35.037000	0.002406	0.000448	0.004397	-0.003040	6504.902509	45701.769006	3855.539167	24106.996167
35.537500	-0.000461	0.001061	0.003871	0.001440	6442.470533	45321.730197	3842.964010	23888.149284
36.035000	-0.001885	0.000521	0.004737	0.001772	6427.689846	45236.363343	3844.296476	23871.978447
36.535000	-0.000116	0.000769	0.006967	0.000268	6455.279921	45407.934803	3853.677309	23945.192803
37.035500	0.000937	0.000857	0.006580	-0.000062	6466.980732	45448.870320	3853.530803	23961.238827
37.536000	-0.001991	-0.000161	0.003127	0.000711	6435.724401	45273.455431	3842.924487	23923.613682
38.036500	-0.004033	0.000858	0.005988	0.001544	6411.617721	45291.542444	3847.999915	23883.055007
38.536500	0.000595	0.000653	0.000244	-0.000744	6469.871373	45495.850961	3839.364180	23994.557217
39.037000	-0.000157	0.000535	0.007683	-0.000922	6465.004838	45501.726876	3858.495116	24003.251752
39.537000	-0.000727	0.000771	0.001550	0.001071	6443.332167	45329.408287	3838.096093	23906.076403
40.037500	0.001278	0.001012	0.007679	-0.000593	6474.392247	45516.288169	3857.651297	23987.170679
40.537500	-0.000457	0.000628	0.000881	-0.000807	6461.491601	45499.600348	3841.108606	23997.650107
41.034500	-0.001726	0.000600	0.005243	-0.001370	6455.509423	45552.245050	3853.459348	24025.171778
41.535500	-0.002810	0.000399	0.002934	0.000350	6431.872370	45363.598242	3843.345002	23941.174721
42.038500	-0.000574	0.001135	0.005291	-0.000634	6459.030961	45532.425205	3851.725216	23989.174588
42.536000	-0.001410	0.000365	0.006055	-0.001338	6457.908352	45525.912170	3855.426469	24023.572871
43.036000	-0.001501	0.000791	0.007322	-0.000872	6453.195082	45521.919179	3857.451445	24000.790738
43.536500	-0.000668	0.000578	0.007388	0.000554	6448.192624	45361.079644	3854.015405	23931.244837
44.037000	-0.001211	0.000980	0.006038	0.001228	6437.938345	45334.485544	3848.922022	23898.442093
44.537000	0.001242	0.000973	0.009624	-0.000594	6474.093721	45512.526863	3862.586760	23987.214145
45.037500	0.000505	0.000625	0.009028	-0.001019	6471.435595	45520.057697	3862.153318	24007.969479
45.535000	-0.003310	0.000216	0.000283	0.001534	6417.752423	45229.853183	3833.805268	23883.569118
46.035000	-0.003370	0.001054	0.005975	0.003412	6401.564633	45128.451063	3843.293756	23792.509520
46.552000	-0.003683	0.000435	0.003454	0.002819	6403.901752	45125.848328	3838.485572	23821.227345
47.035500	0.002274	0.001123	0.008193	-0.002849	6502.140725	45749.650093	3864.688062	24097.654900
47.536000	-0.003703	0.000045	0.006712	0.001383	6415.720994	45227.886323	3850.225569	23890.888636
48.036500	-0.001145	0.000853	0.001618	0.002122	6430.974915	45234.614197	3835.656230	23855.011982
48.537000	-0.002309	0.000206	0.006656	0.002752	6415.932660	45110.034805	3846.647533	23824.440649
49.037000	-0.001071	-0.000171	0.004088	-0.000719	6455.548060	45412.519449	3848.915189	23993.347438
49.534500	-0.002069	0.001516	0.005288	0.001849	6425.505894	45326.148949	3845.481024	23868.246044
50.035000	-0.002235	0.000507	0.006148	0.000979	6431.420481	45312.600768	3849.824213	23910.558028
50.535000	-0.001998	0.001248	0.004331	0.003539	6411.954539	45134.945494	3838.875360	23786.348288
51.035500	0.002682	0.001283	0.007279	-0.002912	6506.174579	45771.672584	3862.521469	24100.737441
51.538500	-0.000072	0.000995	0.006291	0.002137	6439.869128	45247.023326	3847.275336	23854.283337
52.036000	-0.000726	0.000331	0.003428	0.006375	6398.901023	44770.797682	3829.610996	23649.609242
52.536000	-0.000811	0.001397	0.003487	-0.000423	6455.236639	45537.329574	3846.662095	23978.854169
53.036500	0.006261	0.001000	0.018820	0.243744	4910.140369	27142.192785	3400.831399	14861.624816
53.536500	-0.009283	-0.011046	-0.015613	0.040291	6061.974907	40615.574600	3706.608059	22081.712105
54.037000	-0.019012	-0.054754	-0.023488	-0.210046	8489.536664	63646.359796	4415.764486	37131.546053
54.537500	-0.008288	-0.110934	-0.008944	-0.279504	9646.735478	65535.000000	4769.489327	43089.423252
55.034500	-0.004017	-0.113200	-0.007306	-0.281771	9750.840173	65535.000000	4787.658409	43300.372708
55.537500	-0.005124	-0.056827	-0.004516	-0.217358	8775.025667	64384.525445	4519.181165	37714.778026
56.038000	-0.010958	-0.020185	-0.004540	-0.136956	7695.812907	58483.027812	4221.474114	31810.367971
56.535500	-0.014274	-0.013169	-0.012224	-0.114587	7413.667720	56549.556384	4123.638879	30352.965342
57.036000	-0.009878	-0.007430	-0.007878	-0.085864	7161.376356	53779.699639	4049.100830	28588.226203
57.536000	-0.013040	-0.006104	-0.010970	-0.054771	6829.270084	50403.554724	3951.380686	26805.025021
58.036500	-0.010573	-0.004037	-0.011275	-0.045741	6768.572591	49646.609955	3926.006161	26310.616508
58.537000	-0.010281	-0.006052	-0.012001	-0.064810	6950.297816	51522.227422	3976.389918	27366.873719
59.037000	-0.006765	-0.003375	-0.013439	-0.046145	6807.426904	49761.785716	3921.283632	26332.534969
59.537500	-0.010761	-0.004398	-0.013421	0.007649	6305.947667	44194.848677	3785.819596	23588.470486
60.035000	-0.013798	0.000535	-0.014957	0.021469	6171.810094	43356.695170	3750.117790	22936.721736
60.535500	-0.010237	-0.000789	-0.018436	0.032162	6116.604350	42250.283230	3718.269700	22446.443539
61.035500	-0.011291	0.001542	-0.009256	0.045031	6011.417313	41304.973198	3710.148312	21872.213981
61.536000	-0.016641	0.001599	-0.016136	0.054118	5905.839752	40512.865500	3675.781847	21476.820883
62.036500	-0.013656	-0.000366	-0.013657	0.068724	5823.375217	39101.620938	3650.513858	20858.458620
62.536500	-0.016316	0.002452	-0.012222	0.074556	5764.495807	38850.671387	3641.524621	20617.300031
63.037000	-0.017381	0.002414	-0.017607	0.088834	5660.983618	37682.096818	3602.418121	20040.346068
63.534500	-0.022331	0.002856	-0.021287	0.106336	5515.956323	36339.025750	3562.228427	19358.549330
64.034500	-0.017258	0.001364	-0.014831	0.100250	5587.100591	36695.498586	3585.788345	19592.513653
64.534500	-0.018591	0.003107	-0.017243	0.103320	5558.814548	36592.175786	3575.407358	19474.096690
65.035000	-0.016272	0.002960	-0.011907	0.090195	5659.320381	37616.785008	3610.896677	19986.349598
65.538000	-0.019577	-0.000247	-0.014213	0.091582	5628.406353	37250.593449	3603.677566	19931.492879
66.035500	-0.016033	0.002967	-0.016092	0.113343	5511.499384	35810.860804	3558.881192	19093.183777
66.536000	-0.017975	0.000617	-0.018102	0.148101	5290.366669	33108.720829	3493.879037	17838.377212
67.036500	-0.013954	-0.000055	-0.016049	0.144995	5331.855095	33278.898864	3502.670230	17946.447223
67.536500	-0.019653	-0.000698	-0.024044	0.127319	5403.142350	34497.464607	3519.454395	18576.516593
68.037000	-0.010721	0.000237	-0.010444	0.091099	5690.264648	37327.277874	3611.995793	19950.566132
68.534000	-0.012992	-0.002052	-0.017160	0.073658	5793.621201	38552.620070	3633.344035	20654.200028
69.037500	-0.016855	-0.001558	-0.017679	0.067687	5808.280095	39088.636048	3644.401455	20901.682347
69.539000	-0.017438	-0.001436	-0.018262	0.065207	5821.526798	39306.596183	3648.280612	21005.476453
70.037500	-0.013193	0.000090	-0.015454	0.058348	5900.225865	40018.034449	3668.316149	21295.611571
70.536500	-0.014788	-0.000615	-0.012384	0.055646	5908.176574	40189.382079	3680.491982	21411.153669
71.036000	-0.013986	-0.000496	-0.020242	0.053518	5929.335101	40383.273449	3668.404129	21502.681530
71.536500	-0.015891	0.000379	-0.012121	0.057478	5887.134552	40117.394031	3677.167298	21332.749145
72.036500	-0.015488	0.001405	-0.014330	0.053127	5921.300348	40582.160834	3681.712215	21519.574086
72.536500	-0.014702	0.001407	-0.007856	0.052095	5934.462315	40672.116912	3697.810343	21564.126685
73.037500	-0.014786	0.001017	-0.011774	0.051324	5939.456769	40705.392762	3691.028359	21597.536246
73.537500	-0.016792	0.000693	-0.021761	0.054633	5901.061214	40389.724594	3662.900973	21454.694174
74.035000	-0.009096	0.002097	-0.013978	0.053104	5968.010654	40644.320259	3682.508472	21520.553361
74.535500	-0.012309	0.002385	-0.010024	0.050551	5963.173666	40892.666818	3696.464191	21631.060112
75.038000	-0.012325	0.001619	-0.011501	0.049926	5967.632136	40880.302716	3694.623971	21658.207426
75.536000	-0.014600	0.001694	-0.013830	0.053890	5922.205906	40540.956717	3681.152096	21486.661429
76.036000	-0.014953	0.001059	-0.011139	0.050441	5944.663085	40786.150416	3694.294740	21635.825666
76.536500	-0.011247	0.001328	-0.010179	0.048896	5983.125540	40945.113911	3699.707972	21703.014930
77.036500	-0.011609	0.001796	-0.009438	0.048631	5982.418505	41009.516596	3701.891848	21714.577832
77.537000	-0.013186	0.001735	-0.011780	0.052691	5941.146834	40648.742617	3688.082101	21538.369726
78.037500	-0.013207	0.001630	-0.008999	0.049291	5965.823540	40936.894083	3701.413409	21685.825447
78.534500	-0.012161	0.001512	-0.011789	0.048037	5982.721625	41036.699127	3698.081115	21740.473101
79.035000	-0.009680	0.002415	-0.011598	0.048758	5995.721879	41052.802783	3696.935797	21709.044291
79.536000	-0.013818	0.002463	-0.018129	0.052783	5935.892245	40704.275316	3674.391973	21534.412196
80.035500	-0.010433	0.002643	-0.008956	0.048545	5991.726711	41091.617320	3703.128898	21718.327175
80.536000	-0.010782	0.002552	-0.006688	0.047759	5994.961087	41152.966643	3709.797823	21752.647364
81.036000	-0.011168	0.002896	-0.007404	0.047418	5994.624171	41213.525441	3708.975349	21767.549339
81.536000	-0.012994	0.001751	-0.010856	0.051003	5954.857531	40797.577616	3693.693979	21611.446673
82.037000	-0.009483	0.002681	-0.013415	0.047781	6004.415938	41162.366046	3695.121121	21751.673834
82.537000	-0.011628	0.001409	-0.010127	0.045589	6004.768122	41243.696916	3707.021001	21847.682266
83.037500	-0.011432	0.001921	-0.007911	0.046045	6002.841884	41248.675498	3710.872444	21827.672480
83.537500	-0.012686	0.000732	-0.011316	0.049368	5969.081434	40851.439777	3696.228208	21682.486977
84.038000	-0.012145	0.001197	-0.011272	0.045139	6004.268553	41264.799716	3705.502419	21867.440034
84.538000	-0.009038	0.001737	-0.008529	0.045461	6025.000339	41284.081575	3710.800008	21853.306649
85.035500	-0.011010	0.002567	-0.003352	0.045524	6009.841480	41352.062697	3722.082378	21850.528644
85.536000	-0.012498	0.002390	-0.011578	0.049771	5967.497745	40961.458115	3694.790170	21664.919079
86.036000	-0.010078	0.001782	-0.011633	0.044338	6025.614783	41387.718879	3706.463515	21902.686888
86.536500	-0.010347	0.001738	-0.005865	0.044215	6024.530119	41394.697573	3719.414794	21908.109523
87.037000	-0.010431	0.002126	-0.007600	0.044288	6023.357607	41422.691323	3715.422542	21904.903620
87.537000	-0.013629	0.002033	-0.010060	0.049578	5960.627895	40947.048087	3698.488341	21673.318191
88.034500	-0.013016	0.001515	-0.007613	0.043805	6007.702687	41411.312298	3716.455919	21926.165542
88.534500	-0.008522	0.001908	-0.006672	0.043863	6040.815985	41441.074549	3718.407186	21923.598817
89.038000	-0.010011	0.001513	-0.007807	0.042832	6037.384518	41497.718632	3718.178552	21969.136197
89.535500	-0.014685	0.000676	-0.006668	0.047295	5969.620727	41028.535055	3710.858776	21772.935153
90.036000	-0.010056	0.003005	-0.003800	0.043930	6028.833002	41532.814837	3724.630187	21920.667195
90.536000	-0.007322	0.002374	-0.012193	0.043425	6053.134154	41521.587425	3707.235501	21942.938828
91.036500	-0.011189	0.001844	-0.008592	0.042562	6030.589473	41551.328728	3717.041497	21981.060793
91.536000	-0.009889	0.002471	-0.009119	0.048315	5997.450631	41096.709831	3703.272633	21728.343480
92.037000	-0.011697	0.001562	-0.010978	0.042330	6028.517924	41546.765890	3712.296504	21991.308211
92.537500	-0.011862	0.001345	-0.005218	0.041702	6031.985558	41583.480137	3726.433072	22019.098706
93.037500	-0.009592	0.001477	-0.001266	0.042188	6045.364379	41551.880337	3734.193298	21997.597618
93.535000	-0.013072	0.001680	-0.009853	0.046957	5983.965829	41146.772031	3704.632986	21787.690966
94.038000	-0.008705	0.001398	-0.006465	0.041098	6060.241313	41642.146653	3724.999922	22045.877626
94.535500	-0.011153	0.002538	-0.008391	0.041842	6036.244517	41677.588052	3719.076320	22012.923153
95.036000	-0.009492	0.001737	-0.009746	0.041186	6053.644494	41664.625263	3717.529043	22041.970244
95.536500	-0.012898	0.002002	-0.011075	0.045982	5992.450248	41261.421964	3704.095417	21830.427687
96.036500	-0.013021	0.002113	-0.010118	0.040748	6030.455625	41737.581873	3717.676754	22061.442577
96.539500	-0.009813	0.002865	-0.005437	0.041221	6050.968680	41762.522225	3727.017755	22040.427947
97.037000	-0.009831	0.001977	-0.006516	0.040027	6059.829493	41789.928312	3727.274791	22093.460638
97.537500	-0.014742	0.002398	-0.009823	0.046049	5978.358859	41290.500676	3706.679600	21827.483724
98.038000	-0.010628	0.001898	-0.008711	0.039903	6054.754554	41794.037301	3722.663532	22098.975528
98.538000	-0.011324	0.002350	-0.008072	0.040311	6046.452797	41797.969208	3723.177208	22080.835014
99.035500	-0.010118	0.002261	-0.011956	0.039710	6060.051189	41843.894056	3715.908057	22107.545921
99.536000	-0.014472	0.001737	-0.012055	0.044108	5994.670121	41404.135062	3706.044050	21912.825745
100.036000	-0.009410	0.002308	-0.009180	0.039114	6069.915883	41901.768636	3723.376389	22134.107054
100.536000	-0.010435	0.002006	-0.005346	0.038145	6069.489389	41961.830590	3734.107865	22177.325251
101.037000	-0.009513	0.001650	-0.007146	0.038321	6075.143939	41913.929526	3729.679107	22169.483832
101.537000	-0.014439	0.001332	-0.010467	0.042380	6007.725860	41521.923738	3713.309965	21989.116081
102.037500	-0.008477	0.002089	-0.008175	0.038493	6081.697427	41937.931987	3726.995222	22161.799191
102.534500	-0.011909	0.001942	-0.005620	0.037868	6060.442306	41981.060117	3734.116662	22189.732424
103.034500	-0.010045	0.001896	-0.007468	0.037673	6076.026276	41994.539816	3730.409470	22198.462154
103.535500	-0.012961	0.002534	-0.005478	0.042863	6015.117809	41585.945779	3723.269387	21967.731491
104.035500	-0.011076	0.000945	-0.009674	0.036572	6076.552278	42008.113100	3727.938365	22247.755851
104.536000	-0.010325	0.001857	-0.010768	0.036912	6079.669260	42059.702998	3724.740562	22232.498413
105.036000	-0.011881	0.001670	-0.003028	0.036692	6069.537711	42062.647355	3742.619558	22242.336194
105.536500	-0.015209	0.001022	-0.008223	0.042829	5998.682730	41454.236539	3717.263899	21969.235707
106.036500	-0.009600	0.002818	-0.009417	0.037311	6082.142696	42110.443865	3726.860507	22214.614425
106.537500	-0.012225	0.002499	-0.004015	0.036385	6069.264729	42165.436087	3741.082128	22256.128850
107.037500	-0.012278	0.001779	-0.007834	0.035794	6073.337962	42153.731719	3733.802235	22282.637375
107.534500	-0.016386	0.001191	-0.010456	0.040936	6003.983021	41638.162616	3716.514377	22053.068280
108.037500	-0.013134	0.001147	-0.007631	0.035028	6072.660572	42165.965724	3735.982652	22317.088028
108.535500	-0.011634	0.002149	-0.006998	0.035681	6079.080756	42197.533883	3735.936674	22287.714621
109.035500	-0.011031	0.001024	-0.008840	0.035056	6088.409170	42152.251447	3733.200201	22315.813903
109.535500	-0.014012	0.001846	-0.011697	0.041278	6019.098203	41666.105792	3713.027470	22037.899432
110.036500	-0.009196	0.001896	-0.002537	0.035423	6099.605076	42197.992419	3746.617147	22299.288956
110.536500	-0.010647	0.001845	-0.006402	0.034789	6093.376054	42250.946645	3739.292619	22327.845099
111.040000	-0.011280	0.002010	-0.001893	0.034786	6088.578098	42266.228389	3749.540027	22327.978024
111.536500	-0.013458	0.001275	-0.014540	0.039764	6034.546250	41750.623543	3710.110752	22105.164049
112.037500	-0.011200	0.002189	-0.006006	0.034573	6090.802170	42301.766925	3740.676709	22337.563038
112.535500	-0.011823	0.002435	-0.007528	0.034239	6088.604333	42354.544325	3737.991395	22352.596342
113.035000	-0.013536	0.002082	-0.011737	0.033428	6081.742092	42396.300582	3730.355746	22389.197907
113.535500	-0.016794	0.001312	-0.009272	0.038649	6017.953360	41853.978790	3724.204938	22154.838413
114.036000	-0.010194	0.002328	-0.008793	0.033454	6107.029783	42416.299486	3736.909493	22388.013875
114.536500	-0.010311	0.001121	-0.008238	0.032360	6114.519511	42406.000481	3740.632607	22437.480686
115.036500	-0.012247	0.002680	-0.005061	0.033095	6094.091389	42481.260189	3746.174012	22404.250136
115.536500	-0.016865	0.001848	-0.005362	0.038825	6016.111116	41886.376258	3732.545492	22146.985714
116.037000	-0.011280	0.001711	-0.006974	0.032484	6106.145125	42448.608367	3743.216566	22431.882623
116.537000	-0.011193	0.002611	-0.007734	0.032832	6104.144972	42498.966981	3740.704062	22416.120613
117.036500	-0.013434	0.002417	-0.010438	0.033008	6085.714186	42465.094258	3734.210270	22408.155112
117.538000	-0.014085	0.001824	-0.007474	0.038345	6040.479760	41927.437955	3728.892988	22168.418886
118.035500	-0.010589	0.002527	-0.000604	0.033126	6106.513465	42464.400192	3756.293316	22402.817271
118.535500	-0.012508	0.001439	-0.004710	0.032161	6099.221172	42453.136433	3749.099974	22446.465138
119.036000	-0.012291	0.002139	-0.006363	0.031890	6102.949534	42541.845957	3745.951697	22458.749491
119.536000	-0.014266	0.002129	-0.007904	0.038409	6038.646558	41949.178022	3727.788690	22165.572448
120.036500	-0.012076	0.002429	-0.014974	0.032030	6103.526872	42555.570690	3726.246819	22452.396043
120.537000	-0.012570	0.001858	-0.005851	0.031425	6104.379662	42558.763394	3748.178022	22479.847235
121.037000	-0.008966	0.002532	-0.003848	0.031869	6128.640447	42579.868703	3751.738776	22459.727505
121.537500	-0.013483	0.001551	-0.009364	0.035698	6064.940946	42141.843859	3730.585050	22286.949399
122.037500	-0.009942	0.002823	-0.000288	0.032455	6116.618827	42552.778513	3758.562625	22433.156382
122.541000	-0.011423	0.002583	-0.004786	0.031636	6111.546951	42605.820245	3750.125692	22470.289747
123.035500	-0.010614	0.002165	-0.004589	0.031213	6121.002938	42606.260580	3751.541558	22489.460249
123.536000	-0.015704	0.001179	-0.011185	0.037288	6036.268184	41964.582228	3722.977580	22215.668967
124.036000	-0.010317	0.002976	-0.002287	0.031313	6122.510241	42671.422315	3756.590839	22484.912268
124.536500	-0.010999	0.002587	-0.004923	0.031179	6118.302815	42648.101286	3750.857397	22490.998903
125.037000	-0.010644	0.002063	-0.002939	0.030823	6123.764080	42632.692319	3756.219538	22507.164264
125.536000	-0.017043	0.001460	-0.015886	0.035903	6036.607422	42114.985829	3715.637800	22277.730502
126.037000	-0.010017	0.002585	-0.015416	0.030513	6130.984236	42709.026095	3728.645730	22521.239710
126.537500	-0.010827	0.001332	-0.006018	0.029567	6132.030212	42680.808296	3752.038864	22564.291797
127.037500	-0.011860	0.002345	-0.006412	0.030135	6119.707250	42721.698861	3749.838979	22538.440658
127.534500	-0.017089	0.001888	-0.008058	0.035648	6038.175646	42176.861658	3733.625071	22289.187431
128.036000	-0.012182	0.002895	-0.009953	0.029979	6118.433105	42786.589634	3742.141050	22545.535804
128.535500	-0.010594	0.002518	-0.009387	0.029288	6135.981802	42815.507323	3744.991874	22577.025830
129.036000	-0.008314	0.002673	-0.006341	0.028763	6157.713220	42878.287919	3753.141131	22600.987457
129.536500	-0.014926	0.001932	-0.011100	0.034558	6062.653730	42279.727973	3729.250398	22338.207815
130.067000	-0.010913	0.002092	-0.007187	0.027764	6145.298210	42916.762609	3753.490278	22646.602686
130.547000	-0.010937	0.003318	-0.007805	0.028764	6137.379270	42937.708250	3749.788938	22600.925340
131.037000	-0.009216	0.002103	-0.005689	0.027950	6157.019229	42900.653625	3756.502033	22638.100032
131.534500	-0.012443	0.001982	-0.007107	0.033862	6086.750331	42347.625617	3739.794279	22369.600530
132.035500	-0.009993	0.001433	-0.007414	0.027042	6158.041193	42922.617431	3754.626731	22679.673175
132.535500	-0.009446	0.002325	-0.006228	0.027315	6160.169611	42979.840864	3756.723901	22667.161046
133.055000	-0.012159	0.001773	-0.008884	0.027019	6141.429578	42956.179531	3751.312254	22680.744498
