sample name	sample
index	358
start time	 03-04-2021  10:35:13 AM
880	-0.044809
Peak Time (s)	90.535
Peak Height 	-0.04481
calc peak height	90,93
Baseline Time (s)	9.034
Baseline Value 	-0.004656
subtract baseline	10,4
Abs	-0.086239
Peak Time (s)	91.535
Peak Height 	-0.08624
calc peak height	90,93
Baseline Time (s)	9.535
Baseline Value 	0.002935
subtract baseline	10,3
PK_550	-0.011307
Peak Time (s)	91.535
Peak Height 	-0.01131
calc peak height	90,93
Baseline Time (s)	10.536
Baseline Value 	3.5695E-4
subtract baseline	10,2
PK_880	-0.063788
Peak Time (s)	91.535
Peak Height 	-0.06379
calc peak height	90,93
Baseline Time (s)	8.537
Baseline Value 	0.001645
subtract baseline	10,1


Time (s)	A880-A510	A880-A775	A880-A975	A880	I510	I775	I975	I880	
0.035500	0.001556	0.000078	-0.001375	0.000614	6884.324192	47767.538876	3899.387510	25069.020097
0.535500	-0.001921	-0.000066	-0.004234	0.005605	6804.355773	47238.617589	3878.116817	24813.738144
1.036000	-0.001007	-0.000170	-0.000289	0.003401	6833.617978	47454.181827	3894.744543	24926.117620
1.538000	-0.000060	-0.000022	-0.003004	0.000092	6873.898021	47811.316320	3896.362380	25095.865404
2.036000	0.001870	0.000281	0.002817	-0.000462	6897.596291	47900.260477	3913.877890	25124.442092
2.536000	-0.001787	-0.000572	-0.003326	0.004491	6816.044034	47300.876734	3883.559260	24870.465578
3.036500	-0.000551	0.000036	0.002073	-0.001394	6883.381380	47971.774132	3914.399759	25172.561923
3.537500	0.000219	-0.000039	0.000260	0.000617	6871.562286	47755.038981	3903.856257	25068.842262
4.034500	0.000583	-0.000113	0.001945	0.000924	6872.100936	47715.609242	3907.643458	25053.062564
4.537000	0.000719	-0.000481	0.000628	0.000587	6876.600713	47712.493955	3904.950105	25070.407443
5.037500	-0.001405	0.000088	0.004834	0.000871	6853.746734	47741.989547	3915.771301	25055.800777
5.535000	0.001181	-0.000237	0.000441	0.000412	6882.669355	47755.861369	3904.916453	25079.413860
6.036000	-0.001769	-0.001169	0.002486	-0.000883	6866.917842	47793.397069	3914.127627	25146.147823
6.536000	-0.000561	-0.000499	-0.002000	-0.000313	6872.984014	47803.833533	3900.212549	25116.759230
7.036000	-0.001175	-0.000413	-0.000114	-0.000078	6864.924557	47788.363171	3904.738307	25104.641279
7.536500	-0.001861	-0.000455	0.003908	-0.000583	6863.207267	47836.370436	3917.236692	25130.681778
8.034500	0.000076	-0.000055	-0.003224	0.000143	6874.705948	47802.551676	3895.623823	25093.238975
8.537000	0.000000	0.000876	0.000247	0.000504	6870.551290	47861.722011	3904.131987	25074.663284
9.034500	-0.000667	-0.000428	-0.000962	0.000000	6869.001100	47778.786832	3902.197400	25100.623137
9.535000	0.000352	0.000062	0.000000	0.000020	6878.498985	47827.496185	3904.781359	25099.576812
10.035000	0.000228	-0.000253	-0.002893	-0.000564	6882.888729	47855.458440	3898.457003	25129.717000
10.535500	-0.000965	0.000000	0.002634	-0.000253	6868.574952	47849.374058	3912.793353	25113.654640
11.035500	0.000624	-0.000914	0.001629	-0.000804	6888.950207	47811.705587	3911.537884	25142.056648
11.536000	-0.000651	0.000506	-0.002468	0.000266	6866.635917	47848.104066	3897.352774	25086.933353
12.036500	-0.000008	0.000072	-0.002424	-0.000252	6877.671987	47856.821102	3898.886314	25113.626724
12.536500	-0.002531	0.000117	0.001447	0.003587	6817.539529	47464.583208	3898.972555	24916.595180
13.034000	0.002276	-0.000140	0.002801	-0.002156	6917.740067	48032.749955	3918.532045	25211.981591
13.534500	0.000274	0.000879	0.002674	-0.000635	6884.004174	47980.489630	3913.961204	25133.349054
14.034500	0.000004	-0.000772	0.001158	-0.001994	6894.402232	47950.151601	3913.527692	25203.597938
14.538000	-0.002121	-0.000218	0.001762	0.002493	6831.673805	47542.737944	3902.830539	24972.568551
15.035000	0.001396	0.000387	0.000966	-0.000571	6894.113835	47922.684521	3909.067519	25130.081368
15.555500	0.000867	-0.000505	0.003322	-0.001792	6900.721030	47956.852320	3918.965109	25193.119534
16.036000	0.001887	0.000117	0.002159	-0.001536	6908.048352	47994.943402	3915.030575	25179.896059
16.536000	-0.002000	-0.000235	-0.000577	0.002068	6836.813124	47584.827071	3897.592372	24994.317297
17.067000	0.002459	0.000250	0.004002	-0.000786	6906.344798	47930.808512	3918.061197	25141.175732
17.539000	-0.000660	-0.000218	-0.000204	-0.001756	6885.788165	47983.004913	3909.108023	25191.288825
18.038000	0.001334	-0.000010	0.001705	-0.001712	6904.434766	48000.048255	3914.258882	25188.989791
18.534500	-0.001070	-0.000569	-0.001603	0.001191	6853.884287	47640.889150	3897.185232	25039.324411
19.037500	0.000440	0.000200	0.001134	0.000939	6870.601291	47746.555406	3905.372428	25052.299541
19.535500	-0.000775	0.000271	0.003499	0.001014	6858.358470	47746.129078	3911.682135	25048.443026
20.039000	-0.001945	-0.000062	-0.000776	0.000422	6852.886929	47772.907731	3901.549233	25078.882541
20.535500	-0.002272	0.000173	0.000753	0.001543	6839.200392	47681.216698	3902.669608	25021.260816
21.035500	0.000346	0.000262	0.002808	0.001119	6867.995539	47734.285310	3909.487207	25043.062017
21.536500	-0.000183	0.000316	0.003146	0.000253	6871.195379	47829.688724	3912.810034	25087.586225
22.037000	-0.000060	-0.000393	0.002137	0.000018	6874.603623	47780.546104	3910.673253	25099.716298
22.537000	-0.000282	0.000402	0.002590	0.001369	6859.664236	47722.939941	3908.196433	25030.217986
23.037500	0.000134	0.000144	0.002244	0.000668	6870.263980	47768.753295	3909.174365	25066.235715
23.537500	-0.002066	-0.000248	0.000895	0.000576	6850.281522	47737.740260	3905.713158	25070.971788
24.038000	-0.000266	-0.000630	-0.003389	0.000391	6869.096162	47717.323561	3894.499540	25080.476789
24.535500	-0.002993	-0.000102	-0.004738	0.001405	6833.712348	47667.119654	3888.084949	25028.381831
25.035500	0.000676	-0.000194	-0.001096	0.000087	6880.950238	47793.989163	3901.590408	25096.123257
25.536000	0.000401	-0.000069	0.002382	0.000765	6871.885960	47736.653668	3909.285032	25061.235563
26.036500	-0.000084	-0.000564	0.001582	0.000213	6872.521501	47742.584259	3908.602076	25089.652221
26.536500	-0.001363	-0.001018	-0.002855	-0.000132	6863.647595	47731.297337	3897.382450	25107.428763
27.036500	0.001417	0.000349	0.002616	0.000725	6881.938061	47784.175024	3910.044624	25063.322524
27.537500	0.001482	0.000211	0.003875	0.000748	6882.338121	47767.399165	3913.455119	25062.107269
28.037500	0.002483	-0.000297	0.006298	-0.002364	6921.727428	48038.035496	3928.867589	25222.735086
28.543500	-0.001319	0.000700	-0.002515	0.002844	6835.926291	47601.312761	3890.207975	24954.606086
29.035500	0.001914	0.000186	0.003549	-0.001690	6909.785455	48018.288693	3919.315082	25187.881325
29.535500	0.000489	-0.000361	0.002294	-0.001860	6897.761859	47978.877741	3916.301141	25196.646639
30.036000	0.001293	0.000274	0.003794	-0.001198	6899.117676	47976.101000	3918.628442	25162.415093
30.536000	0.001619	0.000768	0.001455	0.001609	6875.441047	47736.036928	3904.415394	25017.907216
31.036500	0.000487	0.000262	0.005872	-0.001399	6893.328982	47995.775238	3924.976244	25172.824796
31.565500	0.001236	0.000243	0.007019	-0.001271	6899.271484	47980.471045	3927.824744	25166.183806
32.034500	0.000250	-0.000007	0.000039	0.002109	6857.691060	47604.077783	3899.165728	24992.234094
32.537500	0.001049	0.000525	0.002962	0.000313	6882.353635	47845.153263	3912.135563	25084.514149
33.062000	0.000603	0.000315	0.000632	-0.001548	6895.859732	48016.803825	3910.840726	25180.509796
33.538000	0.001359	-0.000193	-0.000148	-0.002070	6908.107000	48018.343003	3910.129299	25207.526438
34.035500	0.001211	0.000748	0.000237	-0.000995	6896.390329	48004.283990	3908.225283	25151.942524
34.535500	-0.000881	-0.000242	-0.005278	0.003960	6829.534271	47389.292793	3879.731330	24897.545811
35.035500	-0.000190	0.000285	0.002256	0.001196	6862.174334	47728.694419	3907.750149	25039.077510
35.536500	-0.001134	-0.000423	-0.001729	0.000737	6857.578953	47702.962276	3898.083447	25062.681572
36.036500	0.000666	0.000317	0.002809	0.001739	6865.154454	47675.850570	3907.780428	25011.220987
36.537000	-0.001882	-0.000135	-0.000742	0.002404	6834.759906	47560.379843	3896.226770	24977.096919
37.037500	-0.001232	0.000952	0.000637	0.002006	6844.647427	47713.977284	3901.082206	24997.528615
37.534500	0.000221	0.000550	0.002761	0.001672	6861.558161	47706.888617	3907.831897	25014.645244
38.037500	-0.000925	-0.000188	-0.005046	0.001029	6856.794989	47697.043295	3888.264902	25047.657496
38.538000	-0.000945	0.000090	0.002665	0.002637	6841.404454	47559.655949	3904.916453	24965.204393
39.035500	0.001009	0.000369	-0.000890	0.001517	6870.514382	47704.173839	3898.242881	25022.591612
39.535500	-0.000671	-0.000052	0.001940	0.000735	6861.984704	47741.490214	3908.149853	25062.768169
40.036000	-0.000286	-0.000033	0.002151	0.000857	6864.481857	47730.859126	3908.395011	25056.498467
40.536500	-0.000266	-0.000615	0.000914	0.001554	6858.056535	47598.563467	3903.079158	25020.684984
41.037000	0.000145	0.001031	-0.000692	0.001763	6859.974620	47747.252512	3898.111695	25009.978140
41.536500	-0.001366	0.001050	0.002989	0.001756	6845.739650	47749.908421	3908.227693	25010.323589
42.037000	-0.000647	-0.000083	0.000732	0.001052	6859.213631	47705.548312	3903.957456	25046.482911
42.535000	0.000744	0.001157	0.004988	0.003476	6849.429325	47583.081587	3908.995324	24922.239810
43.035500	0.000045	0.000910	0.000336	0.002251	6854.411821	47684.261416	3899.588877	24984.964627
43.535500	-0.001484	0.000342	0.000643	0.001626	6845.867025	47690.158956	3902.140302	25017.036052
44.035500	-0.001020	0.000385	-0.001267	0.001225	6854.036119	47736.038557	3898.013042	25037.600430
44.536000	-0.001860	0.000052	0.000519	0.002264	6836.293742	47594.178481	3900.054991	24984.295394
45.036000	0.003000	0.001505	0.006995	-0.002308	6926.165345	48220.450045	3930.665584	25219.835552
45.537000	0.001353	0.000535	0.004886	-0.001208	6899.791064	48004.318048	3921.694611	25162.951370
46.037000	0.001598	0.001101	-0.000129	-0.000990	6900.043887	48040.586595	3907.204834	25151.678988
46.537000	-0.002745	-0.000574	-0.006183	0.003581	6815.586265	47394.089641	3878.318390	24916.905131
47.037500	0.000659	0.000196	0.007024	-0.001234	6893.393460	47971.692027	3927.737143	25164.284030
47.538500	0.000368	-0.000426	0.002342	-0.001620	6894.306083	47947.163793	3915.768977	25184.230469
48.034500	0.001428	0.000249	0.002658	-0.001240	6900.816339	47977.935199	3915.593310	25164.612668
48.549000	-0.001523	0.000060	-0.003256	0.004251	6820.764073	47390.411886	3884.393232	24882.673798
49.036000	-0.000142	-0.000589	0.001025	0.001527	6859.502226	47604.199274	3903.461511	25022.114657
49.539000	0.000015	0.000363	0.002408	-0.000060	6876.053316	47867.021579	3911.633902	25103.692564
50.050000	0.000335	-0.000506	0.006237	-0.001682	6894.585439	47945.321995	3926.787838	25187.450717
50.536500	-0.001699	0.000390	-0.002105	0.004009	6821.387558	47449.242906	3888.162480	24895.062839
51.039500	0.001623	0.000004	0.006442	-0.001547	6905.618198	47984.346628	3926.982285	25180.454867
51.537500	0.002271	0.000736	0.005623	-0.001884	6915.078384	48095.833464	3925.636891	25197.918297
52.040500	0.000495	0.000336	0.000660	-0.001109	6890.635480	47973.285825	3909.704652	25157.828611
52.535000	-0.002886	-0.000461	0.002226	0.004569	6805.020662	47304.302479	3898.419580	24866.491200
53.035500	-0.026836	-0.010618	-0.023959	0.390387	4324.042291	20661.084561	3171.412801	11833.403051
53.535500	-0.078349	-0.019755	-0.090478	0.065102	5712.872770	39825.789080	3545.665820	21986.008336
54.035500	-0.085412	-0.095327	-0.097375	-0.237522	8608.600559	65277.994083	4359.151031	41386.735214
54.536000	-0.105377	-0.226877	-0.101668	-0.370854	10358.209875	65535.000000	4929.056496	55279.263079
55.036000	-0.054807	-0.191727	-0.058602	-0.335704	10633.471673	65535.000000	4969.837483	51193.457708
55.536500	-0.053425	-0.184387	-0.057774	-0.328363	10525.943763	65535.000000	4936.233089	50381.158722
56.037000	-0.049855	-0.147268	-0.058681	-0.291245	9947.354732	65535.000000	4749.763121	46477.463804
56.534500	-0.061737	-0.095376	-0.069812	-0.239353	8963.407396	65535.000000	4474.498694	41550.094952
57.037500	-0.065912	-0.079055	-0.074985	-0.220537	8642.672282	65175.384904	4379.782354	39903.983819
57.535500	-0.068744	-0.092605	-0.088699	-0.236582	8824.926425	65535.000000	4388.754842	41303.169040
58.035000	-0.060143	-0.089375	-0.086106	-0.233352	8900.611774	65535.000000	4386.300709	41017.351270
58.535500	-0.053657	-0.073451	-0.085613	-0.217428	8768.220097	65535.000000	4327.850425	39638.747014
59.036000	-0.054399	-0.051805	-0.084865	-0.190198	8392.388037	64733.130165	4232.262035	37395.521434
59.536000	-0.055426	-0.037454	-0.086198	-0.168979	8110.268345	63760.787639	4155.327690	35742.322793
60.037000	-0.057929	-0.027273	-0.087516	-0.149457	7844.850785	62462.893757	4087.703792	34291.117620
60.537000	-0.056703	-0.023703	-0.091529	-0.142043	7772.678476	61936.829669	4051.977870	33756.872403
61.037000	-0.056390	-0.019367	-0.087297	-0.126523	7599.596370	60432.383332	4017.595706	32667.546720
61.540000	-0.057520	-0.015720	-0.090335	-0.113259	7441.263626	59169.443656	3969.492291	31766.914878
62.035500	-0.063559	-0.015313	-0.089233	-0.105203	7291.227252	58184.779600	3949.519877	31233.217675
62.535000	-0.065168	-0.013772	-0.096730	-0.092779	7146.612122	56813.198073	3894.034028	30429.304833
63.035500	-0.065085	-0.013677	-0.092449	-0.095090	7170.953789	57113.590594	3912.114976	30577.121493
63.538500	-0.060165	-0.006836	-0.095317	-0.095361	7224.198560	58010.877924	3904.959349	30594.486077
64.057500	-0.064878	-0.010329	-0.096832	-0.106610	7292.148127	59006.249186	3931.998428	31325.715760
64.536500	-0.068143	-0.010064	-0.098303	-0.103110	7221.837429	58588.868678	3918.113182	31096.164226
65.036500	-0.063695	-0.008817	-0.093720	-0.104434	7281.767164	58920.489347	3934.633409	31182.814093
65.537000	-0.063255	-0.008593	-0.095963	-0.101463	7255.386114	58566.319957	3920.039885	30988.796480
66.034500	-0.062287	-0.006947	-0.094405	-0.095753	7206.383948	58046.564227	3908.546183	30619.645873
66.540500	-0.069234	-0.006386	-0.098447	-0.085551	7033.561285	56832.874032	3869.936300	29972.055408
67.035000	-0.063820	-0.006071	-0.091330	-0.086498	7096.872436	56990.268815	3891.639386	30031.554738
67.535500	-0.064935	-0.005825	-0.094728	-0.083181	7052.665310	56608.197742	3873.539727	29823.806252
68.036000	-0.064312	-0.005049	-0.093430	-0.079419	7021.624549	56239.172807	3866.965633	29590.068194
68.536000	-0.069725	-0.005635	-0.097636	-0.072377	6900.657540	55308.167022	3837.434327	29157.976397
69.036500	-0.065044	-0.005346	-0.095533	-0.074428	6965.609298	55592.045251	3848.251684	29283.106121
69.537000	-0.066018	-0.005770	-0.098250	-0.073396	6946.158030	55415.329644	3838.486777	29220.116781
70.037000	-0.065972	-0.005264	-0.095685	-0.071189	6925.289037	55209.398728	3839.414513	29085.806296
70.537000	-0.070965	-0.005567	-0.099481	-0.064168	6811.170038	54332.416201	3811.679326	28663.095924
71.037500	-0.067468	-0.004875	-0.097757	-0.068186	6882.190686	54894.775514	3826.317709	28904.185599
71.534500	-0.068697	-0.004934	-0.096372	-0.066323	6852.825464	54664.551161	3825.091916	28792.131020
72.035000	-0.066622	-0.005448	-0.095061	-0.065405	6863.776255	54493.585254	3826.098251	28737.056880
72.535500	-0.072076	-0.005714	-0.101159	-0.058760	6750.562123	53676.978783	3793.882750	28342.134689
73.036000	-0.069295	-0.005609	-0.097951	-0.062598	6812.105933	54141.244552	3811.578866	28569.476198
73.536000	-0.068087	-0.005828	-0.096510	-0.061686	6814.883775	54007.662146	3812.917065	28515.267478
74.036000	-0.069455	-0.006900	-0.095698	-0.061070	6796.318648	53808.809113	3813.415489	28478.711152
74.536500	-0.072794	-0.007527	-0.101188	-0.055703	6715.869781	53109.248142	3786.220797	28162.435909
75.037000	-0.068230	-0.007439	-0.095518	-0.059936	6797.179887	53612.663093	3810.999519	28411.605871
75.537500	-0.069743	-0.007336	-0.090621	-0.059271	6776.897866	53546.917028	3821.762119	28372.313507
76.037000	-0.069083	-0.008020	-0.096283	-0.059018	6780.675784	53437.518488	3806.747994	28357.365119
76.535000	-0.073781	-0.008410	-0.097497	-0.053736	6688.942471	52780.030238	3790.494339	28047.529897
77.035500	-0.067607	-0.008670	-0.091687	-0.058678	6791.250675	53322.142097	3817.532076	28337.318993
77.535500	-0.069439	-0.009358	-0.092663	-0.058429	6771.900052	53213.147345	3814.415127	28322.623647
78.036000	-0.070696	-0.009668	-0.095588	-0.057536	6751.999761	53073.599577	3804.766672	28270.030974
78.536500	-0.071820	-0.008900	-0.101786	-0.051548	6686.881941	52472.574593	3774.529498	27920.287337
79.036500	-0.068776	-0.009153	-0.093937	-0.057095	6765.680220	53082.148082	3807.815558	28244.131856
79.537000	-0.069128	-0.009393	-0.094740	-0.056827	6759.938810	53023.269509	3805.116558	28228.376857
80.037000	-0.069025	-0.009647	-0.093856	-0.054653	6740.830882	52743.148522	3801.875051	28101.041408
80.540000	-0.068087	-0.009619	-0.089425	-0.055812	6760.173401	52879.865861	3815.992391	28168.827348
81.035000	-0.066770	-0.010502	-0.090699	-0.055988	6774.019527	52798.472698	3813.206704	28179.183151
81.535500	-0.066688	-0.010165	-0.088568	-0.055415	6769.455174	52771.156462	3817.163478	28145.588354
82.035500	-0.069266	-0.011182	-0.091804	-0.053603	6728.966134	52446.519413	3804.391618	28039.769215
82.536000	-0.068110	-0.010872	-0.093984	-0.054543	6748.238296	52589.647761	3801.275117	28094.593085
83.036500	-0.067752	-0.011131	-0.091213	-0.054755	6753.499456	52584.233604	3808.783040	28106.968859
83.536500	-0.068294	-0.011652	-0.090583	-0.054484	6746.007207	52493.578333	3809.692220	28091.178422
84.036500	-0.069620	-0.011544	-0.092151	-0.051179	6703.550920	52128.911632	3797.444709	27898.889542
84.537000	-0.071110	-0.011361	-0.089059	-0.047393	6655.711186	51720.888046	3795.708545	27680.366930
85.040000	-0.064698	-0.011354	-0.085083	-0.052871	6764.326676	52343.236163	3819.562079	27997.154681
85.535000	-0.066965	-0.010790	-0.087954	-0.052028	6735.626442	52311.296884	3810.128744	27948.102745
86.035000	-0.069317	-0.011862	-0.089202	-0.049350	6689.652322	51885.474367	3800.247300	27793.106115
86.535500	-0.071261	-0.012055	-0.095830	-0.046243	6644.015662	51513.497275	3776.121702	27614.395716
87.036000	-0.067523	-0.011608	-0.087412	-0.051516	6725.807056	52159.843660	3810.204467	27918.411871
87.536000	-0.065385	-0.011734	-0.086972	-0.051698	6747.138858	52166.252214	3811.778873	27928.958532
88.036000	-0.067152	-0.011867	-0.092441	-0.047410	6691.697832	51665.893737	3787.347714	27681.393519
88.536500	-0.067207	-0.011405	-0.092233	-0.044862	6668.099071	51431.521173	3781.566263	27535.385940
89.037000	-0.065577	-0.011494	-0.087844	-0.050608	6735.334438	52069.634198	3806.822530	27865.797813
89.537000	-0.064192	-0.011719	-0.093087	-0.050905	6750.827002	52077.867979	3794.425052	27883.016565
90.037500	-0.068049	-0.011583	-0.091174	-0.047402	6683.474092	51696.944601	3790.467365	27680.899052
90.535000	-0.066856	-0.011929	-0.092410	-0.044809	6670.801170	51366.970135	3781.000515	27532.384075
91.035500	-0.064180	-0.011321	-0.091191	-0.050795	6749.928114	52110.554225	3798.885295	27876.654637
91.535500	-0.063788	-0.011307	-0.086239	-0.050755	6753.178350	52107.649693	3811.249188	27874.324228
92.035500	-0.065793	-0.011339	-0.095930	-0.046352	6694.435851	51606.239103	3776.145527	27620.652761
92.536000	-0.066742	-0.011832	-0.091685	-0.045205	6675.403864	51422.153979	3783.763514	27554.978719
93.036000	-0.064172	-0.011593	-0.093291	-0.051208	6753.816263	52126.577167	3794.670211	27900.581216
93.536500	-0.064564	-0.010881	-0.093084	-0.050785	6746.286316	52159.355131	3794.130163	27876.023182
94.037000	-0.066968	-0.010533	-0.089059	-0.045731	6678.130024	51627.113660	3791.569563	27585.077695
94.540000	-0.065971	-0.010625	-0.088324	-0.044443	6675.493490	51472.044407	3790.196214	27511.469978
95.037500	-0.062188	-0.010723	-0.085891	-0.050393	6764.613640	52132.700349	3811.211696	27853.333213
95.581000	-0.062875	-0.010825	-0.087670	-0.050384	6758.181450	52120.160245	3806.694201	27852.826539
96.035000	-0.065341	-0.011471	-0.089010	-0.046006	6695.398673	51552.532033	3792.376114	27600.800959
96.543500	-0.065525	-0.010808	-0.087001	-0.044589	6680.855641	51467.901799	3793.851421	27519.805919
97.036000	-0.061962	-0.011594	-0.085965	-0.050304	6765.889514	52023.790686	3810.800270	27848.212951
97.536500	-0.061322	-0.010954	-0.088664	-0.049403	6763.467364	51994.195650	3801.727942	27796.120880
98.036500	-0.062544	-0.011111	-0.090740	-0.049467	6752.765444	51983.584007	3796.690229	27799.812377
98.545000	-0.061363	-0.010915	-0.085918	-0.048994	6759.309445	51952.175536	3807.607735	27772.522239
99.036500	-0.062542	-0.011528	-0.084577	-0.049313	6751.369111	51919.055364	3811.805021	27790.961124
