sample name	sample
index	400
start time	 03-08-2021  10:25:41 AM
880	-0.023617
Peak Time (s)	91.535
Peak Height 	-0.02362
calc peak height	90,93
Baseline Time (s)	10.035
Baseline Value 	-0.003015
subtract baseline	10,4
Abs	-0.006848
Peak Time (s)	90.537
Peak Height 	-0.006848
calc peak height	90,93
Baseline Time (s)	9.037
Baseline Value 	0.004927
subtract baseline	10,3
PK_550	-0.003024
Peak Time (s)	91.535
Peak Height 	-0.003024
calc peak height	90,93
Baseline Time (s)	10.035
Baseline Value 	7.7147E-4
subtract baseline	10,2
PK_880	-0.005959
Peak Time (s)	91.035
Peak Height 	-0.005959
calc peak height	90,93
Baseline Time (s)	10.035
Baseline Value 	4.3203E-4
subtract baseline	10,1


Time (s)	A880-A510	A880-A775	A880-A975	A880	I510	I775	I975	I880	
0.037000	-0.001967	-0.000482	-0.001301	0.006812	6891.707001	46611.454588	3922.785155	24481.180195
0.534500	-0.002454	-0.000984	-0.004705	0.004798	6906.134219	46764.268900	3919.094040	24582.026885
1.035000	0.000120	-0.000633	-0.005773	0.003480	6943.118076	46933.338919	3919.755135	24648.252127
1.535500	-0.000304	0.000110	0.001080	0.002689	6946.626768	47089.444502	3940.227626	24688.108056
2.035500	-0.003558	-0.000525	-0.007559	0.005449	6889.565194	46744.819114	3909.830863	24549.374335
2.539000	-0.001368	-0.000737	0.000047	-0.000250	6964.579329	47303.136327	3945.386163	24836.778069
3.036500	0.001008	-0.000111	-0.000106	-0.000913	6993.838965	47435.363302	3946.774092	24870.494151
3.536500	0.001308	-0.000381	-0.000317	0.002079	6967.913659	47101.603232	3938.102966	24718.898856
4.037000	-0.001826	-0.000792	-0.001939	-0.000079	6958.546656	47279.986356	3939.547527	24828.108111
4.537000	0.000801	-0.000170	-0.003053	0.000355	6979.613679	47299.279860	3935.377303	24806.100702
5.037000	0.001044	0.000400	-0.000414	0.001085	6974.929906	47282.959333	3940.525167	24769.151764
5.534500	-0.000469	-0.000138	-0.008085	0.002695	6944.987741	47063.530828	3915.709314	24687.781227
6.035000	0.000353	-0.000831	-0.005438	-0.000136	6980.026190	47281.812205	3930.291804	24831.000751
6.535500	0.002299	-0.000087	-0.003483	-0.000157	6999.015983	47360.191998	3935.598792	24832.084889
7.036000	0.000928	-0.000092	-0.002208	0.000334	6981.043115	47309.446846	3937.710009	24807.187783
7.536000	-0.000705	0.000236	-0.003501	-0.000065	6969.166459	47383.820793	3935.300891	24827.383438
8.036500	0.001088	-0.000627	-0.005391	-0.000172	6987.454059	47306.382407	3930.512691	24832.823548
8.536500	0.001179	0.000423	-0.005148	0.000201	6984.736742	47375.836403	3930.164904	24813.909272
9.037000	-0.000969	0.000241	0.000000	0.000414	6962.035436	47335.230606	3943.459013	24803.097632
9.537000	-0.001549	-0.000548	-0.001620	-0.000676	6966.927762	47366.116619	3942.023900	24858.410645
10.035000	0.000000	0.000000	0.001201	0.000000	6975.319146	47353.040799	3947.843222	24824.106183
10.535500	0.000013	-0.000017	-0.002455	-0.000137	6976.761329	47365.339606	3938.311751	24831.049364
11.035000	0.000260	0.000283	0.002156	0.000337	6974.579056	47347.561036	3949.526866	24807.040147
11.535500	-0.000811	-0.001085	0.001034	-0.000420	6971.555506	47284.928591	3948.530310	24845.410158
12.038500	-0.000583	-0.000283	0.001547	-0.000373	6973.297747	47362.287307	3949.800496	24843.038330
12.536000	-0.000468	0.000761	-0.002259	0.000948	6961.726386	47333.883618	3935.917729	24776.076622
13.036500	0.002862	0.000325	0.001653	-0.000578	7008.543316	47445.659616	3950.647397	24853.445231
13.534000	-0.001791	-0.000248	-0.004550	0.005008	6910.418624	46817.408521	3918.946329	24571.475504
14.037500	-0.002780	0.000389	-0.001087	0.003226	6917.947978	47063.205446	3932.945410	24661.067256
14.537500	-0.001889	-0.000379	-0.000161	0.000116	6956.076283	47302.288286	3943.831140	24818.200934
15.035000	-0.001353	-0.000284	0.000899	-0.001672	6978.390968	47495.611092	3951.574754	24909.099387
15.535000	-0.002330	0.000225	-0.003916	0.004899	6906.353642	46876.443924	3920.918339	24576.944613
16.035500	0.001932	-0.000754	-0.003913	-0.001710	7010.497815	47451.111346	3938.623407	24911.021481
16.535500	0.001999	0.000389	0.000291	-0.000920	7003.499108	47487.522716	3947.870196	24870.848712
17.035000	0.001301	0.000645	0.002374	-0.002120	7008.365346	47637.441450	3956.831788	24931.947669
17.536500	0.000306	-0.001056	-0.003575	0.000484	6973.606500	47195.419092	3933.626783	24799.548210
18.036500	0.000371	-0.000002	-0.003865	0.001117	6968.149979	47238.478080	3931.149515	24767.499645
18.537000	-0.000035	0.000156	-0.001341	0.001038	6965.014074	47262.805574	3938.151043	24771.531321
19.037500	-0.000353	0.000200	-0.001990	0.001395	6958.538108	47230.703055	3935.437637	24753.437167
19.535000	-0.000236	0.000112	0.000177	0.002753	6946.668963	47083.182085	3937.618880	24684.886090
20.035000	0.001333	0.000672	-0.001718	0.001345	6975.204320	47284.050319	3936.306020	24755.967576
20.535500	-0.000203	0.000070	-0.000163	0.000983	6963.921801	47259.476931	3941.478740	24774.271635
21.035500	0.000323	-0.000580	-0.005209	0.000585	6972.795757	47233.807576	3928.975485	24794.445302
21.538500	-0.001430	-0.000510	-0.001284	0.001674	6945.573429	47129.697105	3936.589944	24739.356391
22.036000	-0.000184	-0.000168	0.003262	0.000915	6964.754976	47242.147632	3950.963097	24777.719537
22.536500	0.000025	0.000075	-0.000807	0.001084	6965.142635	47249.713311	3939.466468	24769.184400
23.036500	-0.000896	0.000701	-0.000043	0.001326	6953.998262	47289.023756	3940.874296	24756.932262
23.537000	-0.001060	0.000365	-0.005778	0.001410	6951.634710	47246.102427	3925.252284	24752.711348
24.037000	0.000363	0.000454	-0.003442	0.001309	6966.229522	47265.475418	3931.770416	24757.807184
24.535000	-0.000851	0.000525	-0.003246	0.001268	6954.983911	47276.948028	3932.404158	24759.868611
25.035500	0.000365	-0.000612	-0.000795	0.000803	6971.110188	47208.194159	3940.257681	24783.414193
25.535500	0.000112	-0.000087	-0.001538	0.001941	6957.768127	47145.656967	3935.186092	24725.863843
26.036000	-0.000842	0.000502	-0.001021	0.001318	6954.586272	47269.458155	3938.255479	24757.325929
26.536000	0.000635	0.000379	0.001725	0.001127	6970.582407	47276.400356	3946.204729	24766.981507
27.036000	0.001149	0.001106	-0.001641	0.001677	6970.242328	47294.449906	3935.618175	24739.167093
27.536500	0.000804	-0.000022	0.000155	-0.002042	7002.792567	47560.591625	3950.555062	24927.959312
28.036500	0.000318	-0.000136	0.002135	-0.001403	6991.909071	47483.067618	3954.213264	24895.387944
28.537000	0.001946	0.000772	0.004390	-0.001028	7004.029261	47537.985060	3959.365930	24876.318784
29.034500	0.001074	0.000002	0.000371	-0.001114	6996.423620	47467.581930	3948.615587	24880.697202
29.535000	-0.002129	-0.000123	-0.004819	0.004997	6907.322196	46831.184816	3918.262701	24572.029950
30.038500	0.001510	0.000088	0.001182	-0.001170	7001.181209	47482.167703	3950.976404	24883.544512
30.538000	0.000430	0.000188	0.001127	-0.001429	6993.236824	47519.150147	3951.532081	24896.727920
31.038500	-0.002081	0.000592	-0.000578	0.003422	6922.720242	47063.892280	3933.787422	24651.193227
31.539000	-0.001048	-0.000084	-0.001835	0.004362	6923.594524	46899.521733	3927.898298	24603.906150
32.036500	-0.001083	0.000352	-0.001845	-0.000926	6973.805024	47484.228973	3942.090690	24871.123767
32.536500	0.000715	0.000067	0.000192	-0.001187	6993.656104	47481.793451	3948.327153	24884.409061
33.037000	0.004484	0.000730	-0.000160	-0.000973	7028.145230	47527.994406	3946.787691	24873.525137
33.537000	-0.000610	0.000403	0.005067	0.004921	6922.449434	46892.321699	3944.979694	24575.875307
34.035000	-0.001379	0.000410	-0.001578	0.002083	6942.143989	47181.838318	3934.695396	24718.678213
34.535000	-0.003038	0.000494	-0.001975	0.001858	6928.481168	47213.376997	3934.232966	24730.018072
35.035000	-0.000679	-0.000298	-0.002687	0.001740	6952.104881	47144.524799	3932.638196	24735.982879
35.538000	-0.001764	0.000059	-0.005887	0.003117	6928.634137	47040.689831	3920.419535	24666.543614
36.036000	-0.000728	-0.000522	-0.002217	0.001148	6957.308036	47182.163333	3935.492480	24765.916172
36.536000	-0.001802	0.000558	-0.001373	0.002230	6936.713012	47182.034096	3934.853402	24711.271070
37.037000	-0.001034	-0.000659	-0.004090	0.001590	6950.157101	47123.108483	3929.281804	24743.605099
37.537000	-0.001544	0.000401	0.001712	0.002108	6940.329167	47178.330450	3943.507848	24717.408060
38.037500	0.000730	0.000301	0.000842	0.002553	6957.822970	47122.832578	3939.952344	24694.984308
38.537000	0.000617	0.000132	0.002122	0.001938	6962.637528	47168.307953	3945.081273	24726.021346
39.035000	0.000867	-0.000331	0.000150	0.002066	6963.802875	47108.045478	3939.397871	24719.555639
39.534500	-0.000298	-0.000506	-0.000841	0.001549	6957.591294	47142.854078	3938.120385	24745.663730
40.035500	-0.001337	0.000312	0.002383	0.002328	6940.205547	47146.790453	3944.731386	24706.302263
40.536000	-0.000223	-0.000227	0.000310	0.001430	6959.446187	47183.541668	3941.550574	24751.684094
41.036000	-0.001532	0.000025	0.003323	0.001572	6945.564536	47194.749452	3949.340390	24744.506858
41.536500	-0.000701	-0.000460	0.003845	0.001809	6951.240875	47120.978677	3950.113649	24732.503785
42.036500	0.000579	-0.000099	0.000267	0.001750	6964.069039	47163.883196	3940.566858	24735.498462
42.537000	-0.001064	-0.000350	-0.004396	0.001720	6948.623462	47141.333944	3928.115519	24737.039340
43.034500	-0.000888	0.000263	-0.002680	0.002125	6946.426565	47162.495576	3931.621878	24716.533405
43.537500	-0.002382	-0.000136	-0.007034	0.002932	6924.516387	47039.669652	3917.867353	24675.869660
44.035000	0.002244	0.000171	0.004802	-0.002851	7024.617960	47663.893844	3965.518234	24969.212874
44.535000	0.000184	-0.000867	-0.002192	-0.001548	6992.019252	47422.920537	3942.837957	24902.800746
45.038500	0.000663	0.000649	0.000611	-0.000311	6984.704083	47451.580246	3947.085369	24839.905611
45.536000	-0.003178	-0.000054	-0.001889	0.004840	6898.901020	46854.236202	3926.477095	24579.938779
46.036500	0.000829	0.000675	0.000853	-0.000608	6989.166902	47484.773825	3948.552326	24854.990354
46.536500	0.001283	0.000063	0.005134	-0.000836	6995.757693	47445.341468	3960.881654	24866.564177
47.036500	-0.000133	0.000137	-0.001638	0.000674	6967.560536	47298.006553	3938.327760	24789.927222
47.537000	-0.002800	0.000076	0.000522	0.004610	6904.642875	46890.658577	3933.548426	24591.459841
48.034000	0.000457	-0.000751	0.003249	-0.001401	6993.224126	47419.674035	3957.258310	24895.276709
48.535000	0.000795	0.000168	0.003183	-0.000477	6987.577284	47419.173110	3954.547228	24848.316874
49.035500	0.000262	-0.000192	-0.000390	-0.000978	6987.262404	47433.643179	3946.175208	24873.755855
49.535500	-0.000242	0.000229	0.000647	0.003756	6937.028089	46992.935197	3936.179412	24634.353761
50.036000	0.001566	0.001167	0.005227	0.003185	6959.767638	47146.638218	3950.130106	24663.090718
50.536000	-0.005642	-0.003921	-0.001267	0.000608	6915.626077	46891.212640	3939.508694	24793.301367
51.036000	-0.024745	-0.013897	-0.010973	0.279021	4873.292139	25511.427908	3370.913988	14379.947961
51.537000	-0.044461	-0.025922	-0.012389	-0.013608	6688.822458	46108.429929	3947.893262	25525.448324
52.036500	-0.028777	-0.023789	-0.004168	-0.084611	7548.480806	54046.081777	4184.223086	29563.478902
52.537500	-0.027250	-0.028595	-0.006421	-0.119722	7966.683925	57747.553046	4295.615765	31817.922872
53.034500	-0.031633	-0.027042	-0.012306	-0.121887	7940.350752	58219.792400	4282.575611	31962.983027
53.534500	-0.030001	-0.024343	-0.021287	-0.128183	8035.091705	59378.892310	4273.233096	32388.992581
54.035000	-0.008684	-0.034392	-0.002460	-0.164063	8772.377917	62844.359589	4475.445521	34938.152768
54.538500	-0.005968	-0.030130	-0.005979	-0.157360	8717.782022	62507.990815	4435.703987	34445.824906
55.035500	-0.003098	-0.020359	-0.009604	-0.135562	8465.281018	60877.884793	4340.817334	32896.135181
55.535500	-0.002807	-0.015609	-0.010968	-0.122952	8306.774455	59836.839613	4290.984297	32034.584429
56.036500	-0.000261	-0.012965	-0.007299	-0.109525	8170.467010	58438.896734	4257.124451	31144.306405
56.536500	-0.003424	-0.011286	-0.005238	-0.095107	7957.295775	56831.367814	4215.319933	30218.412858
57.037000	-0.005296	-0.009944	-0.009359	-0.084363	7809.564800	55674.966129	4166.584962	29548.218187
57.537500	-0.009187	-0.009335	-0.010912	-0.068072	7581.972424	53800.731962	4110.240111	28563.063398
58.035000	-0.003041	-0.004963	-0.008130	-0.059695	7557.464350	53332.895776	4093.045725	28070.728678
58.535000	-0.005871	-0.007721	-0.007726	-0.052737	7451.378524	52215.518559	4073.183220	27668.896582
59.035500	-0.002421	-0.006591	-0.011396	-0.064200	7613.967757	53668.533917	4096.833597	28334.300043
59.536000	-0.008212	-0.007727	-0.012157	-0.052515	7424.004117	52189.757797	4059.263254	27656.223100
60.036500	-0.007130	-0.005754	-0.010204	-0.039417	7297.755541	50941.359052	4026.521906	26917.476244
60.536000	-0.008112	-0.007335	-0.008719	-0.045135	7347.098478	51401.936555	4047.587945	27237.257589
61.036500	-0.008171	-0.005856	-0.010753	-0.045305	7348.253845	51586.616244	4042.100798	27246.798052
61.536500	-0.010882	-0.007116	-0.012564	-0.051946	7389.621368	52194.460052	4056.361184	27623.636157
62.037500	-0.005617	-0.006396	-0.008243	-0.063418	7570.056983	53599.905567	4104.116347	28288.394324
62.537000	-0.009281	-0.006796	-0.013621	-0.061931	7513.786982	53379.879805	4083.146997	28201.236042
63.035000	-0.008443	-0.006393	-0.014266	-0.059867	7500.491958	53186.917737	4074.960404	28080.765710
63.536500	-0.010572	-0.006522	-0.011476	-0.055908	7435.015284	52715.061864	4071.443149	27851.241739
64.038500	-0.008815	-0.006435	-0.007009	-0.058057	7476.911033	52972.530162	4091.468392	27975.540274
64.536000	-0.006463	-0.005717	-0.007887	-0.057195	7493.004799	52956.013619	4086.172817	27925.643013
65.036500	-0.007814	-0.005650	-0.009418	-0.057268	7479.201461	52972.136702	4081.751116	27929.844826
65.536000	-0.009258	-0.005841	-0.008457	-0.056552	7455.971780	52867.369244	4082.492531	27888.401812
66.036500	-0.007294	-0.005088	-0.008231	-0.058666	7499.929146	53198.970815	4089.600508	28010.913592
66.537000	-0.006313	-0.005374	-0.010193	-0.059454	7519.120773	53257.238049	4086.032542	28056.720550
67.037500	-0.007027	-0.005714	-0.008085	-0.060433	7521.998222	53331.439619	4095.439815	28113.737329
67.537500	-0.004480	-0.005314	-0.012966	-0.060246	7547.746251	53356.217043	4080.025849	28102.820916
68.035000	-0.002820	-0.004548	-0.006035	-0.060953	7573.703821	53527.890915	4103.323481	28144.061760
68.538000	-0.003792	-0.005027	-0.004684	-0.061165	7565.349049	53496.593973	4108.141133	28156.416386
69.035500	-0.002088	-0.004050	-0.005931	-0.061189	7584.364139	53613.605837	4104.371352	28157.840041
69.535500	-0.004760	-0.003960	-0.008885	-0.055661	7494.826093	52981.646646	4078.501552	27836.974253
70.036000	-0.000222	-0.004164	-0.008971	-0.060723	7599.815892	53545.731283	4093.617703	28130.606392
70.536500	0.000430	-0.003744	-0.008392	-0.060006	7599.103471	53511.225799	4093.198015	28088.854244
71.036500	-0.001877	-0.003540	-0.005750	-0.059502	7568.126644	53476.171964	4099.742586	28059.512273
71.537500	-0.001845	-0.003409	-0.003288	-0.056482	7535.406737	53140.418667	4098.030832	27884.391040
72.035000	-0.001368	-0.003727	-0.008378	-0.058256	7560.028105	53309.216187	4087.903197	27987.071953
72.535000	-0.000210	-0.003027	-0.003925	-0.056222	7550.435454	53154.581079	4095.283015	27869.383337
73.035000	-0.000936	-0.002995	-0.003460	-0.055753	7537.373292	53103.834426	4095.270242	27842.270041
73.535500	-0.003782	-0.003386	-0.002588	-0.052862	7475.181490	52725.498731	4089.110639	27676.114457
74.035000	-0.002654	-0.003787	-0.007658	-0.054184	7501.628846	52831.321085	4077.748949	27751.936201
74.536000	0.000889	-0.003939	-0.004950	-0.053144	7528.818960	52694.305080	4082.792824	27692.249917
75.036000	0.000091	-0.003896	-0.004988	-0.052210	7509.999626	52592.123127	4079.851611	27638.768545
75.536500	-0.004708	-0.003889	-0.009932	-0.047754	7410.625049	52084.909973	4051.738426	27385.103997
76.037000	-0.004088	-0.003992	-0.009083	-0.050113	7442.374970	52341.426446	4061.265387	27519.047105
76.537000	-0.003718	-0.003824	-0.007478	-0.048812	7432.440066	52212.412207	4062.171709	27445.097734
77.037500	-0.002681	-0.003922	-0.005456	-0.048014	7434.977734	52110.610585	4065.825934	27399.804881
77.535000	-0.006862	-0.004308	-0.010420	-0.041821	7325.520127	51369.720143	4032.882033	27051.370532
78.038000	-0.002603	-0.004128	-0.002327	-0.045881	7413.090185	51845.937419	4068.809615	27279.252374
78.536000	-0.003062	-0.003933	-0.004335	-0.044961	7398.467111	51764.189157	4060.061542	27227.437618
79.035500	-0.004045	-0.003851	-0.005982	-0.044000	7377.915764	51665.241254	4052.318978	27173.425987
79.536500	-0.007772	-0.003741	-0.005874	-0.037648	7272.836784	50968.425988	4033.970477	26819.396730
80.036500	-0.004569	-0.002756	-0.006925	-0.041207	7343.062845	51474.713939	4041.310927	27017.133755
80.537000	-0.005175	-0.004257	-0.007706	-0.041533	7340.135888	51343.223676	4039.976499	27035.312289
81.037500	-0.004711	-0.002940	-0.002323	-0.039853	7327.428528	51302.711666	4050.875001	26941.711482
81.537500	-0.007811	-0.002902	-0.012703	-0.034277	7237.833564	50688.552011	4004.559908	26633.610499
82.035000	-0.003494	-0.003609	-0.005800	-0.038486	7325.876658	51076.099735	4036.634824	26865.830271
82.535000	-0.005345	-0.003801	-0.007107	-0.037912	7300.649641	50990.951858	4031.145714	26833.998859
83.035000	-0.007443	-0.003711	-0.007909	-0.037164	7271.229675	50918.022165	4026.643470	26792.605513
83.536000	-0.006314	-0.003476	-0.008028	-0.034302	7253.427563	50628.130618	4018.027496	26635.000617
84.035000	-0.007367	-0.003655	-0.010967	-0.035801	7258.000908	50773.625565	4013.886707	26717.428607
84.536500	-0.003608	-0.003725	-0.011287	-0.035132	7289.852314	50692.078941	4011.049327	26680.576918
85.036500	-0.004824	-0.003066	-0.006333	-0.033760	7263.162708	50613.544825	4021.353231	26605.233970
85.537000	-0.009956	-0.003154	-0.011815	-0.028381	7156.377604	50015.894206	3990.372542	26312.116417
86.037000	-0.007524	-0.003765	-0.005210	-0.033659	7234.446367	50525.583824	4024.308353	26599.685512
86.537000	-0.004088	-0.003202	-0.007682	-0.032643	7259.237355	50475.873518	4014.247869	26544.048380
87.037000	-0.005309	-0.003355	-0.010053	-0.032388	7244.111846	50431.151682	4006.731459	26530.127635
87.538000	-0.008551	-0.004050	-0.010538	-0.027840	7165.060843	49859.913593	3992.446131	26282.809196
88.038000	-0.005172	-0.003111	-0.006171	-0.031001	7231.322963	50306.010793	4013.872058	26454.400078
88.536000	-0.007316	-0.004087	-0.007069	-0.031045	7209.937255	50204.229385	4011.422659	26456.801113
89.036000	-0.007106	-0.003485	-0.007154	-0.030158	7203.061970	50173.163433	4008.640879	26408.541559
89.536500	-0.006285	-0.002800	0.000008	-0.029202	7201.696123	50143.615674	4026.513936	26356.602934
90.036500	-0.006496	-0.003741	-0.006931	-0.029675	7204.347331	50092.713471	4007.898638	26382.270793
90.537000	-0.006864	-0.003516	-0.006848	-0.029282	7196.634968	50074.407060	4007.010804	26360.918120
91.035000	-0.005959	-0.003602	-0.008367	-0.028692	7199.831547	50000.952418	4001.006056	26328.932726
91.534500	-0.009903	-0.003024	-0.013647	-0.023617	7109.358001	49515.019184	3971.931483	26055.500177
92.035500	-0.006657	-0.003474	-0.010999	-0.028095	7186.716469	49949.970454	3991.862721	26296.599750
92.535500	-0.006250	-0.003083	-0.007483	-0.027261	7182.409929	49901.972288	3999.451859	26251.510516
93.035500	-0.006667	-0.003955	-0.013480	-0.027624	7181.861693	49846.798936	3983.565082	26271.115141
93.536000	-0.006069	-0.003074	-0.007484	-0.025964	7171.154535	49762.578348	3995.775928	26181.561293
94.036000	-0.006796	-0.002588	-0.004988	-0.025914	7163.341231	49809.760334	4002.716451	26178.878339
94.536000	-0.005261	-0.002852	-0.006216	-0.025966	7179.326051	49786.864680	3999.374328	26181.673674
95.037000	-0.005683	-0.003019	-0.004096	-0.025609	7171.458941	49730.162295	4004.385136	26162.412658
95.537500	-0.005662	-0.003095	-0.005929	-0.024707	7162.605243	49624.762002	3996.619970	26113.968976
96.035000	-0.006491	-0.003111	-0.011206	-0.025301	7160.243222	49687.059727	3983.430522	26145.878750
