sample name	sample
index	471
start time	 03-11-2021  12:27:08 PM


Wavelength (nm)	Absorbance
494.344910	-0.617784
494.563924	-0.617784
494.782919	-0.617784
495.001897	-2.104986
495.220856	-0.221651
495.439797	-0.093970
495.658719	-0.099068
495.877624	0.085841
496.096510	1.175685
496.315378	NaN
496.534227	0.022231
496.753059	-0.012381
496.971872	-0.179407
497.190667	0.020319
497.409444	0.013664
497.628203	0.015132
497.846943	0.015146
498.065665	0.012492
498.284369	0.012250
498.503055	0.014016
498.721723	0.013748
498.940372	0.014598
499.159003	0.015150
499.377616	0.015548
499.596210	0.015776
499.814787	0.015111
500.033345	0.015953
500.251885	0.015883
500.470406	0.015087
500.688910	0.014841
500.907395	0.013744
501.125862	0.012938
501.344311	0.012914
501.562742	0.012390
501.781154	0.012577
501.999548	0.012736
502.217924	0.013662
502.436282	0.013509
502.654621	0.012651
502.872942	0.013489
503.091245	0.013066
503.309530	0.013421
503.527797	0.013411
503.746045	0.013228
503.964275	0.013675
504.182487	0.012694
504.400681	0.013147
504.618856	0.014795
504.837013	0.014195
505.055152	0.014572
505.273273	0.013930
505.491376	0.014155
505.709460	0.014914
505.927526	0.013643
506.145574	0.013863
506.363604	0.013143
506.581615	0.011807
506.799608	0.012085
507.017583	0.011116
507.235540	0.010498
507.453478	0.010609
507.671399	0.009771
507.889301	0.009418
508.107185	0.009222
508.325050	0.009954
508.542898	0.010244
508.760727	0.010724
508.978538	0.011529
509.196330	0.012435
509.414105	0.012155
509.631861	0.012684
509.849599	0.012856
510.067319	0.012661
510.285021	0.011841
510.502704	0.012335
510.720369	0.011396
510.938016	0.010790
511.155645	0.010440
511.373255	0.010176
511.590848	0.009608
511.808422	0.009690
512.025977	0.009968
512.243515	0.010441
512.461034	0.009677
512.678536	0.010045
512.896018	0.010576
513.113483	0.010245
513.330930	0.010113
513.548358	0.009893
513.765768	0.009670
513.983160	0.009558
514.200533	0.009459
514.417889	0.009546
514.635226	0.008999
514.852545	0.008731
515.069845	0.009054
515.287128	0.009245
515.504392	0.009650
515.721638	0.009906
515.938866	0.009807
516.156075	0.009421
516.373267	0.009383
516.590440	0.009534
516.807594	0.009787
517.024731	0.009215
517.241850	0.008758
517.458950	0.008430
517.676032	0.008144
517.893095	0.007604
518.110141	0.007904
518.327168	0.008470
518.544177	0.008172
518.761168	0.007495
518.978141	0.007907
519.195095	0.007512
519.412031	0.008054
519.628949	0.008417
519.845849	0.009060
520.062731	0.008752
520.279594	0.008536
520.496439	0.008759
520.713266	0.008789
520.930074	0.009114
521.146865	0.010115
521.363637	0.009944
521.580391	0.009487
521.797127	0.009948
522.013844	0.010376
522.230543	0.010328
522.447224	0.010208
522.663887	0.010042
522.880532	0.009703
523.097158	0.009049
523.313766	0.008932
523.530356	0.009248
523.746928	0.008853
523.963481	0.008516
524.180017	0.007405
524.396534	0.006877
524.613032	0.006834
524.829513	0.006556
525.045975	0.006201
525.262420	0.006510
525.478845	0.006458
525.695253	0.006138
525.911643	0.005826
526.128014	0.006453
526.344367	0.006865
526.560702	0.007489
526.777018	0.007530
526.993316	0.007999
527.209597	0.007833
527.425858	0.007460
527.642102	0.006995
527.858328	0.007071
528.074535	0.006805
528.290724	0.007018
528.506894	0.006115
528.723047	0.006383
528.939181	0.005934
529.155297	0.005631
529.371395	0.006327
529.587475	0.006821
529.803536	0.007168
530.019579	0.007512
530.235604	0.006974
530.451611	0.007546
530.667600	0.007213
530.883570	0.007396
531.099522	0.007684
531.315456	0.007250
531.531372	0.007255
531.747269	0.007133
531.963148	0.006847
532.179009	0.007389
532.394852	0.007507
532.610676	0.007702
532.826482	0.007964
533.042271	0.008014
533.258040	0.007853
533.473792	0.007502
533.689525	0.007390
533.905240	0.007558
534.120937	0.007221
534.336616	0.006914
534.552277	0.006523
534.767919	0.006406
534.983543	0.005555
535.199149	0.005751
535.414736	0.005719
535.630306	0.005699
535.845857	0.005827
536.061390	0.005789
536.276904	0.006033
536.492401	0.006397
536.707879	0.006300
536.923339	0.006654
537.138781	0.006354
537.354204	0.006359
537.569610	0.006647
537.784997	0.006471
538.000366	0.006353
538.215716	0.005942
538.431049	0.005792
538.646363	0.006172
538.861659	0.005888
539.076937	0.005937
539.292196	0.006246
539.507438	0.005945
539.722661	0.005778
539.937866	0.005927
540.153052	0.006541
540.368221	0.006631
540.583371	0.006196
540.798503	0.006755
541.013617	0.006824
541.228712	0.006840
541.443789	0.006922
541.658848	0.006929
541.873889	0.006965
542.088912	0.006380
542.303916	0.006456
542.518902	0.006266
542.733870	0.006024
542.948820	0.005767
543.163752	0.005872
543.378665	0.005957
543.593560	0.005882
543.808437	0.005788
544.023295	0.005966
544.238136	0.005674
544.452958	0.006049
544.667762	0.005872
544.882548	0.006046
545.097315	0.005709
545.312064	0.005574
545.526795	0.005577
545.741508	0.005301
545.956203	0.005188
546.170879	0.005396
546.385537	0.005352
546.600177	0.005677
546.814799	0.005824
547.029402	0.005991
547.243988	0.006016
547.458555	0.006328
547.673103	0.006333
547.887634	0.006285
548.102146	0.006071
548.316640	0.005833
548.531116	0.005445
548.745574	0.005461
548.960013	0.005272
549.174435	0.004878
549.388838	0.004614
549.603222	0.004922
549.817589	0.005058
550.031937	0.004839
550.246267	0.004725
550.460579	0.004990
550.674873	0.004490
550.889148	0.004402
551.103405	0.004386
551.317644	0.004294
551.531865	0.004419
551.746068	0.004447
551.960252	0.004594
552.174418	0.004854
552.388566	0.004573
552.602696	0.005130
552.816807	0.004941
553.030900	0.004913
553.244975	0.005013
553.459032	0.004793
553.673070	0.004628
553.887091	0.004666
554.101093	0.004461
554.315077	0.004436
554.529042	0.004165
554.742990	0.004511
554.956919	0.004573
555.170830	0.004314
555.384722	0.004036
555.598597	0.004213
555.812453	0.004233
556.026291	0.004780
556.240111	0.005025
556.453913	0.004734
556.667696	0.004511
556.881461	0.004503
557.095208	0.004703
557.308937	0.005142
557.522647	0.005303
557.736339	0.005156
557.950013	0.004771
558.163669	0.004682
558.377307	0.004871
558.590926	0.004683
558.804527	0.004724
559.018110	0.004723
559.231675	0.004114
559.445221	0.003749
559.658749	0.003875
559.872259	0.003749
560.085751	0.003639
560.299225	0.003566
560.512680	0.003983
560.726117	0.003859
560.939536	0.003581
561.152937	0.004097
561.366319	0.003800
561.579683	0.003324
561.793029	0.002932
562.006357	0.003172
562.219667	0.003446
562.432958	0.003022
562.646231	0.003232
562.859486	0.003582
563.072723	0.003477
563.285941	0.003898
563.499141	0.003946
563.712323	0.004586
563.925487	0.004309
564.138632	0.003793
564.351760	0.003919
564.564869	0.004075
564.777960	0.004002
564.991032	0.003917
565.204087	0.003559
565.417123	0.004017
565.630141	0.003404
565.843140	0.003287
566.056122	0.003348
566.269085	0.003461
566.482030	0.003144
566.694957	0.002888
566.907866	0.002575
567.120756	0.002552
567.333628	0.002141
567.546482	0.002352
567.759318	0.002425
567.972135	0.002511
568.184935	0.002009
568.397716	0.002037
568.610478	0.002085
568.823223	0.002137
569.035949	0.002220
569.248657	0.002181
569.461347	0.002074
569.674019	0.001927
569.886672	0.001872
570.099308	0.001921
570.311925	0.001688
570.524523	0.001613
570.737104	0.001439
570.949666	0.001301
571.162210	0.001436
571.374736	0.001438
571.587244	0.001114
571.799733	0.001356
572.012205	0.001442
572.224658	0.001427
572.437092	0.001512
572.649509	0.001546
572.861907	0.001832
573.074287	0.001911
573.286649	0.001801
573.498993	0.002068
573.711318	0.001787
573.923625	0.001996
574.135914	0.002027
574.348185	0.002121
574.560438	0.002140
574.772672	0.001822
574.984888	0.001721
575.197086	0.001963
575.409266	0.001901
575.621427	0.002002
575.833570	0.001906
576.045695	0.001759
576.257802	0.001488
576.469890	0.001511
576.681961	0.001447
576.894013	0.001111
577.106046	0.000721
577.318062	0.000767
577.530059	0.000750
577.742039	0.000898
577.954000	0.001040
578.165942	0.001139
578.377867	0.001164
578.589773	0.001332
578.801661	0.001718
579.013531	0.002039
579.225382	0.002244
579.437216	0.002060
579.649031	0.001986
579.860828	0.001704
580.072606	0.001439
580.284367	0.001475
580.496109	0.001176
580.707833	0.001077
580.919539	0.000772
581.131227	0.000610
581.342896	0.000654
581.554547	0.000465
581.766180	0.001015
581.977795	0.001247
582.189391	0.001468
582.400969	0.001865
582.612529	0.001563
582.824071	0.001622
583.035595	0.001453
583.247100	0.001436
583.458587	0.001611
583.670056	0.001475
583.881506	0.001392
584.092939	0.001324
584.304353	0.001165
584.515749	0.001194
584.727127	0.001319
584.938486	0.001643
585.149828	0.001604
585.361151	0.001310
585.572456	0.000957
585.783742	0.000717
585.995011	0.000359
586.206261	0.000306
586.417493	0.000493
586.628706	0.000552
586.839902	0.000261
587.051079	0.000014
587.262238	0.000253
587.473379	0.000325
587.684502	0.000329
587.895606	0.000392
588.106692	0.000370
588.317760	0.000314
588.528810	0.000023
588.739841	-0.000010
588.950855	0.000238
589.161850	0.000212
589.372827	0.000320
589.583785	0.000434
589.794726	0.000504
590.005648	0.000621
590.216552	0.000521
590.427437	0.000570
590.638305	0.000493
590.849154	0.000131
591.059985	0.000017
591.270798	-0.000129
591.481592	-0.000223
591.692369	-0.000156
591.903127	-0.000413
592.113867	-0.000546
592.324588	-0.000880
592.535292	-0.000755
592.745977	-0.000332
592.956644	-0.000567
593.167293	-0.000623
593.377923	-0.000600
593.588536	-0.000753
593.799130	-0.000920
594.009706	-0.000873
594.220263	-0.000221
594.430803	-0.000245
594.641324	-0.000378
594.851827	-0.000252
595.062312	-0.000342
595.272778	-0.000248
595.483227	-0.000129
595.693657	-0.000191
595.904069	-0.000115
596.114462	-0.000586
596.324838	-0.000581
596.535195	-0.000407
596.745534	-0.000260
596.955855	-0.000097
597.166157	-0.000235
597.376441	-0.000468
597.586707	-0.000175
597.796955	-0.000084
598.007185	0.000048
598.217396	-0.000058
598.427589	-0.000461
598.637764	-0.000728
598.847921	-0.000751
599.058060	-0.000705
599.268180	-0.000575
599.478282	-0.000672
599.688366	-0.000701
599.898431	-0.000564
600.108479	-0.000574
600.318508	-0.000436
600.528519	-0.000338
600.738511	-0.000497
600.948486	-0.000225
601.158442	-0.000290
601.368380	-0.000424
601.578300	-0.000638
601.788202	-0.000836
601.998085	-0.000700
602.207950	-0.000812
602.417797	-0.001007
602.627626	-0.001067
602.837436	-0.001344
603.047228	-0.001333
603.257002	-0.001100
603.466758	-0.000867
603.676496	-0.000795
603.886215	-0.000898
604.095916	-0.000880
604.305599	-0.000671
604.515264	-0.000213
604.724910	-0.000122
604.934538	-0.000174
605.144148	-0.000438
605.353740	-0.000565
605.563314	-0.000687
605.772869	-0.000879
605.982406	-0.000723
606.191925	-0.000817
606.401425	-0.001062
606.610908	-0.001341
606.820372	-0.001346
607.029818	-0.001548
607.239246	-0.001673
607.448655	-0.001569
607.658047	-0.001253
607.867420	-0.001087
608.076775	-0.001009
608.286111	-0.001023
608.495430	-0.000772
608.704730	-0.000705
608.914012	-0.000372
609.123275	-0.000363
609.332521	-0.000541
609.541748	-0.000994
609.750957	-0.001234
609.960148	-0.001179
610.169321	-0.001228
610.378475	-0.001365
610.587611	-0.001349
610.796729	-0.001269
611.005829	-0.001238
611.214910	-0.001133
611.423974	-0.000911
611.633019	-0.000903
611.842045	-0.001080
612.051054	-0.001115
612.260044	-0.001087
612.469017	-0.001207
612.677970	-0.001492
612.886906	-0.001538
613.095824	-0.001492
613.304723	-0.001448
613.513604	-0.001498
613.722467	-0.001523
613.931311	-0.001528
614.140138	-0.001444
614.348946	-0.001578
614.557736	-0.001424
614.766507	-0.001404
614.975261	-0.001465
615.183996	-0.001456
615.392713	-0.001340
615.601412	-0.001203
615.810092	-0.001209
616.018754	-0.001166
616.227399	-0.000952
616.436024	-0.000875
616.644632	-0.000724
616.853222	-0.000837
617.061793	-0.001009
617.270346	-0.001040
617.478880	-0.001103
617.687397	-0.001036
617.895895	-0.001362
618.104375	-0.001380
618.312837	-0.001406
618.521281	-0.001343
618.729706	-0.001275
618.938113	-0.001241
619.146502	-0.001489
619.354873	-0.001673
619.563226	-0.001599
619.771560	-0.001256
619.979876	-0.001253
620.188174	-0.001313
620.396453	-0.001384
620.604715	-0.001227
620.812958	-0.001120
621.021183	-0.000929
621.229390	-0.000754
621.437578	-0.000965
621.645748	-0.001030
621.853900	-0.000977
622.062034	-0.001023
622.270150	-0.001177
622.478247	-0.001269
622.686326	-0.001321
622.894387	-0.001453
623.102430	-0.001501
623.310454	-0.001414
623.518461	-0.001412
623.726449	-0.001517
623.934418	-0.001381
624.142370	-0.001242
624.350303	-0.001288
624.558218	-0.001251
624.766115	-0.001055
624.973994	-0.000933
625.181855	-0.000779
625.389697	-0.000703
625.597521	-0.000721
625.805327	-0.000680
626.013114	-0.000844
626.220883	-0.000907
626.428634	-0.001003
626.636367	-0.001038
626.844082	-0.001098
627.051778	-0.001380
627.259457	-0.001527
627.467117	-0.001345
627.674758	-0.001417
627.882382	-0.001382
628.089987	-0.001323
628.297574	-0.001176
628.505143	-0.001046
628.712694	-0.000912
628.920226	-0.000662
629.127740	-0.000632
629.335236	-0.000673
629.542714	-0.000690
629.750174	-0.000531
629.957615	-0.000425
630.165038	-0.000346
630.372443	-0.000454
630.579829	-0.000644
630.787198	-0.000754
630.994548	-0.000710
631.201880	-0.000805
631.409194	-0.000713
631.616489	-0.000841
631.823766	-0.000783
632.031025	-0.000869
632.238266	-0.000970
632.445489	-0.000870
632.652693	-0.000817
632.859879	-0.001040
633.067047	-0.001085
633.274197	-0.001067
633.481329	-0.001026
633.688442	-0.001123
633.895537	-0.001088
634.102614	-0.001116
634.309672	-0.001137
634.516713	-0.001129
634.723735	-0.000783
634.930739	-0.000717
635.137724	-0.000879
635.344692	-0.000751
635.551641	-0.000689
635.758572	-0.000776
635.965485	-0.000637
636.172379	-0.000626
636.379256	-0.000460
636.586114	-0.000553
636.792954	-0.000527
636.999775	-0.000601
637.206579	-0.000587
637.413364	-0.000583
637.620131	-0.000461
637.826880	-0.000562
638.033610	-0.000497
638.240323	-0.000651
638.447017	-0.000872
638.653692	-0.001042
638.860350	-0.000753
639.066990	-0.000723
639.273611	-0.000804
639.480214	-0.000949
639.686798	-0.000700
639.893365	-0.000663
640.099913	-0.000553
640.306443	-0.000521
640.512955	-0.000518
640.719449	-0.000731
640.925924	-0.000828
641.132381	-0.000731
641.338820	-0.000729
641.545241	-0.000933
641.751644	-0.001228
641.958028	-0.001350
642.164394	-0.001230
642.370742	-0.001117
642.577071	-0.001067
642.783383	-0.000993
642.989676	-0.001101
643.195951	-0.001198
643.402207	-0.001087
643.608446	-0.000757
643.814666	-0.000734
644.020868	-0.000514
644.227052	-0.000516
644.433218	-0.000240
644.639365	-0.000357
644.845494	-0.000231
645.051605	-0.000043
645.257698	-0.000090
645.463772	-0.000195
645.669828	-0.000237
645.875866	-0.000519
646.081886	-0.000731
646.287888	-0.001025
646.493871	-0.000901
646.699836	-0.000963
646.905783	-0.001068
647.111712	-0.001111
647.317622	-0.001106
647.523514	-0.001090
647.729388	-0.000995
647.935244	-0.000785
648.141082	-0.000974
648.346901	-0.001061
648.552702	-0.001191
648.758485	-0.000947
648.964250	-0.000857
649.169996	-0.000891
649.375724	-0.000915
649.581434	-0.000918
649.787126	-0.000813
649.992800	-0.000524
650.198455	-0.000630
650.404092	-0.000545
650.609711	-0.000746
650.815311	-0.000840
651.020894	-0.000941
651.226458	-0.001122
651.432004	-0.001149
651.637532	-0.001216
651.843041	-0.001221
652.048532	-0.001148
652.254006	-0.001010
652.459460	-0.001079
652.664897	-0.001022
652.870315	-0.000875
653.075716	-0.000661
653.281097	-0.000479
653.486461	-0.000410
653.691807	-0.000437
653.897134	-0.000434
654.102443	-0.000465
654.307734	-0.000236
654.513006	-0.000242
654.718261	-0.000387
654.923497	-0.000531
655.128715	-0.000734
655.333915	-0.000731
655.539096	-0.000776
655.744259	-0.000744
655.949404	-0.000908
656.154531	-0.000892
656.359640	-0.001091
656.564730	-0.001217
656.769802	-0.001139
656.974856	-0.001161
657.179892	-0.001256
657.384909	-0.001313
657.589908	-0.001460
657.794889	-0.001321
657.999852	-0.001445
658.204797	-0.001358
658.409723	-0.001202
658.614631	-0.001148
658.819521	-0.001100
659.024393	-0.001044
659.229246	-0.001011
659.434081	-0.000817
659.638898	-0.000892
659.843697	-0.000829
660.048478	-0.000628
660.253240	-0.000547
660.457984	-0.000471
660.662710	-0.000568
660.867417	-0.000689
661.072107	-0.000789
661.276778	-0.000860
661.481431	-0.000851
661.686066	-0.000925
661.890682	-0.001073
662.095281	-0.001287
662.299861	-0.001456
662.504422	-0.001455
662.708966	-0.001401
662.913491	-0.001334
663.117999	-0.001469
663.322488	-0.001527
663.526958	-0.001389
663.731411	-0.001387
663.935845	-0.001223
664.140261	-0.001169
664.344659	-0.001140
664.549038	-0.001296
664.753400	-0.001231
664.957743	-0.001187
665.162068	-0.001159
665.366375	-0.001330
665.570663	-0.001393
665.774933	-0.001426
665.979185	-0.001456
666.183419	-0.001476
666.387635	-0.001178
666.591832	-0.001254
666.796011	-0.001125
667.000172	-0.001004
667.204315	-0.001137
667.408439	-0.001060
667.612545	-0.001182
667.816634	-0.001129
668.020703	-0.000919
668.224755	-0.000933
668.428788	-0.000815
668.632803	-0.000694
668.836800	-0.000711
669.040779	-0.000571
669.244739	-0.000619
669.448681	-0.000564
669.652605	-0.000553
669.856511	-0.000694
670.060399	-0.000745
670.264268	-0.000742
670.468119	-0.000996
670.671952	-0.001082
670.875767	-0.001152
671.079563	-0.001112
671.283341	-0.001020
671.487101	-0.001088
671.690843	-0.001116
671.894567	-0.001126
672.098272	-0.001160
672.301959	-0.001125
672.505628	-0.000858
672.709278	-0.000632
672.912911	-0.000381
673.116525	-0.000280
673.320121	-0.000141
673.523699	-0.000194
673.727258	-0.000143
673.930799	-0.000198
674.134322	-0.000257
674.337827	-0.000461
674.541314	-0.000579
674.744782	-0.000784
674.948232	-0.000860
675.151664	-0.000955
675.355078	-0.000808
675.558474	-0.000795
675.761851	-0.000737
675.965210	-0.000645
676.168551	-0.000604
676.371873	-0.000596
676.575178	-0.000540
676.778464	-0.000373
676.981732	-0.000341
677.184981	-0.000353
677.388213	-0.000339
677.591426	-0.000369
677.794621	-0.000306
677.997798	-0.000367
678.200956	-0.000332
678.404097	-0.000548
678.607219	-0.000646
678.810323	-0.000772
679.013408	-0.000749
679.216476	-0.000870
679.419525	-0.000826
679.622556	-0.000898
679.825569	-0.000784
680.028563	-0.000834
680.231540	-0.000644
680.434498	-0.000668
680.637438	-0.000535
680.840359	-0.000660
681.043263	-0.000638
681.246148	-0.000688
681.449015	-0.000699
681.651864	-0.000775
681.854694	-0.000718
682.057506	-0.000812
682.260301	-0.000897
682.463076	-0.000777
682.665834	-0.000772
682.868573	-0.000769
683.071295	-0.000671
683.273998	-0.000588
683.476682	-0.000595
683.679349	-0.000546
683.881997	-0.000465
684.084627	-0.000273
684.287239	-0.000306
684.489833	-0.000184
684.692408	-0.000124
684.894965	-0.000076
685.097504	-0.000047
685.300025	-0.000122
685.502527	-0.000080
685.705012	-0.000049
685.907478	-0.000105
686.109925	-0.000067
686.312355	-0.000165
686.514766	-0.000255
686.717159	-0.000072
686.919534	-0.000077
687.121891	0.000001
687.324230	0.000002
687.526550	0.000084
687.728852	0.000116
687.931136	0.000006
688.133401	0.000204
688.335649	0.000336
688.537878	0.000129
688.740089	0.000101
688.942281	0.000143
689.144456	-0.000049
689.346612	-0.000238
689.548750	-0.000294
689.750870	-0.000250
689.952971	-0.000550
690.155055	-0.000658
690.357120	-0.000742
690.559167	-0.000743
690.761195	-0.000851
690.963206	-0.000810
691.165198	-0.000765
691.367172	-0.000735
691.569128	-0.000772
691.771065	-0.000493
691.972984	-0.000477
692.174885	-0.000408
692.376768	-0.000337
692.578633	-0.000192
692.780479	-0.000204
692.982308	-0.000223
693.184118	-0.000202
693.385909	-0.000222
693.587683	-0.000278
693.789438	-0.000246
693.991175	-0.000224
694.192894	-0.000164
694.394595	-0.000151
694.596277	-0.000175
694.797941	-0.000101
694.999587	-0.000006
695.201215	0.000017
695.402824	0.000022
695.604416	0.000009
695.805989	-0.000051
696.007543	-0.000151
696.209080	-0.000189
696.410598	-0.000095
696.612099	-0.000042
696.813580	-0.000201
697.015044	-0.000153
697.216490	-0.000113
697.417917	0.000003
697.619326	0.000037
697.820717	0.000041
698.022089	0.000048
698.223444	0.000036
698.424780	0.000074
698.626098	0.000040
698.827397	0.000034
699.028679	-0.000005
699.229942	-0.000148
699.431187	-0.000167
699.632414	-0.000153
699.833622	-0.000206
700.034813	-0.000257
700.235985	-0.000419
700.437139	-0.000308
700.638274	-0.000320
700.839392	-0.000336
701.040491	-0.000215
701.241572	-0.000215
701.442635	-0.000214
701.643679	-0.000074
701.844706	0.000073
702.045714	0.000123
702.246704	0.000004
702.447675	0.000054
702.648629	0.000041
702.849564	-0.000048
703.050481	-0.000157
703.251380	-0.000271
703.452260	-0.000409
703.653122	-0.000708
703.853966	-0.000686
704.054792	-0.000815
704.255600	-0.000825
704.456389	-0.000864
704.657160	-0.000762
704.857913	-0.000639
705.058648	-0.000558
705.259365	-0.000496
705.460063	-0.000277
705.660743	-0.000255
705.861405	-0.000007
706.062048	-0.000121
706.262674	-0.000180
706.463281	-0.000258
706.663870	-0.000313
706.864441	-0.000259
707.064993	-0.000380
707.265527	-0.000481
707.466043	-0.000630
707.666541	-0.000816
707.867021	-0.000911
708.067482	-0.000902
708.267925	-0.000986
708.468350	-0.000963
708.668757	-0.001191
708.869145	-0.001183
709.069516	-0.001100
709.269868	-0.001043
709.470201	-0.001003
709.670517	-0.000853
709.870814	-0.000805
710.071093	-0.000773
710.271354	-0.000826
710.471597	-0.000873
710.671821	-0.000916
710.872028	-0.000938
711.072216	-0.001061
711.272385	-0.001088
711.472537	-0.001098
711.672670	-0.001153
711.872785	-0.001286
712.072882	-0.001296
712.272961	-0.001074
712.473021	-0.000986
712.673063	-0.001009
712.873087	-0.000829
713.073093	-0.000702
713.273081	-0.000747
713.473050	-0.000672
713.673001	-0.000431
713.872934	-0.000234
714.072849	-0.000388
714.272745	-0.000393
714.472623	-0.000429
714.672483	-0.000623
714.872325	-0.000685
715.072148	-0.000650
715.271954	-0.000728
715.471741	-0.000877
715.671509	-0.001114
715.871260	-0.001204
716.070992	-0.001377
716.270707	-0.001294
716.470403	-0.001246
716.670080	-0.001257
716.869740	-0.001373
717.069381	-0.001384
717.269004	-0.001425
717.468609	-0.001514
717.668195	-0.001326
717.867764	-0.001241
718.067314	-0.001319
718.266846	-0.001305
718.466360	-0.001219
718.665855	-0.001236
718.865332	-0.001312
719.064791	-0.001304
719.264232	-0.001257
719.463655	-0.001302
719.663059	-0.001366
719.862445	-0.001510
720.061813	-0.001389
720.261163	-0.001578
720.460494	-0.001532
720.659807	-0.001553
720.859102	-0.001409
721.058379	-0.001230
721.257638	-0.001247
721.456878	-0.001190
721.656100	-0.001154
721.855304	-0.001271
722.054490	-0.001205
722.253657	-0.001154
722.452806	-0.000969
722.651937	-0.001017
722.851050	-0.001171
723.050145	-0.001257
723.249221	-0.001279
723.448279	-0.001242
723.647319	-0.001400
723.846340	-0.001521
724.045344	-0.001766
724.244329	-0.002134
724.443296	-0.002427
724.642245	-0.002532
724.841175	-0.002521
725.040088	-0.002617
725.238982	-0.002720
725.437857	-0.002629
725.636715	-0.002715
725.835554	-0.002593
726.034376	-0.002571
726.233179	-0.002642
726.431963	-0.002475
726.630730	-0.002502
726.829478	-0.002390
727.028208	-0.002403
727.226920	-0.002309
727.425614	-0.002085
727.624289	-0.002077
727.822946	-0.001862
728.021585	-0.001796
728.220206	-0.001950
728.418808	-0.001962
728.617392	-0.001995
728.815958	-0.002007
729.014506	-0.002213
729.213036	-0.002356
729.411547	-0.002478
729.610040	-0.002418
729.808515	-0.002325
730.006972	-0.002278
730.205410	-0.002186
730.403831	-0.002222
730.602233	-0.002202
730.800616	-0.002034
730.998982	-0.002192
731.197329	-0.002268
731.395658	-0.002359
731.593969	-0.002365
731.792262	-0.002618
731.990536	-0.002833
732.188793	-0.002984
732.387031	-0.002968
732.585250	-0.003054
732.783452	-0.003042
732.981635	-0.002892
733.179800	-0.002899
733.377947	-0.002924
733.576076	-0.002647
733.774186	-0.002475
733.972278	-0.002299
734.170352	-0.002327
734.368408	-0.002273
734.566446	-0.002209
734.764465	-0.002252
734.962466	-0.002406
735.160449	-0.002413
735.358413	-0.002586
735.556360	-0.002797
735.754288	-0.002936
735.952198	-0.002931
736.150090	-0.003110
736.347963	-0.003210
736.545818	-0.003114
736.743655	-0.003042
736.941474	-0.003129
737.139275	-0.003172
737.337057	-0.002974
737.534821	-0.003043
737.732567	-0.003130
737.930295	-0.003140
738.128005	-0.002966
738.325696	-0.003045
738.523369	-0.003150
738.721024	-0.003231
738.918660	-0.003131
739.116279	-0.003249
739.313879	-0.003114
739.511461	-0.002850
739.709024	-0.002817
739.906570	-0.002757
740.104097	-0.002797
740.301606	-0.002790
740.499097	-0.002880
740.696569	-0.002968
740.894024	-0.002966
741.091460	-0.003065
741.288878	-0.003373
741.486277	-0.003425
741.683659	-0.003514
741.881022	-0.003750
742.078367	-0.003698
742.275694	-0.003504
742.473002	-0.003527
742.670293	-0.003547
742.867565	-0.003438
743.064819	-0.003336
743.262054	-0.003248
743.459272	-0.003153
743.656471	-0.002821
743.853652	-0.002687
744.050815	-0.002542
744.247959	-0.002340
744.445085	-0.002415
744.642194	-0.002418
744.839283	-0.002577
745.036355	-0.002586
745.233408	-0.002652
745.430444	-0.002726
745.627461	-0.002911
745.824459	-0.002932
746.021440	-0.002875
746.218402	-0.002553
746.415346	-0.002618
746.612272	-0.002322
746.809180	-0.002268
747.006069	-0.002144
747.202940	-0.002036
747.399793	-0.001903
747.596628	-0.001975
747.793444	-0.002005
747.990243	-0.002025
748.187023	-0.001908
748.383784	-0.001835
748.580528	-0.001844
748.777253	-0.002097
748.973960	-0.002279
749.170649	-0.002176
749.367320	-0.002200
749.563973	-0.002072
749.760607	-0.002342
749.957223	-0.002213
750.153821	-0.002395
750.350400	-0.002241
750.546962	-0.001920
750.743505	-0.001620
750.940030	-0.001646
751.136536	-0.001416
751.333025	-0.001555
751.529495	-0.001326
751.725947	-0.001311
751.922381	-0.001151
752.118796	-0.001147
752.315194	-0.001191
752.511573	-0.001269
752.707934	-0.001127
752.904276	-0.001265
753.100601	-0.001215
753.296907	-0.001143
753.493195	-0.001253
753.689465	-0.001237
753.885716	-0.001349
754.081949	-0.001312
754.278164	-0.001347
754.474361	-0.001396
754.670540	-0.001128
754.866700	-0.001267
755.062843	-0.001265
755.258967	-0.001440
755.455072	-0.001246
755.651160	-0.001123
755.847229	-0.001232
756.043280	-0.001170
756.239313	-0.001148
756.435328	-0.001388
756.631324	-0.001188
756.827302	-0.001080
757.023262	-0.000690
757.219204	-0.000952
757.415127	-0.001105
757.611033	-0.001106
757.806920	-0.001091
758.002788	-0.001175
758.198639	-0.001194
758.394471	-0.001223
758.590286	-0.001258
758.786081	-0.001293
758.981859	-0.001220
759.177619	-0.001175
759.373360	-0.001055
759.569083	-0.001165
759.764788	-0.001023
759.960474	-0.000994
760.156143	-0.000913
760.351793	-0.001174
760.547425	-0.001237
760.743038	-0.001201
760.938634	-0.000981
761.134211	-0.001065
761.329770	-0.000800
761.525311	-0.000754
761.720833	-0.000523
761.916338	-0.000586
762.111824	-0.000441
762.307292	-0.000458
762.502741	-0.000481
762.698173	-0.000512
762.893586	-0.000497
763.088981	-0.000648
763.284358	-0.000604
763.479716	-0.000692
763.675057	-0.000681
763.870379	-0.000508
764.065683	-0.000678
764.260968	-0.000765
764.456236	-0.000886
764.651485	-0.000864
764.846716	-0.000746
765.041929	-0.000889
765.237123	-0.000969
765.432299	-0.000905
765.627457	-0.000957
765.822597	-0.000858
766.017719	-0.000784
766.212822	-0.000764
766.407907	-0.000815
766.602974	-0.001036
766.798023	-0.001090
766.993054	-0.001040
767.188066	-0.001119
767.383060	-0.001209
767.578036	-0.001300
767.772993	-0.001140
767.967933	-0.001158
768.162854	-0.001169
768.357757	-0.001069
768.552642	-0.001025
768.747508	-0.001030
768.942356	-0.001002
769.137186	-0.001174
769.331998	-0.000968
769.526792	-0.000927
769.721567	-0.000928
769.916324	-0.000738
770.111063	-0.000595
770.305784	-0.000514
770.500486	-0.000547
770.695171	-0.000403
770.889837	0.000032
771.084484	0.000169
771.279114	0.000057
771.473725	0.000122
771.668318	0.000026
771.862893	0.000007
772.057450	0.000068
772.251988	0.000173
772.446509	0.000190
772.641011	0.000062
772.835494	-0.000079
773.029960	-0.000132
773.224407	-0.000140
773.418836	-0.000077
773.613247	-0.000310
773.807640	-0.000496
774.002014	-0.000616
774.196370	-0.000728
774.390708	-0.000922
774.585028	-0.001128
774.779330	-0.001354
774.973613	-0.001295
775.167878	-0.001399
775.362125	-0.001326
775.556354	-0.001324
775.750564	-0.001432
775.944756	-0.001564
776.138930	-0.001569
776.333086	-0.001480
776.527223	-0.001282
776.721343	-0.001215
776.915444	-0.001188
777.109526	-0.001270
777.303591	-0.001123
777.497637	-0.001000
777.691666	-0.000976
777.885676	-0.000971
778.079667	-0.000901
778.273641	-0.000947
778.467596	-0.000899
778.661533	-0.000934
778.855452	-0.000769
779.049352	-0.000938
779.243235	-0.000870
779.437099	-0.000852
779.630945	-0.000650
779.824773	-0.000652
780.018582	-0.000663
780.212373	-0.000648
780.406146	-0.000541
780.599901	-0.000411
780.793638	-0.000269
780.987356	-0.000227
781.181056	-0.000009
781.374738	0.000039
781.568402	0.000013
781.762047	0.000147
781.955674	0.000010
782.149283	-0.000108
782.342874	-0.000186
782.536447	-0.000213
782.730001	-0.000336
782.923537	-0.000399
783.117055	-0.000531
783.310555	-0.000536
783.504036	-0.000539
783.697499	-0.000461
783.890944	-0.000405
784.084371	-0.000445
784.277780	-0.000260
784.471170	-0.000183
784.664542	-0.000082
784.857896	-0.000011
785.051231	0.000068
785.244549	0.000265
785.437848	0.000323
785.631129	0.000421
785.824392	0.000390
786.017636	0.000110
786.210863	0.000128
786.404071	-0.000237
786.597260	-0.000425
786.790432	-0.000470
786.983585	-0.000753
787.176721	-0.000929
787.369838	-0.001065
787.562936	-0.001121
787.756017	-0.001091
787.949079	-0.000934
788.142123	-0.000891
788.335149	-0.000672
788.528156	-0.000657
788.721146	-0.000494
788.914117	-0.000512
789.107070	-0.000522
789.300005	-0.000381
789.492921	-0.000295
789.685819	-0.000659
789.878699	-0.000535
790.071561	-0.000590
790.264405	-0.000629
790.457230	-0.000721
790.650037	-0.000689
790.842826	-0.000663
791.035597	-0.000728
791.228349	-0.000908
791.421084	-0.000800
791.613800	-0.000846
791.806497	-0.000810
791.999177	-0.000673
792.191838	-0.000681
792.384481	-0.000533
792.577106	-0.000443
792.769713	-0.000345
792.962301	-0.000234
793.154871	-0.000187
793.347423	-0.000329
793.539957	-0.000383
793.732473	-0.000334
793.924970	-0.000189
794.117449	-0.000311
794.309910	-0.000318
794.502353	-0.000351
794.694777	-0.000279
794.887183	-0.000338
795.079571	-0.000332
795.271941	-0.000757
795.464293	-0.000995
795.656626	-0.001270
795.848941	-0.001304
796.041238	-0.001524
796.233516	-0.001627
796.425777	-0.001900
796.618019	-0.002039
796.810243	-0.001979
797.002449	-0.001528
797.194636	-0.001504
797.386805	-0.001497
797.578956	-0.001583
797.771089	-0.001639
797.963204	-0.001716
798.155300	-0.001618
798.347378	-0.001424
798.539438	-0.001383
798.731480	-0.001498
798.923503	-0.001415
799.115509	-0.001378
799.307496	-0.001556
799.499465	-0.001345
799.691415	-0.001337
799.883348	-0.001351
800.075262	-0.001491
800.267158	-0.001567
800.459035	-0.001685
800.650895	-0.001793
800.842736	-0.001890
801.034559	-0.001641
801.226364	-0.001714
801.418150	-0.001853
801.609919	-0.001851
801.801669	-0.001711
801.993401	-0.001829
802.185114	-0.001873
802.376810	-0.001886
802.568487	-0.001725
802.760146	-0.001942
802.951787	-0.002134
803.143409	-0.002105
803.335014	-0.002189
803.526600	-0.002405
803.718168	-0.002238
803.909717	-0.002238
804.101249	-0.002277
804.292762	-0.002515
804.484257	-0.002533
804.675734	-0.002274
804.867192	-0.002122
805.058632	-0.002046
805.250054	-0.001754
805.441458	-0.001637
805.632844	-0.001387
805.824211	-0.001319
806.015561	-0.001127
806.206891	-0.001047
806.398204	-0.000973
806.589499	-0.000866
806.780775	-0.000834
806.972033	-0.000857
807.163273	-0.000943
807.354495	-0.001103
807.545698	-0.001150
807.736883	-0.001084
807.928050	-0.001169
808.119199	-0.001337
808.310329	-0.001500
808.501441	-0.001623
808.692535	-0.001723
808.883611	-0.001654
809.074669	-0.001707
809.265708	-0.001530
809.456729	-0.001611
809.647732	-0.001391
809.838717	-0.001277
810.029683	-0.001246
810.220632	-0.001183
810.411562	-0.000822
810.602474	-0.000724
810.793367	-0.000480
810.984242	-0.000588
811.175100	-0.000603
811.365938	-0.000623
811.556759	-0.000686
811.747562	-0.000732
811.938346	-0.000546
812.129112	-0.000994
812.319860	-0.001245
812.510589	-0.001317
812.701300	-0.001282
812.891994	-0.001249
813.082668	-0.001208
813.273325	-0.001112
813.463964	-0.001044
813.654584	-0.001091
813.845186	-0.001221
814.035769	-0.001213
814.226335	-0.001552
814.416882	-0.001669
814.607411	-0.002020
814.797922	-0.002258
814.988415	-0.002578
815.178889	-0.002730
815.369345	-0.002750
815.559783	-0.002797
815.750203	-0.002924
815.940605	-0.002830
816.130988	-0.002793
816.321353	-0.002591
816.511700	-0.002718
816.702028	-0.002587
816.892339	-0.002526
817.082631	-0.002642
817.272905	-0.002633
817.463161	-0.002615
817.653398	-0.002580
817.843617	-0.002671
818.033819	-0.002713
818.224001	-0.002780
818.414166	-0.002988
818.604312	-0.003087
818.794440	-0.003225
818.984550	-0.003277
819.174642	-0.003251
819.364716	-0.003455
819.554771	-0.003459
819.744808	-0.003411
819.934827	-0.003237
820.124827	-0.003303
820.314810	-0.003516
820.504774	-0.003482
820.694720	-0.003306
820.884647	-0.003507
821.074557	-0.003252
821.264448	-0.003356
821.454321	-0.003519
821.644176	-0.003502
821.834012	-0.003360
822.023831	-0.003170
822.213631	-0.003326
822.403413	-0.003356
822.593176	-0.003352
822.782922	-0.003623
822.972649	-0.003717
823.162358	-0.003570
823.352049	-0.003621
823.541721	-0.003928
823.731376	-0.003811
823.921012	-0.003797
824.110629	-0.003926
824.300229	-0.003964
824.489811	-0.004072
824.679374	-0.003959
824.868919	-0.004068
825.058445	-0.004240
825.247954	-0.004153
825.437444	-0.004400
825.626916	-0.004557
825.816370	-0.004630
826.005806	-0.004581
826.195223	-0.004521
826.384622	-0.004796
826.574003	-0.004893
826.763366	-0.004890
826.952711	-0.004750
827.142037	-0.004792
827.331345	-0.004757
827.520635	-0.004806
827.709906	-0.004925
827.899160	-0.004842
828.088395	-0.004976
828.277612	-0.005240
828.466810	-0.005149
828.655991	-0.005265
828.845153	-0.005223
829.034297	-0.005023
829.223423	-0.005241
829.412531	-0.005154
829.601620	-0.005289
829.790691	-0.005057
829.979744	-0.004850
830.168779	-0.004964
830.357795	-0.005145
830.546793	-0.005228
830.735773	-0.005386
830.924735	-0.005283
831.113679	-0.005227
831.302604	-0.005397
831.491511	-0.005695
831.680400	-0.005962
831.869271	-0.006067
832.058123	-0.005956
832.246957	-0.006074
832.435773	-0.006276
832.624571	-0.006205
832.813351	-0.006516
833.002112	-0.006388
833.190855	-0.006311
833.379580	-0.006184
833.568287	-0.006154
833.756975	-0.006197
833.945645	-0.006315
834.134297	-0.006230
834.322931	-0.006087
834.511547	-0.006079
834.700144	-0.005973
834.888723	-0.005894
835.077284	-0.005877
835.265826	-0.005974
835.454351	-0.005986
835.642857	-0.005698
835.831345	-0.005556
836.019815	-0.005773
836.208266	-0.005424
836.396699	-0.005287
836.585114	-0.004988
836.773511	-0.005070
836.961890	-0.004872
837.150250	-0.004830
837.338592	-0.004902
837.526916	-0.005067
837.715222	-0.005273
837.903510	-0.005431
838.091779	-0.005495
838.280030	-0.005645
838.468263	-0.005455
838.656477	-0.005500
838.844674	-0.005407
839.032852	-0.005465
839.221012	-0.005276
839.409153	-0.004835
839.597277	-0.004952
839.785382	-0.005090
839.973469	-0.005307
840.161538	-0.005272
840.349589	-0.005580
840.537621	-0.005648
840.725635	-0.005676
840.913631	-0.005890
841.101609	-0.006261
841.289568	-0.006258
841.477509	-0.006340
841.665432	-0.006225
841.853337	-0.006443
842.041224	-0.005989
842.229092	-0.006018
842.416942	-0.006063
842.604774	-0.006106
842.792588	-0.005907
842.980383	-0.006016
843.168160	-0.006088
843.355919	-0.006139
843.543660	-0.006058
843.731382	-0.006414
843.919087	-0.006511
844.106773	-0.006519
844.294441	-0.006611
844.482090	-0.006703
844.669722	-0.006755
844.857335	-0.006623
845.044930	-0.006614
845.232507	-0.006728
845.420065	-0.006549
845.607605	-0.006323
845.795127	-0.006256
845.982631	-0.006173
846.170117	-0.006242
846.357584	-0.005857
846.545033	-0.005960
846.732464	-0.005768
846.919877	-0.005455
847.107272	-0.005492
847.294648	-0.005698
847.482006	-0.005665
847.669346	-0.005370
847.856667	-0.005049
848.043971	-0.004977
848.231256	-0.004946
848.418523	-0.005072
848.605771	-0.004892
848.793002	-0.004947
848.980214	-0.004753
849.167408	-0.004647
849.354584	-0.004619
849.541742	-0.004695
849.728881	-0.005141
849.916002	-0.005039
850.103105	-0.004963
850.290190	-0.005379
850.477256	-0.005370
850.664304	-0.005425
850.851334	-0.005486
851.038346	-0.005696
851.225340	-0.005903
851.412315	-0.005712
851.599272	-0.005913
851.786211	-0.006177
851.973132	-0.006151
852.160034	-0.006016
852.346918	-0.005935
852.533784	-0.005921
852.720632	-0.005917
852.907462	-0.005565
853.094273	-0.005655
853.281066	-0.005360
853.467841	-0.005191
853.654598	-0.005220
853.841336	-0.005086
854.028056	-0.005384
854.214758	-0.005517
854.401442	-0.005484
854.588107	-0.005636
854.774755	-0.005336
854.961384	-0.005445
855.147995	-0.005413
855.334587	-0.004941
855.521162	-0.005059
855.707718	-0.004759
855.894256	-0.004724
856.080775	-0.004713
856.267277	-0.004689
856.453760	-0.004793
856.640225	-0.004872
856.826672	-0.004966
857.013101	-0.005491
857.199511	-0.005513
857.385903	-0.005626
857.572277	-0.005633
857.758633	-0.005744
857.944970	-0.005733
858.131290	-0.005817
858.317591	-0.005767
858.503873	-0.005650
858.690138	-0.005691
858.876384	-0.005598
859.062612	-0.005232
859.248822	-0.005126
859.435014	-0.005032
859.621188	-0.005040
859.807343	-0.004876
859.993480	-0.004712
860.179599	-0.004718
860.365699	-0.004505
860.551781	-0.004565
860.737846	-0.004784
860.923891	-0.004711
861.109919	-0.004829
861.295929	-0.005107
861.481920	-0.005369
861.667893	-0.005603
861.853848	-0.005786
862.039784	-0.005847
862.225702	-0.005890
862.411603	-0.005990
862.597484	-0.005983
862.783348	-0.005698
862.969193	-0.005607
863.155021	-0.005596
863.340830	-0.005476
863.526620	-0.005463
863.712393	-0.005315
863.898147	-0.005212
864.083883	-0.005056
864.269601	-0.005224
864.455301	-0.005271
864.640982	-0.005268
864.826645	-0.004994
865.012290	-0.005294
865.197917	-0.005408
865.383526	-0.005666
865.569116	-0.005752
865.754688	-0.005976
865.940242	-0.005970
866.125777	-0.006047
866.311295	-0.005989
866.496794	-0.006291
866.682275	-0.006094
866.867737	-0.005981
867.053182	-0.005788
867.238608	-0.005772
867.424016	-0.005746
867.609406	-0.005873
867.794778	-0.005966
867.980131	-0.006102
868.165466	-0.005941
868.350783	-0.005788
868.536082	-0.005781
868.721362	-0.005894
868.906625	-0.005842
869.091869	-0.005901
869.277094	-0.005830
869.462302	-0.005820
869.647491	-0.005712
869.832662	-0.005919
870.017815	-0.005873
870.202950	-0.005710
870.388066	-0.005446
870.573165	-0.005462
870.758245	-0.005549
870.943306	-0.005474
871.128350	-0.005585
871.313375	-0.005449
871.498382	-0.005314
871.683371	-0.005469
871.868342	-0.005426
872.053294	-0.005658
872.238229	-0.005881
872.423144	-0.005938
872.608042	-0.006019
872.792922	-0.005950
872.977783	-0.006174
873.162626	-0.006288
873.347451	-0.006344
873.532258	-0.006497
873.717046	-0.006582
873.901816	-0.006649
874.086568	-0.006684
874.271302	-0.006738
874.456017	-0.006755
874.640715	-0.006600
874.825394	-0.006602
875.010055	-0.006740
875.194697	-0.006712
875.379322	-0.006547
875.563928	-0.006605
875.748516	-0.006349
875.933085	-0.006191
876.117637	-0.006142
876.302170	-0.006366
876.486685	-0.006423
876.671182	-0.006199
876.855661	-0.006240
877.040121	-0.006264
877.224563	-0.006096
877.408987	-0.006115
877.593393	-0.006453
877.777780	-0.006610
877.962150	-0.006425
878.146501	-0.006387
878.330833	-0.006505
878.515148	-0.006571
878.699444	-0.006585
878.883722	-0.006765
879.067982	-0.007108
879.252224	-0.006860
879.436447	-0.006760
879.620653	-0.006821
879.804840	-0.006693
879.989008	-0.006775
880.173159	-0.006894
880.357291	-0.007065
880.541405	-0.006555
880.725501	-0.006296
880.909579	-0.006272
881.093638	-0.006234
881.277680	-0.006264
881.461703	-0.006228
881.645707	-0.006079
881.829694	-0.005995
882.013662	-0.005931
882.197612	-0.006092
882.381544	-0.006224
882.565458	-0.006227
882.749353	-0.006163
882.933230	-0.006208
883.117089	-0.006337
883.300930	-0.006312
883.484753	-0.006403
883.668557	-0.006286
883.852343	-0.006448
884.036111	-0.006234
884.219861	-0.006103
884.403592	-0.005984
884.587305	-0.006051
884.771000	-0.006067
884.954677	-0.006083
885.138335	-0.006064
885.321976	-0.006177
885.505598	-0.006161
885.689201	-0.006266
885.872787	-0.006353
886.056354	-0.006717
886.239904	-0.006692
886.423434	-0.006645
886.606947	-0.006804
886.790442	-0.006803
886.973918	-0.006811
887.157376	-0.006776
887.340816	-0.006881
887.524237	-0.007145
887.707641	-0.007042
887.891026	-0.006945
888.074393	-0.006955
888.257741	-0.006476
888.441072	-0.006224
888.624384	-0.006113
888.807678	-0.006392
888.990954	-0.006589
889.174211	-0.006374
889.357451	-0.006504
889.540672	-0.006524
889.723875	-0.006588
889.907059	-0.006896
890.090226	-0.007246
890.273374	-0.007458
890.456504	-0.007373
890.639616	-0.007013
890.822709	-0.007221
891.005785	-0.007264
891.188842	-0.007442
891.371881	-0.007411
891.554901	-0.007376
891.737904	-0.007129
891.920888	-0.007083
892.103854	-0.007069
892.286802	-0.007022
892.469731	-0.006791
892.652643	-0.006392
892.835536	-0.006067
893.018410	-0.006119
893.201267	-0.006359
893.384106	-0.006446
893.566926	-0.006245
893.749728	-0.005950
893.932511	-0.006035
894.115277	-0.006431
894.298024	-0.006895
894.480753	-0.007354
894.663464	-0.007408
894.846157	-0.007172
895.028831	-0.007401
895.211487	-0.007779
895.394125	-0.007872
895.576745	-0.008132
895.759346	-0.007917
895.941930	-0.007655
896.124495	-0.007265
896.307041	-0.007180
896.489570	-0.007236
896.672080	-0.006700
896.854573	-0.006583
897.037046	-0.006951
897.219502	-0.006703
897.401940	-0.006895
897.584359	-0.006949
897.766760	-0.007129
897.949143	-0.007103
898.131507	-0.007228
898.313854	-0.007638
898.496182	-0.007522
898.678492	-0.007436
898.860783	-0.007614
899.043057	-0.007621
899.225312	-0.007767
899.407549	-0.007862
899.589768	-0.007945
899.771968	-0.007994
899.954151	-0.008051
900.136315	-0.008391
900.318461	-0.008595
900.500588	-0.008651
900.682698	-0.008500
900.864789	-0.008634
901.046862	-0.008589
901.228917	-0.008651
901.410953	-0.008672
901.592971	-0.008581
901.774972	-0.008659
901.956953	-0.008440
902.138917	-0.008190
902.320862	-0.008269
902.502790	-0.007857
902.684699	-0.007788
902.866589	-0.007890
903.048462	-0.008177
903.230316	-0.008316
903.412152	-0.008024
903.593970	-0.008217
903.775770	-0.008276
903.957551	-0.008295
904.139314	-0.008555
904.321059	-0.008751
904.502786	-0.008911
904.684494	-0.008799
904.866185	-0.008564
905.047857	-0.008789
905.229510	-0.009002
905.411146	-0.009297
905.592763	-0.009487
905.774363	-0.009799
905.955943	-0.009852
906.137506	-0.009878
906.319051	-0.010037
906.500577	-0.010338
906.682085	-0.010577
906.863575	-0.010365
907.045046	-0.010471
907.226500	-0.010302
907.407935	-0.010055
907.589352	-0.009874
907.770750	-0.009723
907.952131	-0.009415
908.133493	-0.009111
908.314837	-0.008723
908.496163	-0.008487
908.677470	-0.008312
908.858760	-0.008546
909.040031	-0.008383
909.221284	-0.008662
909.402518	-0.008288
909.583735	-0.008279
909.764933	-0.008374
909.946113	-0.008522
910.127275	-0.008838
910.308418	-0.008990
910.489544	-0.008853
910.670651	-0.009266
910.851740	-0.009323
911.032810	-0.009849
911.213863	-0.010003
911.394897	-0.010356
911.575913	-0.010444
911.756911	-0.010340
911.937890	-0.010520
912.118851	-0.010735
912.299794	-0.010700
912.480719	-0.010384
912.661626	-0.010447
912.842514	-0.010685
913.023384	-0.010645
913.204236	-0.010438
913.385070	-0.010466
913.565886	-0.010273
913.746683	-0.010463
913.927462	-0.010346
914.108223	-0.010623
914.288965	-0.010700
914.469690	-0.010259
914.650396	-0.010481
914.831084	-0.010562
915.011754	-0.010550
915.192405	-0.010361
915.373038	-0.010097
915.553653	-0.009744
915.734250	-0.009707
915.914829	-0.009788
916.095389	-0.010077
916.275931	-0.009967
916.456455	-0.010275
916.636961	-0.010510
916.817448	-0.010870
916.997917	-0.011054
917.178368	-0.011521
917.358801	-0.011331
917.539216	-0.011411
917.719612	-0.011762
917.899990	-0.011466
918.080350	-0.011201
918.260692	-0.011206
918.441015	-0.011082
918.621320	-0.011125
918.801607	-0.011158
918.981876	-0.011241
919.162127	-0.011244
919.342359	-0.011315
919.522573	-0.011671
919.702769	-0.011984
919.882947	-0.011948
920.063106	-0.012092
920.243247	-0.011994
920.423370	-0.011806
920.603475	-0.012360
920.783562	-0.012313
920.963630	-0.011761
921.143680	-0.011929
921.323712	-0.011865
921.503725	-0.012055
921.683721	-0.012479
921.863698	-0.012248
922.043657	-0.012583
922.223598	-0.012473
922.403520	-0.012734
922.583424	-0.013322
922.763311	-0.013081
922.943178	-0.013341
923.123028	-0.013543
923.302859	-0.013531
923.482673	-0.013860
923.662467	-0.014118
923.842244	-0.014348
924.022003	-0.014345
924.201743	-0.014356
924.381465	-0.014528
924.561169	-0.014521
924.740854	-0.014594
924.920522	-0.014900
925.100171	-0.015057
925.279802	-0.015448
925.459414	-0.015438
925.639009	-0.015744
925.818585	-0.016116
925.998143	-0.016783
926.177683	-0.016862
926.357205	-0.017005
926.536708	-0.016695
926.716193	-0.016930
926.895660	-0.016496
927.075109	-0.016770
927.254539	-0.016116
927.433951	-0.016594
927.613345	-0.016336
927.792721	-0.017067
927.972079	-0.017202
928.151418	-0.017596
928.330739	-0.017983
928.510042	-0.018562
928.689327	-0.018315
928.868593	-0.019084
929.047841	-0.018466
929.227071	-0.019179
929.406283	-0.019141
929.585476	-0.019244
929.764652	-0.019375
929.943809	-0.019531
930.122948	-0.019502
930.302068	-0.019883
930.481171	-0.019421
930.660255	-0.019499
930.839321	-0.018909
931.018369	-0.018648
931.197398	-0.018798
931.376409	-0.018936
931.555402	-0.018890
931.734377	-0.019099
931.913334	-0.019788
932.092272	-0.019995
932.271192	-0.020529
932.450094	-0.020368
932.628978	-0.020233
932.807844	-0.020393
932.986691	-0.020971
933.165520	-0.020761
933.344331	-0.020499
933.523123	-0.019761
933.701898	-0.019934
933.880654	-0.019821
934.059392	-0.020547
934.238111	-0.020744
934.416813	-0.020468
934.595496	-0.019343
934.774161	-0.019734
934.952808	-0.019756
935.131437	-0.020224
935.310047	-0.020391
935.488639	-0.020419
935.667213	-0.020356
935.845769	-0.020757
936.024306	-0.020221
936.202825	-0.021044
936.381326	-0.021071
936.559809	-0.021871
936.738274	-0.022242
936.916720	-0.023574
937.095148	-0.023668
937.273558	-0.023744
937.451950	-0.023840
937.630323	-0.024731
937.808678	-0.024384
937.987015	-0.024444
938.165334	-0.023964
938.343635	-0.023862
938.521917	-0.022828
938.700181	-0.022597
938.878427	-0.022550
939.056655	-0.022295
939.234864	-0.022396
939.413055	-0.023139
939.591228	-0.023019
939.769383	-0.022935
939.947519	-0.022559
940.125638	-0.022538
940.303738	-0.022702
940.481820	-0.023080
940.659883	-0.023766
940.837929	-0.024165
941.015956	-0.024103
941.193965	-0.024135
941.371955	-0.024567
941.549928	-0.025072
941.727882	-0.025264
941.905818	-0.025881
942.083736	-0.025446
942.261636	-0.025680
942.439517	-0.024612
942.617380	-0.024231
942.795225	-0.024332
942.973052	-0.024484
943.150860	-0.023959
943.328651	-0.023856
943.506423	-0.024002
943.684176	-0.023699
943.861912	-0.023352
944.039629	-0.024176
944.217328	-0.024586
944.395009	-0.024648
944.572672	-0.024648
944.750317	-0.025202
944.927943	-0.025660
945.105551	-0.025038
945.283141	-0.025329
945.460712	-0.025052
945.638265	-0.025512
945.815801	-0.025068
945.993317	-0.025186
946.170816	-0.024686
946.348297	-0.024030
946.525759	-0.023639
946.703203	-0.023917
946.880629	-0.024288
947.058036	-0.023960
947.235425	-0.023725
947.412797	-0.024519
947.590149	-0.024433
947.767484	-0.024662
947.944800	-0.025335
948.122099	-0.025453
948.299379	-0.025774
948.476640	-0.026405
948.653884	-0.026201
948.831109	-0.025463
949.008316	-0.023541
949.185505	-0.023142
949.362676	-0.022874
949.539828	-0.021600
949.716962	-0.021255
949.894078	-0.020711
950.071176	-0.020634
950.248256	-0.020167
950.425317	-0.020900
950.602360	-0.022649
950.779385	-0.023475
950.956391	-0.023894
951.133380	-0.024514
951.310350	-0.024580
951.487302	-0.024303
951.664235	-0.023702
951.841151	-0.023646
952.018048	-0.021916
952.194927	-0.020352
952.371788	-0.018650
952.548631	-0.018662
952.725455	-0.018061
952.902261	-0.018556
953.079049	-0.017718
953.255819	-0.016036
953.432570	-0.015763
953.609303	-0.016291
953.786018	-0.016208
953.962715	-0.016326
954.139394	-0.015313
954.316054	-0.014736
954.492696	-0.014239
954.669320	-0.014904
954.845926	-0.013939
955.022513	-0.014325
955.199083	-0.013826
955.375634	-0.014047
955.552166	-0.014205
955.728681	-0.013111
955.905177	-0.014042
956.081655	-0.013166
956.258115	-0.013315
956.434557	-0.015239
956.610980	-0.014429
956.787385	-0.014495
956.963772	-0.014300
957.140141	-0.014074
957.316492	-0.013872
957.492824	-0.012079
957.669138	-0.012710
957.845434	-0.010902
958.021712	-0.010388
958.197971	-0.010555
958.374212	-0.010176
958.550435	-0.009670
958.726640	-0.008096
958.902826	-0.008274
959.078995	-0.009406
959.255145	-0.007796
959.431277	-0.007335
959.607390	-0.006083
959.783486	-0.006210
959.959563	-0.006648
960.135622	-0.004167
960.311662	-0.003517
960.487685	-0.003855
960.663689	-0.004023
960.839675	-0.004191
961.015643	-0.005519
961.191593	-0.004793
961.367524	-0.004422
961.543437	-0.003491
961.719332	-0.005672
961.895209	-0.006478
962.071067	-0.005737
962.246907	-0.003842
962.422730	-0.002203
962.598533	-0.001065
962.774319	-0.004059
962.950086	-0.003626
963.125835	-0.002692
963.301566	-0.002283
963.477279	-0.001656
963.652973	-0.000724
963.828650	-0.000264
964.004308	-0.001308
964.179947	-0.000870
964.355569	0.001418
964.531172	-0.000113
964.706757	-0.001145
964.882324	-0.001337
965.057873	-0.001284
965.233403	-0.002296
965.408916	-0.002847
965.584410	-0.002554
965.759885	-0.000167
965.935343	0.001203
966.110782	0.004342
966.286203	0.005396
966.461606	0.005745
966.636991	0.007350
966.812357	0.008750
966.987705	0.008337
967.163035	0.009204
967.338347	0.007950
967.513641	0.007817
967.688916	0.007509
967.864173	0.006594
968.039412	0.006863
968.214632	0.006083
968.389835	0.005950
968.565019	0.007488
968.740185	0.007805
968.915333	0.008420
969.090462	0.009213
969.265573	0.009277
969.440667	0.010481
969.615741	0.012756
969.790798	0.012997
969.965836	0.012578
970.140856	0.012077
970.315858	0.012959
970.490842	0.013185
970.665808	0.012695
970.840755	0.011894
971.015684	0.010895
971.190595	0.009403
971.365487	0.008646
971.540362	0.009139
971.715218	0.008663
971.890056	0.008927
972.064875	0.006705
972.239677	0.005955
972.414460	0.007136
972.589225	0.007885
972.763972	0.007288
972.938700	0.007457
973.113411	0.007893
973.288103	0.008793
973.462777	0.005747
973.637432	0.006074
973.812070	0.006733
973.986689	0.007345
974.161290	0.008227
974.335873	0.010381
974.510437	0.009805
974.684984	0.009471
974.859512	0.009623
975.034022	0.010792
975.208513	0.012984
975.382987	0.012026
975.557442	0.011336
975.731879	0.011233
975.906298	0.010755
976.080698	0.011222
976.255080	0.010016
976.429445	0.010279
976.603790	0.011914
976.778118	0.009924
976.952427	0.010169
977.126719	0.008858
977.300992	0.009071
977.475246	0.008580
977.649483	0.008037
977.823701	0.010445
977.997901	0.009837
978.172083	0.009883
978.346247	0.010005
978.520392	0.010291
978.694519	0.012177
978.868628	0.011102
979.042719	0.012011
979.216791	0.012966
979.390845	0.011443
979.564882	0.011349
979.738899	0.009098
979.912899	0.012777
980.086880	0.012413
980.260843	0.012761
980.434788	0.013467
980.608715	0.013448
980.782623	0.013832
980.956514	0.014165
981.130386	0.014771
981.304240	0.015614
981.478075	0.012878
981.651892	0.012915
981.825692	0.010635
981.999472	0.010330
982.173235	0.009521
982.346980	0.007745
982.520706	0.008418
982.694414	0.009221
982.868104	0.009710
983.041775	0.008688
983.215428	0.009250
983.389064	0.011372
983.562680	0.011340
983.736279	0.011458
983.909860	0.013452
984.083422	0.011602
984.256966	0.010097
984.430491	0.008243
984.603999	0.009806
984.777488	0.011511
984.950959	0.010402
985.124412	0.010082
985.297847	0.011269
985.471263	0.011187
985.644661	0.013363
985.818041	0.013845
985.991403	0.015279
986.164747	0.014938
986.338072	0.012846
986.511379	0.014836
986.684668	0.016048
986.857938	0.014146
987.031191	0.012690
987.204425	0.010926
987.377641	0.010076
987.550839	0.009820
987.724018	0.010301
987.897179	0.011879
988.070322	0.010959
988.243447	0.010193
988.416554	0.011681
988.589642	0.013810
988.762712	0.013232
988.935764	0.014950
989.108798	0.014189
989.281813	0.012554
989.454811	0.008992
989.627790	0.007200
989.800751	0.006783
989.973693	0.005435
990.146617	0.004252
990.319524	0.006043
990.492412	0.004789
990.665281	0.005435
990.838133	0.006550
991.010966	0.009825
991.183781	0.011206
991.356578	0.011587
991.529356	0.011076
991.702117	0.012442
991.874859	0.011163
992.047583	0.009217
992.220288	0.010002
992.392976	0.009620
992.565645	0.008556
992.738296	0.008943
992.910929	0.009699
993.083543	0.011463
993.256139	0.009737
993.428718	0.010809
993.601277	0.013341
993.773819	0.014825
993.946342	0.016202
994.118848	0.016517
994.291335	0.014757
994.463803	0.014248
994.636254	0.011991
994.808686	0.012087
994.981100	0.011419
995.153496	0.011522
995.325874	0.009754
995.498233	0.009700
995.670574	0.008611
995.842897	0.010016
996.015202	0.009650
996.187488	0.010544
996.359757	0.010575
996.532007	0.011349
996.704239	0.012951
996.876452	0.013801
997.048648	0.011782
997.220825	0.012519
997.392984	0.011817
997.565124	0.012177
997.737247	0.010838
997.909351	0.011229
998.081437	0.009661
998.253505	0.008104
998.425554	0.007504
998.597586	0.008928
998.769599	0.009548
998.941594	0.009697
999.113571	0.009693
999.285529	0.010895
999.457469	0.011450
999.629391	0.012552
999.801295	0.011424
999.973181	0.011620
1000.145048	0.011477
1000.316897	0.009845
1000.488728	0.010296
1000.660541	0.011048
1000.832335	0.011548
1001.004111	0.010391
1001.175869	0.010307
1001.347609	0.011222
1001.519331	0.009816
1001.691034	0.009906
1001.862719	0.012472
1002.034386	0.012016
1002.206035	0.010939
1002.377665	0.009813
1002.549277	0.010715
1002.720871	0.010778
1002.892447	0.010771
1003.064004	0.011543
1003.235544	0.010042
1003.407065	0.007330
1003.578568	0.007369
1003.750052	0.007475
1003.921519	0.009187
1004.092967	0.007825
1004.264397	0.007747
1004.435809	0.008054
1004.607202	0.008479
1004.778577	0.008542
1004.949934	0.009367
1005.121273	0.008996
1005.292594	0.008358
1005.463896	0.006852
1005.635180	0.007748
1005.806446	0.007048
1005.977694	0.006667
1006.148923	0.006766
1006.320135	0.006638
1006.491328	0.007070
1006.662503	0.008053
1006.833659	0.007475
1007.004798	0.008708
1007.175918	0.007947
1007.347020	0.007979
1007.518103	0.006749
1007.689169	0.006700
1007.860216	0.006956
1008.031245	0.004900
1008.202256	0.004586
1008.373248	0.004481
1008.544223	0.003257
1008.715179	0.003084
1008.886117	0.003733
1009.057036	0.004843
1009.227938	0.004473
1009.398821	0.005730
1009.569686	0.006949
1009.740533	0.006171
1009.911361	0.006617
1010.082172	0.005356
1010.252964	0.005646
1010.423738	0.006039
1010.594493	0.006216
1010.765231	0.006570
1010.935950	0.005733
1011.106651	0.006903
1011.277334	0.007020
1011.447998	0.007297
1011.618645	0.009251
1011.789273	0.008771
1011.959882	0.009329
1012.130474	0.007172
1012.301048	0.006011
1012.471603	0.005296
1012.642140	0.005135
1012.812658	0.004622
1012.983159	0.004112
1013.153641	0.003733
1013.324105	0.003615
1013.494551	0.002944
1013.664979	0.004142
1013.835388	0.005064
1014.005779	0.005775
1014.176152	0.006131
1014.346507	0.006138
1014.516843	0.006504
1014.687162	0.007356
1014.857462	0.009243
1015.027744	0.008568
1015.198007	0.007819
1015.368252	0.006750
1015.538480	0.006229
1015.708689	0.004808
1015.878879	0.004683
1016.049052	0.004461
1016.219206	0.003695
1016.389342	0.002719
1016.559460	0.001973
1016.729559	0.002814
1016.899641	0.004600
1017.069704	0.004539
1017.239749	0.005318
1017.409775	0.005295
1017.579784	0.005239
1017.749774	0.005459
1017.919746	0.005295
1018.089700	0.006330
1018.259635	0.005330
1018.429553	0.005213
1018.599452	0.005254
1018.769333	0.004327
1018.939195	0.004550
1019.109040	0.004757
1019.278866	0.004277
1019.448674	0.003737
1019.618464	0.004556
1019.788235	0.005577
1019.957989	0.004151
1020.127724	0.003209
1020.297441	0.003854
1020.467139	0.003870
1020.636820	0.002972
1020.806482	0.004323
1020.976126	0.003402
1021.145752	0.002613
1021.315359	0.003377
1021.484948	0.003959
1021.654519	0.005308
1021.824072	0.005730
1021.993607	0.006813
1022.163123	0.006707
1022.332621	0.005484
1022.502101	0.006769
1022.671563	0.006521
1022.841007	0.004739
1023.010432	0.005827
1023.179839	0.005411
1023.349228	0.004803
1023.518598	0.004848
1023.687951	0.004944
1023.857285	0.005445
1024.026601	0.004664
1024.195899	0.005323
1024.365178	0.005131
1024.534439	0.003511
1024.703682	0.002820
1024.872907	0.004337
1025.042114	0.003761
1025.211302	0.004566
1025.380472	0.004076
1025.549624	0.005229
1025.718758	0.004198
1025.887873	0.003787
1026.056970	0.004093
1026.226049	0.004577
1026.395110	0.001828
1026.564153	0.000839
1026.733177	0.001669
1026.902183	0.000515
1027.071171	0.001416
1027.240141	0.000710
1027.409092	0.002939
1027.578026	0.001985
1027.746940	0.002139
1027.915837	0.001534
1028.084716	0.001521
1028.253576	0.001163
1028.422418	0.001841
1028.591242	0.000278
1028.760048	0.001974
1028.928835	0.001807
1029.097604	0.003666
1029.266355	0.003653
1029.435088	0.006691
1029.603803	0.007020
1029.772499	0.005927
1029.941177	0.005935
1030.109837	0.005790
1030.278478	0.004875
1030.447102	0.003967
1030.615707	0.002651
1030.784294	0.003153
1030.952863	0.002246
1031.121413	0.002677
1031.289945	0.003098
1031.458460	0.002763
1031.626955	0.002010
1031.795433	0.003622
1031.963892	0.005903
1032.132334	0.007189
1032.300756	0.006359
1032.469161	0.005725
1032.637548	0.005684
1032.805916	0.004422
1032.974266	0.005326
1033.142598	0.007268
1033.310911	0.005256
1033.479207	0.003189
1033.647484	0.002397
1033.815743	0.002205
1033.983983	0.002198
1034.152206	0.001020
1034.320410	0.003283
1034.488596	0.002269
1034.656764	0.000509
1034.824914	-0.000487
1034.993045	-0.000009
1035.161158	-0.001226
1035.329253	-0.000083
1035.497330	-0.000618
1035.665388	0.002041
1035.833428	0.001448
1036.001450	0.002458
1036.169454	0.000936
1036.337440	0.001556
1036.505407	0.001254
1036.673356	0.002375
1036.841287	0.001692
1037.009200	0.002386
1037.177094	0.000730
1037.344970	-0.000414
1037.512828	0.000095
1037.680668	0.002092
1037.848489	0.002890
1038.016293	0.002784
1038.184078	0.003962
1038.351845	0.002955
1038.519593	0.001655
1038.687324	0.002781
1038.855036	0.001458
1039.022730	0.000972
1039.190406	0.000644
1039.358063	0.000443
1039.525702	0.001141
1039.693323	-0.000809
1039.860926	-0.000998
1040.028511	0.000342
1040.196077	-0.001909
1040.363625	-0.000091
1040.531155	-0.000699
1040.698667	-0.000532
1040.866161	-0.000353
1041.033636	-0.001262
1041.201093	-0.001068
1041.368532	-0.000881
1041.535952	-0.001925
1041.703355	-0.001093
1041.870739	-0.000124
1042.038105	-0.001040
1042.205452	-0.001164
1042.372782	-0.000285
1042.540093	-0.000072
1042.707386	0.001650
1042.874661	0.001918
1043.041918	0.001895
1043.209156	0.001196
1043.376376	0.000214
1043.543578	0.000428
1043.710762	0.001465
1043.877927	0.000523
1044.045074	0.000186
1044.212203	-0.001285
1044.379314	-0.000721
1044.546407	0.001395
1044.713481	0.001777
1044.880537	0.001786
1045.047575	0.003403
1045.214595	0.003646
1045.381596	0.004175
1045.548579	0.002731
1045.715544	0.002213
1045.882491	0.002298
1046.049420	0.002122
1046.216330	0.002503
1046.383222	0.001893
1046.550096	0.000966
1046.716951	-0.000781
1046.883789	-0.001951
1047.050608	-0.000865
1047.217409	-0.001912
1047.384192	-0.003622
1047.550956	-0.004527
1047.717703	-0.003645
1047.884431	-0.003263
1048.051140	-0.002094
1048.217832	-0.001042
1048.384505	-0.001286
1048.551161	-0.000896
1048.717798	0.000311
1048.884416	0.001746
1049.051017	0.000775
1049.217599	-0.000159
1049.384163	-0.000323
1049.550709	-0.000097
1049.717237	-0.000601
1049.883746	-0.001066
1050.050237	-0.001831
1050.216710	-0.001175
1050.383165	-0.002289
1050.549601	-0.001291
1050.716019	-0.001374
1050.882420	-0.000346
1051.048801	-0.001734
1051.215165	-0.002173
1051.381510	-0.000930
1051.547837	-0.000619
1051.714146	0.000073
1051.880437	0.001163
1052.046709	-0.000203
1052.212964	-0.000833
1052.379200	-0.001144
1052.545417	-0.002718
1052.711617	-0.002130
1052.877798	-0.003449
1053.043961	-0.004410
1053.210106	-0.005551
1053.376233	-0.006638
1053.542341	-0.005098
1053.708432	-0.005316
1053.874504	-0.005328
1054.040557	-0.002496
1054.206593	-0.004330
1054.372610	-0.003649
1054.538609	-0.001820
1054.704590	-0.001135
1054.870553	-0.000578
1055.036497	-0.000294
1055.202424	-0.000635
1055.368331	-0.001189
1055.534221	-0.002521
1055.700093	-0.001030
1055.865946	-0.001412
1056.031781	-0.001660
1056.197598	-0.000701
1056.363397	-0.001128
1056.529177	-0.002200
1056.694939	-0.000467
1056.860683	-0.001089
1057.026409	-0.001215
1057.192116	-0.000196
1057.357806	0.001305
1057.523477	0.001297
1057.689130	0.000792
1057.854764	0.001329
1058.020381	-0.000013
1058.185979	0.000188
1058.351559	-0.000116
1058.517120	0.000088
1058.682664	-0.001170
1058.848189	-0.001603
1059.013696	-0.001486
1059.179185	-0.002275
1059.344656	-0.003541
1059.510108	-0.002731
1059.675542	-0.004049
1059.840958	-0.002663
1060.006356	-0.002911
1060.171735	-0.002861
1060.337096	-0.002961
1060.502439	-0.002618
1060.667764	-0.004263
1060.833071	-0.002053
1060.998359	-0.001937
1061.163629	-0.001873
1061.328881	-0.001929
1061.494115	-0.002904
1061.659330	-0.001396
1061.824527	-0.001735
1061.989706	-0.002426
1062.154867	-0.000881
1062.320010	-0.001214
1062.485134	-0.000802
1062.650240	-0.000190
1062.815328	-0.000173
1062.980398	0.001048
1063.145449	-0.001521
1063.310482	0.000381
1063.475497	-0.000152
1063.640494	-0.001266
1063.805473	-0.002957
1063.970433	-0.003803
1064.135375	-0.003775
1064.300299	-0.006486
1064.465204	-0.007816
1064.630092	-0.007513
1064.794961	-0.008594
1064.959812	-0.008370
1065.124645	-0.007871
1065.289459	-0.006524
1065.454256	-0.007968
1065.619034	-0.008906
1065.783793	-0.006743
1065.948535	-0.007381
1066.113258	-0.005954
1066.277964	-0.006843
1066.442651	-0.006020
1066.607319	-0.004603
1066.771970	-0.005687
1066.936602	-0.003511
1067.101216	-0.002813
1067.265812	-0.004858
1067.430389	-0.003094
1067.594949	-0.004782
1067.759490	-0.006039
1067.924013	-0.009117
1068.088518	-0.011558
1068.253004	-0.010127
1068.417472	-0.010696
1068.581922	-0.010547
1068.746354	-0.006167
1068.910768	-0.006967
1069.075163	-0.005736
1069.239540	-0.005093
1069.403899	-0.003099
1069.568240	-0.001136
1069.732562	-0.002623
1069.896866	-0.001600
1070.061152	-0.001853
1070.225420	-0.004517
1070.389670	-0.004607
1070.553901	-0.005612
1070.718114	-0.006536
1070.882309	-0.004411
1071.046486	-0.004351
1071.210644	-0.003192
1071.374784	-0.004421
1071.538906	-0.005533
1071.703010	-0.005487
1071.867096	-0.004768
1072.031163	-0.003022
1072.195212	-0.003013
1072.359243	-0.005493
1072.523256	-0.007282
1072.687250	-0.008010
1072.851226	-0.008574
1073.015184	-0.006687
1073.179124	-0.005495
1073.343045	-0.004649
1073.506949	-0.006804
1073.670834	-0.003928
1073.834701	-0.004480
1073.998549	-0.003239
1074.162380	-0.003678
1074.326192	-0.000474
1074.489986	-0.001938
1074.653761	-0.000918
1074.817519	-0.004219
1074.981258	-0.002246
1075.144979	-0.003910
1075.308682	-0.002306
1075.472367	-0.002581
1075.636033	-0.000501
1075.799681	-0.004646
1075.963311	-0.004353
1076.126923	-0.007110
1076.290516	-0.004094
1076.454092	-0.005929
1076.617649	-0.006048
1076.781187	-0.007228
1076.944708	-0.009201
1077.108210	-0.012247
1077.271695	-0.010508
1077.435160	-0.009930
1077.598608	-0.009338
1077.762038	-0.010421
1077.925449	-0.008594
1078.088842	-0.008264
1078.252217	-0.005384
1078.415573	-0.002115
1078.578912	0.000357
1078.742232	-0.001549
1078.905534	-0.002498
1079.068817	-0.002319
1079.232083	-0.001115
1079.395330	-0.001954
1079.558559	-0.002678
1079.721770	-0.005627
1079.884962	-0.006072
1080.048136	-0.005641
1080.211293	-0.004259
1080.374430	-0.004585
1080.537550	-0.004910
1080.700651	-0.004341
1080.863735	-0.004761
1081.026800	-0.002781
1081.189846	-0.003965
1081.352875	-0.005422
1081.515885	-0.006072
1081.678877	-0.007535
1081.841851	-0.006230
1082.004807	-0.005359
1082.167744	-0.004934
1082.330663	-0.003620
1082.493564	-0.004712
1082.656447	-0.001354
1082.819312	-0.001129
1082.982158	-0.002663
1083.144986	-0.000091
1083.307796	0.000078
1083.470587	-0.002153
1083.633361	-0.003416
1083.796116	-0.004924
1083.958853	-0.005324
1084.121571	-0.004444
1084.284272	-0.006783
1084.446954	-0.007022
1084.609618	-0.006791
1084.772264	-0.006691
1084.934892	-0.005636
1085.097501	-0.005578
1085.260092	-0.005431
1085.422665	-0.006307
1085.585220	-0.009856
1085.747756	-0.008237
1085.910274	-0.006802
1086.072774	-0.007949
1086.235256	-0.010260
1086.397720	-0.009363
1086.560165	-0.009832
1086.722592	-0.010512
1086.885001	-0.010522
1087.047392	-0.008889
1087.209764	-0.008979
1087.372119	-0.008678
1087.534455	-0.008223
1087.696772	-0.008082
1087.859072	-0.008282
1088.021353	-0.008774
1088.183616	-0.006802
1088.345861	-0.005322
1088.508088	-0.006650
1088.670296	-0.007707
1088.832486	-0.009040
1088.994658	-0.008550
1089.156812	-0.004363
1089.318948	-0.002387
1089.481065	-0.003574
1089.643164	-0.004016
1089.805245	-0.003408
1089.967308	-0.002394
1090.129352	-0.001497
1090.291378	-0.000871
1090.453386	-0.000906
1090.615376	-0.005627
1090.777347	-0.007809
1090.939301	-0.005613
1091.101236	-0.006761
1091.263153	-0.008221
1091.425051	-0.008522
1091.586932	-0.006420
1091.748794	-0.005671
1091.910638	-0.006555
1092.072463	-0.005896
1092.234271	-0.006344
1092.396060	-0.007338
1092.557831	-0.005729
1092.719584	-0.003759
1092.881319	-0.004103
1093.043035	-0.005012
1093.204733	-0.006693
1093.366413	-0.006651
1093.528075	-0.007326
1093.689718	-0.008145
1093.851343	-0.008107
1094.012950	-0.009700
1094.174539	-0.011035
1094.336110	-0.010582
1094.497662	-0.011141
1094.659196	-0.011092
1094.820712	-0.011090
1094.982210	-0.011727
1095.143689	-0.011045
1095.305151	-0.011340
1095.466594	-0.008945
1095.628018	-0.010482
1095.789425	-0.010390
1095.950813	-0.010022
1096.112183	-0.006953
1096.273535	-0.006238
1096.434869	-0.004764
1096.596184	-0.002991
1096.757482	-0.000096
1096.918761	-0.000804
1097.080021	0.000178
1097.241264	0.000086
1097.402488	0.000369
1097.563694	0.000553
1097.724882	0.000143
1097.886052	-0.001182
1098.047203	-0.001906
1098.208336	-0.003461
1098.369451	-0.004367
1098.530548	-0.003179
1098.691627	-0.004773
1098.852687	-0.004513
1099.013729	-0.007415
1099.174753	-0.008780
1099.335758	-0.010614
1099.496746	-0.012218
1099.657715	-0.012547
1099.818666	-0.011524
1099.979599	-0.010589
1100.140513	-0.010643
1100.301409	-0.012081
1100.462287	-0.012915
1100.623147	-0.011749
1100.783989	-0.007008
1100.944812	-0.004630
1101.105617	-0.008160
1101.266404	-0.010667
1101.427173	-0.010974
1101.587923	-0.010334
1101.748656	-0.012000
1101.909370	-0.010156
1102.070066	-0.011073
1102.230743	-0.011744
1102.391403	-0.011361
1102.552044	-0.011186
1102.712667	-0.011193
1102.873271	-0.014471
1103.033858	-0.011404
1103.194426	-0.007453
1103.354976	-0.006941
1103.515508	-0.008500
1103.676021	-0.009087
1103.836517	-0.010309
1103.996994	-0.008650
1104.157453	-0.006604
1104.317893	-0.005806
1104.478316	-0.008722
1104.638720	-0.013374
1104.799106	-0.014234
1104.959474	-0.008827
1105.119823	-0.009111
1105.280155	-0.010844
1105.440468	-0.010262
1105.600763	-0.010296
1105.761039	-0.011134
1105.921298	-0.010162
1106.081538	-0.007196
1106.241760	-0.009544
1106.401964	-0.013938
1106.562149	-0.012468
1106.722316	-0.014054
1106.882465	-0.013174
1107.042596	-0.015709
1107.202709	-0.011924
1107.362803	-0.014696
1107.522879	-0.015554
1107.682937	-0.012205
1107.842977	-0.011384
1108.002999	-0.010893
1108.163002	-0.006890
1108.322987	-0.006608
1108.482954	-0.002461
1108.642902	-0.005173
1108.802833	-0.001378
1108.962745	0.001680
1109.122639	-0.001565
1109.282515	0.000467
1109.442372	-0.002182
1109.602211	-0.000044
1109.762032	-0.000730
1109.921835	-0.004750
1110.081620	-0.004872
1110.241386	-0.005811
1110.401134	-0.006155
1110.560864	-0.002304
1110.720576	-0.005407
1110.880269	-0.007818
1111.039945	-0.011560
1111.199602	-0.013836
1111.359240	-0.011508
1111.518861	-0.012085
1111.678463	-0.012394
1111.838047	-0.012882
1111.997613	-0.013347
1112.157161	-0.010259
1112.316690	-0.007688
1112.476202	-0.005118
1112.635695	-0.001849
1112.795169	-0.004320
1112.954626	-0.002846
1113.114064	-0.003592
1113.273484	-0.003560
1113.432886	-0.004923
1113.592270	-0.005000
1113.751635	-0.001120
1113.910983	-0.003104
1114.070312	-0.006749
1114.229622	-0.003594
1114.388915	-0.006267
1114.548189	-0.006134
1114.707445	-0.006470
1114.866683	-0.009873
1115.025903	-0.010263
1115.185104	-0.011728
1115.344287	-0.011167
1115.503452	-0.011375
1115.662599	-0.015882
1115.821727	-0.010794
1115.980838	-0.013023
1116.139930	-0.014463
1116.299004	-0.009814
1116.458059	-0.008670
1116.617097	-0.008531
1116.776116	-0.010142
1116.935117	-0.006892
1117.094099	-0.005152
1117.253064	-0.006088
1117.412010	-0.005598
1117.570938	-0.004455
1117.729848	-0.005230
1117.888740	-0.005253
1118.047613	-0.007739
1118.206468	-0.007582
1118.365305	-0.004398
1118.524124	-0.004144
1118.682924	-0.006712
1118.841707	-0.003792
1119.000471	-0.000407
1119.159216	0.000435
1119.317944	-0.002391
1119.476653	0.000820
1119.635344	-0.000083
1119.794017	-0.005744
1119.952672	-0.004392
1120.111308	-0.006346
1120.269927	-0.007125
1120.428527	-0.012241
1120.587108	-0.017063
1120.745672	-0.014816
1120.904217	-0.015479
1121.062744	-0.016299
1121.221253	-0.015356
1121.379744	-0.016106
1121.538216	-0.013507
1121.696671	-0.015104
1121.855107	-0.016565
1122.013524	-0.007792
1122.171924	-0.009960
1122.330305	-0.008843
1122.488668	-0.006997
1122.647013	-0.002737
1122.805340	-0.004508
1122.963648	-0.005995
1123.121938	-0.005143
1123.280210	-0.002189
1123.438464	-0.003510
1123.596700	-0.003883
1123.754917	-0.008107
1123.913116	-0.009547
1124.071297	-0.014852
1124.229459	-0.014859
1124.387604	-0.015357
1124.545730	-0.018958
1124.703838	-0.022190
1124.861928	-0.025991
1125.019999	-0.024088
1125.178052	-0.024135
1125.336088	-0.023052
1125.494104	-0.020881
1125.652103	-0.019557
1125.810083	-0.021407
1125.968045	-0.019694
1126.125989	-0.017562
1126.283915	-0.017895
1126.441823	-0.016276
1126.599712	-0.014417
1126.757583	-0.016904
1126.915436	-0.017234
1127.073270	-0.014480
1127.231087	-0.009621
1127.388885	-0.006880
1127.546665	-0.004117
1127.704426	-0.003252
1127.862170	-0.006544
1128.019895	-0.009128
1128.177602	-0.006017
1128.335291	-0.007751
1128.492961	-0.008118
1128.650614	-0.008228
1128.808248	-0.013176
1128.965864	-0.015095
1129.123461	-0.016504
1129.281041	-0.015531
1129.438602	-0.011805
1129.596145	-0.011911
1129.753670	-0.013504
1129.911176	-0.019376
1130.068665	-0.020595
1130.226135	-0.013918
1130.383587	-0.013095
1130.541020	-0.008484
1130.698436	-0.010999
1130.855833	-0.012022
1131.013212	-0.014327
1131.170573	-0.009544
1131.327915	-0.007014
1131.485239	-0.005774
1131.642545	-0.013601
1131.799833	-0.012230
1131.957103	-0.013555
1132.114354	-0.013930
1132.271588	-0.016775
1132.428803	-0.016321
1132.585999	-0.021116
1132.743178	-0.018189
1132.900338	-0.021151
1133.057480	-0.020533
1133.214604	-0.021746
1133.371710	-0.026003
1133.528797	-0.024658
1133.685866	-0.022939
1133.842917	-0.021787
1133.999950	-0.014776
1134.156964	-0.019528
1134.313960	-0.018102
1134.470938	-0.009476
1134.627898	-0.010181
1134.784840	-0.012330
1134.941763	-0.008243
1135.098668	-0.010240
1135.255555	-0.011099
1135.412424	-0.014815
1135.569274	-0.013832
1135.726107	-0.013585
1135.882921	-0.019274
1136.039716	-0.022113
1136.196494	-0.021409
1136.353253	-0.025342
1136.509995	-0.023928
1136.666717	-0.019316
1136.823422	-0.020681
1136.980109	-0.017510
1137.136777	-0.015103
1137.293427	-0.011657
1137.450059	-0.008367
1137.606672	-0.004537
1137.763267	-0.005362
1137.919844	-0.004944
1138.076403	-0.012798
1138.232944	-0.009961
1138.389466	-0.013620
1138.545971	-0.012585
1138.702457	-0.015992
1138.858924	-0.020005
1139.015374	-0.017608
1139.171805	-0.021079
1139.328218	-0.020903
1139.484613	-0.015603
1139.640990	-0.016850
1139.797348	-0.015687
1139.953688	-0.018415
1140.110010	-0.015658
1140.266314	-0.017469
1140.422600	-0.018058
1140.578867	-0.010934
1140.735116	-0.011600
1140.891347	-0.009610
1141.047559	-0.015232
1141.203754	-0.017223
1141.359930	-0.017849
1141.516088	-0.017550
1141.672228	-0.014874
1141.828349	-0.014961
1141.984452	-0.015068
1142.140537	-0.016001
1142.296604	-0.021584
1142.452653	-0.015849
1142.608683	-0.015655
1142.764695	-0.010124
1142.920689	-0.012350
1143.076665	-0.013621
1143.232622	-0.015053
1143.388562	-0.016412
1143.544483	-0.014183
1143.700385	-0.011582
1143.856270	-0.008361
1144.012136	-0.004326
1144.167985	-0.010070
1144.323814	-0.009808
1144.479626	-0.008597
1144.635420	-0.013184
1144.791195	-0.017300
1144.946952	-0.018898
1145.102691	-0.015677
1145.258411	-0.018760
1145.414113	-0.013481
1145.569798	-0.010184
1145.725463	-0.006281
1145.881111	-0.009355
1146.036741	-0.012512
1146.192352	-0.013442
1146.347945	-0.009755
1146.503519	-0.014642
1146.659076	-0.009666
1146.814614	-0.015130
1146.970134	-0.020877
1147.125636	-0.025118
1147.281120	-0.022550
1147.436585	-0.018759
1147.592032	-0.015783
1147.747461	-0.020047
1147.902872	-0.023616
1148.058265	-0.031084
1148.213639	-0.031754
1148.368995	-0.027419
1148.524333	-0.021564
1148.679653	-0.024719
1148.834954	-0.018864
1148.990237	-0.019826
1149.145502	-0.013706
1149.300749	-0.006504
1149.455977	-0.001056
1149.611188	-0.003018
1149.766380	-0.005784
1149.921553	-0.008338
1150.076709	0.002461
1150.231846	-0.004623
1150.386966	0.004471
1150.542066	0.002070
1150.697149	-0.005649
1150.852214	-0.005914
1151.007260	-0.002585
1151.162288	0.005158
1151.317298	-0.009236
1151.472289	-0.015964
1151.627263	-0.008252
1151.782218	-0.018096
1151.937155	-0.019448
1152.092073	-0.009727
1152.246974	-0.017098
1152.401856	-0.016832
1152.556720	-0.024766
1152.711566	-0.015543
1152.866393	-0.006657
1153.021203	-0.008751
1153.175994	-0.003941
1153.330767	-0.000543
1153.485521	-0.009248
1153.640258	-0.002738
1153.794976	-0.008857
1153.949676	-0.007265
1154.104358	-0.010948
1154.259021	-0.016104
1154.413667	-0.017888
1154.568294	-0.018641
1154.722903	-0.019233
1154.877493	-0.010960
1155.032066	-0.017388
1155.186620	-0.017916
1155.341156	-0.013370
1155.495674	-0.004678
1155.650173	-0.008003
1155.804654	-0.008567
1155.959118	-0.009642
1156.113562	-0.009924
1156.267989	-0.011152
1156.422397	-0.012612
1156.576788	-0.008535
1156.731160	-0.019217
1156.885513	-0.017778
1157.039849	-0.018265
1157.194166	-0.013920
1157.348465	-0.011205
1157.502746	-0.011985
1157.657009	-0.016523
1157.811253	-0.008855
1157.965479	-0.009952
1158.119687	-0.006521
1158.273877	-0.004491
1158.428048	0.001393
1158.582201	-0.012918
1158.736337	-0.017380
1158.890453	-0.018810
1159.044552	-0.014096
1159.198632	-0.016094
1159.352694	-0.012919
1159.506738	-0.012714
1159.660764	-0.018979
1159.814771	-0.025564
1159.968761	-0.009495
1160.122732	-0.005079
1160.276685	-0.004221
1160.430619	0.001657
1160.584535	0.004204
1160.738434	-0.001264
1160.892313	-0.003715
1161.046175	-0.003824
1161.200019	0.007787
1161.353844	-0.001179
1161.507651	-0.008446
1161.661440	-0.015116
1161.815210	-0.019504
1161.968962	-0.020113
1162.122697	-0.012037
1162.276412	-0.010648
1162.430110	-0.011666
1162.583789	-0.021021
1162.737451	-0.025137
1162.891094	-0.024926
1163.044718	-0.013561
1163.198325	-0.018996
1163.351913	-0.023649
1163.505483	-0.022234
1163.659035	-0.017134
1163.812569	-0.006367
1163.966084	-0.005100
1164.119581	0.007655
1164.273060	0.010735
1164.426521	0.001936
1164.579964	-0.001458
1164.733388	0.004928
1164.886794	-0.003999
1165.040182	-0.006878
1165.193551	-0.019764
1165.346903	-0.018381
1165.500236	-0.021032
1165.653551	-0.018440
1165.806848	-0.018403
1165.960126	-0.012661
1166.113386	-0.018621
1166.266628	-0.013004
1166.419852	-0.016486
1166.573058	-0.012719
1166.726245	-0.023177
1166.879414	-0.032044
1167.032565	-0.026961
1167.185698	-0.014300
1167.338812	-0.016569
1167.491909	-0.010087
1167.644987	-0.011905
1167.798046	-0.004257
1167.951088	-0.002824
1168.104111	-0.001210
1168.257117	0.008775
1168.410103	-0.001188
1168.563072	-0.014615
1168.716023	-0.011822
1168.868955	-0.013060
1169.021869	-0.019716
1169.174765	-0.017739
1169.327642	-0.013063
1169.480501	-0.004131
1169.633343	-0.005984
1169.786165	0.008184
1169.938970	0.016364
1170.091757	0.006251
1170.244525	0.008240
1170.397275	0.018044
1170.550007	0.020310
1170.702720	0.009750
1170.855415	0.006151
1171.008092	-0.012322
1171.160751	-0.036006
1171.313392	-0.056577
1171.466014	-0.042887
1171.618619	-0.140435
1171.771205	-0.140435
1171.923772	-0.140435
