sample name	sample
index	142
start time	 02-15-2021  01:58:22 PM
880	-0.041380
Peak Time (s)	92.536
Peak Height 	-0.04138
calc peak height	90,93
Baseline Time (s)	8.537
Baseline Value 	-0.001969
subtract baseline	10,4
Abs	-0.008818
Peak Time (s)	90.037
Peak Height 	-0.008818
calc peak height	90,93
Baseline Time (s)	11.537
Baseline Value 	0.004134
subtract baseline	10,3
PK_550	-0.000969
Peak Time (s)	90.535
Peak Height 	-9.6858E-4
calc peak height	90,93
Baseline Time (s)	11.036
Baseline Value 	0.001794
subtract baseline	10,2
PK_880	-0.008755
Peak Time (s)	91.035
Peak Height 	-0.008755
calc peak height	90,93
Baseline Time (s)	10.036
Baseline Value 	0.002311
subtract baseline	10,1


Time (s)	A880-A510	A880-A775	A880-A975	A880	I510	I775	I975	I880	
0.034500	0.000914	-0.000853	0.004446	0.000813	4158.937970	14313.072081	3255.520640	8341.814838
0.535000	-0.006747	-0.003320	0.002469	0.000260	4140.582780	14263.637937	3254.647678	8348.607648
1.035500	-0.000845	-0.002495	-0.005612	0.002141	4150.931034	14236.467747	3248.617161	8325.561674
1.536000	-0.002293	-0.001401	-0.013782	0.000346	4151.827303	14310.987539	3244.829805	8347.555457
2.036000	-0.007072	-0.003489	-0.016939	-0.000754	4142.347847	14285.416804	3243.618816	8361.067314
2.539500	0.000542	-0.002509	-0.026803	-0.000276	4160.806647	14298.390122	3237.620230	8355.186009
3.036500	-0.004952	-0.002101	-0.002548	-0.000423	4146.949207	14312.791745	3252.007137	8357.004957
3.534000	0.000466	0.001571	-0.006403	0.002432	4153.570187	14333.935323	3247.970422	8322.001842
4.037500	-0.003070	-0.000093	-0.015450	0.001032	4148.046124	14327.100075	3243.444733	8339.130775
4.534500	-0.001743	-0.001246	0.010358	-0.000132	4154.488690	14327.358310	3259.766761	8353.416125
5.035000	-0.001349	-0.000481	-0.018911	0.000565	4153.703392	14329.125914	3241.694747	8344.856983
5.535000	-0.008875	-0.001128	-0.005142	-0.000740	4137.695597	14346.207012	3250.629588	8360.896094
6.036000	0.004069	-0.000169	-0.001008	-0.000111	4169.612716	14354.811181	3252.752459	8353.168773
6.536000	-0.000174	-0.001149	0.000086	-0.000547	4159.647426	14340.652760	3253.684258	8358.522341
7.036000	-0.003036	-0.000929	0.016630	-0.000354	4151.715492	14341.370429	3263.850900	8356.149642
7.536500	-0.002812	-0.000854	0.006393	0.000458	4150.195935	14322.251298	3256.939519	8346.179568
8.037000	-0.001931	-0.000872	0.004615	0.000669	4151.927504	14316.318143	3255.713813	8343.588303
8.537000	0.003100	0.000104	-0.002867	0.000000	4166.775238	14358.988854	3251.557772	8351.799682
9.037500	0.000391	-0.001574	-0.001119	-0.001030	4162.380307	14342.157477	3253.244429	8364.469101
9.535000	-0.002057	0.000275	-0.004514	-0.000658	4155.040187	14380.572090	3250.959645	8359.895342
10.035500	0.000000	-0.001378	0.016380	-0.000635	4160.330152	14337.003131	3263.870351	8359.605426
10.535500	-0.000187	0.001288	0.001104	0.000091	4157.954050	14387.439876	3253.916265	8350.682067
11.036000	-0.001806	0.000000	0.005842	0.000813	4151.878589	14335.183654	3256.380158	8341.817908
11.536500	0.000084	-0.000370	0.000000	0.000473	4157.664714	14334.412115	3253.010390	8345.990270
12.039500	0.002811	0.000949	0.002715	0.001877	4161.109225	14332.195113	3253.809195	8328.782555
12.536500	-0.005004	-0.001569	-0.017035	-0.000554	4147.151189	14329.949308	3243.445783	8358.614359
13.036500	0.003547	0.001019	0.012867	-0.001078	4170.779299	14410.928833	3261.931925	8365.055762
13.537500	-0.003821	-0.000495	0.002025	0.000381	4147.790781	14333.562243	3254.302370	8347.123198
14.034500	-0.000864	-0.002207	-0.004133	-0.001216	4159.593274	14330.562276	3251.526822	8366.757877
14.535000	-0.004883	-0.001651	0.001596	0.001440	4142.335545	14276.264651	3253.393793	8334.138322
15.035000	-0.001887	-0.000778	-0.005301	0.000175	4153.319538	14331.550449	3249.983074	8349.643953
15.591000	-0.002294	-0.000525	-0.002141	-0.001090	4155.547463	14371.007361	3252.659212	8365.213838
16.036000	-0.001531	-0.001016	-0.011123	0.000140	4154.332658	14326.274135	3246.524569	8350.074799
16.536500	-0.002066	0.000602	0.002792	-0.001152	4156.300300	14401.970004	3255.712161	8365.976020
17.036500	0.000302	-0.001124	0.001819	0.000632	4157.817683	14310.762446	3254.023093	8344.044957
17.536500	-0.002154	-0.001143	-0.007576	-0.001203	4156.203114	14357.857272	3249.443697	8366.598449
18.037000	-0.001671	0.000420	0.000154	-0.001991	4159.509280	14419.125425	3254.608155	8376.316778
18.537000	0.000424	-0.001337	0.004526	-0.001008	4162.412175	14347.745090	3256.691882	8364.203639
19.035000	-0.005928	-0.001037	0.010073	-0.000025	4143.413736	14330.043297	3259.523254	8352.112191
19.535000	0.000444	-0.001416	-0.007277	-0.000464	4161.043511	14331.586997	3249.179827	8357.505948
20.035000	0.001417	-0.001178	-0.015874	0.000388	4161.359923	14315.676263	3243.574112	8347.036625
20.535500	-0.002022	-0.000369	0.003500	0.000681	4151.663070	14329.040769	3255.021458	8343.441600
21.036000	-0.004256	-0.000753	0.000628	0.000080	4147.444033	14334.674251	3253.632186	8350.813640
21.539000	-0.002895	-0.001704	-0.011726	0.000642	4149.506885	14295.494617	3245.869413	8343.917806
22.037000	-0.002776	-0.000200	0.013781	0.000419	4150.389616	14340.225682	3261.565358	8346.651803
22.537000	-0.001965	-0.000674	0.000368	0.000235	4152.963500	14332.697613	3253.379436	8348.916094
23.037500	0.000409	-0.001272	-0.002411	0.000457	4158.552634	14311.465319	3251.557324	8346.191629
23.537500	-0.001351	-0.000132	-0.012697	0.000348	4154.261954	14343.838013	3245.469330	8347.527420
24.035000	0.000167	0.000806	0.016011	0.001799	4154.437206	14330.521773	3262.100603	8329.742491
24.535000	-0.001787	-0.000422	0.003303	0.000878	4151.759219	14322.559631	3254.780138	8341.020982
25.035500	-0.005860	-0.001259	-0.014678	-0.001148	4146.475281	14353.407210	3245.182549	8365.926177
25.536000	-0.004525	-0.001038	-0.006478	-0.000449	4148.115148	14341.009471	3249.650985	8357.322125
26.036500	0.000066	-0.001615	0.005817	0.000241	4158.221152	14308.161377	3256.717427	8348.838847
26.536000	-0.002176	-0.000390	0.008248	0.000971	4150.513385	14320.967847	3257.768758	8339.877224
27.037000	-0.000338	-0.000959	-0.001573	0.000381	4156.805452	14321.519291	3252.110455	8347.115255
27.537000	-0.007913	-0.000405	-0.009342	0.000255	4137.612591	14339.146835	3247.515721	8348.668230
28.037000	0.002073	-0.000757	0.006830	-0.003032	4172.044501	14415.580441	3259.375767	8389.184157
28.536000	0.000945	-0.001253	-0.001110	-0.001182	4164.225515	14354.441946	3253.342323	8366.338854
29.035000	0.001718	-0.000585	-0.008562	-0.000890	4165.483849	14364.204468	3248.664878	8362.741330
29.535000	-0.002045	0.001711	0.000516	0.000883	4151.081236	14377.832098	3253.075303	8340.964128
30.035500	-0.001020	-0.001385	-0.006143	0.002864	4148.610863	14246.393599	3247.867639	8316.724857
30.536000	-0.003563	-0.002522	0.003387	-0.002091	4154.850705	14345.113882	3256.657024	8377.555679
31.039000	-0.000209	-0.001094	0.008757	-0.001012	4160.767170	14354.152198	3259.317240	8364.245333
31.570000	-0.002979	-0.000475	-0.024637	-0.001116	4153.835708	14372.979512	3239.349181	8365.529563
32.037000	0.001817	0.001688	0.004888	0.005392	4149.406734	14260.441405	3252.991232	8285.951983
32.537000	-0.001042	-0.000271	-0.008076	-0.000432	4157.089847	14360.461417	3248.682074	8357.106537
33.050500	0.000301	-0.000287	0.010375	-0.000903	4161.816062	14372.319046	3260.259780	8362.908579
33.535000	0.000412	0.000627	0.005924	0.000255	4159.084713	14365.961872	3256.774457	8348.661219
34.035500	0.003043	-0.001477	0.007852	0.003399	4157.750685	14230.286336	3256.025606	8310.203679
34.535500	0.001017	-0.000247	-0.001206	-0.000560	4162.787827	14364.418428	3252.905128	8358.679241
35.035000	-0.004158	-0.001205	-0.021654	0.000217	4147.345710	14319.398256	3240.303891	8349.137577
35.543000	0.002461	0.000150	0.004264	0.001329	4161.627519	14325.681748	3255.092241	8335.491650
36.036500	-0.001962	-0.001730	-0.001049	0.001744	4149.069027	14266.354216	3251.602252	8330.412807
36.536500	-0.004850	-0.000872	0.003419	0.000575	4144.639164	14318.729733	3255.036796	8344.733864
37.037000	-0.001424	-0.002257	0.000812	-0.000546	4156.391014	14311.918252	3254.126635	8358.507844
37.536500	0.000180	0.001055	-0.003050	0.001124	4156.221839	14354.485837	3250.767453	8338.002811
38.034500	-0.002790	-0.000441	-0.005277	0.000755	4149.483811	14325.257270	3249.648507	8342.526275
38.535000	-0.003121	-0.001755	0.007486	0.000912	4148.226564	14287.189480	3257.334489	8340.607313
39.035000	0.001173	-0.000416	-0.007517	0.001258	4158.455003	14312.859329	3248.005659	8336.362393
39.536000	0.001842	0.000414	-0.006264	0.001618	4159.259076	14325.045562	3248.539699	8331.952424
40.036000	-0.003107	0.001467	0.000872	0.001652	4146.353094	14351.475580	3252.823759	8331.536319
40.536500	-0.006045	-0.001111	0.001340	0.000223	4142.476260	14321.681304	3253.980128	8349.062286
41.036500	-0.007548	-0.001384	-0.006026	-0.000467	4140.393743	14332.500974	3249.933636	8357.546045
41.537000	-0.004338	0.001723	0.002042	0.002721	4140.450217	14330.395723	3252.885590	8318.474799
42.037500	0.000111	-0.001349	-0.000038	-0.000544	4160.381833	14335.390491	3253.606641	8358.483839
42.534500	0.003725	0.000151	0.001998	0.001126	4165.460578	14330.974926	3253.830025	8337.977393
43.034500	0.002798	0.001221	0.002458	0.002315	4159.935132	14327.889961	3253.385375	8323.427964
43.538000	-0.000350	-0.000523	-0.003231	0.000414	4156.690330	14331.979157	3251.086992	8346.715906
44.035500	-0.001811	0.000293	0.012442	0.000705	4152.145247	14345.591590	3260.546338	8343.139982
44.536000	-0.000750	-0.001590	-0.001274	0.000061	4156.565376	14313.461549	3252.485955	8351.046734
45.039000	0.000557	-0.001378	0.013816	-0.003909	4170.364564	14422.281600	3264.320766	8400.051927
45.539000	0.002778	-0.000400	0.012414	-0.001923	4170.981676	14395.966555	3262.179115	8375.485590
46.036500	0.004486	-0.000945	0.000545	-0.000736	4172.354440	14350.863142	3254.080278	8360.853109
46.537000	-0.002464	-0.000061	0.008895	-0.001035	4154.963505	14381.630850	3259.417700	8364.531759
47.034500	-0.001247	-0.000428	0.002350	-0.000144	4155.807204	14348.913000	3254.821985	8353.564151
47.537500	0.000671	-0.001919	0.003305	-0.002239	4166.277793	14364.599648	3256.697373	8379.378865
48.035000	-0.008307	-0.001293	-0.016558	0.004226	4126.516342	14213.772137	3240.934105	8300.127420
48.553000	-0.001769	0.000821	0.007512	0.000706	4152.251030	14359.287812	3257.477622	8343.128701
49.035500	-0.004578	-0.000662	0.002432	0.001312	4143.446543	14305.114150	3253.981626	8335.707329
49.535500	-0.000116	0.000075	-0.000617	0.002230	4152.586168	14300.427184	3251.569718	8324.472815
50.058000	-0.000366	-0.000080	0.002375	0.006227	4141.643579	14193.571906	3250.962124	8275.836199
50.539000	0.003857	0.001142	0.002331	0.000687	4166.960371	14368.117679	3254.301923	8343.365796
51.037000	0.000566	0.000672	0.000440	0.000617	4158.544382	14357.720967	3253.190704	8344.225771
51.537000	0.005311	-0.000467	-0.005174	-0.003761	4182.543155	14442.250585	3252.439306	8398.218513
52.037500	-0.004231	-0.001297	-0.010876	0.000223	4147.139281	14316.837764	3246.622016	8349.054946
52.537500	-0.002403	-0.001622	-0.009082	-0.002749	4159.578007	14385.616407	3249.468106	8385.686412
53.035500	-0.058045	-0.027701	-0.011521	0.248305	3586.495252	9047.435333	3134.168384	6028.048562
53.538000	-0.028504	-0.015940	-0.039612	0.036350	4001.843303	13075.920744	3210.840046	7923.335942
54.035500	-0.019602	-0.002251	-0.019115	-0.082917	4336.127302	16660.127883	3295.170131	9474.390574
54.538500	-0.016141	-0.002470	-0.006117	-0.096566	4388.688705	17086.977720	3314.563130	9680.603506
55.036000	-0.033737	-0.006144	-0.034481	-0.048513	4197.805574	15512.947528	3261.987302	8982.464291
55.537000	-0.033463	-0.006899	-0.020887	-0.048857	4199.470540	15501.180812	3270.899904	8987.189503
56.036000	-0.028170	-0.006417	-0.025522	-0.076453	4291.625356	16331.502054	3286.220641	9378.967122
56.537500	-0.025943	-0.007281	-0.026267	-0.087452	4330.696770	16644.652393	3293.328860	9542.186052
57.039500	-0.028893	-0.004173	-0.013612	-0.105881	4377.961340	17334.829104	3315.931366	9825.100134
57.535000	-0.021549	-0.005165	-0.023620	-0.099807	4381.914460	17104.578402	3304.035326	9730.517013
58.034500	-0.022102	-0.006860	-0.014403	-0.084731	4334.060744	16572.926756	3299.810172	9501.417686
58.535500	-0.014863	-0.006172	-0.023335	-0.098769	4399.636926	17038.652453	3303.489340	9714.492222
59.036000	-0.012833	-0.003578	-0.024148	-0.095186	4394.741043	17006.896499	3300.318822	9659.452765
59.538500	-0.012250	-0.001557	-0.009766	-0.087576	4372.808038	16828.680607	3305.216104	9544.053278
60.037000	-0.009219	-0.003061	-0.003158	-0.076174	4347.135011	16425.820230	3301.741522	9374.883166
60.539000	-0.011150	-0.004834	-0.014118	-0.070558	4324.408655	16200.449581	3290.018738	9293.166193
61.038500	-0.007594	-0.003028	-0.022357	-0.058535	4299.379519	15895.128686	3276.283459	9121.756666
61.537000	-0.011596	-0.003184	-0.009457	-0.054146	4275.055046	15761.626207	3281.975278	9060.359430
62.035000	-0.010195	-0.004292	-0.004242	-0.055194	4282.103458	15759.866478	3286.234911	9074.960956
62.538000	-0.019654	-0.007960	-0.018703	-0.059825	4268.241275	15788.024401	3279.576143	9139.923232
63.035500	-0.020431	-0.005861	-0.007399	-0.055979	4255.110139	15736.979668	3284.614527	9085.925075
63.538500	-0.023935	-0.008843	-0.021064	-0.054271	4240.473824	15600.937974	3274.323774	9062.107173
64.038500	-0.013732	-0.002363	-0.028918	-0.076211	4333.607323	16448.407697	3283.738639	9375.411804
64.539000	-0.017424	0.000698	-0.031644	-0.090529	4365.943771	16994.660773	3291.719821	9588.584880
65.036500	-0.014634	-0.000083	-0.021185	-0.088720	4368.970632	16911.855802	3297.815406	9561.264903
65.569500	-0.012412	0.001942	-0.021033	-0.087040	4370.645381	16922.881943	3296.729957	9535.997355
66.036500	-0.018000	-0.001418	-0.020068	-0.082764	4340.496343	16681.394765	3294.390330	9472.103485
66.537500	-0.013295	-0.001355	-0.011417	-0.086416	4365.995205	16798.348401	3303.174311	9526.633015
67.035000	-0.013729	-0.000398	-0.024687	-0.086051	4363.535653	16817.095459	3293.454934	9521.166220
67.535500	-0.017504	-0.001539	-0.007199	-0.086769	4354.171170	16803.722988	3306.501697	9531.932318
68.035500	-0.019357	-0.000443	-0.028555	-0.080937	4330.908188	16654.739270	3287.216595	9445.003516
68.538500	-0.018358	-0.001059	-0.021861	-0.084306	4344.079691	16741.123814	3294.213992	9495.071097
69.036000	-0.019955	-0.002865	-0.027254	-0.085865	4343.961111	16733.337509	3291.528455	9518.369716
69.537000	-0.018629	-0.002641	-0.031274	-0.085345	4346.406335	16724.026474	3288.379351	9510.592040
70.036500	-0.021228	-0.002877	-0.005847	-0.079745	4321.751962	16541.772253	3302.377519	9427.378283
70.533500	-0.019626	-0.001560	-0.034729	-0.082203	4333.902933	16659.410361	3283.861855	9463.776534
71.037000	-0.019450	-0.001950	-0.028666	-0.080647	4329.762159	16598.646228	3286.941089	9440.718408
71.537500	-0.013887	-0.002541	-0.024972	-0.080517	4346.147978	16576.221323	3289.398974	9438.796229
72.035000	-0.019611	-0.003597	-0.031556	-0.076220	4316.084665	16410.745030	3281.958821	9375.556369
72.538000	-0.013288	-0.000675	-0.022592	-0.077490	4338.799212	16540.127021	3288.950211	9394.169630
73.036000	-0.016001	-0.000073	-0.015298	-0.075426	4324.462263	16494.877196	3292.588427	9363.936224
73.539000	-0.017858	-0.003014	-0.020847	-0.076838	4323.134707	16447.701985	3289.707772	9384.613738
74.036000	-0.010905	0.000239	-0.018153	-0.073752	4334.713529	16452.826284	3289.435484	9339.503775
74.539000	-0.014808	-0.001514	-0.028739	-0.072967	4320.687210	16374.836252	3281.664225	9328.084958
75.036500	-0.016149	-0.000919	-0.030134	-0.070011	4307.958555	16302.702433	3278.743599	9285.262596
75.537000	-0.013682	-0.001530	-0.030810	-0.071017	4318.239812	16314.755986	3278.964710	9299.815576
76.037500	-0.016538	0.000114	-0.025093	-0.067743	4300.155133	16265.144741	3280.601550	9252.614438
76.537500	-0.016968	-0.000474	-0.025495	-0.068005	4299.661394	16255.225462	3280.507563	9256.375177
77.035000	-0.013866	-0.000694	-0.020540	-0.065887	4302.546205	16184.413381	3282.419462	9226.006769
77.538500	-0.016372	-0.000008	-0.022336	-0.066162	4296.016384	16213.494328	3281.393452	9229.948474
78.038500	-0.014382	-0.002114	-0.031546	-0.066244	4302.080481	16152.355631	3275.305751	9231.117979
78.536000	-0.013926	-0.000849	-0.015072	-0.064966	4299.670485	16151.967134	3285.511089	9212.849260
79.036500	-0.014255	-0.001770	-0.013446	-0.063475	4294.352258	16079.511523	3285.603200	9191.615046
79.539500	-0.011263	-0.001893	-0.025443	-0.062992	4301.690204	16061.369248	3277.192931	9184.748632
80.037000	-0.016657	-0.002223	-0.020104	-0.059792	4276.736762	15956.204356	3278.617904	9139.468503
80.537500	-0.014218	-0.003115	-0.012169	-0.061392	4288.401159	15977.206613	3285.052704	9162.061764
81.037500	-0.015502	0.000495	-0.012229	-0.058786	4277.164935	16007.098704	3283.239233	9125.294784
81.535000	-0.015593	-0.001177	-0.004782	-0.058703	4276.664823	15954.920119	3288.276344	9124.124493
82.035000	-0.018930	-0.001871	-0.032669	-0.055831	4258.940183	15849.552437	3267.792801	9083.858026
82.535500	-0.014239	-0.000256	-0.023890	-0.057248	4276.372473	15939.063877	3274.422650	9103.689611
83.034500	-0.017660	-0.000634	-0.008815	-0.055968	4262.934659	15890.034820	3283.643963	9085.772566
83.536000	-0.014149	-0.001208	-0.021443	-0.056137	4273.441366	15878.086187	3275.302446	9088.132152
84.036500	-0.011894	-0.001069	-0.020591	-0.053752	4273.068085	15812.009394	3274.293116	9054.878498
84.537000	-0.013059	-0.000720	0.000206	-0.054466	4271.776795	15843.247906	3288.794374	9064.820235
85.034000	-0.015581	-0.002009	-0.024315	-0.054696	4265.228594	15812.135280	3272.470178	9068.016874
85.534500	-0.008496	0.000419	-0.018955	-0.051304	4275.796173	15783.905579	3273.759455	9020.936601
86.034500	-0.017256	-0.000462	-0.030390	-0.049363	4245.427120	15701.522760	3265.113495	8994.147997
86.535000	-0.015568	-0.000302	-0.010964	-0.051040	4254.896694	15755.076331	3278.876506	9017.286768
87.035000	-0.015914	-0.000381	-0.005038	-0.049479	4249.520857	15707.261546	3281.807426	8995.744827
87.537500	-0.013637	0.000147	-0.015199	-0.048875	4254.235362	15705.073732	3274.632417	8987.443806
88.036000	-0.008070	0.000235	-0.014232	-0.045654	4260.877044	15614.222096	3273.151327	8943.308817
88.536000	-0.017508	-0.001091	-0.020733	-0.047417	4239.283772	15626.877632	3270.065639	8967.430323
89.037000	-0.017941	-0.002365	-0.009213	-0.046232	4234.778758	15555.965355	3276.841615	8951.210788
89.534000	-0.012774	-0.001784	-0.027950	-0.046028	4248.647118	15566.806888	3264.544890	8948.417140
90.037000	-0.011326	-0.002074	-0.008818	-0.045135	4250.207239	15532.798538	3276.375570	8936.227778
90.534500	-0.009030	-0.000969	-0.029360	-0.043484	4252.024433	15517.161017	3262.044779	8913.769191
91.035000	-0.008755	-0.001449	-0.019775	-0.043427	4252.640803	15501.773968	3268.108209	8912.997591
91.535000	-0.010307	-0.002144	-0.016982	-0.043147	4247.483598	15473.878510	3269.729488	8909.193416
92.036000	-0.015369	-0.001554	-0.012060	-0.042010	4230.201263	15458.261168	3272.188957	8893.780163
92.536000	-0.012215	-0.002338	-0.010967	-0.041380	4237.210791	15418.001992	3272.491816	8885.263585
93.036000	-0.002495	-0.000618	-0.016360	-0.040433	4261.883692	15440.009248	3268.378982	8872.481603
93.539000	-0.010416	-0.001116	-0.021198	-0.039093	4235.848698	15387.733397	3264.428439	8854.426249
94.036500	-0.010857	-0.002288	-0.025529	-0.039058	4234.526380	15353.555874	3261.670173	8853.954915
94.536500	-0.012775	-0.002088	-0.009516	-0.038196	4226.829778	15334.829012	3271.361371	8842.380733
95.037500	-0.011866	-0.003002	-0.011136	-0.038324	4229.695419	15312.674685	3270.392459	8844.104982
95.535000	-0.014911	-0.002645	-0.012676	-0.037075	4217.871581	15287.551354	3268.589127	8827.359970
96.035000	-0.009350	-0.003415	-0.023592	-0.036284	4231.011561	15243.711744	3261.144688	8816.781636
96.560000	-0.011904	-0.001862	-0.003136	-0.034525	4219.123740	15237.935567	3273.130137	8793.331501
97.038500	-0.010679	-0.001718	-0.018558	-0.034108	4221.344551	15230.285641	3262.944044	8787.790949
97.535500	-0.011363	-0.001747	-0.034276	-0.033309	4217.275913	15207.119227	3252.710010	8777.181270
98.037500	-0.014499	-0.000936	-0.003896	-0.030471	4201.028685	15150.589457	3269.994253	8739.648198
98.562500	-0.009742	-0.001717	-0.030584	-0.030754	4214.719964	15136.742647	3253.401676	8743.380571
99.037000	-0.008571	-0.000291	-0.016490	-0.028902	4212.863343	15124.932113	3260.969487	8719.016166
