sample name	sample
index	50
start time	 02-11-2021  02:29:32 PM


Wavelength (nm)	Absorbance
494.344910	-0.097593
494.563924	-0.097593
494.782919	-0.097593
495.001897	-0.603020
495.220856	-0.092923
495.439797	-0.182318
495.658719	-0.162349
495.877624	-0.059992
496.096510	0.001363
496.315378	0.119602
496.534227	0.242071
496.753059	0.532961
496.971872	0.083571
497.190667	0.039211
497.409444	0.033117
497.628203	0.023915
497.846943	0.016297
498.065665	0.013358
498.284369	0.010871
498.503055	0.011776
498.721723	0.010880
498.940372	0.011273
499.159003	0.009700
499.377616	0.007474
499.596210	0.007138
499.814787	0.008651
500.033345	0.009352
500.251885	0.009764
500.470406	0.010387
500.688910	0.009673
500.907395	0.010136
501.125862	0.009673
501.344311	0.010457
501.562742	0.011238
501.781154	0.008995
501.999548	0.008963
502.217924	0.008630
502.436282	0.007185
502.654621	0.007935
502.872942	0.008300
503.091245	0.009302
503.309530	0.008527
503.527797	0.008590
503.746045	0.008748
503.964275	0.009590
504.182487	0.009869
504.400681	0.010897
504.618856	0.009149
504.837013	0.008582
505.055152	0.007905
505.273273	0.009102
505.491376	0.009366
505.709460	0.011628
505.927526	0.011350
506.145574	0.012815
506.363604	0.011295
506.581615	0.012418
506.799608	0.011895
507.017583	0.011771
507.235540	0.011620
507.453478	0.010311
507.671399	0.009365
507.889301	0.008702
508.107185	0.006941
508.325050	0.007566
508.542898	0.007914
508.760727	0.008319
508.978538	0.007973
509.196330	0.007213
509.414105	0.006232
509.631861	0.006033
509.849599	0.007051
510.067319	0.006639
510.285021	0.006268
510.502704	0.006135
510.720369	0.007011
510.938016	0.007398
511.155645	0.007320
511.373255	0.007045
511.590848	0.006624
511.808422	0.005984
512.025977	0.006983
512.243515	0.006925
512.461034	0.006323
512.678536	0.004504
512.896018	0.004008
513.113483	0.003958
513.330930	0.005279
513.548358	0.006016
513.765768	0.005809
513.983160	0.005436
514.200533	0.006330
514.417889	0.006022
514.635226	0.007804
514.852545	0.009486
515.069845	0.009983
515.287128	0.009491
515.504392	0.009541
515.721638	0.009834
515.938866	0.010277
516.156075	0.010667
516.373267	0.011319
516.590440	0.009347
516.807594	0.007821
517.024731	0.008547
517.241850	0.008750
517.458950	0.008086
517.676032	0.007587
517.893095	0.007434
518.110141	0.006836
518.327168	0.006129
518.544177	0.006642
518.761168	0.006797
518.978141	0.005610
519.195095	0.006599
519.412031	0.006942
519.628949	0.008309
519.845849	0.008346
520.062731	0.007046
520.279594	0.006626
520.496439	0.007293
520.713266	0.007467
520.930074	0.007614
521.146865	0.005616
521.363637	0.005655
521.580391	0.004429
521.797127	0.004333
522.013844	0.004179
522.230543	0.005250
522.447224	0.005220
522.663887	0.006150
522.880532	0.006686
523.097158	0.007214
523.313766	0.006173
523.530356	0.006290
523.746928	0.005479
523.963481	0.007267
524.180017	0.005757
524.396534	0.004932
524.613032	0.003907
524.829513	0.004503
525.045975	0.004924
525.262420	0.004989
525.478845	0.004960
525.695253	0.005859
525.911643	0.005494
526.128014	0.006392
526.344367	0.007397
526.560702	0.007851
526.777018	0.006398
526.993316	0.006957
527.209597	0.007950
527.425858	0.008019
527.642102	0.008284
527.858328	0.008033
528.074535	0.008308
528.290724	0.008229
528.506894	0.007858
528.723047	0.008801
528.939181	0.008223
529.155297	0.007494
529.371395	0.007229
529.587475	0.006907
529.803536	0.006165
530.019579	0.006102
530.235604	0.006222
530.451611	0.005885
530.667600	0.005340
530.883570	0.005861
531.099522	0.005413
531.315456	0.005050
531.531372	0.004501
531.747269	0.004891
531.963148	0.004853
532.179009	0.004375
532.394852	0.004989
532.610676	0.004466
532.826482	0.004666
533.042271	0.005055
533.258040	0.005510
533.473792	0.004994
533.689525	0.005846
533.905240	0.005713
534.120937	0.004474
534.336616	0.004337
534.552277	0.005457
534.767919	0.004459
534.983543	0.004858
535.199149	0.005101
535.414736	0.005859
535.630306	0.005149
535.845857	0.005349
536.061390	0.007159
536.276904	0.007060
536.492401	0.007134
536.707879	0.008112
536.923339	0.009296
537.138781	0.009748
537.354204	0.010523
537.569610	0.010050
537.784997	0.010442
538.000366	0.009233
538.215716	0.008196
538.431049	0.007766
538.646363	0.007177
538.861659	0.007082
539.076937	0.006702
539.292196	0.006117
539.507438	0.006648
539.722661	0.006150
539.937866	0.006875
540.153052	0.008131
540.368221	0.008339
540.583371	0.008775
540.798503	0.007604
541.013617	0.007766
541.228712	0.007406
541.443789	0.007524
541.658848	0.006989
541.873889	0.006464
542.088912	0.006517
542.303916	0.006271
542.518902	0.006138
542.733870	0.006142
542.948820	0.005804
543.163752	0.006304
543.378665	0.006008
543.593560	0.006270
543.808437	0.006858
544.023295	0.006098
544.238136	0.005928
544.452958	0.005836
544.667762	0.006231
544.882548	0.006581
545.097315	0.006505
545.312064	0.006787
545.526795	0.007264
545.741508	0.007288
545.956203	0.007754
546.170879	0.007900
546.385537	0.007611
546.600177	0.007864
546.814799	0.007222
547.029402	0.006871
547.243988	0.007464
547.458555	0.007175
547.673103	0.006799
547.887634	0.007256
548.102146	0.007484
548.316640	0.007714
548.531116	0.006969
548.745574	0.007173
548.960013	0.007919
549.174435	0.007237
549.388838	0.007023
549.603222	0.007083
549.817589	0.006108
550.031937	0.005369
550.246267	0.005189
550.460579	0.005604
550.674873	0.005860
550.889148	0.005627
551.103405	0.005649
551.317644	0.005754
551.531865	0.006048
551.746068	0.006229
551.960252	0.006474
552.174418	0.006661
552.388566	0.005689
552.602696	0.005396
552.816807	0.004739
553.030900	0.004224
553.244975	0.004468
553.459032	0.004029
553.673070	0.004351
553.887091	0.004847
554.101093	0.004654
554.315077	0.005517
554.529042	0.005803
554.742990	0.006325
554.956919	0.006550
555.170830	0.006114
555.384722	0.006394
555.598597	0.006522
555.812453	0.006047
556.026291	0.005906
556.240111	0.005845
556.453913	0.005579
556.667696	0.004960
556.881461	0.004502
557.095208	0.004922
557.308937	0.004382
557.522647	0.004335
557.736339	0.004466
557.950013	0.005200
558.163669	0.005123
558.377307	0.005325
558.590926	0.005807
558.804527	0.006519
559.018110	0.006571
559.231675	0.006876
559.445221	0.006966
559.658749	0.007282
559.872259	0.006877
560.085751	0.007018
560.299225	0.007208
560.512680	0.006567
560.726117	0.006423
560.939536	0.006247
561.152937	0.006318
561.366319	0.006790
561.579683	0.006275
561.793029	0.006243
562.006357	0.006431
562.219667	0.005841
562.432958	0.006666
562.646231	0.006488
562.859486	0.006582
563.072723	0.006363
563.285941	0.005677
563.499141	0.006002
563.712323	0.005750
563.925487	0.005406
564.138632	0.005737
564.351760	0.004680
564.564869	0.005209
564.777960	0.005405
564.991032	0.006107
565.204087	0.006095
565.417123	0.005759
565.630141	0.006029
565.843140	0.005945
566.056122	0.005659
566.269085	0.006311
566.482030	0.005657
566.694957	0.005068
566.907866	0.004787
567.120756	0.004459
567.333628	0.004527
567.546482	0.004439
567.759318	0.004216
567.972135	0.004577
568.184935	0.004723
568.397716	0.004983
568.610478	0.005346
568.823223	0.004880
569.035949	0.005285
569.248657	0.005693
569.461347	0.005939
569.674019	0.006826
569.886672	0.006982
570.099308	0.007065
570.311925	0.007819
570.524523	0.007606
570.737104	0.008108
570.949666	0.008375
571.162210	0.007689
571.374736	0.007472
571.587244	0.006584
571.799733	0.006009
572.012205	0.005634
572.224658	0.004953
572.437092	0.005165
572.649509	0.005232
572.861907	0.004848
573.074287	0.004908
573.286649	0.004897
573.498993	0.004958
573.711318	0.005056
573.923625	0.005382
574.135914	0.005290
574.348185	0.005346
574.560438	0.004815
574.772672	0.004689
574.984888	0.005118
575.197086	0.004821
575.409266	0.004675
575.621427	0.004991
575.833570	0.004948
576.045695	0.004700
576.257802	0.004808
576.469890	0.005254
576.681961	0.005138
576.894013	0.004694
577.106046	0.004536
577.318062	0.004861
577.530059	0.004577
577.742039	0.004536
577.954000	0.004759
578.165942	0.004447
578.377867	0.004492
578.589773	0.004997
578.801661	0.005543
579.013531	0.005294
579.225382	0.005180
579.437216	0.005029
579.649031	0.004904
579.860828	0.004957
580.072606	0.004979
580.284367	0.004842
580.496109	0.004854
580.707833	0.004535
580.919539	0.005230
581.131227	0.005461
581.342896	0.005678
581.554547	0.005605
581.766180	0.005558
581.977795	0.005328
582.189391	0.005548
582.400969	0.005537
582.612529	0.005925
582.824071	0.005898
583.035595	0.005435
583.247100	0.005689
583.458587	0.005688
583.670056	0.005402
583.881506	0.005589
584.092939	0.005243
584.304353	0.005070
584.515749	0.004556
584.727127	0.004569
584.938486	0.004753
585.149828	0.004254
585.361151	0.004515
585.572456	0.004938
585.783742	0.005222
585.995011	0.005710
586.206261	0.005574
586.417493	0.006037
586.628706	0.005858
586.839902	0.006192
587.051079	0.006331
587.262238	0.006060
587.473379	0.006205
587.684502	0.006454
587.895606	0.005631
588.106692	0.006176
588.317760	0.005997
588.528810	0.006155
588.739841	0.006106
588.950855	0.005894
589.161850	0.005577
589.372827	0.005067
589.583785	0.004385
589.794726	0.005049
590.005648	0.004272
590.216552	0.004234
590.427437	0.003752
590.638305	0.003386
590.849154	0.003741
591.059985	0.004293
591.270798	0.004668
591.481592	0.004782
591.692369	0.004469
591.903127	0.004498
592.113867	0.004760
592.324588	0.004901
592.535292	0.005268
592.745977	0.005132
592.956644	0.004535
593.167293	0.004308
593.377923	0.004270
593.588536	0.004463
593.799130	0.004692
594.009706	0.004464
594.220263	0.004745
594.430803	0.004679
594.641324	0.004434
594.851827	0.004566
595.062312	0.004914
595.272778	0.004781
595.483227	0.004265
595.693657	0.004329
595.904069	0.003801
596.114462	0.003982
596.324838	0.003961
596.535195	0.004026
596.745534	0.004195
596.955855	0.003865
597.166157	0.003882
597.376441	0.004019
597.586707	0.004075
597.796955	0.004477
598.007185	0.004367
598.217396	0.004172
598.427589	0.004379
598.637764	0.004498
598.847921	0.004604
599.058060	0.004981
599.268180	0.005006
599.478282	0.004894
599.688366	0.005018
599.898431	0.005077
600.108479	0.005279
600.318508	0.004998
600.528519	0.004784
600.738511	0.004806
600.948486	0.004706
601.158442	0.004439
601.368380	0.004269
601.578300	0.003941
601.788202	0.003549
601.998085	0.003414
602.207950	0.003814
602.417797	0.003807
602.627626	0.003620
602.837436	0.003107
603.047228	0.003088
603.257002	0.002882
603.466758	0.003069
603.676496	0.003262
603.886215	0.003192
604.095916	0.002838
604.305599	0.002826
604.515264	0.002974
604.724910	0.003257
604.934538	0.003473
605.144148	0.003594
605.353740	0.004015
605.563314	0.004170
605.772869	0.004161
605.982406	0.004638
606.191925	0.004856
606.401425	0.004906
606.610908	0.004857
606.820372	0.004526
607.029818	0.004827
607.239246	0.004176
607.448655	0.004073
607.658047	0.004159
607.867420	0.003912
608.076775	0.003755
608.286111	0.003841
608.495430	0.004140
608.704730	0.004894
608.914012	0.004993
609.123275	0.005076
609.332521	0.004658
609.541748	0.004557
609.750957	0.004751
609.960148	0.004896
610.169321	0.004465
610.378475	0.004430
610.587611	0.003886
610.796729	0.003804
611.005829	0.003735
611.214910	0.003803
611.423974	0.003794
611.633019	0.003230
611.842045	0.002895
612.051054	0.002732
612.260044	0.002483
612.469017	0.002378
612.677970	0.002114
612.886906	0.002191
613.095824	0.002281
613.304723	0.002137
613.513604	0.002119
613.722467	0.002335
613.931311	0.002656
614.140138	0.002792
614.348946	0.002973
614.557736	0.003183
614.766507	0.003410
614.975261	0.003515
615.183996	0.003663
615.392713	0.003587
615.601412	0.003732
615.810092	0.003659
616.018754	0.003702
616.227399	0.003815
616.436024	0.003520
616.644632	0.003239
616.853222	0.003208
617.061793	0.003270
617.270346	0.003507
617.478880	0.003473
617.687397	0.003578
617.895895	0.003197
618.104375	0.003466
618.312837	0.003481
618.521281	0.003857
618.729706	0.003717
618.938113	0.003818
619.146502	0.003920
619.354873	0.004054
619.563226	0.003875
619.771560	0.003878
619.979876	0.003399
620.188174	0.003585
620.396453	0.003299
620.604715	0.003480
620.812958	0.003242
621.021183	0.003371
621.229390	0.003309
621.437578	0.003432
621.645748	0.003853
621.853900	0.004121
622.062034	0.003991
622.270150	0.003758
622.478247	0.003834
622.686326	0.004005
622.894387	0.004088
623.102430	0.003843
623.310454	0.004147
623.518461	0.004056
623.726449	0.003899
623.934418	0.004005
624.142370	0.004248
624.350303	0.003975
624.558218	0.004098
624.766115	0.004151
624.973994	0.004366
625.181855	0.004093
625.389697	0.004198
625.597521	0.004249
625.805327	0.004091
626.013114	0.004010
626.220883	0.004196
626.428634	0.003855
626.636367	0.003704
626.844082	0.003488
627.051778	0.003504
627.259457	0.003443
627.467117	0.003855
627.674758	0.004169
627.882382	0.004246
628.089987	0.004388
628.297574	0.004449
628.505143	0.004270
628.712694	0.004646
628.920226	0.004710
629.127740	0.004536
629.335236	0.004123
629.542714	0.004007
629.750174	0.003835
629.957615	0.003725
630.165038	0.003817
630.372443	0.003855
630.579829	0.003766
630.787198	0.003643
630.994548	0.003855
631.201880	0.003761
631.409194	0.003458
631.616489	0.003581
631.823766	0.003657
632.031025	0.003979
632.238266	0.003795
632.445489	0.003615
632.652693	0.003588
632.859879	0.003471
633.067047	0.003692
633.274197	0.003820
633.481329	0.003753
633.688442	0.003799
633.895537	0.003668
634.102614	0.004232
634.309672	0.004215
634.516713	0.004352
634.723735	0.004299
634.930739	0.004099
635.137724	0.004346
635.344692	0.004441
635.551641	0.004463
635.758572	0.004423
635.965485	0.004035
636.172379	0.004134
636.379256	0.004298
636.586114	0.004298
636.792954	0.004485
636.999775	0.004344
637.206579	0.004113
637.413364	0.003737
637.620131	0.003710
637.826880	0.003762
638.033610	0.003459
638.240323	0.003331
638.447017	0.003406
638.653692	0.003490
638.860350	0.003335
639.066990	0.003386
639.273611	0.003783
639.480214	0.003695
639.686798	0.003836
639.893365	0.003915
640.099913	0.003546
640.306443	0.003595
640.512955	0.003402
640.719449	0.003524
640.925924	0.003520
641.132381	0.003339
641.338820	0.003404
641.545241	0.003109
641.751644	0.002837
641.958028	0.003438
642.164394	0.003076
642.370742	0.002880
642.577071	0.002945
642.783383	0.002982
642.989676	0.002919
643.195951	0.002708
643.402207	0.002731
643.608446	0.002936
643.814666	0.002224
644.020868	0.002357
644.227052	0.002283
644.433218	0.002266
644.639365	0.002407
644.845494	0.002378
645.051605	0.002331
645.257698	0.002210
645.463772	0.002248
645.669828	0.002518
645.875866	0.002512
646.081886	0.002652
646.287888	0.002500
646.493871	0.002470
646.699836	0.002420
646.905783	0.002446
647.111712	0.002507
647.317622	0.002537
647.523514	0.002706
647.729388	0.002860
647.935244	0.003053
648.141082	0.003296
648.346901	0.003337
648.552702	0.003371
648.758485	0.003636
648.964250	0.003780
649.169996	0.003774
649.375724	0.003606
649.581434	0.003779
649.787126	0.003782
649.992800	0.003557
650.198455	0.003798
650.404092	0.003734
650.609711	0.003758
650.815311	0.003720
651.020894	0.003813
651.226458	0.003874
651.432004	0.003565
651.637532	0.003708
651.843041	0.003968
652.048532	0.003617
652.254006	0.004104
652.459460	0.004063
652.664897	0.004189
652.870315	0.004371
653.075716	0.004721
653.281097	0.004850
653.486461	0.004421
653.691807	0.004408
653.897134	0.004432
654.102443	0.004077
654.307734	0.004223
654.513006	0.004125
654.718261	0.003974
654.923497	0.003344
655.128715	0.003259
655.333915	0.003524
655.539096	0.003216
655.744259	0.003138
655.949404	0.003125
656.154531	0.002705
656.359640	0.002656
656.564730	0.002501
656.769802	0.002792
656.974856	0.002841
657.179892	0.002872
657.384909	0.003071
657.589908	0.002894
657.794889	0.002983
657.999852	0.003253
658.204797	0.003099
658.409723	0.003078
658.614631	0.003146
658.819521	0.003240
659.024393	0.003043
659.229246	0.002749
659.434081	0.002925
659.638898	0.002662
659.843697	0.002484
660.048478	0.002746
660.253240	0.002775
660.457984	0.002645
660.662710	0.002554
660.867417	0.002537
661.072107	0.002829
661.276778	0.002946
661.481431	0.003268
661.686066	0.003344
661.890682	0.003143
662.095281	0.003408
662.299861	0.003628
662.504422	0.003629
662.708966	0.003858
662.913491	0.003911
663.117999	0.004016
663.322488	0.004315
663.526958	0.004495
663.731411	0.004627
663.935845	0.004452
664.140261	0.004384
664.344659	0.004445
664.549038	0.004311
664.753400	0.004194
664.957743	0.003862
665.162068	0.003609
665.366375	0.003383
665.570663	0.003215
665.774933	0.003198
665.979185	0.003066
666.183419	0.002732
666.387635	0.002879
666.591832	0.002806
666.796011	0.003154
667.000172	0.003023
667.204315	0.002890
667.408439	0.002769
667.612545	0.002761
667.816634	0.003064
668.020703	0.003306
668.224755	0.003368
668.428788	0.003303
668.632803	0.003087
668.836800	0.003285
669.040779	0.003492
669.244739	0.003842
669.448681	0.004048
669.652605	0.003761
669.856511	0.003691
670.060399	0.003423
670.264268	0.003560
670.468119	0.003656
670.671952	0.003312
670.875767	0.003359
671.079563	0.003135
671.283341	0.002836
671.487101	0.002858
671.690843	0.002695
671.894567	0.002565
672.098272	0.002546
672.301959	0.002424
672.505628	0.002463
672.709278	0.002406
672.912911	0.002786
673.116525	0.003019
673.320121	0.003043
673.523699	0.003418
673.727258	0.003492
673.930799	0.003661
674.134322	0.003624
674.337827	0.003601
674.541314	0.003523
674.744782	0.003472
674.948232	0.003357
675.151664	0.003534
675.355078	0.003352
675.558474	0.003467
675.761851	0.003085
675.965210	0.003171
676.168551	0.003458
676.371873	0.003557
676.575178	0.003298
676.778464	0.003214
676.981732	0.003150
677.184981	0.003249
677.388213	0.003130
677.591426	0.003177
677.794621	0.003237
677.997798	0.003141
678.200956	0.002827
678.404097	0.002829
678.607219	0.002904
678.810323	0.002713
679.013408	0.002614
679.216476	0.002576
679.419525	0.002688
679.622556	0.002790
679.825569	0.002513
680.028563	0.002827
680.231540	0.002700
680.434498	0.002673
680.637438	0.002705
680.840359	0.002704
681.043263	0.002916
681.246148	0.002945
681.449015	0.002732
681.651864	0.002859
681.854694	0.002811
682.057506	0.003162
682.260301	0.003102
682.463076	0.003091
682.665834	0.003053
682.868573	0.003131
683.071295	0.003348
683.273998	0.003498
683.476682	0.003653
683.679349	0.003560
683.881997	0.003344
684.084627	0.003367
684.287239	0.003562
684.489833	0.003591
684.692408	0.003400
684.894965	0.003096
685.097504	0.002838
685.300025	0.002641
685.502527	0.002699
685.705012	0.002675
685.907478	0.002701
686.109925	0.002545
686.312355	0.002480
686.514766	0.002764
686.717159	0.002804
686.919534	0.002820
687.121891	0.002822
687.324230	0.002672
687.526550	0.002845
687.728852	0.002838
687.931136	0.002641
688.133401	0.002810
688.335649	0.002679
688.537878	0.002456
688.740089	0.002669
688.942281	0.002733
689.144456	0.002652
689.346612	0.002630
689.548750	0.002647
689.750870	0.002902
689.952971	0.002744
690.155055	0.002386
690.357120	0.002615
690.559167	0.002637
690.761195	0.002441
690.963206	0.002391
691.165198	0.002068
691.367172	0.002040
691.569128	0.001514
691.771065	0.001596
691.972984	0.001845
692.174885	0.002024
692.376768	0.001724
692.578633	0.001890
692.780479	0.002006
692.982308	0.002479
693.184118	0.002275
693.385909	0.002828
693.587683	0.002989
693.789438	0.002912
693.991175	0.002917
694.192894	0.003302
694.394595	0.003177
694.596277	0.003360
694.797941	0.003189
694.999587	0.003433
695.201215	0.003471
695.402824	0.003086
695.604416	0.003055
695.805989	0.002791
696.007543	0.002737
696.209080	0.002990
696.410598	0.002810
696.612099	0.002593
696.813580	0.002594
697.015044	0.002357
697.216490	0.002357
697.417917	0.002356
697.619326	0.002404
697.820717	0.002186
698.022089	0.001909
698.223444	0.002133
698.424780	0.002205
698.626098	0.002066
698.827397	0.002153
699.028679	0.002562
699.229942	0.002471
699.431187	0.002483
699.632414	0.002471
699.833622	0.002624
700.034813	0.002549
700.235985	0.002621
700.437139	0.002713
700.638274	0.002628
700.839392	0.002290
701.040491	0.002463
701.241572	0.002352
701.442635	0.002433
701.643679	0.002240
701.844706	0.002564
702.045714	0.002475
702.246704	0.002426
702.447675	0.002447
702.648629	0.002707
702.849564	0.002812
703.050481	0.003088
703.251380	0.002996
703.452260	0.003338
703.653122	0.002879
703.853966	0.003219
704.054792	0.003297
704.255600	0.003385
704.456389	0.003359
704.657160	0.003279
704.857913	0.003212
705.058648	0.003188
705.259365	0.002949
705.460063	0.002996
705.660743	0.002564
705.861405	0.002642
706.062048	0.002416
706.262674	0.002245
706.463281	0.002280
706.663870	0.002302
706.864441	0.002358
707.064993	0.002358
707.265527	0.002363
707.466043	0.002547
707.666541	0.002205
707.867021	0.002533
708.067482	0.002600
708.267925	0.002519
708.468350	0.002393
708.668757	0.002467
708.869145	0.002465
709.069516	0.002524
709.269868	0.002671
709.470201	0.002872
709.670517	0.002709
709.870814	0.002736
710.071093	0.002773
710.271354	0.002753
710.471597	0.002694
710.671821	0.002439
710.872028	0.002423
711.072216	0.002329
711.272385	0.002362
711.472537	0.002443
711.672670	0.002285
711.872785	0.002361
712.072882	0.002195
712.272961	0.002258
712.473021	0.003032
712.673063	0.003214
712.873087	0.002982
713.073093	0.003130
713.273081	0.003116
713.473050	0.003246
713.673001	0.003215
713.872934	0.003357
714.072849	0.003548
714.272745	0.003185
714.472623	0.003044
714.672483	0.003473
714.872325	0.003435
715.072148	0.003499
715.271954	0.003449
715.471741	0.003196
715.671509	0.003050
715.871260	0.002828
716.070992	0.002794
716.270707	0.002863
716.470403	0.002507
716.670080	0.002311
716.869740	0.002021
717.069381	0.002122
717.269004	0.002380
717.468609	0.002685
717.668195	0.002706
717.867764	0.002467
718.067314	0.002434
718.266846	0.002740
718.466360	0.002869
718.665855	0.002839
718.865332	0.002653
719.064791	0.002304
719.264232	0.001963
719.463655	0.001864
719.663059	0.001886
719.862445	0.001748
720.061813	0.001556
720.261163	0.001314
720.460494	0.001478
720.659807	0.001630
720.859102	0.001930
721.058379	0.002291
721.257638	0.002265
721.456878	0.002425
721.656100	0.002582
721.855304	0.002560
722.054490	0.002705
722.253657	0.002763
722.452806	0.002817
722.651937	0.002709
722.851050	0.002542
723.050145	0.002652
723.249221	0.002530
723.448279	0.002561
723.647319	0.002365
723.846340	0.002287
724.045344	0.002082
724.244329	0.001991
724.443296	0.001912
724.642245	0.001752
724.841175	0.001826
725.040088	0.001852
725.238982	0.001753
725.437857	0.001852
725.636715	0.001949
725.835554	0.002003
726.034376	0.001754
726.233179	0.001817
726.431963	0.001970
726.630730	0.001994
726.829478	0.001934
727.028208	0.001724
727.226920	0.001654
727.425614	0.001687
727.624289	0.001710
727.822946	0.001861
728.021585	0.001856
728.220206	0.001687
728.418808	0.001544
728.617392	0.001737
728.815958	0.001671
729.014506	0.001788
729.213036	0.001664
729.411547	0.001710
729.610040	0.001493
729.808515	0.001444
730.006972	0.001561
730.205410	0.001554
730.403831	0.001292
730.602233	0.001508
730.800616	0.001207
730.998982	0.001235
731.197329	0.001184
731.395658	0.001189
731.593969	0.001265
731.792262	0.001131
731.990536	0.001161
732.188793	0.001080
732.387031	0.000801
732.585250	0.001069
732.783452	0.001158
732.981635	0.001423
733.179800	0.001737
733.377947	0.001640
733.576076	0.001356
733.774186	0.001155
733.972278	0.001407
734.170352	0.001480
734.368408	0.001490
734.566446	0.001242
734.764465	0.000714
734.962466	0.000814
735.160449	0.000920
735.358413	0.001078
735.556360	0.000989
735.754288	0.000802
735.952198	0.000749
736.150090	0.000442
736.347963	0.000244
736.545818	0.000481
736.743655	-0.000019
736.941474	-0.000208
737.139275	-0.000086
737.337057	0.000065
737.534821	-0.000072
737.732567	-0.000147
737.930295	-0.000072
738.128005	0.000240
738.325696	0.000134
738.523369	0.000185
738.721024	0.000299
738.918660	0.000399
739.116279	0.000148
739.313879	0.000258
739.511461	0.000349
739.709024	0.000509
739.906570	0.000301
740.104097	0.000402
740.301606	0.000506
740.499097	0.000238
740.696569	0.000289
740.894024	0.000557
741.091460	0.000542
741.288878	0.000664
741.486277	0.000329
741.683659	0.000401
741.881022	0.000133
742.078367	0.000228
742.275694	0.000354
742.473002	0.000173
742.670293	0.000277
742.867565	0.000330
743.064819	0.000201
743.262054	0.000766
743.459272	0.001059
743.656471	0.001297
743.853652	0.001369
744.050815	0.001208
744.247959	0.001459
744.445085	0.001267
744.642194	0.001143
744.839283	0.001118
745.036355	0.000661
745.233408	0.000424
745.430444	0.000621
745.627461	0.000799
745.824459	0.001051
746.021440	0.000978
746.218402	0.000802
746.415346	0.000963
746.612272	0.000966
746.809180	0.000882
747.006069	0.000634
747.202940	0.000285
747.399793	-0.000138
747.596628	0.000074
747.793444	-0.000150
747.990243	-0.000054
748.187023	-0.000034
748.383784	-0.000089
748.580528	0.000062
748.777253	0.000456
748.973960	0.000504
749.170649	0.000590
749.367320	0.000623
749.563973	0.000932
749.760607	0.001271
749.957223	0.001217
750.153821	0.001420
750.350400	0.001552
750.546962	0.001539
750.743505	0.001795
750.940030	0.001401
751.136536	0.001087
751.333025	0.000872
751.529495	0.000766
751.725947	0.000903
751.922381	0.000736
752.118796	0.000711
752.315194	0.000644
752.511573	0.000398
752.707934	0.000748
752.904276	0.000761
753.100601	0.000674
753.296907	0.000563
753.493195	0.000322
753.689465	0.000556
753.885716	0.000683
754.081949	0.000654
754.278164	0.000711
754.474361	0.000673
754.670540	0.000720
754.866700	0.001029
755.062843	0.001092
755.258967	0.001398
755.455072	0.001350
755.651160	0.001572
755.847229	0.001571
756.043280	0.001408
756.239313	0.001306
756.435328	0.001305
756.631324	0.001212
756.827302	0.001200
757.023262	0.000935
757.219204	0.000758
757.415127	0.000405
757.611033	0.000521
757.806920	0.000897
758.002788	0.001073
758.198639	0.001088
758.394471	0.000959
758.590286	0.001057
758.786081	0.001232
758.981859	0.001534
759.177619	0.001625
759.373360	0.001813
759.569083	0.001621
759.764788	0.001615
759.960474	0.001731
760.156143	0.001848
760.351793	0.001649
760.547425	0.001735
760.743038	0.001722
760.938634	0.001772
761.134211	0.001498
761.329770	0.001844
761.525311	0.002096
761.720833	0.001988
761.916338	0.001908
762.111824	0.002291
762.307292	0.002195
762.502741	0.001978
762.698173	0.002079
762.893586	0.002060
763.088981	0.001856
763.284358	0.001776
763.479716	0.001858
763.675057	0.002122
763.870379	0.002051
764.065683	0.002351
764.260968	0.002525
764.456236	0.002335
764.651485	0.002524
764.846716	0.002672
765.041929	0.002688
765.237123	0.002855
765.432299	0.002728
765.627457	0.002731
765.822597	0.002682
766.017719	0.002950
766.212822	0.003017
766.407907	0.002981
766.602974	0.002888
766.798023	0.002887
766.993054	0.002776
767.188066	0.003001
767.383060	0.002871
767.578036	0.002325
767.772993	0.001930
767.967933	0.002083
768.162854	0.001738
768.357757	0.001661
768.552642	0.002023
768.747508	0.002044
768.942356	0.001635
769.137186	0.001510
769.331998	0.001999
769.526792	0.002160
769.721567	0.002181
769.916324	0.002680
770.111063	0.002697
770.305784	0.002478
770.500486	0.002616
770.695171	0.002602
770.889837	0.003005
771.084484	0.003076
771.279114	0.003129
771.473725	0.003066
771.668318	0.002951
771.862893	0.003149
772.057450	0.003296
772.251988	0.002958
772.446509	0.003359
772.641011	0.003382
772.835494	0.003233
773.029960	0.003228
773.224407	0.003453
773.418836	0.003165
773.613247	0.002701
773.807640	0.002411
774.002014	0.002545
774.196370	0.002533
774.390708	0.002146
774.585028	0.002017
774.779330	0.002253
774.973613	0.001601
775.167878	0.001857
775.362125	0.002042
775.556354	0.002208
775.750564	0.002258
775.944756	0.001991
776.138930	0.002052
776.333086	0.002154
776.527223	0.001655
776.721343	0.002091
776.915444	0.001970
777.109526	0.001823
777.303591	0.001470
777.497637	0.001423
777.691666	0.001648
777.885676	0.002016
778.079667	0.002029
778.273641	0.002023
778.467596	0.001752
778.661533	0.001747
778.855452	0.002084
779.049352	0.002441
779.243235	0.002641
779.437099	0.002550
779.630945	0.002393
779.824773	0.002507
780.018582	0.002806
780.212373	0.002944
780.406146	0.003010
780.599901	0.003063
780.793638	0.003217
780.987356	0.003451
781.181056	0.003467
781.374738	0.003319
781.568402	0.003404
781.762047	0.003505
781.955674	0.003830
782.149283	0.004044
782.342874	0.003987
782.536447	0.003380
782.730001	0.003310
782.923537	0.003230
783.117055	0.003207
783.310555	0.003033
783.504036	0.002905
783.697499	0.002854
783.890944	0.002898
784.084371	0.002586
784.277780	0.002950
784.471170	0.002839
784.664542	0.003009
784.857896	0.003297
785.051231	0.003313
785.244549	0.003407
785.437848	0.003477
785.631129	0.002976
785.824392	0.003353
786.017636	0.003407
786.210863	0.003345
786.404071	0.003205
786.597260	0.002939
786.790432	0.002982
786.983585	0.002924
787.176721	0.002893
787.369838	0.003196
787.562936	0.003063
787.756017	0.002980
787.949079	0.003161
788.142123	0.003097
788.335149	0.002977
788.528156	0.002966
788.721146	0.003119
788.914117	0.002966
789.107070	0.002984
789.300005	0.003057
789.492921	0.003138
789.685819	0.002783
789.878699	0.003024
790.071561	0.003301
790.264405	0.003150
790.457230	0.002986
790.650037	0.002810
790.842826	0.002895
791.035597	0.002782
791.228349	0.002515
791.421084	0.002468
791.613800	0.002117
791.806497	0.001713
791.999177	0.002246
792.191838	0.001972
792.384481	0.002085
792.577106	0.002113
792.769713	0.002031
792.962301	0.001741
793.154871	0.001830
793.347423	0.001840
793.539957	0.002076
793.732473	0.001442
793.924970	0.001639
794.117449	0.001293
794.309910	0.001071
794.502353	0.001014
794.694777	0.001430
794.887183	0.001309
795.079571	0.001298
795.271941	0.001428
795.464293	0.001713
795.656626	0.001678
795.848941	0.001929
796.041238	0.002197
796.233516	0.002391
796.425777	0.002623
796.618019	0.002906
796.810243	0.003093
797.002449	0.003016
797.194636	0.003008
797.386805	0.003390
797.578956	0.003477
797.771089	0.003226
797.963204	0.003247
798.155300	0.003193
798.347378	0.002902
798.539438	0.003053
798.731480	0.002877
798.923503	0.002816
799.115509	0.002773
799.307496	0.002572
799.499465	0.002678
799.691415	0.002689
799.883348	0.002639
800.075262	0.002753
800.267158	0.002490
800.459035	0.002739
800.650895	0.002594
800.842736	0.002412
801.034559	0.002703
801.226364	0.002618
801.418150	0.002602
801.609919	0.002709
801.801669	0.002696
801.993401	0.002692
802.185114	0.002476
802.376810	0.002515
802.568487	0.002654
802.760146	0.002600
802.951787	0.002575
803.143409	0.002641
803.335014	0.002562
803.526600	0.002657
803.718168	0.002806
803.909717	0.003010
804.101249	0.003279
804.292762	0.003307
804.484257	0.003162
804.675734	0.003079
804.867192	0.003355
805.058632	0.003325
805.250054	0.003004
805.441458	0.003027
805.632844	0.002846
805.824211	0.002584
806.015561	0.002360
806.206891	0.002318
806.398204	0.002627
806.589499	0.002241
806.780775	0.002204
806.972033	0.002538
807.163273	0.002823
807.354495	0.003023
807.545698	0.003365
807.736883	0.003268
807.928050	0.003483
808.119199	0.003246
808.310329	0.003485
808.501441	0.003602
808.692535	0.003712
808.883611	0.003724
809.074669	0.003494
809.265708	0.003077
809.456729	0.002947
809.647732	0.002817
809.838717	0.002802
810.029683	0.002294
810.220632	0.001960
810.411562	0.001672
810.602474	0.001304
810.793367	0.001822
810.984242	0.001936
811.175100	0.002234
811.365938	0.002472
811.556759	0.002469
811.747562	0.002882
811.938346	0.003001
812.129112	0.003024
812.319860	0.003020
812.510589	0.002738
812.701300	0.002961
812.891994	0.002716
813.082668	0.002403
813.273325	0.002574
813.463964	0.002186
813.654584	0.002286
813.845186	0.002210
814.035769	0.001842
814.226335	0.001849
814.416882	0.001701
814.607411	0.001807
814.797922	0.001882
814.988415	0.001848
815.178889	0.001947
815.369345	0.001602
815.559783	0.001534
815.750203	0.002036
815.940605	0.001755
816.130988	0.001615
816.321353	0.001691
816.511700	0.001767
816.702028	0.001590
816.892339	0.001651
817.082631	0.002108
817.272905	0.002195
817.463161	0.002300
817.653398	0.002548
817.843617	0.002712
818.033819	0.002632
818.224001	0.002575
818.414166	0.002544
818.604312	0.002740
818.794440	0.002408
818.984550	0.002412
819.174642	0.001999
819.364716	0.001850
819.554771	0.001789
819.744808	0.001571
819.934827	0.001264
820.124827	0.001581
820.314810	0.001173
820.504774	0.000978
820.694720	0.001104
820.884647	0.001157
821.074557	0.001025
821.264448	0.000739
821.454321	0.000897
821.644176	0.001153
821.834012	0.000995
822.023831	0.001180
822.213631	0.001360
822.403413	0.001270
822.593176	0.001068
822.782922	0.001305
822.972649	0.001528
823.162358	0.001567
823.352049	0.001459
823.541721	0.001156
823.731376	0.001058
823.921012	0.000652
824.110629	0.000331
824.300229	0.000238
824.489811	-0.000208
824.679374	-0.000259
824.868919	-0.000346
825.058445	-0.000177
825.247954	-0.000180
825.437444	-0.000157
825.626916	0.000211
825.816370	0.000337
826.005806	0.000332
826.195223	0.000657
826.384622	0.000736
826.574003	0.000810
826.763366	0.000475
826.952711	0.000785
827.142037	0.000624
827.331345	0.000514
827.520635	0.000707
827.709906	0.000942
827.899160	0.000815
828.088395	0.000572
828.277612	0.000360
828.466810	0.000554
828.655991	0.000270
828.845153	0.000349
829.034297	0.000335
829.223423	0.000322
829.412531	0.000012
829.601620	-0.000081
829.790691	0.000098
829.979744	-0.000025
830.168779	-0.000062
830.357795	-0.000096
830.546793	-0.000104
830.735773	-0.000137
830.924735	-0.000427
831.113679	-0.000324
831.302604	-0.000586
831.491511	-0.001016
831.680400	-0.001068
831.869271	-0.001192
832.058123	-0.000854
832.246957	-0.001041
832.435773	-0.000774
832.624571	-0.000698
832.813351	-0.000566
833.002112	0.000064
833.190855	0.000507
833.379580	0.000747
833.568287	0.000673
833.756975	0.000498
833.945645	0.000757
834.134297	0.000470
834.322931	0.000353
834.511547	0.000431
834.700144	0.000125
834.888723	-0.000165
835.077284	-0.000293
835.265826	-0.000082
835.454351	-0.000002
835.642857	0.000018
835.831345	0.000316
836.019815	0.000433
836.208266	0.000310
836.396699	0.000205
836.585114	0.000460
836.773511	0.000703
836.961890	0.000515
837.150250	0.000327
837.338592	0.000370
837.526916	0.000072
837.715222	0.000307
837.903510	0.000538
838.091779	0.000970
838.280030	0.000871
838.468263	0.000724
838.656477	0.000683
838.844674	0.000499
839.032852	0.000411
839.221012	0.000637
839.409153	0.000423
839.597277	0.000220
839.785382	-0.000003
839.973469	0.000194
840.161538	-0.000407
840.349589	-0.000214
840.537621	-0.000104
840.725635	-0.000589
840.913631	-0.000718
841.101609	-0.001067
841.289568	-0.001276
841.477509	-0.001525
841.665432	-0.001548
841.853337	-0.000996
842.041224	-0.000884
842.229092	-0.000400
842.416942	0.000315
842.604774	0.000328
842.792588	0.000700
842.980383	0.001067
843.168160	0.001402
843.355919	0.001180
843.543660	0.001098
843.731382	0.001239
843.919087	0.000939
844.106773	0.000795
844.294441	0.000957
844.482090	0.000797
844.669722	0.000728
844.857335	0.000358
845.044930	0.000370
845.232507	0.000640
845.420065	0.000373
845.607605	0.000257
845.795127	0.000372
845.982631	0.000407
846.170117	0.000319
846.357584	0.000982
846.545033	0.001141
846.732464	0.001054
846.919877	0.000936
847.107272	0.001090
847.294648	0.001177
847.482006	0.001317
847.669346	0.001383
847.856667	0.001413
848.043971	0.000899
848.231256	0.000722
848.418523	0.001150
848.605771	0.001098
848.793002	0.001082
848.980214	0.001393
849.167408	0.001181
849.354584	0.000971
849.541742	0.001294
849.728881	0.001573
849.916002	0.001654
850.103105	0.001589
850.290190	0.001877
850.477256	0.001702
850.664304	0.001183
850.851334	0.000977
851.038346	0.000884
851.225340	0.000454
851.412315	-0.000129
851.599272	0.000041
851.786211	-0.000213
851.973132	-0.000417
852.160034	-0.000383
852.346918	-0.000427
852.533784	-0.000336
852.720632	-0.000205
852.907462	0.000216
853.094273	0.000644
853.281066	0.000536
853.467841	0.000479
853.654598	0.000478
853.841336	0.000338
854.028056	0.000079
854.214758	0.000294
854.401442	0.000337
854.588107	0.000492
854.774755	0.000633
854.961384	0.000590
855.147995	0.000685
855.334587	0.000598
855.521162	0.000816
855.707718	0.001766
855.894256	0.001690
856.080775	0.001594
856.267277	0.001229
856.453760	0.000914
856.640225	0.000635
856.826672	0.000335
857.013101	0.000584
857.199511	0.000667
857.385903	0.000305
857.572277	0.000142
857.758633	0.000243
857.944970	0.000305
858.131290	-0.000104
858.317591	0.000480
858.503873	0.000793
858.690138	0.000691
858.876384	0.000558
859.062612	0.000279
859.248822	0.000508
859.435014	0.000681
859.621188	0.000675
859.807343	0.001067
859.993480	0.000908
860.179599	0.000953
860.365699	0.000761
860.551781	0.000788
860.737846	0.000857
860.923891	0.000664
861.109919	0.000145
861.295929	0.000457
861.481920	0.000324
861.667893	0.000552
861.853848	0.000375
862.039784	0.000036
862.225702	0.000225
862.411603	0.000401
862.597484	0.000641
862.783348	0.001202
862.969193	0.001133
863.155021	0.001153
863.340830	0.001008
863.526620	0.001033
863.712393	0.001512
863.898147	0.001409
864.083883	0.001327
864.269601	0.001201
864.455301	0.001138
864.640982	0.000969
864.826645	0.000995
865.012290	0.000982
865.197917	0.001185
865.383526	0.001088
865.569116	0.000970
865.754688	0.001089
865.940242	0.001038
866.125777	0.000792
866.311295	0.001297
866.496794	0.001601
866.682275	0.001799
866.867737	0.001781
867.053182	0.002000
867.238608	0.002164
867.424016	0.002119
867.609406	0.001806
867.794778	0.001871
867.980131	0.001163
868.165466	0.000745
868.350783	0.000521
868.536082	0.000480
868.721362	0.000319
868.906625	0.000413
869.091869	0.000369
869.277094	0.000860
869.462302	0.001219
869.647491	0.001519
869.832662	0.001693
870.017815	0.001474
870.202950	0.001193
870.388066	0.001031
870.573165	0.000912
870.758245	0.000465
870.943306	0.000323
871.128350	-0.000030
871.313375	-0.000508
871.498382	-0.000447
871.683371	-0.000221
871.868342	0.000009
872.053294	0.000337
872.238229	0.000245
872.423144	0.000614
872.608042	0.000664
872.792922	0.000509
872.977783	0.001003
873.162626	0.001296
873.347451	0.001040
873.532258	0.000638
873.717046	0.000708
873.901816	0.000753
874.086568	0.000565
874.271302	0.000514
874.456017	0.000774
874.640715	0.000347
874.825394	0.000266
875.010055	0.000282
875.194697	0.000430
875.379322	0.000235
875.563928	0.000311
875.748516	0.000414
875.933085	0.000283
876.117637	-0.000466
876.302170	-0.000365
876.486685	-0.000507
876.671182	-0.000617
876.855661	-0.000418
877.040121	-0.000307
877.224563	-0.000358
877.408987	0.000232
877.593393	0.000146
877.777780	0.000324
877.962150	0.000552
878.146501	0.000178
878.330833	0.000667
878.515148	0.000554
878.699444	0.000551
878.883722	0.000595
879.067982	0.000610
879.252224	0.000335
879.436447	0.000789
879.620653	0.001407
879.804840	0.001297
879.989008	0.001554
880.173159	0.001580
880.357291	0.001463
880.541405	0.001263
880.725501	0.001277
880.909579	0.001498
881.093638	0.001974
881.277680	0.001485
881.461703	0.002045
881.645707	0.002320
881.829694	0.002505
882.013662	0.002473
882.197612	0.002720
882.381544	0.002141
882.565458	0.002425
882.749353	0.001591
882.933230	0.001401
883.117089	0.000891
883.300930	0.000205
883.484753	0.000012
883.668557	0.000091
883.852343	-0.000120
884.036111	0.000101
884.219861	-0.000384
884.403592	0.000158
884.587305	0.000490
884.771000	0.000705
884.954677	0.000447
885.138335	0.001115
885.321976	0.000818
885.505598	0.000851
885.689201	0.001069
885.872787	0.001633
886.056354	0.001308
886.239904	0.001201
886.423434	0.001159
886.606947	0.001519
886.790442	0.000858
886.973918	0.000846
887.157376	0.000663
887.340816	0.001010
887.524237	0.000334
887.707641	0.000790
887.891026	0.000974
888.074393	0.001178
888.257741	0.000701
888.441072	0.000478
888.624384	0.000624
888.807678	0.000649
888.990954	0.000095
889.174211	0.000641
889.357451	0.000671
889.540672	0.000652
889.723875	0.000036
889.907059	0.000375
890.090226	0.000830
890.273374	0.001000
890.456504	0.001102
890.639616	0.000897
890.822709	0.001079
891.005785	0.000417
891.188842	-0.000234
891.371881	0.000032
891.554901	-0.000128
891.737904	-0.000158
891.920888	-0.000438
892.103854	-0.000293
892.286802	-0.000518
892.469731	-0.000492
892.652643	-0.000313
892.835536	-0.000103
893.018410	-0.000107
893.201267	0.000013
893.384106	-0.000266
893.566926	-0.000466
893.749728	-0.000508
893.932511	0.000291
894.115277	0.000140
894.298024	0.000357
894.480753	0.000483
894.663464	0.000993
894.846157	0.001164
895.028831	0.001227
895.211487	0.001601
895.394125	0.001711
895.576745	0.000661
895.759346	0.000584
895.941930	0.000381
896.124495	0.000495
896.307041	0.000299
896.489570	0.000581
896.672080	0.001079
896.854573	0.001184
897.037046	0.000735
897.219502	0.001190
897.401940	0.001461
897.584359	0.001765
897.766760	0.002069
897.949143	0.002214
898.131507	0.002063
898.313854	0.002061
898.496182	0.002273
898.678492	0.001688
898.860783	0.002025
899.043057	0.001964
899.225312	0.001803
899.407549	0.001312
899.589768	0.001252
899.771968	0.000732
899.954151	0.000165
900.136315	0.000180
900.318461	0.001192
900.500588	0.001169
900.682698	0.001008
900.864789	0.000985
901.046862	0.001664
901.228917	0.001755
901.410953	0.001867
901.592971	0.002619
901.774972	0.002213
901.956953	0.001946
902.138917	0.001699
902.320862	0.001962
902.502790	0.001945
902.684699	0.001232
902.866589	0.001152
903.048462	0.001320
903.230316	0.001265
903.412152	0.001459
903.593970	0.001812
903.775770	0.002071
903.957551	0.001804
904.139314	0.001875
904.321059	0.002061
904.502786	0.001963
904.684494	0.002004
904.866185	0.002228
905.047857	0.002120
905.229510	0.001408
905.411146	0.001329
905.592763	0.001278
905.774363	0.000922
905.955943	0.001033
906.137506	0.000906
906.319051	0.000836
906.500577	-0.000356
906.682085	0.000151
906.863575	0.000621
907.045046	0.000852
907.226500	0.001385
907.407935	0.001474
907.589352	0.000877
907.770750	0.001068
907.952131	0.001729
908.133493	0.001785
908.314837	0.000974
908.496163	0.001236
908.677470	0.001521
908.858760	0.000870
909.040031	0.001445
909.221284	0.002026
909.402518	0.001284
909.583735	0.000574
909.764933	0.001163
909.946113	0.001849
910.127275	0.001328
910.308418	0.000542
910.489544	0.000455
910.670651	-0.000064
910.851740	-0.000507
911.032810	0.000485
911.213863	0.000523
911.394897	0.000192
911.575913	0.000259
911.756911	0.000416
911.937890	0.000399
912.118851	0.000300
912.299794	0.000590
912.480719	0.000682
912.661626	0.000644
912.842514	0.000605
913.023384	0.000401
913.204236	0.000323
913.385070	0.000570
913.565886	0.000688
913.746683	0.000892
913.927462	0.000723
914.108223	0.000908
914.288965	0.000412
914.469690	0.000674
914.650396	0.000972
914.831084	0.000400
915.011754	-0.000442
915.192405	-0.000649
915.373038	-0.001338
915.553653	-0.001049
915.734250	-0.000972
915.914829	-0.000866
916.095389	-0.001589
916.275931	-0.001496
916.456455	-0.001317
916.636961	-0.000437
916.817448	0.000061
916.997917	-0.000020
917.178368	-0.000955
917.358801	-0.001597
917.539216	-0.002116
917.719612	-0.001602
917.899990	-0.001113
918.080350	-0.001440
918.260692	-0.001908
918.441015	-0.001863
918.621320	-0.001121
918.801607	-0.000272
918.981876	0.000309
919.162127	0.000538
919.342359	0.000646
919.522573	-0.000260
919.702769	0.000111
919.882947	0.000468
920.063106	-0.000048
920.243247	-0.000727
920.423370	-0.000389
920.603475	-0.000451
920.783562	-0.000551
920.963630	-0.000981
921.143680	-0.001279
921.323712	-0.001681
921.503725	-0.001778
921.683721	-0.002222
921.863698	-0.001153
922.043657	-0.002299
922.223598	-0.002520
922.403520	-0.003046
922.583424	-0.002749
922.763311	-0.002277
922.943178	-0.001879
923.123028	-0.001495
923.302859	-0.001385
923.482673	-0.002564
923.662467	-0.001993
923.842244	-0.001583
924.022003	-0.000813
924.201743	-0.001722
924.381465	-0.001137
924.561169	-0.001800
924.740854	-0.002619
924.920522	-0.002946
925.100171	-0.002196
925.279802	-0.002514
925.459414	-0.003080
925.639009	-0.002479
925.818585	-0.001809
925.998143	-0.002904
926.177683	-0.002222
926.357205	-0.002748
926.536708	-0.002073
926.716193	-0.002860
926.895660	-0.003268
927.075109	-0.003924
927.254539	-0.004435
927.433951	-0.004139
927.613345	-0.003697
927.792721	-0.004313
927.972079	-0.003771
928.151418	-0.004230
928.330739	-0.003910
928.510042	-0.003507
928.689327	-0.003123
928.868593	-0.003707
929.047841	-0.004779
929.227071	-0.005192
929.406283	-0.005160
929.585476	-0.005013
929.764652	-0.004628
929.943809	-0.004295
930.122948	-0.003960
930.302068	-0.003072
930.481171	-0.002939
930.660255	-0.002510
930.839321	-0.002222
931.018369	-0.002295
931.197398	-0.002875
931.376409	-0.003912
931.555402	-0.004414
931.734377	-0.005996
931.913334	-0.007001
932.092272	-0.007854
932.271192	-0.007104
932.450094	-0.006649
932.628978	-0.006341
932.807844	-0.005992
932.986691	-0.005377
933.165520	-0.004564
933.344331	-0.003636
933.523123	-0.002375
933.701898	-0.001652
933.880654	-0.002999
934.059392	-0.003312
934.238111	-0.003013
934.416813	-0.003181
934.595496	-0.003624
934.774161	-0.004145
934.952808	-0.004753
935.131437	-0.006668
935.310047	-0.006309
935.488639	-0.005048
935.667213	-0.005993
935.845769	-0.007249
936.024306	-0.006898
936.202825	-0.007138
936.381326	-0.007523
936.559809	-0.006615
936.738274	-0.006122
936.916720	-0.006862
937.095148	-0.006617
937.273558	-0.006682
937.451950	-0.005814
937.630323	-0.005918
937.808678	-0.004046
937.987015	-0.004634
938.165334	-0.005041
938.343635	-0.004203
938.521917	-0.004330
938.700181	-0.006632
938.878427	-0.005421
939.056655	-0.005473
939.234864	-0.006571
939.413055	-0.007359
939.591228	-0.006133
939.769383	-0.006341
939.947519	-0.007498
940.125638	-0.006642
940.303738	-0.005726
940.481820	-0.006708
940.659883	-0.007133
940.837929	-0.006917
941.015956	-0.007646
941.193965	-0.007740
941.371955	-0.006834
941.549928	-0.006479
941.727882	-0.007602
941.905818	-0.007392
942.083736	-0.006109
942.261636	-0.007103
942.439517	-0.006311
942.617380	-0.006289
942.795225	-0.006799
942.973052	-0.007015
943.150860	-0.005579
943.328651	-0.005329
943.506423	-0.005678
943.684176	-0.007805
943.861912	-0.008250
944.039629	-0.009676
944.217328	-0.010859
944.395009	-0.011258
944.572672	-0.011751
944.750317	-0.012675
944.927943	-0.012234
945.105551	-0.013245
945.283141	-0.013892
945.460712	-0.012403
945.638265	-0.010978
945.815801	-0.009715
945.993317	-0.010152
946.170816	-0.009480
946.348297	-0.011062
946.525759	-0.012359
946.703203	-0.010260
946.880629	-0.010367
947.058036	-0.010412
947.235425	-0.011486
947.412797	-0.011557
947.590149	-0.010337
947.767484	-0.011877
947.944800	-0.011777
948.122099	-0.010068
948.299379	-0.011036
948.476640	-0.008402
948.653884	-0.011981
948.831109	-0.012599
949.008316	-0.015319
949.185505	-0.016307
949.362676	-0.016211
949.539828	-0.014724
949.716962	-0.015323
949.894078	-0.013162
950.071176	-0.014245
950.248256	-0.010832
950.425317	-0.007191
950.602360	-0.005363
950.779385	-0.005545
950.956391	-0.005951
951.133380	-0.004713
951.310350	-0.006351
951.487302	-0.009437
951.664235	-0.011112
951.841151	-0.010826
952.018048	-0.010163
952.194927	-0.009008
952.371788	-0.010890
952.548631	-0.008053
952.725455	-0.009413
952.902261	-0.009039
953.079049	-0.008398
953.255819	-0.008678
953.432570	-0.010231
953.609303	-0.014472
953.786018	-0.013611
953.962715	-0.011462
954.139394	-0.015502
954.316054	-0.016175
954.492696	-0.014863
954.669320	-0.013510
954.845926	-0.010586
955.022513	-0.006873
955.199083	-0.004323
955.375634	-0.002196
955.552166	0.001081
955.728681	0.007175
955.905177	0.006244
956.081655	0.007140
956.258115	0.006334
956.434557	0.007398
956.610980	0.006578
956.787385	0.006751
956.963772	0.002620
957.140141	-0.001796
957.316492	-0.005787
957.492824	-0.008458
957.669138	-0.008253
957.845434	-0.007654
958.021712	-0.009820
958.197971	-0.009063
958.374212	-0.009174
958.550435	-0.007806
958.726640	-0.007213
958.902826	-0.005227
959.078995	-0.001201
959.255145	-0.002775
959.431277	-0.003184
959.607390	-0.000708
959.783486	-0.005957
959.959563	-0.004860
960.135622	-0.004372
960.311662	-0.002292
960.487685	-0.004600
960.663689	-0.003960
960.839675	-0.004269
961.015643	-0.002034
961.191593	-0.003604
961.367524	-0.000395
961.543437	-0.006812
961.719332	-0.006765
961.895209	-0.008914
962.071067	-0.009886
962.246907	-0.011736
962.422730	-0.009603
962.598533	-0.011869
962.774319	-0.009029
962.950086	-0.009230
963.125835	-0.005515
963.301566	-0.003215
963.477279	-0.001083
963.652973	-0.000858
963.828650	0.002452
964.004308	0.005386
964.179947	0.006334
964.355569	0.004153
964.531172	0.009094
964.706757	0.010338
964.882324	0.008731
965.057873	0.009555
965.233403	0.009362
965.408916	0.011191
965.584410	0.007641
965.759885	0.003929
965.935343	0.003975
966.110782	-0.000701
966.286203	-0.000818
966.461606	0.000222
966.636991	-0.005212
966.812357	0.000124
966.987705	-0.000505
967.163035	-0.000381
967.338347	0.002647
967.513641	0.001006
967.688916	0.003589
967.864173	0.004963
968.039412	0.004431
968.214632	0.009989
968.389835	0.006848
968.565019	0.002908
968.740185	0.003523
968.915333	0.003822
969.090462	0.007729
969.265573	0.010300
969.440667	0.011723
969.615741	0.012610
969.790798	0.009563
969.965836	0.011886
970.140856	0.011650
970.315858	0.012729
970.490842	0.013326
970.665808	0.012131
970.840755	0.011113
971.015684	0.008321
971.190595	0.008327
971.365487	0.006374
971.540362	0.004490
971.715218	0.001987
971.890056	0.005497
972.064875	0.006191
972.239677	0.004168
972.414460	0.002425
972.589225	0.004415
972.763972	0.005887
972.938700	0.005188
973.113411	0.002874
973.288103	0.006854
973.462777	-0.002473
973.637432	-0.009112
973.812070	-0.005593
973.986689	-0.006607
974.161290	-0.007722
974.335873	-0.012976
974.510437	-0.008368
974.684984	-0.004497
974.859512	-0.001099
975.034022	-0.001014
975.208513	0.000976
975.382987	-0.005972
975.557442	-0.002561
975.731879	-0.003200
975.906298	0.000535
976.080698	0.004887
976.255080	0.006932
976.429445	0.001756
976.603790	0.005534
976.778118	0.008455
976.952427	0.011623
977.126719	0.012624
977.300992	0.015729
977.475246	0.016100
977.649483	0.010953
977.823701	0.006454
977.997901	0.009366
978.172083	0.008480
978.346247	0.007206
978.520392	0.011393
978.694519	0.007338
978.868628	0.005024
979.042719	0.005057
979.216791	0.005956
979.390845	0.006403
979.564882	0.004017
979.738899	0.004109
979.912899	0.009062
980.086880	0.004663
980.260843	0.003634
980.434788	0.005328
980.608715	0.006611
980.782623	0.008711
980.956514	0.009189
981.130386	0.012986
981.304240	0.016800
981.478075	0.013831
981.651892	0.013385
981.825692	0.015014
981.999472	0.011180
982.173235	0.010396
982.346980	0.008775
982.520706	0.007584
982.694414	0.005346
982.868104	0.001775
983.041775	0.005344
983.215428	0.008425
983.389064	0.012911
983.562680	0.015890
983.736279	0.016183
983.909860	0.018941
984.083422	0.015984
984.256966	0.015545
984.430491	0.017724
984.603999	0.015178
984.777488	0.013211
984.950959	0.006786
985.124412	0.005888
985.297847	0.001946
985.471263	0.000281
985.644661	0.003312
985.818041	0.008217
985.991403	0.006517
986.164747	0.006466
986.338072	0.005575
986.511379	0.007720
986.684668	0.007271
986.857938	0.012004
987.031191	0.011200
987.204425	0.009565
987.377641	0.007649
987.550839	0.010349
987.724018	0.008455
987.897179	0.010570
988.070322	0.010299
988.243447	0.011818
988.416554	0.006317
988.589642	0.010103
988.762712	0.009111
988.935764	0.008466
989.108798	0.009849
989.281813	0.009870
989.454811	0.010877
989.627790	0.012590
989.800751	0.013600
989.973693	0.016533
990.146617	0.013346
990.319524	0.016561
990.492412	0.017275
990.665281	0.018411
990.838133	0.019794
991.010966	0.020075
991.183781	0.016713
991.356578	0.015276
991.529356	0.016391
991.702117	0.014300
991.874859	0.013988
992.047583	0.013007
992.220288	0.010471
992.392976	0.013991
992.565645	0.012749
992.738296	0.012315
992.910929	0.007517
993.083543	0.003136
993.256139	0.003355
993.428718	0.007487
993.601277	0.003948
993.773819	0.003345
993.946342	0.001107
994.118848	0.000723
994.291335	0.001334
994.463803	0.003223
994.636254	0.008814
994.808686	0.004551
994.981100	-0.000253
995.153496	0.004756
995.325874	0.001309
995.498233	-0.000763
995.670574	-0.002584
995.842897	0.000252
996.015202	0.001839
996.187488	-0.000431
996.359757	0.004180
996.532007	0.005942
996.704239	0.003873
996.876452	0.004897
997.048648	0.004890
997.220825	0.007073
997.392984	0.006877
997.565124	0.007956
997.737247	0.007448
997.909351	0.009568
998.081437	0.008420
998.253505	0.006856
998.425554	0.008514
998.597586	0.009537
998.769599	0.013178
998.941594	0.014098
999.113571	0.013761
999.285529	0.014791
999.457469	0.011668
999.629391	0.013437
999.801295	0.010376
999.973181	0.010046
1000.145048	0.011672
1000.316897	0.007660
1000.488728	0.007160
1000.660541	0.005962
1000.832335	0.008713
1001.004111	0.010239
1001.175869	0.007396
1001.347609	0.011367
1001.519331	0.013192
1001.691034	0.012273
1001.862719	0.010671
1002.034386	0.008304
1002.206035	0.008539
1002.377665	0.004491
1002.549277	0.003250
1002.720871	0.005224
1002.892447	0.004270
1003.064004	0.005006
1003.235544	0.005573
1003.407065	0.006236
1003.578568	0.004502
1003.750052	0.004019
1003.921519	0.006796
1004.092967	0.008568
1004.264397	0.007016
1004.435809	0.008847
1004.607202	0.006852
1004.778577	0.008016
1004.949934	0.010345
1005.121273	0.014454
1005.292594	0.016593
1005.463896	0.015150
1005.635180	0.015446
1005.806446	0.014626
1005.977694	0.011528
1006.148923	0.011155
1006.320135	0.005801
1006.491328	0.003839
1006.662503	-0.000253
1006.833659	-0.002084
1007.004798	-0.002750
1007.175918	-0.000625
1007.347020	0.000520
1007.518103	0.003530
1007.689169	0.001434
1007.860216	0.003219
1008.031245	0.001921
1008.202256	0.003162
1008.373248	0.003651
1008.544223	0.003673
1008.715179	-0.002002
1008.886117	0.000944
1009.057036	0.000095
1009.227938	0.000374
1009.398821	0.000591
1009.569686	0.001230
1009.740533	0.001128
1009.911361	0.002149
1010.082172	0.002645
1010.252964	0.005817
1010.423738	0.001983
1010.594493	0.004435
1010.765231	0.002002
1010.935950	0.002312
1011.106651	0.003104
1011.277334	0.003162
1011.447998	0.003695
1011.618645	0.004904
1011.789273	0.004555
1011.959882	0.010092
1012.130474	0.008384
1012.301048	0.012938
1012.471603	0.014336
1012.642140	0.015329
1012.812658	0.015540
1012.983159	0.010582
1013.153641	0.008544
1013.324105	0.011805
1013.494551	0.007184
1013.664979	0.005927
1013.835388	0.006041
1014.005779	0.004433
1014.176152	0.000763
1014.346507	0.000456
1014.516843	0.002447
1014.687162	0.003165
1014.857462	0.000374
1015.027744	-0.001199
1015.198007	-0.001955
1015.368252	-0.001771
1015.538480	-0.000191
1015.708689	0.001908
1015.878879	0.004520
1016.049052	0.007660
1016.219206	0.002755
1016.389342	0.003693
1016.559460	0.008994
1016.729559	0.009058
1016.899641	0.007855
1017.069704	0.005267
1017.239749	0.003439
1017.409775	0.000912
1017.579784	-0.000538
1017.749774	0.004328
1017.919746	0.002922
1018.089700	-0.001339
1018.259635	-0.000442
1018.429553	0.000083
1018.599452	0.002185
1018.769333	0.004856
1018.939195	0.002163
1019.109040	0.002771
1019.278866	0.003135
1019.448674	0.006432
1019.618464	0.008560
1019.788235	0.010609
1019.957989	0.012398
1020.127724	0.012599
1020.297441	0.015225
1020.467139	0.018578
1020.636820	0.018742
1020.806482	0.016114
1020.976126	0.012492
1021.145752	0.012366
1021.315359	0.011783
1021.484948	0.011324
1021.654519	0.010155
1021.824072	0.011836
1021.993607	0.014890
1022.163123	0.014847
1022.332621	0.019693
1022.502101	0.022529
1022.671563	0.024698
1022.841007	0.024689
1023.010432	0.023802
1023.179839	0.021488
1023.349228	0.017517
1023.518598	0.014897
1023.687951	0.015532
1023.857285	0.012427
1024.026601	0.010837
1024.195899	0.005778
1024.365178	0.003711
1024.534439	0.004336
1024.703682	0.007255
1024.872907	0.005918
1025.042114	0.006775
1025.211302	0.006452
1025.380472	0.008540
1025.549624	0.008642
1025.718758	0.011344
1025.887873	0.013799
1026.056970	0.012790
1026.226049	0.014711
1026.395110	0.014598
1026.564153	0.012737
1026.733177	0.013246
1026.902183	0.013100
1027.071171	0.013761
1027.240141	0.012093
1027.409092	0.009720
1027.578026	0.011055
1027.746940	0.007287
1027.915837	0.012706
1028.084716	0.016890
1028.253576	0.019534
1028.422418	0.018532
1028.591242	0.016500
1028.760048	0.016643
1028.928835	0.017751
1029.097604	0.017411
1029.266355	0.020017
1029.435088	0.016714
1029.603803	0.017394
1029.772499	0.015558
1029.941177	0.013928
1030.109837	0.011584
1030.278478	0.013459
1030.447102	0.011279
1030.615707	0.009782
1030.784294	0.010217
1030.952863	0.009732
1031.121413	0.008375
1031.289945	0.004758
1031.458460	0.006924
1031.626955	0.011467
1031.795433	0.011722
1031.963892	0.013623
1032.132334	0.013455
1032.300756	0.014028
1032.469161	0.012970
1032.637548	0.008689
1032.805916	0.009053
1032.974266	0.006628
1033.142598	0.005691
1033.310911	0.002236
1033.479207	0.002230
1033.647484	0.003092
1033.815743	0.000380
1033.983983	0.002040
1034.152206	0.004843
1034.320410	0.007820
1034.488596	0.009985
1034.656764	0.010839
1034.824914	0.012040
1034.993045	0.013041
1035.161158	0.014707
1035.329253	0.017188
1035.497330	0.016542
1035.665388	0.011648
1035.833428	0.009495
1036.001450	0.007870
1036.169454	0.006227
1036.337440	0.004950
1036.505407	0.004104
1036.673356	0.005691
1036.841287	0.000722
1037.009200	-0.000942
1037.177094	0.002911
1037.344970	0.003136
1037.512828	0.002938
1037.680668	0.002155
1037.848489	0.003253
1038.016293	0.002766
1038.184078	0.001307
1038.351845	0.001617
1038.519593	0.000629
1038.687324	0.000879
1038.855036	-0.000144
1039.022730	-0.000700
1039.190406	-0.001425
1039.358063	-0.002655
1039.525702	-0.001387
1039.693323	-0.001620
1039.860926	-0.001314
1040.028511	-0.001036
1040.196077	-0.002290
1040.363625	-0.002352
1040.531155	-0.000768
1040.698667	-0.000366
1040.866161	0.003045
1041.033636	0.002491
1041.201093	0.000806
1041.368532	0.002927
1041.535952	0.004523
1041.703355	0.005848
1041.870739	0.005612
1042.038105	0.003785
1042.205452	0.001464
1042.372782	-0.003906
1042.540093	-0.001211
1042.707386	-0.002647
1042.874661	-0.005218
1043.041918	-0.005329
1043.209156	-0.007300
1043.376376	-0.003542
1043.543578	-0.001922
1043.710762	0.001942
1043.877927	0.005794
1044.045074	0.004192
1044.212203	0.004379
1044.379314	0.008232
1044.546407	0.006914
1044.713481	0.011542
1044.880537	0.010533
1045.047575	0.012819
1045.214595	0.013432
1045.381596	0.013550
1045.548579	0.011990
1045.715544	0.010468
1045.882491	0.009315
1046.049420	0.012312
1046.216330	0.010868
1046.383222	0.008112
1046.550096	0.007306
1046.716951	0.010540
1046.883789	0.011968
1047.050608	0.009396
1047.217409	0.011193
1047.384192	0.014043
1047.550956	0.013292
1047.717703	0.010467
1047.884431	0.012509
1048.051140	0.010148
1048.217832	0.006456
1048.384505	0.006959
1048.551161	0.010015
1048.717798	0.010464
1048.884416	0.010988
1049.051017	0.012073
1049.217599	0.014390
1049.384163	0.013494
1049.550709	0.015648
1049.717237	0.011007
1049.883746	0.006712
1050.050237	0.010629
1050.216710	0.012133
1050.383165	0.009219
1050.549601	0.005586
1050.716019	0.006700
1050.882420	0.007618
1051.048801	0.004358
1051.215165	0.005949
1051.381510	0.006074
1051.547837	0.002497
1051.714146	0.002527
1051.880437	0.002476
1052.046709	0.005084
1052.212964	0.005276
1052.379200	0.007896
1052.545417	0.008936
1052.711617	0.013059
1052.877798	0.013204
1053.043961	0.015958
1053.210106	0.014012
1053.376233	0.015445
1053.542341	0.014813
1053.708432	0.015213
1053.874504	0.010006
1054.040557	0.010159
1054.206593	0.008908
1054.372610	0.012754
1054.538609	0.010216
1054.704590	0.011677
1054.870553	0.007897
1055.036497	0.004500
1055.202424	0.003805
1055.368331	0.006506
1055.534221	0.008636
1055.700093	0.010665
1055.865946	0.009307
1056.031781	0.009871
1056.197598	0.010547
1056.363397	0.011398
1056.529177	0.016279
1056.694939	0.013506
1056.860683	0.007987
1057.026409	0.007329
1057.192116	0.003756
1057.357806	0.005411
1057.523477	0.003870
1057.689130	0.001367
1057.854764	0.001989
1058.020381	-0.001789
1058.185979	-0.005064
1058.351559	0.001568
1058.517120	0.001931
1058.682664	0.000236
1058.848189	-0.001143
1059.013696	-0.003267
1059.179185	0.001042
1059.344656	0.000565
1059.510108	0.002526
1059.675542	0.007639
1059.840958	0.004064
1060.006356	0.002261
1060.171735	0.003818
1060.337096	0.002994
1060.502439	0.004606
1060.667764	0.006047
1060.833071	0.005737
1060.998359	0.006768
1061.163629	0.007076
1061.328881	0.011504
1061.494115	0.011573
1061.659330	0.012070
1061.824527	0.010623
1061.989706	0.013674
1062.154867	0.010322
1062.320010	0.011227
1062.485134	0.009659
1062.650240	0.006092
1062.815328	0.002992
1062.980398	0.004304
1063.145449	0.004268
1063.310482	0.007724
1063.475497	0.004054
1063.640494	0.003121
1063.805473	0.000362
1063.970433	0.000086
1064.135375	0.001210
1064.300299	0.005648
1064.465204	0.001893
1064.630092	0.001954
1064.794961	0.002116
1064.959812	0.002075
1065.124645	0.003010
1065.289459	0.007369
1065.454256	0.008249
1065.619034	0.008704
1065.783793	0.003980
1065.948535	0.007544
1066.113258	0.006439
1066.277964	0.004121
1066.442651	0.005810
1066.607319	0.001740
1066.771970	-0.000487
1066.936602	-0.003405
1067.101216	-0.001858
1067.265812	-0.003759
1067.430389	-0.003047
1067.594949	-0.002649
1067.759490	-0.001308
1067.924013	-0.006301
1068.088518	-0.005623
1068.253004	-0.006821
1068.417472	-0.003675
1068.581922	-0.003294
1068.746354	-0.005380
1068.910768	-0.008418
1069.075163	-0.007475
1069.239540	-0.009545
1069.403899	-0.006476
1069.568240	-0.005275
1069.732562	-0.001116
1069.896866	0.001500
1070.061152	0.002137
1070.225420	0.005174
1070.389670	0.006488
1070.553901	0.006782
1070.718114	0.010431
1070.882309	0.014600
1071.046486	0.015402
1071.210644	0.012381
1071.374784	0.014056
1071.538906	0.011097
1071.703010	0.012567
1071.867096	0.018002
1072.031163	0.017717
1072.195212	0.017601
1072.359243	0.014622
1072.523256	0.016828
1072.687250	0.014350
1072.851226	0.008506
1073.015184	0.009660
1073.179124	0.008038
1073.343045	-0.000765
1073.506949	0.002136
1073.670834	0.004070
1073.834701	0.002585
1073.998549	-0.000873
1074.162380	0.003392
1074.326192	0.008031
1074.489986	0.005930
1074.653761	0.004778
1074.817519	0.007557
1074.981258	0.000274
1075.144979	-0.004809
1075.308682	-0.002498
1075.472367	-0.003209
1075.636033	-0.005022
1075.799681	-0.009054
1075.963311	-0.006335
1076.126923	-0.004997
1076.290516	-0.005989
1076.454092	0.005115
1076.617649	0.006056
1076.781187	0.000422
1076.944708	0.002985
1077.108210	0.004214
1077.271695	0.009407
1077.435160	0.006011
1077.598608	0.003297
1077.762038	0.007980
1077.925449	-0.000766
1078.088842	0.003217
1078.252217	0.006236
1078.415573	0.005828
1078.578912	0.009289
1078.742232	-0.001442
1078.905534	0.000758
1079.068817	0.003795
1079.232083	-0.000042
1079.395330	0.001785
1079.558559	-0.004584
1079.721770	-0.004532
1079.884962	-0.004477
1080.048136	-0.004373
1080.211293	-0.001824
1080.374430	0.002374
1080.537550	0.003603
1080.700651	0.004649
1080.863735	0.003086
1081.026800	0.004522
1081.189846	0.009456
1081.352875	0.013479
1081.515885	0.009878
1081.678877	0.012160
1081.841851	0.005526
1082.004807	0.008025
1082.167744	0.007808
1082.330663	0.006015
1082.493564	0.009155
1082.656447	0.005841
1082.819312	0.006424
1082.982158	0.006063
1083.144986	0.006754
1083.307796	0.008193
1083.470587	0.003679
1083.633361	0.004173
1083.796116	0.011690
1083.958853	0.006918
1084.121571	0.003940
1084.284272	0.002370
1084.446954	0.004569
1084.609618	0.010027
1084.772264	0.012191
1084.934892	0.011528
1085.097501	0.009162
1085.260092	0.003398
1085.422665	0.008421
1085.585220	0.013301
1085.747756	0.011934
1085.910274	0.012806
1086.072774	0.010087
1086.235256	0.005530
1086.397720	0.004641
1086.560165	-0.002001
1086.722592	0.006671
1086.885001	0.001692
1087.047392	0.001745
1087.209764	0.000055
1087.372119	-0.009421
1087.534455	-0.016213
1087.696772	-0.011811
1087.859072	-0.004220
1088.021353	0.003757
1088.183616	-0.006201
1088.345861	-0.001347
1088.508088	-0.006945
1088.670296	-0.009166
1088.832486	-0.002638
1088.994658	0.003379
1089.156812	-0.002287
1089.318948	-0.013887
1089.481065	-0.013522
1089.643164	-0.011973
1089.805245	-0.015582
1089.967308	-0.007248
1090.129352	-0.005572
1090.291378	-0.004778
1090.453386	-0.003031
1090.615376	-0.001832
1090.777347	0.008341
1090.939301	0.007428
1091.101236	0.005764
1091.263153	0.008700
1091.425051	0.003014
1091.586932	0.001973
1091.748794	0.001516
1091.910638	0.001791
1092.072463	0.012797
1092.234271	0.013005
1092.396060	0.019968
1092.557831	0.024531
1092.719584	0.020960
1092.881319	0.016461
1093.043035	0.017055
1093.204733	0.022197
1093.366413	0.013111
1093.528075	0.000058
1093.689718	0.002252
1093.851343	-0.009495
1094.012950	-0.009570
1094.174539	-0.008608
1094.336110	-0.002681
1094.497662	0.000462
1094.659196	-0.008946
1094.820712	-0.001476
1094.982210	0.007244
1095.143689	0.001686
1095.305151	0.004318
1095.466594	0.005095
1095.628018	0.004498
1095.789425	-0.004863
1095.950813	-0.009648
1096.112183	-0.007076
1096.273535	-0.005220
1096.434869	-0.001416
1096.596184	0.003221
1096.757482	0.001820
1096.918761	-0.003354
1097.080021	-0.003302
1097.241264	0.013056
1097.402488	0.015498
1097.563694	0.020631
1097.724882	0.019563
1097.886052	0.000310
1098.047203	-0.000358
1098.208336	0.003152
1098.369451	0.003481
1098.530548	0.015706
1098.691627	0.012151
1098.852687	0.016211
1099.013729	0.014438
1099.174753	0.009776
1099.335758	0.028759
1099.496746	0.021740
1099.657715	0.023984
1099.818666	0.025198
1099.979599	0.011417
1100.140513	0.012434
1100.301409	0.002220
1100.462287	0.000352
1100.623147	0.009627
1100.783989	-0.002155
1100.944812	-0.002869
1101.105617	-0.007015
1101.266404	-0.001784
1101.427173	0.003468
1101.587923	-0.006225
1101.748656	0.000772
1101.909370	0.000665
1102.070066	0.000708
1102.230743	0.005742
1102.391403	0.006692
1102.552044	0.016016
1102.712667	0.005121
1102.873271	-0.004190
1103.033858	0.009261
1103.194426	0.017622
1103.354976	0.022447
1103.515508	0.023314
1103.676021	0.016774
1103.836517	0.020396
1103.996994	0.009666
1104.157453	0.008379
1104.317893	0.011878
1104.478316	0.005068
1104.638720	-0.003889
1104.799106	-0.007385
1104.959474	-0.018315
1105.119823	-0.008479
1105.280155	-0.007077
1105.440468	-0.005776
1105.600763	0.003734
1105.761039	0.005834
1105.921298	0.001797
1106.081538	0.006716
1106.241760	-0.000062
1106.401964	-0.000661
1106.562149	0.004300
1106.722316	0.005844
1106.882465	0.028693
1107.042596	0.022889
1107.202709	0.023312
1107.362803	0.017112
1107.522879	0.011996
1107.682937	0.016652
1107.842977	0.017513
1108.002999	0.009052
1108.163002	0.011100
1108.322987	-0.009519
1108.482954	-0.011325
1108.642902	-0.008793
1108.802833	-0.000869
1108.962745	0.005311
1109.122639	0.006420
1109.282515	0.005112
1109.442372	-0.001667
1109.602211	0.000237
1109.762032	0.005828
1109.921835	0.006728
1110.081620	0.001360
1110.241386	-0.002552
1110.401134	-0.005723
1110.560864	-0.004879
1110.720576	-0.006053
1110.880269	0.002781
1111.039945	-0.017150
1111.199602	-0.014158
1111.359240	-0.008268
1111.518861	-0.003165
1111.678463	0.014016
1111.838047	0.015135
1111.997613	0.005918
1112.157161	0.004908
1112.316690	0.007853
1112.476202	0.020734
1112.635695	0.020265
1112.795169	0.010718
1112.954626	0.015943
1113.114064	-0.000693
1113.273484	-0.006572
1113.432886	0.006397
1113.592270	-0.001138
1113.751635	0.000087
1113.910983	-0.000945
1114.070312	-0.015632
1114.229622	0.001546
1114.388915	0.004333
1114.548189	0.002836
1114.707445	0.015080
1114.866683	0.013212
1115.025903	0.033819
1115.185104	0.028842
1115.344287	0.026327
1115.503452	0.033391
1115.662599	0.017190
1115.821727	-0.003096
1115.980838	-0.016370
1116.139930	-0.024520
1116.299004	-0.033843
1116.458059	-0.046084
1116.617097	-0.050001
1116.776116	-0.057886
1116.935117	-0.067743
1117.094099	-0.063068
1117.253064	-0.055572
1117.412010	-0.033342
1117.570938	-0.039444
1117.729848	-0.036394
1117.888740	-0.029778
1118.047613	-0.029228
1118.206468	-0.017425
1118.365305	0.000097
1118.524124	0.003627
1118.682924	-0.001544
1118.841707	-0.008840
1119.000471	-0.006099
1119.159216	0.005312
1119.317944	0.017304
1119.476653	0.022925
1119.635344	0.041402
1119.794017	0.041242
1119.952672	0.038574
1120.111308	0.042021
1120.269927	0.051166
1120.428527	0.050737
1120.587108	0.041128
1120.745672	0.033411
1120.904217	0.032847
1121.062744	0.003801
1121.221253	-0.003032
1121.379744	-0.003438
1121.538216	-0.002882
1121.696671	-0.004129
1121.855107	0.008602
1122.013524	0.005503
1122.171924	0.003030
1122.330305	0.004385
1122.488668	0.010797
1122.647013	0.006334
1122.805340	0.003037
1122.963648	-0.003266
1123.121938	-0.002480
1123.280210	-0.006832
1123.438464	-0.011694
1123.596700	-0.006249
1123.754917	-0.017100
1123.913116	-0.012947
1124.071297	-0.015974
1124.229459	-0.015011
1124.387604	0.010060
1124.545730	0.009334
1124.703838	0.007878
1124.861928	0.016129
1125.019999	0.013213
1125.178052	0.026162
1125.336088	0.032590
1125.494104	0.034939
1125.652103	0.032462
1125.810083	0.017742
1125.968045	0.000664
1126.125989	0.002806
1126.283915	0.022298
1126.441823	0.028152
1126.599712	0.025094
1126.757583	0.010304
1126.915436	0.018444
1127.073270	0.025298
1127.231087	0.024044
1127.388885	0.054931
1127.546665	0.045665
1127.704426	0.013740
1127.862170	0.012661
1128.019895	0.009412
1128.177602	0.020192
1128.335291	0.018922
1128.492961	0.002924
1128.650614	0.018015
1128.808248	0.020060
1128.965864	0.028627
1129.123461	0.058726
1129.281041	0.051278
1129.438602	0.053414
1129.596145	0.058017
1129.753670	0.049840
1129.911176	0.077776
1130.068665	0.052149
1130.226135	0.038072
1130.383587	0.022634
1130.541020	0.016376
1130.698436	0.008226
1130.855833	-0.007904
1131.013212	-0.010448
1131.170573	0.001747
1131.327915	-0.018844
1131.485239	-0.018703
1131.642545	-0.027331
1131.799833	-0.015915
1131.957103	-0.026375
1132.114354	-0.033259
1132.271588	-0.022428
1132.428803	-0.012303
1132.585999	-0.021837
1132.743178	-0.008824
1132.900338	0.006005
1133.057480	0.013989
1133.214604	0.014762
1133.371710	0.013786
1133.528797	0.016281
1133.685866	0.012378
1133.842917	-0.021310
1133.999950	-0.008006
1134.156964	-0.009276
1134.313960	-0.017689
1134.470938	-0.028558
1134.627898	-0.027328
1134.784840	-0.012945
1134.941763	-0.010413
1135.098668	0.000947
1135.255555	0.016145
1135.412424	-0.001447
1135.569274	0.007174
1135.726107	0.004028
1135.882921	-0.001176
1136.039716	-0.002614
1136.196494	-0.009537
1136.353253	0.003449
1136.509995	-0.009014
1136.666717	-0.008762
1136.823422	0.003402
1136.980109	-0.006024
1137.136777	-0.003842
1137.293427	0.003862
1137.450059	-0.011011
1137.606672	-0.015741
1137.763267	-0.012459
1137.919844	-0.001990
1138.076403	0.003830
1138.232944	0.013855
1138.389466	0.023710
1138.545971	0.034038
1138.702457	0.033268
1138.858924	0.038934
1139.015374	0.038029
1139.171805	0.044656
1139.328218	0.035890
1139.484613	0.048347
1139.640990	0.041598
1139.797348	0.019106
1139.953688	-0.005318
1140.110010	0.003834
1140.266314	0.003281
1140.422600	0.001907
1140.578867	-0.022926
1140.735116	-0.012056
1140.891347	-0.046947
1141.047559	-0.041892
1141.203754	-0.009461
1141.359930	-0.004529
1141.516088	-0.018663
1141.672228	-0.028040
1141.828349	-0.022054
1141.984452	-0.017418
1142.140537	-0.033235
1142.296604	-0.032001
1142.452653	-0.036681
1142.608683	-0.082477
1142.764695	-0.090757
1142.920689	-0.078987
1143.076665	-0.051067
1143.232622	-0.055522
1143.388562	-0.060787
1143.544483	-0.048418
1143.700385	-0.025284
1143.856270	-0.036754
1144.012136	-0.014990
1144.167985	0.019806
1144.323814	0.001028
1144.479626	-0.027065
1144.635420	-0.046705
1144.791195	-0.035197
1144.946952	-0.041477
1145.102691	-0.051809
1145.258411	-0.044315
1145.414113	-0.043944
1145.569798	-0.055723
1145.725463	-0.064728
1145.881111	-0.070816
1146.036741	-0.037317
1146.192352	-0.050824
1146.347945	-0.031320
1146.503519	-0.024557
1146.659076	-0.020085
1146.814614	-0.009834
1146.970134	-0.014751
1147.125636	0.012624
1147.281120	0.016914
1147.436585	-0.009091
1147.592032	0.003817
1147.747461	-0.009468
1147.902872	-0.021811
1148.058265	-0.031948
1148.213639	-0.039300
1148.368995	-0.032382
1148.524333	-0.046089
1148.679653	-0.040315
1148.834954	-0.030716
1148.990237	-0.014702
1149.145502	-0.042009
1149.300749	-0.037808
1149.455977	-0.029552
1149.611188	-0.029022
1149.766380	-0.032619
1149.921553	-0.008551
1150.076709	-0.017775
1150.231846	-0.013015
1150.386966	-0.019691
1150.542066	0.021030
1150.697149	0.049694
1150.852214	0.035231
1151.007260	0.040863
1151.162288	0.050148
1151.317298	0.042377
1151.472289	0.057977
1151.627263	0.067014
1151.782218	0.054441
1151.937155	0.060014
1152.092073	0.042572
1152.246974	0.039147
1152.401856	0.053045
1152.556720	0.046146
1152.711566	0.027766
1152.866393	0.032900
1153.021203	0.023253
1153.175994	0.045150
1153.330767	0.010811
1153.485521	0.009557
1153.640258	0.025866
1153.794976	0.011687
1153.949676	-0.000600
1154.104358	0.023928
1154.259021	0.017659
1154.413667	0.016346
1154.568294	-0.005058
1154.722903	-0.013046
1154.877493	-0.004174
1155.032066	-0.026762
1155.186620	0.002879
1155.341156	0.000914
1155.495674	-0.034609
1155.650173	-0.043577
1155.804654	-0.041038
1155.959118	-0.032980
1156.113562	-0.020635
1156.267989	-0.043305
1156.422397	-0.032249
1156.576788	-0.066442
1156.731160	-0.062568
1156.885513	-0.047295
1157.039849	-0.046006
1157.194166	-0.064755
1157.348465	-0.059766
1157.502746	-0.031251
1157.657009	0.002302
1157.811253	0.011936
1157.965479	0.004572
1158.119687	0.004258
1158.273877	0.017788
1158.428048	0.050762
1158.582201	0.083473
1158.736337	0.093016
1158.890453	0.069323
1159.044552	0.023772
1159.198632	0.026679
1159.352694	0.048338
1159.506738	0.013471
1159.660764	0.023185
1159.814771	0.030598
1159.968761	0.007247
1160.122732	0.003603
1160.276685	0.030533
1160.430619	0.053998
1160.584535	0.019464
1160.738434	0.018810
1160.892313	0.066538
1161.046175	0.043063
1161.200019	0.002569
1161.353844	-0.008311
1161.507651	-0.014162
1161.661440	-0.020322
1161.815210	-0.042200
1161.968962	-0.026659
1162.122697	-0.059697
1162.276412	-0.034374
1162.430110	-0.023780
1162.583789	0.004022
1162.737451	0.018121
1162.891094	-0.002770
1163.044718	-0.037043
1163.198325	-0.007174
1163.351913	0.026089
1163.505483	0.089405
1163.659035	0.034246
1163.812569	0.025557
1163.966084	0.027112
1164.119581	0.030255
1164.273060	0.002436
1164.426521	0.049517
1164.579964	0.034646
1164.733388	0.018423
1164.886794	-0.011935
1165.040182	-0.003077
1165.193551	-0.004409
1165.346903	-0.016531
1165.500236	0.013363
1165.653551	0.052745
1165.806848	0.018097
1165.960126	0.026289
1166.113386	0.049920
1166.266628	0.057270
1166.419852	0.089525
1166.573058	0.095408
1166.726245	0.119266
1166.879414	0.075961
1167.032565	0.096612
1167.185698	0.068591
1167.338812	0.055612
1167.491909	0.040215
1167.644987	0.079618
1167.798046	0.041578
1167.951088	0.063988
1168.104111	0.042849
1168.257117	0.050123
1168.410103	0.055176
1168.563072	0.123301
1168.716023	0.141469
1168.868955	0.140198
1169.021869	0.090728
1169.174765	0.128411
1169.327642	0.085392
1169.480501	0.079470
1169.633343	0.032294
1169.786165	-0.024277
1169.938970	-0.051009
1170.091757	-0.019981
1170.244525	-0.032773
1170.397275	-0.026528
1170.550007	-0.073088
1170.702720	-0.069765
1170.855415	-0.102177
1171.008092	-0.090724
1171.160751	-0.089359
1171.313392	-0.109765
1171.466014	-0.209267
1171.618619	-0.208807
1171.771205	-0.208807
1171.923772	-0.208807
