sample name	sample
index	1067
start time	 04-22-2021  10:23:49 AM


Wavelength (nm)	Absorbance
494.344910	-0.006648
494.563924	-0.006648
494.782919	-0.006648
495.001897	-0.000614
495.220856	-0.017491
495.439797	-0.019275
495.658719	-0.009806
495.877624	-0.012584
496.096510	-0.021956
496.315378	-0.007987
496.534227	-0.008356
496.753059	-0.003749
496.971872	-0.003024
497.190667	0.015497
497.409444	0.023756
497.628203	0.026104
497.846943	0.028384
498.065665	0.030825
498.284369	0.029672
498.503055	0.029293
498.721723	0.029409
498.940372	0.029112
499.159003	0.028982
499.377616	0.028353
499.596210	0.027675
499.814787	0.027573
500.033345	0.027613
500.251885	0.028051
500.470406	0.028770
500.688910	0.028988
500.907395	0.028987
501.125862	0.029104
501.344311	0.029556
501.562742	0.028643
501.781154	0.027711
501.999548	0.025711
502.217924	0.026634
502.436282	0.025789
502.654621	0.024937
502.872942	0.024888
503.091245	0.025323
503.309530	0.024653
503.527797	0.025195
503.746045	0.025183
503.964275	0.026112
504.182487	0.025030
504.400681	0.024199
504.618856	0.024370
504.837013	0.024274
505.055152	0.024800
505.273273	0.025118
505.491376	0.024670
505.709460	0.024718
505.927526	0.025228
506.145574	0.025634
506.363604	0.026582
506.581615	0.027147
506.799608	0.028354
507.017583	0.027429
507.235540	0.027656
507.453478	0.028483
507.671399	0.029333
507.889301	0.029485
508.107185	0.029375
508.325050	0.029870
508.542898	0.029841
508.760727	0.029278
508.978538	0.029106
509.196330	0.028251
509.414105	0.027702
509.631861	0.027975
509.849599	0.027922
510.067319	0.027733
510.285021	0.027054
510.502704	0.027200
510.720369	0.027303
510.938016	0.028020
511.155645	0.028479
511.373255	0.029458
511.590848	0.028441
511.808422	0.027820
512.025977	0.027374
512.243515	0.028749
512.461034	0.028744
512.678536	0.028828
512.896018	0.029398
513.113483	0.030024
513.330930	0.029019
513.548358	0.028859
513.765768	0.029361
513.983160	0.029584
514.200533	0.029209
514.417889	0.029097
514.635226	0.028882
514.852545	0.028082
515.069845	0.027868
515.287128	0.027957
515.504392	0.028154
515.721638	0.027581
515.938866	0.027758
516.156075	0.026790
516.373267	0.026911
516.590440	0.027477
516.807594	0.027261
517.024731	0.027301
517.241850	0.027705
517.458950	0.028181
517.676032	0.028482
517.893095	0.028614
518.110141	0.028843
518.327168	0.028598
518.544177	0.028001
518.761168	0.028553
518.978141	0.028310
519.195095	0.028086
519.412031	0.027997
519.628949	0.028032
519.845849	0.027900
520.062731	0.026944
520.279594	0.026674
520.496439	0.026471
520.713266	0.025418
520.930074	0.025434
521.146865	0.025628
521.363637	0.025747
521.580391	0.025226
521.797127	0.025057
522.013844	0.026061
522.230543	0.026575
522.447224	0.026924
522.663887	0.026982
522.880532	0.027649
523.097158	0.027292
523.313766	0.026439
523.530356	0.026873
523.746928	0.027203
523.963481	0.027402
524.180017	0.027035
524.396534	0.026903
524.613032	0.027408
524.829513	0.026790
525.045975	0.026899
525.262420	0.027916
525.478845	0.028056
525.695253	0.027478
525.911643	0.027636
526.128014	0.027633
526.344367	0.027594
526.560702	0.027434
526.777018	0.027440
526.993316	0.027427
527.209597	0.027150
527.425858	0.026831
527.642102	0.027352
527.858328	0.026833
528.074535	0.027016
528.290724	0.027523
528.506894	0.027529
528.723047	0.027770
528.939181	0.028047
529.155297	0.027976
529.371395	0.028622
529.587475	0.028455
529.803536	0.028804
530.019579	0.028754
530.235604	0.028128
530.451611	0.028237
530.667600	0.028134
530.883570	0.028041
531.099522	0.028149
531.315456	0.027890
531.531372	0.027521
531.747269	0.027211
531.963148	0.027416
532.179009	0.027772
532.394852	0.028177
532.610676	0.028526
532.826482	0.028507
533.042271	0.028688
533.258040	0.028555
533.473792	0.029238
533.689525	0.029251
533.905240	0.029052
534.120937	0.029172
534.336616	0.029033
534.552277	0.029019
534.767919	0.029642
534.983543	0.029597
535.199149	0.029462
535.414736	0.029930
535.630306	0.030432
535.845857	0.030797
536.061390	0.030608
536.276904	0.030455
536.492401	0.029948
536.707879	0.029592
536.923339	0.029457
537.138781	0.029531
537.354204	0.029540
537.569610	0.029770
537.784997	0.029742
538.000366	0.029239
538.215716	0.029585
538.431049	0.029983
538.646363	0.030067
538.861659	0.029909
539.076937	0.030325
539.292196	0.029733
539.507438	0.029395
539.722661	0.029185
539.937866	0.029899
540.153052	0.029522
540.368221	0.029382
540.583371	0.029177
540.798503	0.029129
541.013617	0.028887
541.228712	0.028556
541.443789	0.028795
541.658848	0.028498
541.873889	0.028042
542.088912	0.028171
542.303916	0.028006
542.518902	0.028183
542.733870	0.028887
542.948820	0.028619
543.163752	0.029149
543.378665	0.028518
543.593560	0.028877
543.808437	0.029210
544.023295	0.029437
544.238136	0.029448
544.452958	0.029442
544.667762	0.029122
544.882548	0.029741
545.097315	0.029865
545.312064	0.030068
545.526795	0.029677
545.741508	0.029642
545.956203	0.029357
546.170879	0.029575
546.385537	0.029230
546.600177	0.029358
546.814799	0.028966
547.029402	0.028797
547.243988	0.028832
547.458555	0.029457
547.673103	0.029868
547.887634	0.030117
548.102146	0.030126
548.316640	0.030156
548.531116	0.030140
548.745574	0.030357
548.960013	0.030594
549.174435	0.031058
549.388838	0.030620
549.603222	0.030431
549.817589	0.030419
550.031937	0.030298
550.246267	0.030563
550.460579	0.030446
550.674873	0.030414
550.889148	0.030315
551.103405	0.030528
551.317644	0.030835
551.531865	0.030947
551.746068	0.030788
551.960252	0.031051
552.174418	0.031099
552.388566	0.030842
552.602696	0.030939
552.816807	0.030767
553.030900	0.029924
553.244975	0.030107
553.459032	0.029862
553.673070	0.029726
553.887091	0.029446
554.101093	0.029346
554.315077	0.029609
554.529042	0.029499
554.742990	0.029567
554.956919	0.029866
555.170830	0.029603
555.384722	0.030002
555.598597	0.030111
555.812453	0.030578
556.026291	0.030574
556.240111	0.030709
556.453913	0.030393
556.667696	0.030292
556.881461	0.030083
557.095208	0.029852
557.308937	0.029417
557.522647	0.029485
557.736339	0.029063
557.950013	0.028904
558.163669	0.028444
558.377307	0.028826
558.590926	0.029041
558.804527	0.029076
559.018110	0.029281
559.231675	0.029448
559.445221	0.029507
559.658749	0.029603
559.872259	0.029727
560.085751	0.030179
560.299225	0.030067
560.512680	0.029918
560.726117	0.029933
560.939536	0.029808
561.152937	0.029833
561.366319	0.029964
561.579683	0.029694
561.793029	0.029636
562.006357	0.029590
562.219667	0.029532
562.432958	0.029421
562.646231	0.029310
562.859486	0.029414
563.072723	0.029110
563.285941	0.029282
563.499141	0.029114
563.712323	0.029066
563.925487	0.028590
564.138632	0.028440
564.351760	0.028088
564.564869	0.027958
564.777960	0.027762
564.991032	0.027532
565.204087	0.027060
565.417123	0.027437
565.630141	0.027057
565.843140	0.027396
566.056122	0.027555
566.269085	0.027843
566.482030	0.027870
566.694957	0.027619
566.907866	0.027960
567.120756	0.027295
567.333628	0.027162
567.546482	0.027320
567.759318	0.027428
567.972135	0.027461
568.184935	0.027535
568.397716	0.027778
568.610478	0.028283
568.823223	0.028171
569.035949	0.028852
569.248657	0.029078
569.461347	0.029499
569.674019	0.029240
569.886672	0.029049
570.099308	0.029093
570.311925	0.028936
570.524523	0.028670
570.737104	0.028886
570.949666	0.028970
571.162210	0.028560
571.374736	0.028241
571.587244	0.028116
571.799733	0.028016
572.012205	0.027843
572.224658	0.027897
572.437092	0.027960
572.649509	0.027550
572.861907	0.027449
573.074287	0.027629
573.286649	0.027781
573.498993	0.027683
573.711318	0.027867
573.923625	0.027866
574.135914	0.027673
574.348185	0.027540
574.560438	0.027793
574.772672	0.027707
574.984888	0.027399
575.197086	0.027053
575.409266	0.027179
575.621427	0.027010
575.833570	0.026870
576.045695	0.027009
576.257802	0.026672
576.469890	0.026812
576.681961	0.026482
576.894013	0.026661
577.106046	0.026711
577.318062	0.026533
577.530059	0.026237
577.742039	0.026418
577.954000	0.026365
578.165942	0.026828
578.377867	0.026567
578.589773	0.026637
578.801661	0.026633
579.013531	0.027046
579.225382	0.026984
579.437216	0.027446
579.649031	0.027073
579.860828	0.027318
580.072606	0.027086
580.284367	0.026939
580.496109	0.027270
580.707833	0.027532
580.919539	0.027270
581.131227	0.027203
581.342896	0.027148
581.554547	0.027614
581.766180	0.027354
581.977795	0.027618
582.189391	0.027741
582.400969	0.027833
582.612529	0.027857
582.824071	0.027542
583.035595	0.027799
583.247100	0.027619
583.458587	0.026956
583.670056	0.027279
583.881506	0.027253
584.092939	0.027108
584.304353	0.026909
584.515749	0.026495
584.727127	0.026562
584.938486	0.026549
585.149828	0.026667
585.361151	0.027476
585.572456	0.027019
585.783742	0.026809
585.995011	0.026782
586.206261	0.026621
586.417493	0.026694
586.628706	0.027159
586.839902	0.027185
587.051079	0.027108
587.262238	0.026802
587.473379	0.026819
587.684502	0.026744
587.895606	0.026758
588.106692	0.026655
588.317760	0.026865
588.528810	0.026339
588.739841	0.026021
588.950855	0.026057
589.161850	0.025995
589.372827	0.025819
589.583785	0.026182
589.794726	0.026238
590.005648	0.026440
590.216552	0.026559
590.427437	0.026788
590.638305	0.026892
590.849154	0.026858
591.059985	0.026970
591.270798	0.027318
591.481592	0.027207
591.692369	0.027402
591.903127	0.027618
592.113867	0.027082
592.324588	0.027108
592.535292	0.027265
592.745977	0.027505
592.956644	0.027502
593.167293	0.027585
593.377923	0.027711
593.588536	0.027555
593.799130	0.027684
594.009706	0.028324
594.220263	0.028557
594.430803	0.028664
594.641324	0.028549
594.851827	0.028451
595.062312	0.028551
595.272778	0.028298
595.483227	0.028114
595.693657	0.027698
595.904069	0.027312
596.114462	0.026979
596.324838	0.026926
596.535195	0.026770
596.745534	0.026847
596.955855	0.026561
597.166157	0.026609
597.376441	0.026807
597.586707	0.027118
597.796955	0.027013
598.007185	0.027073
598.217396	0.026779
598.427589	0.026643
598.637764	0.026145
598.847921	0.026307
599.058060	0.026269
599.268180	0.026443
599.478282	0.026102
599.688366	0.026413
599.898431	0.026527
600.108479	0.026702
600.318508	0.026848
600.528519	0.027362
600.738511	0.027173
600.948486	0.027289
601.158442	0.027056
601.368380	0.027397
601.578300	0.027221
601.788202	0.027256
601.998085	0.027261
602.207950	0.027180
602.417797	0.027011
602.627626	0.027315
602.837436	0.027067
603.047228	0.027105
603.257002	0.027021
603.466758	0.027039
603.676496	0.026987
603.886215	0.027197
604.095916	0.027587
604.305599	0.027752
604.515264	0.027363
604.724910	0.027634
604.934538	0.027802
605.144148	0.027748
605.353740	0.027643
605.563314	0.027576
605.772869	0.027374
605.982406	0.027203
606.191925	0.027050
606.401425	0.027208
606.610908	0.027125
606.820372	0.027049
607.029818	0.027118
607.239246	0.027200
607.448655	0.027186
607.658047	0.027193
607.867420	0.027137
608.076775	0.027135
608.286111	0.027343
608.495430	0.027568
608.704730	0.027319
608.914012	0.027426
609.123275	0.027194
609.332521	0.027347
609.541748	0.027187
609.750957	0.027018
609.960148	0.026969
610.169321	0.026626
610.378475	0.026661
610.587611	0.026769
610.796729	0.026583
611.005829	0.026657
611.214910	0.026690
611.423974	0.026857
611.633019	0.026988
611.842045	0.026933
612.051054	0.027015
612.260044	0.026674
612.469017	0.026448
612.677970	0.026431
612.886906	0.026489
613.095824	0.026287
613.304723	0.026139
613.513604	0.026286
613.722467	0.026532
613.931311	0.026655
614.140138	0.026515
614.348946	0.026672
614.557736	0.026491
614.766507	0.026517
614.975261	0.026492
615.183996	0.026528
615.392713	0.026398
615.601412	0.026372
615.810092	0.026059
616.018754	0.026080
616.227399	0.026114
616.436024	0.026176
616.644632	0.026198
616.853222	0.026079
617.061793	0.026293
617.270346	0.026129
617.478880	0.026051
617.687397	0.026219
617.895895	0.026201
618.104375	0.026319
618.312837	0.026390
618.521281	0.026369
618.729706	0.026468
618.938113	0.026371
619.146502	0.026289
619.354873	0.026052
619.563226	0.026067
619.771560	0.026120
619.979876	0.025960
620.188174	0.025970
620.396453	0.025645
620.604715	0.025559
620.812958	0.025349
621.021183	0.025502
621.229390	0.025761
621.437578	0.025996
621.645748	0.025903
621.853900	0.025933
622.062034	0.025865
622.270150	0.026125
622.478247	0.026083
622.686326	0.026150
622.894387	0.026069
623.102430	0.025949
623.310454	0.025907
623.518461	0.026182
623.726449	0.026229
623.934418	0.026538
624.142370	0.026736
624.350303	0.027001
624.558218	0.027316
624.766115	0.027404
624.973994	0.027461
625.181855	0.027361
625.389697	0.027122
625.597521	0.027270
625.805327	0.027142
626.013114	0.027187
626.220883	0.027300
626.428634	0.027138
626.636367	0.027259
626.844082	0.027450
627.051778	0.027466
627.259457	0.027693
627.467117	0.027554
627.674758	0.027717
627.882382	0.027541
628.089987	0.027540
628.297574	0.027627
628.505143	0.027538
628.712694	0.027380
628.920226	0.027486
629.127740	0.027470
629.335236	0.027512
629.542714	0.027212
629.750174	0.027084
629.957615	0.026814
630.165038	0.026731
630.372443	0.026764
630.579829	0.026790
630.787198	0.026662
630.994548	0.026543
631.201880	0.026543
631.409194	0.026577
631.616489	0.026684
631.823766	0.026922
632.031025	0.027026
632.238266	0.027139
632.445489	0.027402
632.652693	0.027386
632.859879	0.027674
633.067047	0.027902
633.274197	0.027901
633.481329	0.028171
633.688442	0.028213
633.895537	0.028148
634.102614	0.027994
634.309672	0.027719
634.516713	0.027851
634.723735	0.027818
634.930739	0.027624
635.137724	0.027683
635.344692	0.027478
635.551641	0.027402
635.758572	0.027581
635.965485	0.027875
636.172379	0.028062
636.379256	0.027779
636.586114	0.027719
636.792954	0.027904
636.999775	0.027927
637.206579	0.028231
637.413364	0.028291
637.620131	0.028251
637.826880	0.028053
638.033610	0.027877
638.240323	0.027947
638.447017	0.027853
638.653692	0.027839
638.860350	0.027807
639.066990	0.027819
639.273611	0.027864
639.480214	0.027744
639.686798	0.027771
639.893365	0.027797
640.099913	0.027976
640.306443	0.028237
640.512955	0.028172
640.719449	0.028196
640.925924	0.028019
641.132381	0.028006
641.338820	0.028094
641.545241	0.028138
641.751644	0.028112
641.958028	0.028018
642.164394	0.027788
642.370742	0.027712
642.577071	0.027691
642.783383	0.027503
642.989676	0.027284
643.195951	0.027355
643.402207	0.027344
643.608446	0.027358
643.814666	0.027434
644.020868	0.027578
644.227052	0.027624
644.433218	0.027692
644.639365	0.027990
644.845494	0.028317
645.051605	0.028131
645.257698	0.028258
645.463772	0.028357
645.669828	0.028450
645.875866	0.028461
646.081886	0.028402
646.287888	0.028387
646.493871	0.028449
646.699836	0.028587
646.905783	0.028852
647.111712	0.028902
647.317622	0.029076
647.523514	0.028978
647.729388	0.028928
647.935244	0.029250
648.141082	0.029489
648.346901	0.029492
648.552702	0.029202
648.758485	0.029022
648.964250	0.028903
649.169996	0.028894
649.375724	0.029271
649.581434	0.029477
649.787126	0.029422
649.992800	0.029479
650.198455	0.029655
650.404092	0.029761
650.609711	0.029941
650.815311	0.030024
651.020894	0.029979
651.226458	0.029971
651.432004	0.030035
651.637532	0.030169
651.843041	0.030329
652.048532	0.030130
652.254006	0.030073
652.459460	0.030122
652.664897	0.030197
652.870315	0.030271
653.075716	0.029928
653.281097	0.030005
653.486461	0.029775
653.691807	0.029633
653.897134	0.029705
654.102443	0.029991
654.307734	0.029973
654.513006	0.029929
654.718261	0.030020
654.923497	0.030334
655.128715	0.030116
655.333915	0.030058
655.539096	0.029942
655.744259	0.029984
655.949404	0.029779
656.154531	0.029744
656.359640	0.029669
656.564730	0.029504
656.769802	0.029554
656.974856	0.029623
657.179892	0.029846
657.384909	0.029850
657.589908	0.029893
657.794889	0.029973
657.999852	0.030168
658.204797	0.030447
658.409723	0.030526
658.614631	0.030533
658.819521	0.030811
659.024393	0.030930
659.229246	0.031131
659.434081	0.031082
659.638898	0.031319
659.843697	0.031285
660.048478	0.031174
660.253240	0.031465
660.457984	0.031523
660.662710	0.031455
660.867417	0.031503
661.072107	0.031608
661.276778	0.031734
661.481431	0.031862
661.686066	0.031940
661.890682	0.032126
662.095281	0.032025
662.299861	0.031950
662.504422	0.031917
662.708966	0.031676
662.913491	0.031872
663.117999	0.031839
663.322488	0.031714
663.526958	0.031672
663.731411	0.031663
663.935845	0.031918
664.140261	0.032069
664.344659	0.032290
664.549038	0.032444
664.753400	0.032213
664.957743	0.032225
665.162068	0.032216
665.366375	0.032228
665.570663	0.032287
665.774933	0.032078
665.979185	0.031949
666.183419	0.031634
666.387635	0.031749
666.591832	0.031690
666.796011	0.031750
667.000172	0.031735
667.204315	0.031835
667.408439	0.031683
667.612545	0.031746
667.816634	0.032099
668.020703	0.032485
668.224755	0.032525
668.428788	0.032726
668.632803	0.032652
668.836800	0.032644
669.040779	0.032610
669.244739	0.032661
669.448681	0.032797
669.652605	0.032619
669.856511	0.032323
670.060399	0.032282
670.264268	0.032416
670.468119	0.032615
670.671952	0.032722
670.875767	0.032896
671.079563	0.033019
671.283341	0.032953
671.487101	0.033134
671.690843	0.033338
671.894567	0.033461
672.098272	0.033308
672.301959	0.033266
672.505628	0.033264
672.709278	0.033140
672.912911	0.033322
673.116525	0.033347
673.320121	0.033214
673.523699	0.033180
673.727258	0.033112
673.930799	0.033121
674.134322	0.033201
674.337827	0.033316
674.541314	0.033541
674.744782	0.033481
674.948232	0.033392
675.151664	0.033411
675.355078	0.033629
675.558474	0.033677
675.761851	0.033896
675.965210	0.033944
676.168551	0.034166
676.371873	0.034047
676.575178	0.033982
676.778464	0.034234
676.981732	0.034423
677.184981	0.034239
677.388213	0.034360
677.591426	0.034258
677.794621	0.034272
677.997798	0.034128
678.200956	0.034303
678.404097	0.034521
678.607219	0.034488
678.810323	0.034291
679.013408	0.034317
679.216476	0.034189
679.419525	0.034153
679.622556	0.034274
679.825569	0.034152
680.028563	0.034028
680.231540	0.033812
680.434498	0.033717
680.637438	0.033905
680.840359	0.033907
681.043263	0.033892
681.246148	0.033805
681.449015	0.033679
681.651864	0.033814
681.854694	0.033914
682.057506	0.034006
682.260301	0.034256
682.463076	0.034237
682.665834	0.034227
682.868573	0.034260
683.071295	0.034420
683.273998	0.034399
683.476682	0.034409
683.679349	0.034426
683.881997	0.034528
684.084627	0.034422
684.287239	0.034515
684.489833	0.034724
684.692408	0.034776
684.894965	0.034864
685.097504	0.034962
685.300025	0.035039
685.502527	0.035097
685.705012	0.035260
685.907478	0.035305
686.109925	0.035257
686.312355	0.035322
686.514766	0.035443
686.717159	0.035339
686.919534	0.035379
687.121891	0.035264
687.324230	0.035354
687.526550	0.035169
687.728852	0.034931
687.931136	0.034919
688.133401	0.034729
688.335649	0.034631
688.537878	0.034708
688.740089	0.034585
688.942281	0.034660
689.144456	0.034611
689.346612	0.034423
689.548750	0.034652
689.750870	0.034637
689.952971	0.034593
690.155055	0.034802
690.357120	0.034721
690.559167	0.034836
690.761195	0.034783
690.963206	0.034764
691.165198	0.034984
691.367172	0.034877
691.569128	0.034693
691.771065	0.034735
691.972984	0.034293
692.174885	0.034235
692.376768	0.034256
692.578633	0.034151
692.780479	0.034025
692.982308	0.034046
693.184118	0.033953
693.385909	0.034204
693.587683	0.034225
693.789438	0.034607
693.991175	0.034801
694.192894	0.034712
694.394595	0.034847
694.596277	0.034888
694.797941	0.034791
694.999587	0.034726
695.201215	0.034674
695.402824	0.034625
695.604416	0.034408
695.805989	0.034248
696.007543	0.034355
696.209080	0.034315
696.410598	0.034237
696.612099	0.034268
696.813580	0.034250
697.015044	0.034215
697.216490	0.034172
697.417917	0.034271
697.619326	0.034359
697.820717	0.034169
698.022089	0.034121
698.223444	0.034170
698.424780	0.034226
698.626098	0.034545
698.827397	0.034483
699.028679	0.034621
699.229942	0.034589
699.431187	0.034482
699.632414	0.034486
699.833622	0.034567
700.034813	0.034350
700.235985	0.034155
700.437139	0.033958
700.638274	0.033869
700.839392	0.033865
701.040491	0.033894
701.241572	0.033887
701.442635	0.033962
701.643679	0.033924
701.844706	0.034031
702.045714	0.034201
702.246704	0.034255
702.447675	0.034284
702.648629	0.034352
702.849564	0.034208
703.050481	0.034272
703.251380	0.034325
703.452260	0.034245
703.653122	0.034324
703.853966	0.034240
704.054792	0.034199
704.255600	0.034259
704.456389	0.034115
704.657160	0.034215
704.857913	0.034137
705.058648	0.034118
705.259365	0.034160
705.460063	0.034174
705.660743	0.034167
705.861405	0.034138
706.062048	0.034209
706.262674	0.034285
706.463281	0.034237
706.663870	0.034458
706.864441	0.034583
707.064993	0.034581
707.265527	0.034591
707.466043	0.034778
707.666541	0.034795
707.867021	0.034787
708.067482	0.034821
708.267925	0.034952
708.468350	0.034654
708.668757	0.034581
708.869145	0.034789
709.069516	0.034849
709.269868	0.034702
709.470201	0.034884
709.670517	0.034982
709.870814	0.034921
710.071093	0.034812
710.271354	0.034961
710.471597	0.034823
710.671821	0.034394
710.872028	0.034182
711.072216	0.034062
711.272385	0.033862
711.472537	0.033537
711.672670	0.033438
711.872785	0.033536
712.072882	0.033492
712.272961	0.033617
712.473021	0.033596
712.673063	0.033676
712.873087	0.033703
713.073093	0.033769
713.273081	0.033925
713.473050	0.034048
713.673001	0.033917
713.872934	0.033843
714.072849	0.033719
714.272745	0.033923
714.472623	0.033808
714.672483	0.033879
714.872325	0.033858
715.072148	0.033836
715.271954	0.033711
715.471741	0.033854
715.671509	0.033929
715.871260	0.033976
716.070992	0.033986
716.270707	0.034116
716.470403	0.034166
716.670080	0.034128
716.869740	0.034162
717.069381	0.034196
717.269004	0.034042
717.468609	0.034069
717.668195	0.033960
717.867764	0.034024
718.067314	0.034097
718.266846	0.033977
718.466360	0.033891
718.665855	0.033884
718.865332	0.033802
719.064791	0.033731
719.264232	0.033631
719.463655	0.033609
719.663059	0.033553
719.862445	0.033346
720.061813	0.033226
720.261163	0.033098
720.460494	0.033029
720.659807	0.032895
720.859102	0.032966
721.058379	0.032737
721.257638	0.032775
721.456878	0.032587
721.656100	0.032509
721.855304	0.032253
722.054490	0.032310
722.253657	0.032072
722.452806	0.031874
722.651937	0.031682
722.851050	0.031727
723.050145	0.031602
723.249221	0.031595
723.448279	0.031640
723.647319	0.031799
723.846340	0.031465
724.045344	0.031435
724.244329	0.031501
724.443296	0.031377
724.642245	0.031388
724.841175	0.031328
725.040088	0.031192
725.238982	0.031198
725.437857	0.031124
725.636715	0.031380
725.835554	0.031626
726.034376	0.031728
726.233179	0.032004
726.431963	0.031963
726.630730	0.032047
726.829478	0.032316
727.028208	0.032134
727.226920	0.032085
727.425614	0.032097
727.624289	0.031894
727.822946	0.031853
728.021585	0.031641
728.220206	0.031645
728.418808	0.031608
728.617392	0.031328
728.815958	0.031359
729.014506	0.031483
729.213036	0.031454
729.411547	0.031460
729.610040	0.031527
729.808515	0.031367
730.006972	0.031353
730.205410	0.031193
730.403831	0.031037
730.602233	0.031033
730.800616	0.030818
730.998982	0.030682
731.197329	0.030726
731.395658	0.030787
731.593969	0.030989
731.792262	0.030886
731.990536	0.030996
732.188793	0.031242
732.387031	0.031326
732.585250	0.031436
732.783452	0.031534
732.981635	0.031320
733.179800	0.030993
733.377947	0.030978
733.576076	0.030950
733.774186	0.030918
733.972278	0.030654
734.170352	0.030464
734.368408	0.030426
734.566446	0.030564
734.764465	0.030531
734.962466	0.030731
735.160449	0.030385
735.358413	0.030335
735.556360	0.030277
735.754288	0.030490
735.952198	0.030493
736.150090	0.030441
736.347963	0.030254
736.545818	0.030302
736.743655	0.030083
736.941474	0.030503
737.139275	0.030805
737.337057	0.030777
737.534821	0.030703
737.732567	0.030711
737.930295	0.030722
738.128005	0.030637
738.325696	0.030781
738.523369	0.030780
738.721024	0.030853
738.918660	0.030635
739.116279	0.030478
739.313879	0.030500
739.511461	0.030469
739.709024	0.030451
739.906570	0.030579
740.104097	0.030456
740.301606	0.030532
740.499097	0.030303
740.696569	0.030278
740.894024	0.030420
741.091460	0.030451
741.288878	0.030399
741.486277	0.030386
741.683659	0.030404
741.881022	0.030262
742.078367	0.030221
742.275694	0.030129
742.473002	0.030174
742.670293	0.030251
742.867565	0.029998
743.064819	0.030041
743.262054	0.030341
743.459272	0.030258
743.656471	0.030505
743.853652	0.030811
744.050815	0.030924
744.247959	0.031001
744.445085	0.030942
744.642194	0.031215
744.839283	0.031347
745.036355	0.031229
745.233408	0.031324
745.430444	0.031288
745.627461	0.031171
745.824459	0.031230
746.021440	0.031250
746.218402	0.031264
746.415346	0.031369
746.612272	0.031313
746.809180	0.031023
747.006069	0.030978
747.202940	0.030983
747.399793	0.030855
747.596628	0.030924
747.793444	0.030908
747.990243	0.031054
748.187023	0.030987
748.383784	0.031079
748.580528	0.031402
748.777253	0.031464
748.973960	0.031413
749.170649	0.031467
749.367320	0.031309
749.563973	0.031173
749.760607	0.031138
749.957223	0.030998
750.153821	0.030793
750.350400	0.030599
750.546962	0.030473
750.743505	0.030353
750.940030	0.030115
751.136536	0.030061
751.333025	0.030075
751.529495	0.029866
751.725947	0.030009
751.922381	0.030111
752.118796	0.030113
752.315194	0.030188
752.511573	0.030329
752.707934	0.030509
752.904276	0.030760
753.100601	0.030850
753.296907	0.030997
753.493195	0.031003
753.689465	0.031058
753.885716	0.031060
754.081949	0.031021
754.278164	0.031124
754.474361	0.031109
754.670540	0.031028
754.866700	0.031058
755.062843	0.030992
755.258967	0.030898
755.455072	0.030742
755.651160	0.030649
755.847229	0.030718
756.043280	0.030578
756.239313	0.030560
756.435328	0.030440
756.631324	0.030304
756.827302	0.030256
757.023262	0.030255
757.219204	0.030226
757.415127	0.030280
757.611033	0.030129
757.806920	0.030003
758.002788	0.029971
758.198639	0.029898
758.394471	0.029954
758.590286	0.029739
758.786081	0.029620
758.981859	0.029560
759.177619	0.029398
759.373360	0.029362
759.569083	0.029255
759.764788	0.028931
759.960474	0.028697
760.156143	0.028442
760.351793	0.028499
760.547425	0.028332
760.743038	0.028321
760.938634	0.028346
761.134211	0.028347
761.329770	0.028550
761.525311	0.028847
761.720833	0.028944
761.916338	0.028990
762.111824	0.029054
762.307292	0.029100
762.502741	0.029136
762.698173	0.029146
762.893586	0.029116
763.088981	0.028880
763.284358	0.028735
763.479716	0.028913
763.675057	0.028867
763.870379	0.028851
764.065683	0.029025
764.260968	0.029070
764.456236	0.029230
764.651485	0.029151
764.846716	0.029244
765.041929	0.029456
765.237123	0.029597
765.432299	0.029683
765.627457	0.029776
765.822597	0.029731
766.017719	0.029701
766.212822	0.029574
766.407907	0.029693
766.602974	0.029852
766.798023	0.029734
766.993054	0.029535
767.188066	0.029799
767.383060	0.029884
767.578036	0.029944
767.772993	0.030104
767.967933	0.030257
768.162854	0.030276
768.357757	0.030205
768.552642	0.030315
768.747508	0.030076
768.942356	0.029986
769.137186	0.029906
769.331998	0.029791
769.526792	0.029742
769.721567	0.029527
769.916324	0.029366
770.111063	0.029106
770.305784	0.028946
770.500486	0.028964
770.695171	0.028810
770.889837	0.028619
771.084484	0.028502
771.279114	0.028176
771.473725	0.028147
771.668318	0.028095
771.862893	0.028153
772.057450	0.027980
772.251988	0.027853
772.446509	0.027737
772.641011	0.027560
772.835494	0.027415
773.029960	0.027314
773.224407	0.027149
773.418836	0.027166
773.613247	0.027187
773.807640	0.027314
774.002014	0.027371
774.196370	0.027308
774.390708	0.027311
774.585028	0.027337
774.779330	0.027689
774.973613	0.027793
775.167878	0.027900
775.362125	0.028053
775.556354	0.028175
775.750564	0.028230
775.944756	0.028268
776.138930	0.028222
776.333086	0.028347
776.527223	0.028267
776.721343	0.028615
776.915444	0.028424
777.109526	0.028372
777.303591	0.028258
777.497637	0.028442
777.691666	0.028515
777.885676	0.028868
778.079667	0.028861
778.273641	0.028758
778.467596	0.028432
778.661533	0.028385
778.855452	0.028316
779.049352	0.028392
779.243235	0.028263
779.437099	0.028170
779.630945	0.027972
779.824773	0.027826
780.018582	0.027661
780.212373	0.027831
780.406146	0.027859
780.599901	0.027716
780.793638	0.027622
780.987356	0.027536
781.181056	0.027628
781.374738	0.027717
781.568402	0.027982
781.762047	0.028330
781.955674	0.028230
782.149283	0.028397
782.342874	0.028653
782.536447	0.028689
782.730001	0.028823
782.923537	0.028697
783.117055	0.028377
783.310555	0.028204
783.504036	0.028007
783.697499	0.027981
783.890944	0.027955
784.084371	0.027876
784.277780	0.028052
784.471170	0.028059
784.664542	0.028134
784.857896	0.028475
785.051231	0.028750
785.244549	0.028930
785.437848	0.029068
785.631129	0.029235
785.824392	0.029199
786.017636	0.029135
786.210863	0.029175
786.404071	0.029216
786.597260	0.029215
786.790432	0.029214
786.983585	0.029332
787.176721	0.029269
787.369838	0.029091
787.562936	0.029250
787.756017	0.029097
787.949079	0.029031
788.142123	0.029144
788.335149	0.029079
788.528156	0.029012
788.721146	0.028730
788.914117	0.028553
789.107070	0.028542
789.300005	0.028478
789.492921	0.028367
789.685819	0.028294
789.878699	0.028038
790.071561	0.027986
790.264405	0.027767
790.457230	0.027723
790.650037	0.027882
790.842826	0.027914
791.035597	0.027949
791.228349	0.028078
791.421084	0.028094
791.613800	0.028127
791.806497	0.028092
791.999177	0.028053
792.191838	0.028088
792.384481	0.027962
792.577106	0.027800
792.769713	0.027811
792.962301	0.027732
793.154871	0.027594
793.347423	0.027707
793.539957	0.027610
793.732473	0.027692
793.924970	0.027784
794.117449	0.028024
794.309910	0.028274
794.502353	0.028101
794.694777	0.028600
794.887183	0.028902
795.079571	0.029050
795.271941	0.029363
795.464293	0.029552
795.656626	0.029572
795.848941	0.029666
796.041238	0.029596
796.233516	0.029862
796.425777	0.029630
796.618019	0.029558
796.810243	0.029566
797.002449	0.029591
797.194636	0.029404
797.386805	0.029416
797.578956	0.029278
797.771089	0.029248
797.963204	0.029138
798.155300	0.029091
798.347378	0.029396
798.539438	0.029296
798.731480	0.029166
798.923503	0.029352
799.115509	0.029483
799.307496	0.029478
799.499465	0.029588
799.691415	0.029563
799.883348	0.029777
800.075262	0.029685
800.267158	0.029668
800.459035	0.029854
800.650895	0.029823
800.842736	0.029577
801.034559	0.029658
801.226364	0.029618
801.418150	0.029682
801.609919	0.029619
801.801669	0.029543
801.993401	0.029785
802.185114	0.029813
802.376810	0.030028
802.568487	0.030430
802.760146	0.030368
802.951787	0.030364
803.143409	0.030423
803.335014	0.030329
803.526600	0.030408
803.718168	0.030349
803.909717	0.030325
804.101249	0.030317
804.292762	0.030292
804.484257	0.030524
804.675734	0.030698
804.867192	0.030664
805.058632	0.030688
805.250054	0.030763
805.441458	0.030709
805.632844	0.030777
805.824211	0.030657
806.015561	0.030474
806.206891	0.030295
806.398204	0.030328
806.589499	0.030402
806.780775	0.030408
806.972033	0.030232
807.163273	0.030272
807.354495	0.030416
807.545698	0.030353
807.736883	0.030669
807.928050	0.030677
808.119199	0.030604
808.310329	0.030609
808.501441	0.030647
808.692535	0.030805
808.883611	0.030755
809.074669	0.030619
809.265708	0.030846
809.456729	0.030911
809.647732	0.031054
809.838717	0.031080
810.029683	0.031131
810.220632	0.031153
810.411562	0.031076
810.602474	0.031286
810.793367	0.031300
810.984242	0.031305
811.175100	0.031031
811.365938	0.031134
811.556759	0.031179
811.747562	0.031111
811.938346	0.031306
812.129112	0.031594
812.319860	0.031631
812.510589	0.031825
812.701300	0.031837
812.891994	0.032087
813.082668	0.032172
813.273325	0.032455
813.463964	0.032677
813.654584	0.032621
813.845186	0.032578
814.035769	0.032563
814.226335	0.032490
814.416882	0.032524
814.607411	0.032654
814.797922	0.032795
814.988415	0.032825
815.178889	0.032866
815.369345	0.033103
815.559783	0.033175
815.750203	0.033318
815.940605	0.033396
816.130988	0.033485
816.321353	0.033381
816.511700	0.033144
816.702028	0.033233
816.892339	0.033298
817.082631	0.033294
817.272905	0.033275
817.463161	0.033174
817.653398	0.033271
817.843617	0.033504
818.033819	0.033794
818.224001	0.034067
818.414166	0.034021
818.604312	0.034118
818.794440	0.034271
818.984550	0.034382
819.174642	0.034477
819.364716	0.034538
819.554771	0.034544
819.744808	0.034499
819.934827	0.034382
820.124827	0.034271
820.314810	0.034049
820.504774	0.033856
820.694720	0.033852
820.884647	0.033978
821.074557	0.033922
821.264448	0.033866
821.454321	0.033772
821.644176	0.033784
821.834012	0.033944
822.023831	0.033960
822.213631	0.033781
822.403413	0.033879
822.593176	0.033710
822.782922	0.033665
822.972649	0.033548
823.162358	0.033385
823.352049	0.033598
823.541721	0.033578
823.731376	0.033746
823.921012	0.033804
824.110629	0.033777
824.300229	0.033957
824.489811	0.034010
824.679374	0.034113
824.868919	0.034395
825.058445	0.034279
825.247954	0.034428
825.437444	0.034502
825.626916	0.034836
825.816370	0.034738
826.005806	0.034841
826.195223	0.034975
826.384622	0.034956
826.574003	0.034902
826.763366	0.034856
826.952711	0.034641
827.142037	0.034555
827.331345	0.034529
827.520635	0.034770
827.709906	0.034652
827.899160	0.034556
828.088395	0.034524
828.277612	0.034478
828.466810	0.034408
828.655991	0.034542
828.845153	0.034424
829.034297	0.034271
829.223423	0.033950
829.412531	0.034041
829.601620	0.034195
829.790691	0.034278
829.979744	0.034380
830.168779	0.034498
830.357795	0.034598
830.546793	0.034845
830.735773	0.034953
830.924735	0.035215
831.113679	0.034974
831.302604	0.035110
831.491511	0.035042
831.680400	0.034944
831.869271	0.034985
832.058123	0.035183
832.246957	0.035005
832.435773	0.035287
832.624571	0.035478
832.813351	0.035761
833.002112	0.035790
833.190855	0.036243
833.379580	0.036449
833.568287	0.036541
833.756975	0.036450
833.945645	0.036972
834.134297	0.036887
834.322931	0.036780
834.511547	0.036887
834.700144	0.037089
834.888723	0.037067
835.077284	0.037088
835.265826	0.037435
835.454351	0.037448
835.642857	0.037494
835.831345	0.037381
836.019815	0.037542
836.208266	0.037460
836.396699	0.037355
836.585114	0.037512
836.773511	0.037591
836.961890	0.037592
837.150250	0.037700
837.338592	0.037790
837.526916	0.038223
837.715222	0.038484
837.903510	0.038861
838.091779	0.039031
838.280030	0.039095
838.468263	0.039324
838.656477	0.039785
838.844674	0.039988
839.032852	0.040122
839.221012	0.040127
839.409153	0.039968
839.597277	0.039962
839.785382	0.040423
839.973469	0.040371
840.161538	0.040237
840.349589	0.040066
840.537621	0.040179
840.725635	0.040104
840.913631	0.040421
841.101609	0.040787
841.289568	0.040974
841.477509	0.040663
841.665432	0.040932
841.853337	0.041333
842.041224	0.041463
842.229092	0.041552
842.416942	0.041455
842.604774	0.041523
842.792588	0.041573
842.980383	0.041545
843.168160	0.041778
843.355919	0.041754
843.543660	0.041903
843.731382	0.041933
843.919087	0.041991
844.106773	0.042379
844.294441	0.042283
844.482090	0.042218
844.669722	0.042545
844.857335	0.042523
845.044930	0.042626
845.232507	0.042583
845.420065	0.042800
845.607605	0.042793
845.795127	0.042668
845.982631	0.042834
846.170117	0.042872
846.357584	0.042801
846.545033	0.042778
846.732464	0.042824
846.919877	0.042950
847.107272	0.042817
847.294648	0.042874
847.482006	0.043178
847.669346	0.043182
847.856667	0.043375
848.043971	0.043733
848.231256	0.044149
848.418523	0.044324
848.605771	0.044550
848.793002	0.044781
848.980214	0.044955
849.167408	0.045069
849.354584	0.045314
849.541742	0.045447
849.728881	0.045318
849.916002	0.045270
850.103105	0.045287
850.290190	0.045427
850.477256	0.045472
850.664304	0.045668
850.851334	0.045700
851.038346	0.045716
851.225340	0.046085
851.412315	0.046412
851.599272	0.046554
851.786211	0.046651
851.973132	0.046732
852.160034	0.047066
852.346918	0.047310
852.533784	0.047541
852.720632	0.047471
852.907462	0.047501
853.094273	0.047428
853.281066	0.047297
853.467841	0.047455
853.654598	0.047273
853.841336	0.047113
854.028056	0.046975
854.214758	0.047132
854.401442	0.047334
854.588107	0.047514
854.774755	0.047331
854.961384	0.047396
855.147995	0.047279
855.334587	0.047395
855.521162	0.047342
855.707718	0.047516
855.894256	0.047346
856.080775	0.047458
856.267277	0.047241
856.453760	0.047660
856.640225	0.047877
856.826672	0.048328
857.013101	0.048500
857.199511	0.048892
857.385903	0.048846
857.572277	0.049205
857.758633	0.049225
857.944970	0.049526
858.131290	0.049453
858.317591	0.049318
858.503873	0.049205
858.690138	0.049283
858.876384	0.049043
859.062612	0.049195
859.248822	0.049233
859.435014	0.049191
859.621188	0.049125
859.807343	0.049623
859.993480	0.050291
860.179599	0.050421
860.365699	0.050366
860.551781	0.050460
860.737846	0.050855
860.923891	0.050703
861.109919	0.050977
861.295929	0.050871
861.481920	0.050656
861.667893	0.050469
861.853848	0.050571
862.039784	0.050730
862.225702	0.051226
862.411603	0.050995
862.597484	0.051192
862.783348	0.051392
862.969193	0.051660
863.155021	0.051636
863.340830	0.051637
863.526620	0.051609
863.712393	0.051621
863.898147	0.051455
864.083883	0.051424
864.269601	0.051243
864.455301	0.050953
864.640982	0.050867
864.826645	0.050720
865.012290	0.050735
865.197917	0.050739
865.383526	0.050729
865.569116	0.050396
865.754688	0.050462
865.940242	0.050494
866.125777	0.050544
866.311295	0.050709
866.496794	0.050811
866.682275	0.051000
866.867737	0.051135
867.053182	0.051382
867.238608	0.051445
867.424016	0.051876
867.609406	0.052117
867.794778	0.052428
867.980131	0.052347
868.165466	0.052407
868.350783	0.052421
868.536082	0.052498
868.721362	0.052282
868.906625	0.052476
869.091869	0.052445
869.277094	0.052635
869.462302	0.052663
869.647491	0.052810
869.832662	0.052756
870.017815	0.052773
870.202950	0.052781
870.388066	0.053030
870.573165	0.052944
870.758245	0.052619
870.943306	0.052302
871.128350	0.052004
871.313375	0.051672
871.498382	0.051893
871.683371	0.051896
871.868342	0.051680
872.053294	0.051495
872.238229	0.051652
872.423144	0.051767
872.608042	0.051837
872.792922	0.051855
872.977783	0.051655
873.162626	0.051622
873.347451	0.051693
873.532258	0.051925
873.717046	0.052132
873.901816	0.052144
874.086568	0.052476
874.271302	0.052820
874.456017	0.053223
874.640715	0.053645
874.825394	0.053774
875.010055	0.053686
875.194697	0.053475
875.379322	0.053621
875.563928	0.053754
875.748516	0.053650
875.933085	0.053639
876.117637	0.053628
876.302170	0.053915
876.486685	0.053757
876.671182	0.053852
876.855661	0.054044
877.040121	0.053780
877.224563	0.053910
877.408987	0.053836
877.593393	0.053977
877.777780	0.053847
877.962150	0.053940
878.146501	0.054104
878.330833	0.054120
878.515148	0.054040
878.699444	0.054515
878.883722	0.054684
879.067982	0.054980
879.252224	0.054909
879.436447	0.055413
879.620653	0.055228
879.804840	0.055313
879.989008	0.055634
880.173159	0.056141
880.357291	0.056069
880.541405	0.056117
880.725501	0.055934
880.909579	0.056040
881.093638	0.055879
881.277680	0.056012
881.461703	0.056417
881.645707	0.056349
881.829694	0.056126
882.013662	0.056268
882.197612	0.056366
882.381544	0.056305
882.565458	0.056321
882.749353	0.055976
882.933230	0.056118
883.117089	0.055810
883.300930	0.055781
883.484753	0.055776
883.668557	0.055439
883.852343	0.055374
884.036111	0.055354
884.219861	0.055168
884.403592	0.055210
884.587305	0.055248
884.771000	0.054913
884.954677	0.054578
885.138335	0.054530
885.321976	0.054331
885.505598	0.054080
885.689201	0.054078
885.872787	0.054160
886.056354	0.054032
886.239904	0.053621
886.423434	0.053802
886.606947	0.053888
886.790442	0.054088
886.973918	0.054321
887.157376	0.054151
887.340816	0.053951
887.524237	0.053711
887.707641	0.053904
887.891026	0.053948
888.074393	0.053893
888.257741	0.053742
888.441072	0.053662
888.624384	0.053675
888.807678	0.053800
888.990954	0.053600
889.174211	0.053783
889.357451	0.053779
889.540672	0.053959
889.723875	0.054201
889.907059	0.053935
890.090226	0.053931
890.273374	0.053799
890.456504	0.053605
890.639616	0.053968
890.822709	0.054105
891.005785	0.053874
891.188842	0.054023
891.371881	0.053711
891.554901	0.053917
891.737904	0.054185
891.920888	0.054003
892.103854	0.054357
892.286802	0.054074
892.469731	0.053931
892.652643	0.054351
892.835536	0.054372
893.018410	0.054554
893.201267	0.054674
893.384106	0.054138
893.566926	0.054176
893.749728	0.054246
893.932511	0.054611
894.115277	0.054296
894.298024	0.054453
894.480753	0.054496
894.663464	0.054027
894.846157	0.054051
895.028831	0.053878
895.211487	0.054069
895.394125	0.053759
895.576745	0.053455
895.759346	0.053567
895.941930	0.053177
896.124495	0.052851
896.307041	0.053367
896.489570	0.053306
896.672080	0.053538
896.854573	0.053603
897.037046	0.053533
897.219502	0.053976
897.401940	0.054028
897.584359	0.054350
897.766760	0.054362
897.949143	0.054423
898.131507	0.054347
898.313854	0.054254
898.496182	0.054478
898.678492	0.054695
898.860783	0.054369
899.043057	0.054361
899.225312	0.053733
899.407549	0.053874
899.589768	0.053774
899.771968	0.054240
899.954151	0.054296
900.136315	0.053963
900.318461	0.053600
900.500588	0.053579
900.682698	0.053425
900.864789	0.053776
901.046862	0.053412
901.228917	0.053188
901.410953	0.052602
901.592971	0.052332
901.774972	0.052040
901.956953	0.052066
902.138917	0.052030
902.320862	0.052235
902.502790	0.051915
902.684699	0.051819
902.866589	0.051888
903.048462	0.052020
903.230316	0.052276
903.412152	0.052431
903.593970	0.052632
903.775770	0.052552
903.957551	0.052139
904.139314	0.052027
904.321059	0.051668
904.502786	0.051266
904.684494	0.051165
904.866185	0.050870
905.047857	0.050806
905.229510	0.050325
905.411146	0.050085
905.592763	0.049949
905.774363	0.050004
905.955943	0.050418
906.137506	0.050102
906.319051	0.050084
906.500577	0.049813
906.682085	0.049644
906.863575	0.049861
907.045046	0.050046
907.226500	0.050276
907.407935	0.050426
907.589352	0.050111
907.770750	0.050718
907.952131	0.050237
908.133493	0.050527
908.314837	0.050497
908.496163	0.050749
908.677470	0.050302
908.858760	0.050052
909.040031	0.049521
909.221284	0.049229
909.402518	0.048824
909.583735	0.048966
909.764933	0.048797
909.946113	0.048752
910.127275	0.048030
910.308418	0.048157
910.489544	0.047875
910.670651	0.048046
910.851740	0.048149
911.032810	0.048050
911.213863	0.048273
911.394897	0.048248
911.575913	0.047903
911.756911	0.048057
911.937890	0.047922
912.118851	0.048065
912.299794	0.047686
912.480719	0.047622
912.661626	0.047276
912.842514	0.046634
913.023384	0.046363
913.204236	0.046376
913.385070	0.046141
913.565886	0.045811
913.746683	0.045186
913.927462	0.045138
914.108223	0.044756
914.288965	0.044773
914.469690	0.044680
914.650396	0.044122
914.831084	0.043934
915.011754	0.043969
915.192405	0.043713
915.373038	0.043933
915.553653	0.043756
915.734250	0.043867
915.914829	0.043752
916.095389	0.043192
916.275931	0.043106
916.456455	0.043034
916.636961	0.042552
916.817448	0.042517
916.997917	0.042179
917.178368	0.041866
917.358801	0.041269
917.539216	0.040877
917.719612	0.040699
917.899990	0.040738
918.080350	0.040119
918.260692	0.039500
918.441015	0.039186
918.621320	0.038868
918.801607	0.038890
918.981876	0.039000
919.162127	0.039180
919.342359	0.039193
919.522573	0.039280
919.702769	0.039395
919.882947	0.039431
920.063106	0.039118
920.243247	0.039038
920.423370	0.038540
920.603475	0.038394
920.783562	0.037928
920.963630	0.038035
921.143680	0.037372
921.323712	0.037253
921.503725	0.037138
921.683721	0.037532
921.863698	0.037385
922.043657	0.037328
922.223598	0.037571
922.403520	0.037719
922.583424	0.037190
922.763311	0.037240
922.943178	0.036990
923.123028	0.036439
923.302859	0.035691
923.482673	0.035469
923.662467	0.035421
923.842244	0.034704
924.022003	0.034058
924.201743	0.034132
924.381465	0.034057
924.561169	0.033452
924.740854	0.033981
924.920522	0.033972
925.100171	0.033869
925.279802	0.033430
925.459414	0.033236
925.639009	0.032951
925.818585	0.032729
925.998143	0.032328
926.177683	0.032501
926.357205	0.031835
926.536708	0.031651
926.716193	0.031677
926.895660	0.031486
927.075109	0.031305
927.254539	0.030890
927.433951	0.030209
927.613345	0.029740
927.792721	0.028947
927.972079	0.028562
928.151418	0.027962
928.330739	0.027264
928.510042	0.026410
928.689327	0.025985
928.868593	0.026117
929.047841	0.026334
929.227071	0.026203
929.406283	0.025970
929.585476	0.025852
929.764652	0.026010
929.943809	0.025589
930.122948	0.026183
930.302068	0.026189
930.481171	0.026067
930.660255	0.025862
930.839321	0.025769
931.018369	0.025956
931.197398	0.025222
931.376409	0.024450
931.555402	0.024867
931.734377	0.024166
931.913334	0.023096
932.092272	0.022568
932.271192	0.021782
932.450094	0.021542
932.628978	0.021111
932.807844	0.021219
932.986691	0.020910
933.165520	0.019548
933.344331	0.018872
933.523123	0.019403
933.701898	0.018958
933.880654	0.018959
934.059392	0.018350
934.238111	0.017705
934.416813	0.018111
934.595496	0.017869
934.774161	0.018048
934.952808	0.017804
935.131437	0.016505
935.310047	0.015806
935.488639	0.015150
935.667213	0.014156
935.845769	0.014190
936.024306	0.012973
936.202825	0.012304
936.381326	0.011600
936.559809	0.011603
936.738274	0.011526
936.916720	0.011610
937.095148	0.011336
937.273558	0.011940
937.451950	0.011452
937.630323	0.011315
937.808678	0.011473
937.987015	0.011053
938.165334	0.010726
938.343635	0.010479
938.521917	0.010119
938.700181	0.009809
938.878427	0.008562
939.056655	0.008507
939.234864	0.008215
939.413055	0.007538
939.591228	0.007437
939.769383	0.006970
939.947519	0.006184
940.125638	0.006325
940.303738	0.006393
940.481820	0.006448
940.659883	0.005703
940.837929	0.005118
941.015956	0.004773
941.193965	0.004986
941.371955	0.005316
941.549928	0.005816
941.727882	0.004902
941.905818	0.004324
942.083736	0.004822
942.261636	0.004300
942.439517	0.003678
942.617380	0.004066
942.795225	0.003323
942.973052	0.001879
943.150860	0.001525
943.328651	0.001374
943.506423	0.000199
943.684176	-0.001057
943.861912	-0.001141
944.039629	-0.000680
944.217328	-0.000770
944.395009	-0.000405
944.572672	-0.000102
944.750317	-0.000100
944.927943	-0.000014
945.105551	-0.000055
945.283141	0.000110
945.460712	0.000214
945.638265	-0.000296
945.815801	-0.000782
945.993317	-0.000530
946.170816	-0.000094
946.348297	-0.000947
946.525759	-0.001203
946.703203	-0.000823
946.880629	-0.000848
947.058036	-0.000940
947.235425	-0.000308
947.412797	-0.000626
947.590149	-0.000660
947.767484	-0.000628
947.944800	-0.000138
948.122099	-0.000458
948.299379	0.000685
948.476640	0.000645
948.653884	0.000684
948.831109	0.000313
949.008316	0.000768
949.185505	-0.000693
949.362676	-0.000462
949.539828	-0.000937
949.716962	-0.000353
949.894078	-0.000452
950.071176	-0.001074
950.248256	-0.001869
950.425317	-0.001670
950.602360	-0.002480
950.779385	-0.001917
950.956391	-0.003125
951.133380	-0.002476
951.310350	-0.003316
951.487302	-0.003295
951.664235	-0.002745
951.841151	-0.001721
952.018048	-0.002885
952.194927	-0.003033
952.371788	-0.002921
952.548631	-0.002009
952.725455	-0.002451
952.902261	-0.001543
953.079049	-0.001000
953.255819	-0.000144
953.432570	-0.000151
953.609303	0.001266
953.786018	0.003259
953.962715	0.004251
954.139394	0.004123
954.316054	0.005008
954.492696	0.006175
954.669320	0.005217
954.845926	0.005326
955.022513	0.005396
955.199083	0.005815
955.375634	0.004475
955.552166	0.004709
955.728681	0.005827
955.905177	0.006221
956.081655	0.005024
956.258115	0.005669
956.434557	0.006790
956.610980	0.006724
956.787385	0.006715
956.963772	0.006718
957.140141	0.007084
957.316492	0.007916
957.492824	0.007716
957.669138	0.007831
957.845434	0.007615
958.021712	0.005901
958.197971	0.006935
958.374212	0.006388
958.550435	0.007796
958.726640	0.007015
958.902826	0.006542
959.078995	0.006947
959.255145	0.009449
959.431277	0.011228
959.607390	0.013233
959.783486	0.013265
959.959563	0.013193
960.135622	0.013181
960.311662	0.013002
960.487685	0.012337
960.663689	0.013687
960.839675	0.012589
961.015643	0.011487
961.191593	0.011037
961.367524	0.010830
961.543437	0.010360
961.719332	0.011969
961.895209	0.012932
962.071067	0.013214
962.246907	0.012130
962.422730	0.010449
962.598533	0.011081
962.774319	0.011353
962.950086	0.011669
963.125835	0.014502
963.301566	0.014178
963.477279	0.014924
963.652973	0.016024
963.828650	0.017094
964.004308	0.019562
964.179947	0.018928
964.355569	0.020715
964.531172	0.022097
964.706757	0.021260
964.882324	0.021971
965.057873	0.019891
965.233403	0.019737
965.408916	0.020487
965.584410	0.021723
965.759885	0.022260
965.935343	0.021758
966.110782	0.019647
966.286203	0.019414
966.461606	0.018350
966.636991	0.021632
966.812357	0.021860
966.987705	0.021294
967.163035	0.020733
967.338347	0.019932
967.513641	0.019983
967.688916	0.022133
967.864173	0.023157
968.039412	0.023333
968.214632	0.023675
968.389835	0.024562
968.565019	0.026452
968.740185	0.024078
968.915333	0.024963
969.090462	0.024407
969.265573	0.024909
969.440667	0.026416
969.615741	0.027323
969.790798	0.026215
969.965836	0.027853
970.140856	0.027864
970.315858	0.028997
970.490842	0.029450
970.665808	0.029074
970.840755	0.027954
971.015684	0.026766
971.190595	0.024682
971.365487	0.025929
971.540362	0.026377
971.715218	0.025754
971.890056	0.027012
972.064875	0.027802
972.239677	0.027781
972.414460	0.028738
972.589225	0.029134
972.763972	0.029867
972.938700	0.030420
973.113411	0.028359
973.288103	0.028641
973.462777	0.027445
973.637432	0.027377
973.812070	0.027538
973.986689	0.028526
974.161290	0.027778
974.335873	0.027875
974.510437	0.024915
974.684984	0.024980
974.859512	0.024595
975.034022	0.023495
975.208513	0.023282
975.382987	0.024052
975.557442	0.023022
975.731879	0.023687
975.906298	0.025006
976.080698	0.026165
976.255080	0.026748
976.429445	0.025616
976.603790	0.026662
976.778118	0.027376
976.952427	0.027100
977.126719	0.027908
977.300992	0.027557
977.475246	0.027727
977.649483	0.028121
977.823701	0.026854
977.997901	0.028182
978.172083	0.026998
978.346247	0.027527
978.520392	0.027745
978.694519	0.025701
978.868628	0.026887
979.042719	0.027046
979.216791	0.027671
979.390845	0.028293
979.564882	0.028040
979.738899	0.030164
979.912899	0.029208
980.086880	0.027417
980.260843	0.029536
980.434788	0.029199
980.608715	0.028586
980.782623	0.026866
980.956514	0.027467
981.130386	0.026156
981.304240	0.025724
981.478075	0.026205
981.651892	0.027809
981.825692	0.027287
981.999472	0.028060
982.173235	0.028432
982.346980	0.028341
982.520706	0.026750
982.694414	0.026070
982.868104	0.026988
983.041775	0.026292
983.215428	0.026322
983.389064	0.024786
983.562680	0.022039
983.736279	0.022560
983.909860	0.023008
984.083422	0.025548
984.256966	0.027070
984.430491	0.025830
984.603999	0.026022
984.777488	0.025530
984.950959	0.027520
985.124412	0.030407
985.297847	0.029773
985.471263	0.030358
985.644661	0.028630
985.818041	0.029188
985.991403	0.030493
986.164747	0.030047
986.338072	0.032310
986.511379	0.031149
986.684668	0.030685
986.857938	0.030285
987.031191	0.030744
987.204425	0.030832
987.377641	0.031162
987.550839	0.029895
987.724018	0.029703
987.897179	0.027802
988.070322	0.028534
988.243447	0.027088
988.416554	0.025963
988.589642	0.024048
988.762712	0.024825
988.935764	0.023246
989.108798	0.023647
989.281813	0.024127
989.454811	0.024639
989.627790	0.025480
989.800751	0.025591
989.973693	0.026335
990.146617	0.027779
990.319524	0.027465
990.492412	0.027544
990.665281	0.026861
990.838133	0.026773
991.010966	0.026245
991.183781	0.024070
991.356578	0.023605
991.529356	0.024031
991.702117	0.023956
991.874859	0.023848
992.047583	0.024746
992.220288	0.024625
992.392976	0.024415
992.565645	0.024561
992.738296	0.026453
992.910929	0.026899
993.083543	0.026619
993.256139	0.025509
993.428718	0.022651
993.601277	0.021713
993.773819	0.022220
993.946342	0.022988
994.118848	0.021679
994.291335	0.019955
994.463803	0.020793
994.636254	0.021469
994.808686	0.021861
994.981100	0.023673
995.153496	0.025423
995.325874	0.026490
995.498233	0.025929
995.670574	0.026213
995.842897	0.026478
996.015202	0.025939
996.187488	0.027230
996.359757	0.027315
996.532007	0.027381
996.704239	0.025406
996.876452	0.024187
997.048648	0.024190
997.220825	0.024297
997.392984	0.025241
997.565124	0.024059
997.737247	0.022079
997.909351	0.022707
998.081437	0.022982
998.253505	0.025237
998.425554	0.025355
998.597586	0.024935
998.769599	0.025755
998.941594	0.025139
999.113571	0.026732
999.285529	0.027272
999.457469	0.027436
999.629391	0.027669
999.801295	0.025867
999.973181	0.026893
1000.145048	0.028211
1000.316897	0.027993
1000.488728	0.026598
1000.660541	0.025196
1000.832335	0.023708
1001.004111	0.023401
1001.175869	0.022366
1001.347609	0.023575
1001.519331	0.021085
1001.691034	0.020041
1001.862719	0.020047
1002.034386	0.021596
1002.206035	0.022331
1002.377665	0.021975
1002.549277	0.021948
1002.720871	0.023520
1002.892447	0.023209
1003.064004	0.024484
1003.235544	0.024767
1003.407065	0.023712
1003.578568	0.024166
1003.750052	0.023593
1003.921519	0.024882
1004.092967	0.025699
1004.264397	0.025682
1004.435809	0.025906
1004.607202	0.025291
1004.778577	0.025025
1004.949934	0.025853
1005.121273	0.024901
1005.292594	0.024692
1005.463896	0.023779
1005.635180	0.022326
1005.806446	0.022533
1005.977694	0.020235
1006.148923	0.020905
1006.320135	0.022354
1006.491328	0.022534
1006.662503	0.022287
1006.833659	0.022484
1007.004798	0.023799
1007.175918	0.024652
1007.347020	0.023417
1007.518103	0.024332
1007.689169	0.024005
1007.860216	0.021826
1008.031245	0.022116
1008.202256	0.020866
1008.373248	0.021473
1008.544223	0.020762
1008.715179	0.020119
1008.886117	0.020153
1009.057036	0.021105
1009.227938	0.021604
1009.398821	0.022232
1009.569686	0.022296
1009.740533	0.023063
1009.911361	0.023593
1010.082172	0.024636
1010.252964	0.025046
1010.423738	0.025523
1010.594493	0.025110
1010.765231	0.024324
1010.935950	0.024222
1011.106651	0.022928
1011.277334	0.024196
1011.447998	0.024091
1011.618645	0.022700
1011.789273	0.023832
1011.959882	0.024866
1012.130474	0.025603
1012.301048	0.025533
1012.471603	0.026196
1012.642140	0.027555
1012.812658	0.028964
1012.983159	0.027193
1013.153641	0.028295
1013.324105	0.026904
1013.494551	0.025174
1013.664979	0.024641
1013.835388	0.025443
1014.005779	0.024273
1014.176152	0.023425
1014.346507	0.023064
1014.516843	0.024519
1014.687162	0.023017
1014.857462	0.023082
1015.027744	0.024416
1015.198007	0.023147
1015.368252	0.022342
1015.538480	0.021590
1015.708689	0.021971
1015.878879	0.019317
1016.049052	0.018788
1016.219206	0.019396
1016.389342	0.019604
1016.559460	0.018437
1016.729559	0.019329
1016.899641	0.020940
1017.069704	0.022272
1017.239749	0.022564
1017.409775	0.023883
1017.579784	0.024997
1017.749774	0.024501
1017.919746	0.024223
1018.089700	0.023606
1018.259635	0.024074
1018.429553	0.022179
1018.599452	0.022838
1018.769333	0.022638
1018.939195	0.023035
1019.109040	0.020450
1019.278866	0.020360
1019.448674	0.020428
1019.618464	0.020321
1019.788235	0.020231
1019.957989	0.020649
1020.127724	0.019231
1020.297441	0.018700
1020.467139	0.019206
1020.636820	0.021086
1020.806482	0.022091
1020.976126	0.020630
1021.145752	0.020299
1021.315359	0.019002
1021.484948	0.020139
1021.654519	0.020570
1021.824072	0.021194
1021.993607	0.021397
1022.163123	0.021208
1022.332621	0.020074
1022.502101	0.021128
1022.671563	0.022393
1022.841007	0.023615
1023.010432	0.022461
1023.179839	0.021509
1023.349228	0.020710
1023.518598	0.018928
1023.687951	0.018790
1023.857285	0.020582
1024.026601	0.020829
1024.195899	0.020167
1024.365178	0.019709
1024.534439	0.019611
1024.703682	0.019761
1024.872907	0.018077
1025.042114	0.019139
1025.211302	0.019394
1025.380472	0.018625
1025.549624	0.018277
1025.718758	0.018810
1025.887873	0.018158
1026.056970	0.020026
1026.226049	0.020297
1026.395110	0.022029
1026.564153	0.021916
1026.733177	0.021364
1026.902183	0.020943
1027.071171	0.022489
1027.240141	0.023210
1027.409092	0.024006
1027.578026	0.022499
1027.746940	0.022479
1027.915837	0.024103
1028.084716	0.024622
1028.253576	0.025308
1028.422418	0.024529
1028.591242	0.022590
1028.760048	0.020627
1028.928835	0.021445
1029.097604	0.022049
1029.266355	0.022571
1029.435088	0.020261
1029.603803	0.020975
1029.772499	0.019771
1029.941177	0.021300
1030.109837	0.021326
1030.278478	0.022535
1030.447102	0.019230
1030.615707	0.020621
1030.784294	0.019359
1030.952863	0.018525
1031.121413	0.016868
1031.289945	0.018006
1031.458460	0.017530
1031.626955	0.018409
1031.795433	0.019748
1031.963892	0.021552
1032.132334	0.018616
1032.300756	0.020532
1032.469161	0.022367
1032.637548	0.022568
1032.805916	0.022534
1032.974266	0.022244
1033.142598	0.022576
1033.310911	0.020661
1033.479207	0.020955
1033.647484	0.021405
1033.815743	0.019708
1033.983983	0.020406
1034.152206	0.019394
1034.320410	0.019877
1034.488596	0.019949
1034.656764	0.018918
1034.824914	0.018984
1034.993045	0.018267
1035.161158	0.018843
1035.329253	0.019161
1035.497330	0.017132
1035.665388	0.017020
1035.833428	0.016146
1036.001450	0.016180
1036.169454	0.017046
1036.337440	0.017563
1036.505407	0.017722
1036.673356	0.018825
1036.841287	0.019030
1037.009200	0.020942
1037.177094	0.021821
1037.344970	0.021339
1037.512828	0.022788
1037.680668	0.021270
1037.848489	0.021289
1038.016293	0.019981
1038.184078	0.018692
1038.351845	0.017370
1038.519593	0.016093
1038.687324	0.016100
1038.855036	0.016925
1039.022730	0.014192
1039.190406	0.015839
1039.358063	0.014131
1039.525702	0.015100
1039.693323	0.015476
1039.860926	0.015533
1040.028511	0.017235
1040.196077	0.016012
1040.363625	0.014276
1040.531155	0.016021
1040.698667	0.014821
1040.866161	0.016621
1041.033636	0.018205
1041.201093	0.017136
1041.368532	0.019965
1041.535952	0.018711
1041.703355	0.018746
1041.870739	0.019835
1042.038105	0.019109
1042.205452	0.019894
1042.372782	0.018775
1042.540093	0.018583
1042.707386	0.017494
1042.874661	0.015770
1043.041918	0.015710
1043.209156	0.016864
1043.376376	0.015492
1043.543578	0.014990
1043.710762	0.014663
1043.877927	0.016684
1044.045074	0.016196
1044.212203	0.016806
1044.379314	0.016836
1044.546407	0.018320
1044.713481	0.018790
1044.880537	0.019747
1045.047575	0.021350
1045.214595	0.021686
1045.381596	0.019644
1045.548579	0.021068
1045.715544	0.021367
1045.882491	0.022068
1046.049420	0.020578
1046.216330	0.020434
1046.383222	0.020449
1046.550096	0.019625
1046.716951	0.018827
1046.883789	0.019191
1047.050608	0.017890
1047.217409	0.017647
1047.384192	0.017429
1047.550956	0.018477
1047.717703	0.017851
1047.884431	0.017846
1048.051140	0.017064
1048.217832	0.018556
1048.384505	0.017709
1048.551161	0.016467
1048.717798	0.017576
1048.884416	0.017253
1049.051017	0.016603
1049.217599	0.015929
1049.384163	0.017354
1049.550709	0.018272
1049.717237	0.016526
1049.883746	0.017534
1050.050237	0.017638
1050.216710	0.016238
1050.383165	0.016989
1050.549601	0.014460
1050.716019	0.014762
1050.882420	0.014492
1051.048801	0.014823
1051.215165	0.014759
1051.381510	0.013987
1051.547837	0.014456
1051.714146	0.015412
1051.880437	0.012808
1052.046709	0.015045
1052.212964	0.014960
1052.379200	0.012030
1052.545417	0.011369
1052.711617	0.011513
1052.877798	0.011322
1053.043961	0.010911
1053.210106	0.011079
1053.376233	0.012383
1053.542341	0.011216
1053.708432	0.011294
1053.874504	0.013264
1054.040557	0.013103
1054.206593	0.013174
1054.372610	0.014031
1054.538609	0.012906
1054.704590	0.012490
1054.870553	0.013818
1055.036497	0.014128
1055.202424	0.013863
1055.368331	0.015362
1055.534221	0.014449
1055.700093	0.015646
1055.865946	0.014427
1056.031781	0.014706
1056.197598	0.013540
1056.363397	0.013739
1056.529177	0.012970
1056.694939	0.013332
1056.860683	0.010984
1057.026409	0.012890
1057.192116	0.011657
1057.357806	0.012487
1057.523477	0.013449
1057.689130	0.013331
1057.854764	0.012805
1058.020381	0.013776
1058.185979	0.012725
1058.351559	0.014104
1058.517120	0.013159
1058.682664	0.012034
1058.848189	0.011214
1059.013696	0.011515
1059.179185	0.011290
1059.344656	0.012344
1059.510108	0.011299
1059.675542	0.012575
1059.840958	0.011378
1060.006356	0.011560
1060.171735	0.014297
1060.337096	0.016458
1060.502439	0.016553
1060.667764	0.018023
1060.833071	0.016013
1060.998359	0.016902
1061.163629	0.017155
1061.328881	0.018135
1061.494115	0.016015
1061.659330	0.015168
1061.824527	0.013504
1061.989706	0.013968
1062.154867	0.012573
1062.320010	0.013286
1062.485134	0.014268
1062.650240	0.013285
1062.815328	0.012133
1062.980398	0.013468
1063.145449	0.012715
1063.310482	0.013629
1063.475497	0.012858
1063.640494	0.013991
1063.805473	0.014179
1063.970433	0.013826
1064.135375	0.014033
1064.300299	0.015697
1064.465204	0.015806
1064.630092	0.014235
1064.794961	0.015704
1064.959812	0.015305
1065.124645	0.014995
1065.289459	0.014418
1065.454256	0.014836
1065.619034	0.015545
1065.783793	0.013019
1065.948535	0.013096
1066.113258	0.016869
1066.277964	0.014902
1066.442651	0.016355
1066.607319	0.016689
1066.771970	0.016971
1066.936602	0.016786
1067.101216	0.016317
1067.265812	0.018536
1067.430389	0.018156
1067.594949	0.016013
1067.759490	0.015708
1067.924013	0.015850
1068.088518	0.014431
1068.253004	0.013956
1068.417472	0.015255
1068.581922	0.014140
1068.746354	0.013444
1068.910768	0.013158
1069.075163	0.013433
1069.239540	0.015222
1069.403899	0.014330
1069.568240	0.017164
1069.732562	0.017326
1069.896866	0.015522
1070.061152	0.016783
1070.225420	0.018403
1070.389670	0.020250
1070.553901	0.019195
1070.718114	0.018028
1070.882309	0.019606
1071.046486	0.018967
1071.210644	0.019370
1071.374784	0.020405
1071.538906	0.021345
1071.703010	0.019033
1071.867096	0.018519
1072.031163	0.018887
1072.195212	0.019618
1072.359243	0.018523
1072.523256	0.017380
1072.687250	0.016628
1072.851226	0.015824
1073.015184	0.013946
1073.179124	0.014651
1073.343045	0.014330
1073.506949	0.013827
1073.670834	0.014178
1073.834701	0.013077
1073.998549	0.015298
1074.162380	0.016645
1074.326192	0.016876
1074.489986	0.017649
1074.653761	0.016522
1074.817519	0.016666
1074.981258	0.018427
1075.144979	0.016139
1075.308682	0.017174
1075.472367	0.015540
1075.636033	0.014826
1075.799681	0.015569
1075.963311	0.016343
1076.126923	0.016021
1076.290516	0.013897
1076.454092	0.014538
1076.617649	0.014636
1076.781187	0.013854
1076.944708	0.013716
1077.108210	0.012953
1077.271695	0.012895
1077.435160	0.011680
1077.598608	0.012675
1077.762038	0.015212
1077.925449	0.013502
1078.088842	0.012684
1078.252217	0.012941
1078.415573	0.014108
1078.578912	0.015277
1078.742232	0.015286
1078.905534	0.016423
1079.068817	0.018206
1079.232083	0.017662
1079.395330	0.016382
1079.558559	0.018618
1079.721770	0.019270
1079.884962	0.018167
1080.048136	0.018343
1080.211293	0.015448
1080.374430	0.015405
1080.537550	0.012041
1080.700651	0.012749
1080.863735	0.013731
1081.026800	0.013607
1081.189846	0.012326
1081.352875	0.012025
1081.515885	0.012518
1081.678877	0.013358
1081.841851	0.012063
1082.004807	0.015839
1082.167744	0.012903
1082.330663	0.014494
1082.493564	0.014669
1082.656447	0.015818
1082.819312	0.014998
1082.982158	0.012909
1083.144986	0.013122
1083.307796	0.011941
1083.470587	0.009490
1083.633361	0.012798
1083.796116	0.010909
1083.958853	0.009619
1084.121571	0.009105
1084.284272	0.010228
1084.446954	0.009429
1084.609618	0.008332
1084.772264	0.011088
1084.934892	0.010358
1085.097501	0.006852
1085.260092	0.006836
1085.422665	0.006961
1085.585220	0.004731
1085.747756	0.004965
1085.910274	0.006611
1086.072774	0.006930
1086.235256	0.005564
1086.397720	0.007659
1086.560165	0.009927
1086.722592	0.009586
1086.885001	0.010777
1087.047392	0.011718
1087.209764	0.010992
1087.372119	0.009913
1087.534455	0.011032
1087.696772	0.009126
1087.859072	0.008144
1088.021353	0.007635
1088.183616	0.009956
1088.345861	0.007952
1088.508088	0.011558
1088.670296	0.011337
1088.832486	0.011562
1088.994658	0.010238
1089.156812	0.009020
1089.318948	0.008487
1089.481065	0.006705
1089.643164	0.005131
1089.805245	0.006317
1089.967308	0.002716
1090.129352	0.002425
1090.291378	0.003077
1090.453386	0.003752
1090.615376	0.006913
1090.777347	0.007231
1090.939301	0.006926
1091.101236	0.007364
1091.263153	0.006932
1091.425051	0.007672
1091.586932	0.009566
1091.748794	0.010489
1091.910638	0.010876
1092.072463	0.011568
1092.234271	0.012889
1092.396060	0.012877
1092.557831	0.010681
1092.719584	0.009044
1092.881319	0.008988
1093.043035	0.007368
1093.204733	0.006392
1093.366413	0.006612
1093.528075	0.005567
1093.689718	0.003302
1093.851343	0.005199
1094.012950	0.007685
1094.174539	0.007958
1094.336110	0.008395
1094.497662	0.008790
1094.659196	0.007779
1094.820712	0.005590
1094.982210	0.004705
1095.143689	0.005811
1095.305151	0.004797
1095.466594	0.002444
1095.628018	0.003274
1095.789425	0.001726
1095.950813	-0.000455
1096.112183	-0.000590
1096.273535	0.001302
1096.434869	0.002545
1096.596184	0.001141
1096.757482	0.002761
1096.918761	0.003008
1097.080021	0.001827
1097.241264	0.000797
1097.402488	0.003423
1097.563694	0.004281
1097.724882	0.004451
1097.886052	0.004030
1098.047203	0.007722
1098.208336	0.007112
1098.369451	0.008110
1098.530548	0.010137
1098.691627	0.012084
1098.852687	0.012638
1099.013729	0.011284
1099.174753	0.010979
1099.335758	0.011309
1099.496746	0.010277
1099.657715	0.006032
1099.818666	0.006062
1099.979599	0.005129
1100.140513	0.005004
1100.301409	0.005438
1100.462287	0.004497
1100.623147	0.003299
1100.783989	0.003247
1100.944812	0.001236
1101.105617	0.007710
1101.266404	0.007777
1101.427173	0.008897
1101.587923	0.009011
1101.748656	0.006249
1101.909370	0.006744
1102.070066	0.008883
1102.230743	0.009429
1102.391403	0.009320
1102.552044	0.006498
1102.712667	0.005131
1102.873271	0.003886
1103.033858	0.002476
1103.194426	0.003288
1103.354976	0.003200
1103.515508	0.000630
1103.676021	0.000109
1103.836517	0.002064
1103.996994	-0.000017
1104.157453	0.000036
1104.317893	0.001299
1104.478316	0.004037
1104.638720	0.003426
1104.799106	0.007853
1104.959474	0.010844
1105.119823	0.009715
1105.280155	0.010453
1105.440468	0.013246
1105.600763	0.014245
1105.761039	0.014891
1105.921298	0.013188
1106.081538	0.011599
1106.241760	0.013232
1106.401964	0.010026
1106.562149	0.010408
1106.722316	0.006102
1106.882465	0.005301
1107.042596	0.004242
1107.202709	0.001779
1107.362803	0.003782
1107.522879	0.006095
1107.682937	0.000708
1107.842977	0.000421
1108.002999	0.005232
1108.163002	0.006617
1108.322987	0.007600
1108.482954	0.010026
1108.642902	0.009911
1108.802833	0.005443
1108.962745	0.006457
1109.122639	0.004239
1109.282515	0.005923
1109.442372	0.001322
1109.602211	0.001521
1109.762032	0.002475
1109.921835	0.000835
1110.081620	0.002762
1110.241386	0.005652
1110.401134	0.004669
1110.560864	0.010350
1110.720576	0.010750
1110.880269	0.009387
1111.039945	0.010687
1111.199602	0.013680
1111.359240	0.014118
1111.518861	0.011484
1111.678463	0.009588
1111.838047	0.007892
1111.997613	0.004412
1112.157161	0.003733
1112.316690	0.001090
1112.476202	0.000819
1112.635695	-0.001505
1112.795169	-0.002732
1112.954626	-0.002048
1113.114064	0.001280
1113.273484	0.001360
1113.432886	0.001637
1113.592270	0.001735
1113.751635	0.007164
1113.910983	0.007860
1114.070312	0.007522
1114.229622	0.006201
1114.388915	0.006019
1114.548189	0.001677
1114.707445	0.006274
1114.866683	0.007503
1115.025903	0.007367
1115.185104	0.005162
1115.344287	-0.000228
1115.503452	-0.001719
1115.662599	0.000591
1115.821727	-0.000356
1115.980838	0.003621
1116.139930	0.000934
1116.299004	0.002989
1116.458059	0.002689
1116.617097	0.004660
1116.776116	0.006546
1116.935117	0.006622
1117.094099	0.005713
1117.253064	0.010436
1117.412010	0.007691
1117.570938	0.013132
1117.729848	0.010586
1117.888740	0.010509
1118.047613	0.008710
1118.206468	0.011600
1118.365305	0.007686
1118.524124	0.006097
1118.682924	0.005108
1118.841707	0.006209
1119.000471	0.002290
1119.159216	0.000080
1119.317944	-0.000194
1119.476653	-0.001141
1119.635344	-0.003913
1119.794017	0.000533
1119.952672	0.002638
1120.111308	0.000713
1120.269927	0.001693
1120.428527	-0.001218
1120.587108	0.001917
1120.745672	0.007103
1120.904217	0.009161
1121.062744	0.012659
1121.221253	0.010132
1121.379744	0.009117
1121.538216	0.003611
1121.696671	0.001879
1121.855107	0.004525
1122.013524	0.003960
1122.171924	0.000810
1122.330305	-0.000323
1122.488668	-0.003939
1122.647013	-0.001716
1122.805340	-0.002157
1122.963648	0.005174
1123.121938	0.003632
1123.280210	0.001838
1123.438464	0.000426
1123.596700	0.001165
1123.754917	0.006452
1123.913116	0.008154
1124.071297	0.009681
1124.229459	0.012460
1124.387604	0.010524
1124.545730	0.010739
1124.703838	0.006909
1124.861928	0.006708
1125.019999	0.008399
1125.178052	0.007484
1125.336088	0.006967
1125.494104	0.004431
1125.652103	-0.000319
1125.810083	0.000542
1125.968045	0.002471
1126.125989	0.008207
1126.283915	0.010108
1126.441823	0.008710
1126.599712	0.006027
1126.757583	0.007126
1126.915436	0.005811
1127.073270	0.009965
1127.231087	0.007803
1127.388885	0.012927
1127.546665	0.011402
1127.704426	0.012533
1127.862170	0.010414
1128.019895	0.009337
1128.177602	0.006164
1128.335291	0.005747
1128.492961	0.004648
1128.650614	0.006488
1128.808248	0.002035
1128.965864	0.002107
1129.123461	0.002927
1129.281041	0.005612
1129.438602	0.004533
1129.596145	0.009971
1129.753670	0.008108
1129.911176	0.011496
1130.068665	0.013051
1130.226135	0.007357
1130.383587	0.005382
1130.541020	0.003920
1130.698436	0.001486
1130.855833	0.003252
1131.013212	-0.002268
1131.170573	0.000701
1131.327915	-0.000390
1131.485239	-0.002127
1131.642545	0.003225
1131.799833	0.006126
1131.957103	0.003935
1132.114354	0.001762
1132.271588	0.001244
1132.428803	0.005627
1132.585999	0.002710
1132.743178	-0.000959
1132.900338	-0.003896
1133.057480	-0.001337
1133.214604	-0.001018
1133.371710	-0.001690
1133.528797	0.001473
1133.685866	-0.002530
1133.842917	-0.001152
1133.999950	-0.000812
1134.156964	0.000183
1134.313960	0.002843
1134.470938	0.001997
1134.627898	-0.003009
1134.784840	-0.006736
1134.941763	-0.010031
1135.098668	-0.005902
1135.255555	-0.012176
1135.412424	-0.007995
1135.569274	-0.008665
1135.726107	-0.011266
1135.882921	-0.011223
1136.039716	-0.005450
1136.196494	-0.002724
1136.353253	0.000655
1136.509995	-0.000654
1136.666717	0.001753
1136.823422	-0.000430
1136.980109	0.001041
1137.136777	0.003711
1137.293427	0.000259
1137.450059	-0.005222
1137.606672	-0.006883
1137.763267	-0.005490
1137.919844	0.000322
1138.076403	-0.001470
1138.232944	-0.002977
1138.389466	-0.000715
1138.545971	0.000371
1138.702457	0.003024
1138.858924	-0.001036
1139.015374	0.002448
1139.171805	0.000695
1139.328218	-0.007280
1139.484613	-0.009305
1139.640990	-0.005190
1139.797348	-0.008938
1139.953688	-0.008575
1140.110010	-0.007881
1140.266314	0.002252
1140.422600	0.007266
1140.578867	0.008587
1140.735116	0.015213
1140.891347	0.023387
1141.047559	0.022336
1141.203754	0.021991
1141.359930	0.020808
1141.516088	0.025074
1141.672228	0.018229
1141.828349	0.009382
1141.984452	0.009186
1142.140537	0.007364
1142.296604	0.001541
1142.452653	-0.001042
1142.608683	-0.000442
1142.764695	0.000009
1142.920689	-0.006208
1143.076665	-0.002693
1143.232622	-0.000871
1143.388562	0.001772
1143.544483	0.007186
1143.700385	0.012697
1143.856270	0.017278
1144.012136	0.022440
1144.167985	0.022656
1144.323814	0.023457
1144.479626	0.022260
1144.635420	0.028973
1144.791195	0.019117
1144.946952	0.006757
1145.102691	0.004978
1145.258411	-0.002279
1145.414113	-0.005075
1145.569798	-0.006110
1145.725463	-0.002595
1145.881111	-0.003152
1146.036741	-0.009740
1146.192352	-0.002944
1146.347945	-0.000513
1146.503519	0.002942
1146.659076	0.002878
1146.814614	0.002202
1146.970134	-0.000140
1147.125636	-0.003640
1147.281120	-0.005306
1147.436585	-0.003556
1147.592032	-0.003012
1147.747461	-0.003129
1147.902872	-0.007976
1148.058265	-0.002570
1148.213639	-0.003511
1148.368995	-0.003411
1148.524333	-0.002345
1148.679653	0.002035
1148.834954	0.002452
1148.990237	0.001117
1149.145502	-0.002422
1149.300749	-0.001525
1149.455977	-0.001465
1149.611188	-0.000452
1149.766380	-0.000102
1149.921553	-0.001983
1150.076709	-0.003404
1150.231846	0.002271
1150.386966	-0.002781
1150.542066	0.004257
1150.697149	0.006265
1150.852214	0.004183
1151.007260	0.004561
1151.162288	0.003978
1151.317298	0.004750
1151.472289	0.003762
1151.627263	-0.000575
1151.782218	0.002090
1151.937155	0.003193
1152.092073	0.001937
1152.246974	0.002103
1152.401856	0.002262
1152.556720	0.008263
1152.711566	0.006710
1152.866393	0.003982
1153.021203	0.001093
1153.175994	0.001977
1153.330767	0.000232
1153.485521	0.000612
1153.640258	0.010737
1153.794976	0.007439
1153.949676	0.000202
1154.104358	-0.000082
1154.259021	-0.000252
1154.413667	0.001934
1154.568294	0.001326
1154.722903	0.000030
1154.877493	-0.003073
1155.032066	-0.007216
1155.186620	0.000442
1155.341156	0.004666
1155.495674	0.007761
1155.650173	0.017620
1155.804654	0.014658
1155.959118	0.014201
1156.113562	0.018083
1156.267989	0.013816
1156.422397	0.008458
1156.576788	0.001942
1156.731160	0.000544
1156.885513	-0.003768
1157.039849	-0.009316
1157.194166	-0.014069
1157.348465	-0.007509
1157.502746	-0.008023
1157.657009	-0.009968
1157.811253	-0.009465
1157.965479	-0.002110
1158.119687	-0.000812
1158.273877	0.001143
1158.428048	-0.001333
1158.582201	0.010764
1158.736337	0.005283
1158.890453	0.006110
1159.044552	0.017587
1159.198632	0.025569
1159.352694	0.016650
1159.506738	0.012679
1159.660764	0.018096
1159.814771	0.014527
1159.968761	0.006168
1160.122732	0.014068
1160.276685	0.007080
1160.430619	0.000966
1160.584535	-0.010834
1160.738434	-0.000761
1160.892313	0.006090
1161.046175	0.000560
1161.200019	0.008772
1161.353844	0.014090
1161.507651	0.006868
1161.661440	0.006169
1161.815210	0.006630
1161.968962	0.012809
1162.122697	0.007440
1162.276412	0.008342
1162.430110	0.002504
1162.583789	0.004618
1162.737451	0.000049
1162.891094	0.010130
1163.044718	0.007315
1163.198325	0.008248
1163.351913	-0.001685
1163.505483	-0.000740
1163.659035	-0.004381
1163.812569	0.003449
1163.966084	-0.004417
1164.119581	-0.004567
1164.273060	-0.014499
1164.426521	-0.012339
1164.579964	-0.012787
1164.733388	-0.007893
1164.886794	-0.014496
1165.040182	-0.022083
1165.193551	-0.029265
1165.346903	-0.030165
1165.500236	-0.027944
1165.653551	-0.032719
1165.806848	-0.032119
1165.960126	-0.030806
1166.113386	-0.021657
1166.266628	-0.017129
1166.419852	-0.004036
1166.573058	0.001448
1166.726245	0.000302
1166.879414	-0.002166
1167.032565	0.008327
1167.185698	0.010889
1167.338812	0.012513
1167.491909	0.003829
1167.644987	-0.004804
1167.798046	-0.007500
1167.951088	-0.011506
1168.104111	-0.007441
1168.257117	-0.009271
1168.410103	-0.019321
1168.563072	-0.014595
1168.716023	-0.015080
1168.868955	-0.015077
1169.021869	-0.003459
1169.174765	-0.006216
1169.327642	0.003636
1169.480501	0.007416
1169.633343	0.013393
1169.786165	0.015412
1169.938970	0.014418
1170.091757	0.010926
1170.244525	0.018216
1170.397275	0.015303
1170.550007	0.019209
1170.702720	0.011599
1170.855415	0.008381
1171.008092	0.006180
1171.160751	0.006375
1171.313392	0.002664
1171.466014	-0.010355
1171.618619	-0.009460
1171.771205	-0.009460
1171.923772	-0.009460
