sample name	sample
index	697
start time	 03-22-2021  12:41:27 PM
880	0.127620
Peak Time (s)	91.536
Peak Height 	0.1276
calc peak height	90,93
Baseline Time (s)	9.036
Baseline Value 	-0.001315
subtract baseline	10,4
Abs	0.074480
Peak Time (s)	92.537
Peak Height 	0.07448
calc peak height	90,93
Baseline Time (s)	9.536
Baseline Value 	0.001342
subtract baseline	10,3
PK_550	0.036917
Peak Time (s)	90.035
Peak Height 	0.03692
calc peak height	90,93
Baseline Time (s)	11.037
Baseline Value 	0.001042
subtract baseline	10,2
PK_880	0.067108
Peak Time (s)	90.538
Peak Height 	0.06711
calc peak height	90,93
Baseline Time (s)	8.538
Baseline Value 	0.001214
subtract baseline	10,1


Time (s)	A880-A510	A880-A775	A880-A975	A880	I510	I775	I975	I880	
0.035500	-0.005155	-0.001396	-0.003766	0.005171	7290.485730	45182.422282	3957.388963	23973.721420
0.536500	-0.003907	-0.001125	0.000357	0.004302	7312.073221	45293.586429	3970.246702	24015.992491
1.037000	-0.003103	-0.001105	0.001769	0.002974	7333.936461	45425.419011	3977.368365	24080.789955
1.537000	-0.001855	-0.001125	0.000297	0.000432	7373.039644	45672.926501	3980.158718	24205.294667
2.037000	-0.002148	-0.000387	-0.001203	0.005496	7317.855196	45249.049933	3963.133972	23957.918351
2.537000	-0.003588	-0.001074	-0.001415	0.000001	7359.561760	45720.452691	3976.815390	24226.474829
3.037500	0.000893	-0.000436	0.000430	-0.002534	7432.653906	46034.456290	3988.285355	24351.526526
3.535500	-0.002343	-0.000693	-0.002373	0.003486	7336.472251	45415.497571	3965.298019	24055.758181
4.038000	-0.004783	-0.000450	0.001299	0.004827	7297.770858	45308.132853	3971.325523	23990.430727
4.535500	-0.000469	-0.000269	-0.000751	-0.000234	7394.355538	45823.106511	3979.161490	24238.055657
5.036000	0.001400	-0.000502	-0.000897	-0.000595	7417.642482	45835.760178	3979.723330	24255.819566
5.536000	-0.000442	-0.000405	0.002327	-0.000261	7394.916719	45812.329047	3987.297216	24239.371055
6.036500	-0.000474	0.000517	0.002897	0.000187	7389.925823	45859.195741	3987.618184	24217.352097
6.536500	0.000236	-0.000301	-0.000153	-0.000316	7402.550819	45827.980905	3980.936642	24242.063152
7.040000	-0.000184	-0.001011	-0.000845	-0.000710	7402.281839	45796.853557	3980.158425	24261.469879
7.534500	-0.002983	-0.000399	0.002622	-0.000265	7368.578950	45813.327162	3988.085211	24239.594073
8.037000	-0.000364	-0.000653	-0.000460	-0.000695	7400.251547	45830.660069	3981.125150	24260.729173
8.538000	0.000000	0.000272	0.001297	0.000162	7395.115983	45837.486967	3983.483041	24218.566810
9.035500	0.000332	-0.000592	0.004430	0.000000	7400.265085	45768.112329	3992.151000	24226.538146
9.535500	0.000196	-0.000563	0.000000	-0.000274	7401.699116	45798.003834	3981.227624	24239.996432
10.036000	-0.000254	-0.000064	-0.000271	-0.000165	7395.876824	45836.523203	3980.234975	24234.630438
10.536000	0.000902	0.000068	-0.000266	0.000272	7403.374260	45806.429658	3979.106560	24213.164392
11.037000	-0.000507	0.000000	0.006138	-0.000071	7392.267635	45833.627845	3996.861359	24230.047714
11.537000	-0.002298	0.000585	-0.000203	0.003775	7333.969516	45512.464277	3970.162785	24041.700752
12.037500	0.001310	-0.000005	-0.000555	0.001022	7399.802375	45725.192483	3976.396907	24176.321242
12.534500	0.002354	-0.000352	0.003192	0.000299	7418.273131	45762.290632	3988.100152	24211.862083
13.038000	0.002696	-0.000251	0.006985	-0.000080	7425.821557	45809.663268	3999.130444	24230.462948
13.534500	-0.003479	-0.000424	-0.000084	0.005039	7308.911525	45289.974501	3967.197748	23980.119358
14.035500	-0.001480	-0.000015	0.000917	0.003196	7348.343719	45510.358439	3974.570732	24069.914845
14.539500	-0.002699	0.000226	0.004705	0.002790	7339.969184	45573.944412	3985.527848	24089.749019
15.038500	0.000577	0.000510	0.001345	0.000376	7398.894593	45839.850015	3983.048548	24208.053724
15.539500	-0.004500	-0.000352	-0.001821	0.005090	7297.979411	45292.138420	3962.590017	23977.669893
16.036500	0.000084	0.000249	0.004434	0.000003	7397.645943	45850.837905	3992.154305	24226.370483
16.537000	0.000866	-0.000336	0.001823	-0.000136	7407.258357	45806.805685	3985.645280	24233.232018
17.037500	0.004385	0.001490	0.007449	-0.001105	7454.374603	46083.868608	4003.094585	24280.962995
17.537500	0.000957	0.001219	0.005786	0.003238	7373.099725	45627.538010	3987.191283	24067.871679
18.035500	0.000360	0.000880	-0.000099	0.002212	7377.551377	45695.197376	3974.487263	24118.039549
18.535500	0.001394	0.000525	-0.000999	0.002428	7386.042763	45638.911322	3971.589480	24107.455647
19.035500	0.000969	0.000092	0.003611	0.002174	7384.267172	45621.301063	3984.272757	24119.863759
19.536000	-0.000277	-0.000144	0.000298	0.002327	7369.745286	45582.995820	3975.220707	24112.379788
20.036500	0.000148	-0.000075	-0.005863	0.002032	7377.211299	45618.786714	3960.059180	24126.816746
20.537000	-0.000038	-0.000056	0.006969	0.001730	7378.420768	45650.501779	3994.289880	24141.640901
21.036500	0.001417	0.000315	0.000055	0.002275	7387.876805	45633.377340	3974.723935	24114.958512
21.537500	-0.000525	0.000011	0.005689	0.002454	7365.867514	45585.736434	3988.999572	24106.160502
22.037500	0.000426	0.000135	0.004466	0.002364	7376.661481	45606.877339	3986.021470	24110.599464
22.535000	0.000623	0.000708	0.002672	0.002536	7376.908326	45646.282212	3980.865567	24102.152105
23.035500	0.001574	0.000407	0.004956	0.002745	7384.624049	45596.119540	3986.305686	24091.964246
23.535500	-0.002787	-0.000045	0.005674	0.003411	7332.684352	45486.418289	3986.443482	24059.454909
24.036000	0.001089	0.000593	0.004357	0.002877	7378.213698	45601.497863	3984.388606	24085.517518
24.536500	0.000357	0.000083	0.003389	0.002661	7372.857772	45572.485344	3982.415701	24096.052959
25.037000	-0.000267	0.000299	0.004949	0.002744	7365.534006	45585.571345	3986.291571	24091.996193
25.537000	0.000825	0.000326	0.003521	0.003313	7370.962315	45532.366318	3981.056932	24064.227986
26.037000	0.000105	0.000051	0.005877	0.002242	7374.591366	45610.510782	3990.053451	24116.539609
26.540000	-0.000363	0.000285	0.004918	0.002355	7368.574602	45622.479172	3987.231632	24111.018701
27.035000	0.001540	0.001337	0.003003	0.000814	7404.371718	45878.240458	3986.248296	24186.533710
27.536000	0.001539	0.000921	0.003830	0.001195	7400.387470	45799.529205	3987.420588	24167.854904
28.035500	0.001421	0.000338	0.008547	0.001058	7400.597110	45755.502259	4000.260286	24174.587972
28.535500	0.001889	0.000502	0.005322	0.000952	7406.576471	45782.116263	3991.994424	24179.770893
29.036500	0.001649	0.000524	0.006941	0.001461	7398.761437	45734.013195	3994.927374	24154.786105
29.536500	-0.002320	0.000106	0.002456	0.006516	7305.669787	45197.817058	3969.949403	23908.478797
30.036500	-0.000424	0.000416	0.001842	0.004461	7346.189758	45428.692813	3973.687098	24008.252988
30.537000	0.000853	0.001160	0.005121	0.004784	7356.039678	45469.972938	3981.393754	23992.557012
31.040000	0.002059	0.001679	0.004531	0.004536	7371.072447	45545.113132	3980.500652	24004.612602
31.537500	-0.000465	-0.000034	-0.000171	0.006051	7329.422258	45229.371942	3964.363225	23931.005908
32.035000	-0.002082	0.000513	0.005615	0.007455	7298.519890	45145.935636	3975.711695	23863.015357
32.535000	0.002245	0.000948	0.007005	0.001768	7401.779899	45745.593729	3994.284165	24139.768742
33.034500	0.002409	0.001646	0.003927	0.002128	7399.737749	45778.942620	3985.224455	24122.134128
33.536000	0.005652	0.000775	0.006391	0.000340	7452.487793	45869.623544	3996.441154	24209.816359
34.036000	0.000470	0.000773	0.001515	0.004766	7352.262106	45433.735849	3972.045679	23993.396709
34.536500	-0.000172	0.000467	0.002876	0.004026	7353.268556	45476.258096	3977.509467	24029.429659
35.037000	0.002829	0.001200	0.003831	0.004813	7376.186913	45471.044698	3977.948401	23991.138674
35.540000	0.000593	0.000807	0.008737	0.004271	7358.643454	45485.641861	3992.248310	24017.523477
36.037500	0.000834	0.000415	0.005940	0.004580	7357.942842	45416.912162	3984.073353	24002.459462
36.535000	-0.000342	0.000564	0.000122	0.004420	7347.454218	45447.198757	3969.332117	24010.245829
37.035000	-0.000077	0.000999	0.006375	0.004827	7345.988764	45449.859591	3984.565391	23990.432865
37.535500	-0.000310	0.000292	0.000999	0.004748	7344.405915	45388.441437	3970.752649	23994.274250
38.036000	0.001578	0.000552	0.003196	0.004706	7364.337235	45418.023840	3976.572866	23996.355168
38.536000	0.000634	0.000940	0.005738	0.004581	7355.864031	45468.279456	3983.540587	24002.431363
39.036500	0.000610	0.001569	0.004426	0.005483	7346.307597	45441.438180	3977.751320	23958.549142
39.536500	0.000069	0.001052	0.005469	0.004796	7347.821126	45458.158448	3982.272121	23991.960177
40.040000	0.000544	0.001314	0.005065	0.004984	7350.778518	45465.350901	3980.722744	23982.809920
40.537500	0.000896	0.001136	0.004214	0.005102	7353.188811	45436.419846	3978.191597	23977.063831
41.037500	-0.000199	0.001383	0.001196	0.005299	7339.877383	45441.283492	3969.838736	23967.502914
41.535000	0.001636	0.000592	0.004009	0.005441	7357.338528	45350.037811	3976.775799	23960.622721
42.035000	0.000746	0.001280	-0.000365	0.005062	7352.062545	45454.416551	3966.415176	23979.037327
42.535500	-0.000892	0.000873	-0.000524	0.004821	7337.659240	45438.121659	3966.625166	23990.719383
43.036000	-0.000043	0.001278	0.004559	0.004975	7344.819661	45462.816703	3979.426857	23983.263596
43.536500	0.000455	0.001686	0.001647	0.007430	7324.710668	45262.638654	3965.496442	23864.209555
44.037000	0.004411	0.001191	0.003162	0.000288	7439.959934	45915.848412	3988.047565	24212.355131
44.539500	0.002429	0.001880	0.004157	0.003193	7388.852523	45697.002645	3983.034571	24070.075181
45.037000	0.002097	0.001028	0.007485	0.002507	7392.528808	45680.629108	3993.600314	24103.582710
45.534500	-0.001619	0.000478	-0.001755	0.008297	7294.657285	45060.795797	3954.539258	23822.363641
46.037000	0.001243	0.000542	0.009854	0.003647	7371.829730	45520.766137	3996.854904	24047.926026
46.535000	0.004047	0.001486	0.009577	0.003017	7407.549571	45675.463574	3997.788802	24078.654022
47.035500	0.002774	0.001691	0.005173	0.003734	7386.807161	45625.141838	3984.278541	24043.656651
47.535000	-0.001132	0.001897	0.002494	0.007800	7304.691154	45247.143187	3966.726968	23846.339948
48.039000	0.002849	0.001783	0.009273	0.004330	7381.401531	45575.609439	3993.508203	24014.652521
48.536500	0.002960	0.001835	0.006534	0.003149	7394.832131	45696.909901	3989.393561	24072.199382
49.039000	0.002883	0.000810	0.003027	0.002866	7396.987921	45623.898030	3980.932890	24086.056292
49.537000	-0.001578	0.000387	0.001056	0.007349	7304.741007	45144.065878	3964.180725	23868.154178
50.037000	0.002759	0.000893	0.006860	0.004259	7381.198561	45495.132029	3987.330732	24018.081505
50.535000	0.004164	0.001457	0.005675	0.003588	7402.811794	45616.542209	3985.982773	24050.819634
51.037500	0.011252	0.003535	0.007976	0.032199	7183.732297	43085.183076	3918.927549	22700.210156
51.535000	-0.055311	-0.012054	-0.014498	0.156124	5652.667385	32045.660519	3611.688648	17776.618525
52.035500	-0.059859	-0.035203	-0.033005	-0.157709	8540.328899	59813.918086	4358.107963	33578.545419
52.536000	-0.059656	-0.158873	-0.021896	-0.322981	11169.265376	65535.000000	5116.043152	47800.857566
53.036500	-0.055208	-0.137660	-0.009512	-0.301768	10855.065221	65535.000000	5070.342779	45658.829923
53.539000	-0.062043	-0.118933	-0.004047	-0.283042	10398.768038	65535.000000	5003.428278	43852.904601
54.036500	-0.013928	-0.089776	0.000857	-0.253836	10733.727055	65528.062633	4885.982618	41187.311571
54.537000	-0.023585	-0.073790	-0.006697	-0.236291	10256.394619	65303.660783	4771.389348	39670.068079
55.037000	-0.012585	-0.074082	-0.001769	-0.237469	10466.402922	65431.051817	4798.657147	39770.019051
55.535000	0.001886	-0.066360	0.002897	-0.228758	10567.808384	65288.928670	4780.548692	39037.196210
56.034500	0.002132	-0.039348	0.008023	-0.189984	9914.461845	63621.942946	4636.268228	35947.837134
56.535000	0.004777	-0.015869	0.019208	-0.144087	9246.869170	60567.442695	4498.691460	32630.209079
57.036000	0.009785	-0.003378	0.019984	-0.093507	8611.799361	55725.647121	4319.550375	29358.069364
57.535500	0.010958	0.004436	0.025131	-0.040335	7964.089586	50487.385698	4165.213111	26305.357906
58.039000	0.016884	0.008518	0.032269	-0.009686	7682.292334	47663.907138	4095.653490	24708.273115
58.536500	0.024532	0.014474	0.036813	0.017564	7469.988958	45522.277867	4031.960752	23379.921675
59.036500	0.030141	0.018485	0.039442	0.045305	7241.527241	43256.177969	3965.289377	22110.607107
59.539500	0.028286	0.019970	0.040845	0.070460	6978.039031	41115.808784	3905.680176	21027.649308
60.034500	0.038651	0.026284	0.043277	0.084487	6943.556576	40443.157791	3877.740919	20450.450758
60.534500	0.039605	0.026670	0.042666	0.100274	6806.834743	39135.287921	3839.484091	19822.750360
61.038000	0.034949	0.026143	0.053655	0.112736	6654.751526	38067.807761	3836.119126	19343.130449
61.535000	0.043278	0.029805	0.046116	0.120265	6661.732989	37756.142271	3802.332232	19059.968113
62.035500	0.044844	0.029885	0.050940	0.114029	6730.427141	38266.618094	3827.017035	19294.131633
62.539000	0.046174	0.032347	0.051546	0.117017	6715.727386	38223.834535	3821.647011	19181.525312
63.036500	0.050315	0.031489	0.052855	0.112126	6796.511144	38553.399171	3835.685012	19366.287810
63.542000	0.050769	0.032911	0.049816	0.114939	6775.246783	38439.345690	3822.429135	19259.747731
64.037000	0.053142	0.032382	0.055322	0.110433	6837.566849	38766.272471	3845.217757	19430.721088
64.537000	0.056677	0.034677	0.057782	0.111024	6864.549003	38907.212858	3849.531114	19408.214339
65.036000	0.054609	0.033969	0.056354	0.110248	6852.688751	38912.875527	3848.024031	19437.803388
65.535000	0.055188	0.035055	0.052939	0.116557	6800.505224	38482.402884	3825.822521	19198.804049
66.035500	0.056196	0.036227	0.055230	0.113242	6839.806337	38851.907907	3838.561089	19323.942525
66.535500	0.058183	0.036084	0.057447	0.113127	6859.061503	38849.579961	3843.908942	19328.308883
67.039000	0.059335	0.035630	0.057069	0.113403	6867.105248	38789.219194	3842.404648	19317.826836
67.535500	0.058169	0.036923	0.051463	0.120240	6794.159005	38334.060406	3814.241113	19060.872547
68.036500	0.058664	0.036279	0.059535	0.116419	6833.335856	38594.154841	3841.144514	19203.999724
68.536500	0.059274	0.036318	0.057844	0.116530	6837.888499	38588.266566	3837.020491	19199.829469
69.037000	0.059340	0.037046	0.057549	0.118091	6824.259770	38519.857982	3832.791205	19141.212248
69.534500	0.061025	0.038472	0.059066	0.124356	6782.791701	38125.280513	3822.052877	18908.126941
70.035000	0.064245	0.038755	0.059269	0.120902	6843.360386	38429.637405	3830.313559	19036.232332
70.535000	0.063769	0.039449	0.063450	0.121380	6834.652887	38447.310322	3838.749218	19018.446860
71.035500	0.063045	0.038790	0.060951	0.121185	6829.827707	38409.342838	3833.492787	19025.702007
71.538500	0.063307	0.037991	0.059334	0.123919	6807.351358	38121.668567	3823.639832	18924.271245
72.036000	0.064663	0.039176	0.062526	0.122857	6829.327546	38304.345123	3833.271297	18963.586231
72.536000	0.065373	0.039403	0.058847	0.122041	6843.268733	38389.500361	3826.781500	18993.887321
73.036500	0.066028	0.040267	0.067238	0.122491	6845.134248	38423.350287	3844.890781	18977.177802
73.536500	0.063967	0.040097	0.065896	0.122516	6826.101371	38407.367940	3841.749113	18976.247500
74.037000	0.065440	0.039477	0.060938	0.122560	6839.129145	38353.136343	3830.339930	18974.619416
74.537500	0.067472	0.039343	0.062127	0.121404	6868.367041	38436.691136	3835.672463	19017.559482
75.035000	0.066242	0.039528	0.061988	0.121798	6853.450827	38419.582536	3834.457567	19002.908113
75.535000	0.067280	0.040218	0.064195	0.122809	6853.695843	38393.294883	3837.184727	18965.378768
76.038500	0.066101	0.039745	0.064738	0.122884	6842.206106	38348.538880	3838.255304	18962.589963
76.535000	0.066452	0.039901	0.061170	0.122346	6850.341207	38405.281182	3831.350017	18982.541932
77.036000	0.066332	0.040375	0.068495	0.123273	6840.770197	38368.232234	3845.985009	18948.189253
77.536500	0.066647	0.040552	0.061427	0.127189	6807.995496	38064.305625	3820.992749	18803.842728
78.036500	0.067941	0.040651	0.065509	0.123356	6854.735249	38384.028508	3838.938173	18945.113510
78.540000	0.069567	0.039568	0.067942	0.122695	6875.761708	38349.512953	3846.042486	18969.599773
79.036500	0.066691	0.038806	0.067848	0.122122	6854.587666	38334.065790	3847.147386	18990.847284
79.537000	0.067349	0.040775	0.067068	0.123054	6852.074406	38418.825737	3843.205553	18956.289092
80.035000	0.068767	0.039287	0.063997	0.122542	6869.806952	38339.114794	3837.344093	18975.288954
80.538000	0.068905	0.040001	0.064393	0.122930	6867.506543	38365.762764	3837.360618	18960.901236
81.035500	0.069348	0.038666	0.061675	0.122048	6879.711815	38328.763237	3833.176036	18993.608746
81.535500	0.064540	0.039322	0.062897	0.124303	6815.055470	38198.555032	3830.828216	18910.080013
82.036000	0.069316	0.039632	0.064122	0.123253	6868.310617	38309.196629	3836.004620	18948.915791
82.535500	0.068906	0.039424	0.064868	0.122820	6868.519911	38327.612649	3838.698128	18964.955742
83.036500	0.068684	0.040184	0.069866	0.123363	6861.493090	38345.305543	3848.942524	18944.869404
83.539500	0.064599	0.038812	0.064897	0.127677	6785.075854	37884.355986	3827.717119	18785.949536
84.037000	0.068921	0.038797	0.070313	0.122699	6869.780419	38286.359459	3851.511610	18969.447746
84.534500	0.066611	0.039179	0.065970	0.122337	6851.887148	38347.063405	3842.330336	18982.886114
85.040500	0.068462	0.037993	0.070853	0.122109	6870.980205	38268.923171	3854.132992	18991.340606
85.535000	0.065075	0.038764	0.062589	0.127434	6791.555377	37899.987446	3823.055528	18794.836708
86.036000	0.066610	0.038868	0.066010	0.123098	6844.905388	38259.642733	3840.677866	18954.675176
86.536000	0.067409	0.038385	0.067079	0.122343	6859.147276	38281.761154	3844.865305	18982.650371
87.036000	0.066796	0.037761	0.066056	0.121582	6860.502401	38292.953410	3844.261686	19010.905439
87.536500	0.064285	0.036887	0.064463	0.126956	6788.739985	37787.479276	3828.364615	18812.368303
88.037000	0.066395	0.038771	0.067467	0.122288	6850.359884	38317.734221	3845.886891	18984.708728
88.537500	0.066083	0.037732	0.065678	0.122017	6849.979192	38255.107819	3842.394802	18994.743416
89.035000	0.066591	0.037666	0.068053	0.121743	6857.147073	38272.079657	3848.496016	19004.939395
89.543500	0.061881	0.035921	0.062236	0.126948	6767.190043	37710.656770	3823.355529	18812.680988
90.035000	0.065289	0.036917	0.064594	0.122211	6840.941052	38173.179343	3839.465311	18987.564072
90.538000	0.067108	0.036842	0.069103	0.121790	6861.464828	38201.287974	3850.815881	19003.203262
91.036000	0.064433	0.036623	0.069343	0.121695	6837.831580	38191.209374	3851.592532	19006.732589
91.536000	0.062000	0.036383	0.067330	0.127620	6762.238230	37693.808163	3833.365371	18788.035389
92.036500	0.065739	0.036195	0.067394	0.121970	6847.254414	38134.053635	3846.450228	18996.503584
92.536500	0.064430	0.035074	0.074480	0.120976	6844.374692	38123.832669	3865.252157	19033.471411
93.037500	0.065958	0.034912	0.066618	0.120972	6858.413906	38111.001535	3846.962338	19033.607705
93.537000	0.060864	0.034629	0.061860	0.126542	6761.717613	37639.731914	3823.423523	18827.608740
94.038000	0.063642	0.033994	0.068975	0.120895	6837.917600	38042.869075	3852.591946	19036.482937
94.534500	0.065036	0.035131	0.066981	0.121677	6843.514441	38071.627442	3846.175169	19007.401493
95.035500	0.063867	0.034191	0.068339	0.121228	6836.927554	38031.859175	3850.347736	19024.091911
95.536000	0.061112	0.034161	0.066544	0.128156	6749.500237	37473.551557	3830.361860	18768.383112
96.036000	0.064171	0.034852	0.070767	0.121941	6833.197018	38027.652572	3854.324805	18997.591420
