sample name	sample
index	705
start time	 03-25-2021  10:41:37 AM
880	0.015497
Peak Time (s)	181.536
Peak Height 	0.0155
calc peak height	180,183
Baseline Time (s)	9.536
Baseline Value 	-0.006906
subtract baseline	10,4
Abs	0.006003
Peak Time (s)	182.536
Peak Height 	0.006003
calc peak height	180,183
Baseline Time (s)	9.035
Baseline Value 	0.004859
subtract baseline	10,3
PK_550	0.003260
Peak Time (s)	182.536
Peak Height 	0.00326
calc peak height	180,183
Baseline Time (s)	8.535
Baseline Value 	6.4088E-4
subtract baseline	10,2
PK_880	0.004276
Peak Time (s)	181.036
Peak Height 	0.004276
calc peak height	180,183
Baseline Time (s)	10.036
Baseline Value 	0.0026
subtract baseline	10,1


Time (s)	A880-A510	A880-A775	A880-A975	A880	I510	I775	I975	I880	
0.035500	0.000220	-0.000485	-0.000722	0.000951	7186.039178	44433.435260	3864.200758	23572.293668
0.536000	-0.001235	-0.000142	-0.007143	0.006558	7114.351466	43931.548281	3832.729890	23304.967520
1.036000	-0.003522	0.000183	-0.001500	0.004408	7112.962644	44166.755647	3853.016972	23407.026547
1.536500	0.000106	-0.000067	0.000515	0.000585	7188.623981	44508.733110	3868.462043	23589.865897
2.036500	0.001477	0.001028	-0.000612	0.000801	7200.455180	44593.268348	3864.889274	23579.467627
2.537500	-0.002384	-0.000099	-0.006558	0.006737	7100.999178	43918.639435	3833.777021	23296.484540
3.038000	0.001608	-0.000123	-0.003522	-0.001300	7223.439053	44684.906116	3862.744834	23680.592052
3.538000	-0.000909	0.000311	-0.003798	0.001177	7172.199228	44488.207407	3855.473652	23561.453936
4.035500	-0.000315	0.000356	0.001020	0.001038	7179.667118	44505.766102	3868.596311	23568.081354
4.535500	-0.002186	-0.000139	-0.003105	0.000061	7170.539697	44552.109349	3860.245997	23615.008370
5.036000	0.000454	0.000107	0.000490	0.001192	7185.967437	44467.130681	3866.778554	23560.703058
5.536000	0.000247	-0.000375	0.000652	-0.000032	7196.387728	44538.335178	3870.469445	23619.485298
6.036000	-0.001715	-0.000887	-0.001749	-0.000424	7180.313183	44526.885822	3865.122934	23638.360682
6.536500	-0.001670	0.000134	0.000387	0.000454	7171.795709	44540.585212	3868.466932	23596.127090
7.037000	0.000749	-0.000548	0.000028	-0.000091	7202.150187	44527.472313	3868.964462	23622.362723
7.537500	-0.001310	0.000186	-0.002873	0.000203	7178.031945	44569.720999	3860.482222	23608.180610
8.037500	-0.000505	-0.000318	-0.000499	0.000064	7187.700290	44534.718929	3867.147824	23614.894967
8.535000	-0.000880	0.000000	-0.002879	0.000196	7182.511167	44552.581911	3860.487248	23608.555113
9.035000	0.000676	0.000668	0.000000	0.000736	7192.912190	44564.901537	3866.689146	23582.611865
9.535500	0.001614	0.000074	0.002484	0.000000	7210.107467	44578.561248	3875.282053	23617.962499
10.036000	0.000000	-0.000132	0.000913	0.000194	7191.539079	44540.107651	3870.564258	23608.645773
10.536000	-0.000083	-0.000181	-0.001952	-0.000177	7194.486738	44571.025031	3863.929675	23626.483646
11.036000	0.000328	0.000173	-0.002634	-0.000106	7197.981497	44598.313105	3861.933325	23623.069647
11.536500	-0.001642	-0.000795	0.000720	-0.000906	7185.990461	44582.136536	3872.986528	23661.601455
12.037500	-0.001974	-0.001212	0.001267	-0.001031	7183.867429	44553.946258	3874.782578	23667.601189
12.540000	0.001690	0.000392	-0.001928	0.000184	7208.992319	44591.421863	3863.037107	23609.123331
13.037500	0.000338	-0.000144	0.002856	-0.002411	7221.797458	44790.099609	3882.758579	23734.215370
13.535000	-0.001711	0.000388	-0.002265	0.005133	7123.915856	44117.237841	3849.111804	23372.580888
14.035000	0.001968	-0.000177	0.002497	-0.001316	7227.321965	44681.208549	3878.847541	23681.359497
14.535500	0.000643	0.000772	0.001629	0.002753	7171.946405	44381.187717	3865.658179	23485.985608
15.036000	0.001686	0.000447	0.002453	-0.000366	7214.604378	44649.709568	3876.176963	23635.547994
15.568000	-0.001993	-0.000890	-0.001715	0.003755	7134.993181	44126.786805	3854.170707	23438.178585
16.039000	0.002471	0.000872	0.002290	-0.000554	7224.639629	44708.803456	3876.243304	23644.600124
16.537000	0.002380	0.000272	0.003092	-0.001193	7230.307668	44712.583549	3880.114509	23675.398417
17.037500	0.000443	0.000479	0.004842	-0.001353	7211.972340	44748.042361	3885.263492	23683.121620
17.538000	-0.000816	-0.000252	-0.001855	0.001954	7165.220234	44359.638081	3858.546120	23524.205480
18.035000	-0.000395	-0.000251	0.005041	-0.000040	7189.889134	44551.139213	3882.258260	23619.880829
18.535500	-0.001968	-0.000199	0.001841	0.000709	7166.160280	44484.085893	3871.664424	23583.891581
19.035500	-0.001810	-0.000656	0.002405	0.000696	7167.917047	44441.483792	3873.208706	23584.538106
19.536000	-0.001092	-0.000699	-0.001194	0.000665	7175.542204	44440.312953	3863.707204	23585.997979
20.036000	-0.000724	-0.000738	-0.002494	0.000620	7179.767713	44440.864599	3860.384328	23588.165050
20.536000	0.001476	0.000455	0.002823	0.001005	7198.358187	44518.525331	3873.498483	23569.705412
21.037000	-0.000767	-0.000675	0.000571	0.000594	7179.596661	44449.476550	3868.585122	23589.418751
21.537000	-0.000281	-0.000165	0.000706	0.000612	7184.386415	44496.688657	3868.897294	23588.560129
22.040000	0.000577	0.000498	0.002511	0.000982	7189.373606	44524.884245	3872.726565	23570.794959
22.535000	0.000081	-0.000366	0.001286	0.000125	7193.083192	44524.235827	3871.743763	23611.974046
23.035500	0.001186	-0.000307	-0.000711	0.000526	7200.293763	44491.281184	3865.355010	23592.661561
23.535500	-0.001805	-0.000493	0.001956	0.001013	7164.727533	44426.710499	3871.159682	23569.302298
24.035500	0.000349	-0.000748	0.003038	0.000110	7195.975316	44488.945181	3876.470578	23612.669239
24.536000	0.000119	-0.000388	0.000466	0.000791	7186.644085	44458.155610	3867.781497	23579.976737
25.036500	-0.001170	0.000023	0.001822	0.000922	7172.132329	44484.981468	3871.046984	23573.666457
25.536500	0.000021	-0.000526	-0.000811	0.001251	7180.931974	44400.677915	3863.166331	23557.863271
26.039000	-0.001141	-0.000732	-0.001261	0.000111	7180.708598	44490.340253	3865.000234	23612.639941
26.537000	-0.000385	0.000180	0.004600	0.000919	7180.176766	44500.359618	3878.491199	23573.798389
27.037500	-0.000629	-0.000906	0.000408	0.000002	7187.057239	44484.080656	3869.728254	23617.846415
27.535000	-0.000245	0.000262	-0.003658	0.000501	7185.879983	44548.403432	3857.623497	23593.859584
28.035000	0.000733	0.000284	0.001538	-0.002482	7226.600601	44838.441777	3879.401808	23737.658369
28.535000	-0.000371	-0.000102	0.005000	-0.000004	7189.771541	44561.982467	3882.051351	23618.167074
29.041000	0.002748	0.000252	0.001147	-0.001452	7236.793812	44735.703472	3875.588148	23687.901945
29.536500	0.001044	0.000835	0.002645	-0.001372	7218.364904	44784.444044	3879.395490	23684.072498
30.039500	0.002676	-0.000031	0.002594	-0.001440	7235.924520	44707.194130	3879.440194	23687.332155
30.537000	0.001502	0.000324	-0.000975	-0.000013	7209.079030	44603.814383	3866.087783	23618.570096
31.037000	0.000046	-0.000664	0.000520	-0.002178	7216.386244	44717.374135	3875.853963	23722.980887
31.540000	-0.001343	-0.000168	0.003118	0.002658	7152.700034	44300.317672	3869.873108	23490.535934
32.035000	-0.001479	0.000564	0.006868	0.001956	7158.441741	44437.649921	3881.801458	23524.093429
32.537500	-0.000814	0.000285	-0.001484	0.002048	7164.278658	44402.023292	3859.278446	23519.694259
33.037500	0.000121	0.000486	0.001889	-0.000796	7202.938251	44694.972045	3875.820311	23656.300106
33.538500	-0.002953	-0.000715	-0.002311	0.003905	7123.770150	44129.072289	3852.209302	23430.986218
34.035500	0.001390	0.000708	0.007950	-0.000913	7217.207413	44727.714285	3892.494480	23661.939985
34.536500	-0.000356	-0.000048	0.004183	-0.000558	7195.593883	44620.500191	3881.342178	23644.797305
35.036500	0.000083	0.000115	-0.000718	0.001261	7181.460249	44461.202214	3863.386460	23557.384147
35.537000	-0.000900	-0.000423	0.000245	0.001544	7168.536530	44382.562373	3865.193631	23543.840190
36.037500	0.000501	0.000595	-0.000364	0.001683	7181.424823	44466.898923	3863.208556	23537.193694
36.535000	0.000574	0.000662	0.000481	0.001669	7182.319215	44474.671586	3865.487401	23537.865308
37.035000	-0.001409	0.000090	-0.003180	0.001746	7161.291472	44412.275404	3855.600931	23534.151792
37.535500	0.002038	0.000246	0.002702	0.001461	7199.443246	44454.622638	3871.957437	23547.820702
38.035000	0.000498	-0.000295	-0.001080	0.001060	7187.771833	44441.202065	3862.963690	23567.069956
38.536000	-0.001304	-0.000735	-0.002433	0.001133	7168.610642	44392.038680	3859.188882	23563.555302
39.036000	-0.000477	-0.000011	0.002130	0.001291	7175.433604	44446.319972	3870.884779	23555.972881
39.536500	0.000487	-0.000374	-0.003504	0.001538	7182.765966	44387.792067	3855.298072	23544.130558
40.039500	-0.002836	-0.000916	0.001781	0.000686	7157.568743	44417.568289	3871.567580	23585.002673
40.537000	0.000154	0.001039	-0.000814	0.002136	7173.251183	44465.991116	3860.817976	23515.491905
41.040000	0.000078	0.000459	0.002740	0.001857	7175.318729	44437.033620	3870.999956	23528.828783
41.537500	-0.000907	-0.000102	-0.001296	0.002209	7161.696671	44349.654220	3859.349814	23512.018195
42.035500	0.002074	0.001201	0.001391	0.002159	7192.647508	44479.293366	3866.602285	23514.373656
42.535500	-0.000249	-0.000728	0.000841	0.000840	7182.381124	44420.793586	3868.650104	23577.618176
43.035500	-0.001057	-0.000129	0.000847	0.001337	7169.045585	44430.548820	3867.342271	23553.751935
43.536000	-0.001262	-0.000212	-0.003308	0.002919	7150.871328	44271.164161	3852.180520	23478.054340
44.036000	-0.000119	0.000086	0.000330	0.001905	7172.820737	44396.740404	3864.459963	23526.549064
44.535500	-0.001645	-0.000028	0.000701	0.001320	7163.239301	44441.958295	3867.000646	23554.598558
45.036000	0.002301	-0.000199	0.002036	-0.003221	7250.500606	44863.309107	3882.731605	23773.456545
45.540000	-0.002964	-0.000439	-0.001151	0.004578	7116.869519	44091.305325	3853.489559	23398.938256
46.037500	0.000675	-0.000065	0.003445	-0.001214	7212.930864	44682.156438	3881.120241	23676.422363
46.534500	0.001523	0.000160	0.001404	-0.000733	7216.718565	44657.464287	3874.352062	23653.249811
47.035500	-0.000283	-0.000443	0.001556	-0.001829	7209.399494	44704.976359	3877.696370	23706.084841
47.535500	-0.003981	0.000303	0.000025	0.005479	7097.599778	44076.260996	3854.213535	23356.147093
48.036000	0.001291	0.000350	0.003092	-0.000719	7214.180008	44674.407579	3878.841173	23652.585719
48.544500	0.000180	-0.000188	0.002493	-0.001033	7205.982998	44652.863930	3878.075263	23667.712186
49.036500	-0.000975	0.000184	0.000208	0.002800	7154.990165	44320.375336	3861.765405	23483.740962
49.536500	-0.003667	-0.000742	-0.003592	0.004729	7108.277340	44048.175272	3846.698313	23391.788241
50.042000	0.001110	0.000119	0.003575	-0.000675	7211.856378	44647.858871	3880.020143	23650.442927
50.537000	-0.000457	0.000354	0.002675	-0.000508	7194.041914	44654.392945	3877.154137	23642.387968
51.034000	0.000071	-0.000441	0.001038	-0.001579	7210.469582	44681.104288	3875.638034	23694.027892
51.538000	-0.001549	-0.000160	-0.000126	0.004152	7135.462808	44158.456570	3857.309002	23419.232514
52.035500	0.001309	-0.000506	0.002006	-0.001930	7226.850954	44708.625439	3879.176926	23710.979860
52.535500	-0.006380	-0.003553	0.005883	0.031531	6821.337903	41327.602962	3802.320285	22155.310472
53.036000	-0.043465	-0.013084	0.000603	0.147347	5610.477014	31661.901036	3537.019498	17608.733819
53.536000	-0.017019	-0.006179	0.005671	0.023635	6795.655043	41798.295047	3821.781278	22511.676899
54.036000	-0.018921	-0.008942	0.008510	-0.027950	7287.060094	46441.395956	3969.938214	25006.307676
54.537000	-0.016777	-0.013267	0.005720	-0.104195	8186.290462	54306.080117	4201.742485	29281.052697
55.039500	-0.047963	-0.013735	-0.013135	-0.041509	7127.853808	47331.839121	3946.734501	25712.732478
55.534000	-0.014382	-0.025517	-0.023065	-0.173516	9163.962973	61543.106412	4347.481146	33875.671958
56.037500	0.017569	-0.043074	-0.004952	-0.209758	10255.967680	64126.894145	4565.526245	36586.172301
56.535000	0.022141	-0.018963	0.003949	-0.164998	9591.787844	61278.087650	4418.637774	33270.834642
57.035000	0.014896	-0.008846	0.004664	-0.116187	8762.225370	56290.874967	4239.731554	30024.360204
57.535500	0.003469	-0.007437	0.004886	-0.086730	8221.270855	52943.888562	4140.277812	28234.584838
58.036000	-0.003149	-0.006720	-0.000669	-0.075110	7995.909271	51700.054889	4084.898189	27561.304794
58.536000	-0.003435	-0.006454	0.003909	-0.063006	7848.117622	50384.469815	4061.313328	26878.857772
59.036500	-0.004354	-0.004509	0.004397	-0.049338	7679.423432	49116.377423	4020.979227	26130.723259
59.539500	-0.000968	-0.001908	0.007374	-0.031628	7519.214006	47531.878558	3977.320133	25195.751111
60.037500	-0.002603	-0.001948	0.002000	-0.018677	7361.409537	46212.918552	3925.046493	24535.786705
60.534500	0.000596	-0.002351	0.004748	-0.026460	7479.723214	46957.340795	3954.818448	24930.034328
61.035000	-0.000132	-0.001061	0.004792	-0.009495	7290.555692	45391.087642	3907.326931	24079.624994
61.536500	-0.006486	-0.000725	0.001568	0.006813	7059.244194	43852.178521	3854.762516	23292.849234
62.035500	-0.002993	0.001398	0.012321	0.016218	7000.864402	43169.157587	3858.314268	22852.386064
62.536000	-0.003939	0.001508	0.004079	0.023613	6919.840816	42497.257899	3817.779111	22512.717388
63.036000	-0.004047	0.001720	0.009180	0.029399	6863.506435	41990.600310	3816.033411	22250.909712
63.536500	0.004615	0.005070	0.000317	0.029936	6941.358345	42245.471111	3792.396478	22226.779606
64.064000	0.009775	0.005542	0.006597	0.017648	7113.542946	43422.378174	3839.587322	22786.261806
64.541000	0.007367	0.004713	0.011016	0.017022	7095.636236	43403.318406	3852.762414	22815.172718
65.037500	0.006837	0.004142	0.006279	0.011838	7142.547832	43837.241311	3853.935688	23056.334706
65.535000	0.005342	0.004752	0.003492	0.015918	7086.411431	43510.435911	3836.024158	22866.303769
66.049000	0.007744	0.005407	0.006442	0.013837	7131.502820	43767.891447	3849.119619	22963.019272
66.535500	0.007105	0.004997	0.007137	0.009372	7170.343150	44152.496041	3862.709821	23172.080751
67.036000	0.008838	0.005130	0.012056	0.009426	7187.498160	44159.941420	3875.671481	23169.529400
67.536000	0.005590	0.004239	0.009034	0.013981	7108.320325	43644.244050	3855.547293	22956.290242
68.038500	0.010209	0.005839	0.014901	0.009877	7196.935964	44184.559852	3882.103646	23148.330923
68.536500	0.012001	0.006484	0.011639	0.010811	7205.737142	44157.029344	3870.853587	23104.440308
69.039000	0.010181	0.006459	0.010509	0.011238	7182.697437	44113.963379	3866.706273	23084.428476
69.537000	0.010852	0.006896	0.010945	0.011415	7187.759876	44138.726576	3867.396219	23076.139338
70.034500	0.013824	0.006756	0.008241	0.011800	7214.316524	44088.709566	3859.207147	23058.107958
70.537500	0.010710	0.006664	0.008230	0.012520	7175.005134	44011.560800	3857.277878	23024.456338
71.041000	0.010702	0.006144	0.011726	0.012132	7178.892097	43999.085442	3867.566394	23042.581271
71.535000	0.011129	0.006936	0.007588	0.018738	7116.199491	43450.932157	3839.332696	22736.007638
72.038500	0.008140	0.007588	0.006201	0.018240	7091.167835	43558.666714	3837.025225	22758.924109
72.536500	0.011192	0.007912	0.009566	0.014864	7156.035154	43907.647352	3854.622999	22915.214867
73.039000	0.011575	0.007176	0.010670	0.014291	7165.767235	43892.224085	3859.045079	22941.889258
73.536500	0.008488	0.007409	0.012484	0.018940	7087.656870	43476.208987	3851.582015	22726.690972
74.039500	0.008814	0.007138	0.009074	0.019651	7083.792932	43384.316115	3840.818743	22693.967912
74.537500	0.010405	0.007266	0.011667	0.015361	7143.000611	43799.544678	3858.850787	22892.141069
75.040000	0.009916	0.007339	0.012655	0.015202	7139.655412	43821.484221	3861.883216	22899.514737
75.535000	0.008726	0.007057	0.008852	0.020413	7075.313750	43305.611197	3838.264840	22658.990399
76.035500	0.008928	0.007287	0.008559	0.019825	7083.206107	43381.988553	3839.031266	22685.997807
76.535500	0.010944	0.007241	0.014941	0.015453	7147.531959	43788.453991	3867.281712	22887.848780
77.037500	0.010029	0.007185	0.010998	0.015791	7134.836754	43751.297285	3855.951196	22872.172021
77.536500	0.008280	0.007813	0.014048	0.020849	7066.514154	43335.356400	3850.674264	22638.969003
78.036500	0.008788	0.007204	0.005703	0.020787	7072.196966	43284.392472	3829.165452	22641.832527
78.539500	0.010998	0.007432	0.011160	0.016243	7140.084623	43731.940646	3855.190709	22851.253648
79.037500	0.010567	0.007772	0.010333	0.016748	7130.605809	43716.384662	3851.688929	22827.855762
79.537500	0.007378	0.007807	0.012979	0.021796	7048.137174	43246.497132	3845.402357	22595.631239
80.035000	0.006920	0.007642	0.008277	0.021599	7045.551679	43249.574607	3833.709250	22604.659882
80.535000	0.009551	0.007496	0.013223	0.016348	7124.389386	43728.138049	3860.356372	22846.390155
81.037000	0.012808	0.007362	0.010175	0.016439	7156.454582	43706.871148	3852.083744	22842.150468
81.535500	0.011113	0.007403	0.016998	0.016490	7138.745951	43705.966674	3870.000386	22839.809053
82.036500	0.007434	0.007604	0.010288	0.022413	7042.573980	43170.200819	3836.801256	22567.421118
82.536500	0.010976	0.008102	0.009340	0.017112	7131.068816	43713.266097	3848.132822	22811.043279
83.036500	0.011045	0.007900	0.010733	0.017030	7132.589312	43701.879327	3851.998846	22814.809105
83.536500	0.008533	0.007446	0.009912	0.021409	7063.451917	43248.908190	3838.429455	22613.316664
84.040000	0.008304	0.007660	0.004807	0.022729	7048.066915	43145.997599	3821.888262	22552.992462
84.535000	0.011502	0.007603	0.011974	0.017344	7134.027938	43644.310591	3854.433596	22800.275707
85.035000	0.010155	0.007885	0.012677	0.017169	7122.193279	43687.425116	3856.746025	22808.393418
85.539500	0.006947	0.008082	0.005256	0.022102	7040.842955	43243.612358	3824.644048	22581.649224
86.036000	0.007716	0.007713	0.009024	0.023064	7038.927488	43119.852185	3831.853778	22537.728258
86.535500	0.010205	0.007607	0.010188	0.017494	7119.425270	43630.645204	3849.352229	22793.371364
87.036500	0.011133	0.007731	0.011308	0.017453	7129.208440	43646.133218	3852.398928	22795.278053
87.536000	0.007731	0.008380	0.012475	0.022666	7043.013468	43218.844253	3841.820929	22555.864380
88.039500	0.006017	0.007171	0.006576	0.023086	7021.931573	43067.458486	3825.503050	22536.707412
88.537000	0.011235	0.007903	0.007332	0.017198	7132.808389	43686.287693	3842.666556	22807.025679
89.037500	0.010787	0.007725	0.008616	0.017438	7125.856125	43646.931197	3845.389963	22795.949935
89.534500	0.009470	0.008076	0.007526	0.017635	7110.596869	43661.393776	3842.034311	22786.838210
90.035000	0.006201	0.007310	0.008741	0.022806	7026.506005	43106.303180	3831.789381	22549.486445
90.535500	0.009686	0.007717	0.008673	0.017584	7113.278858	43632.406856	3845.155994	22789.194037
91.038500	0.010405	0.007312	0.009813	0.017662	7119.744448	43587.042718	3847.930044	22785.606406
91.536000	0.006718	0.007337	0.003961	0.022480	7034.832960	43139.049759	3820.364051	22564.356381
92.036500	0.007317	0.007656	0.001206	0.023591	7029.778130	43065.634541	3810.543320	22513.705446
92.536000	0.010766	0.007331	0.009500	0.017326	7126.777247	43620.368684	3847.989466	22801.114235
93.036000	0.009090	0.007759	0.006426	0.017717	7105.951931	43623.976674	3838.964700	22783.075905
93.537000	0.007256	0.008173	0.007411	0.023222	7032.813637	43147.847949	3827.296759	22530.493686
94.037500	0.006588	0.006830	0.011574	0.022502	7033.328077	43090.007574	3839.906706	22563.368055
94.538000	0.009935	0.006947	0.009034	0.017341	7118.239516	43582.896301	3846.734239	22800.434624
95.035000	0.010217	0.007779	0.008731	0.018139	7113.049010	43586.191729	3843.862740	22763.617319
95.535500	0.009462	0.007739	0.004945	0.021210	7074.696588	43294.752965	3826.131904	22622.428688
96.036000	0.006161	0.006890	0.005935	0.023520	7019.076901	43001.181685	3822.751308	22516.937730
96.536500	0.010259	0.008057	0.010475	0.018375	7111.095795	43590.121054	3847.798479	22752.716127
97.036500	0.011274	0.007421	0.009446	0.017938	7125.735915	43571.427408	3846.250979	22772.891298
97.539500	0.009126	0.007288	0.012937	0.018172	7101.746827	43536.982440	3854.789869	22762.088831
98.037000	0.009948	0.007382	0.008551	0.018041	7111.317837	43557.998814	3843.647035	22768.095606
98.537500	0.008370	0.006356	0.006172	0.017080	7105.116039	43551.900974	3839.958554	22812.496415
99.038000	0.008508	0.007680	0.010615	0.018210	7095.162953	43570.158294	3848.596992	22760.320390
99.535000	0.010995	0.007689	0.013247	0.018015	7122.130432	43589.259994	3856.018433	22769.300634
100.035500	0.006991	0.007044	0.008587	0.023936	7023.149689	42976.927415	3828.484750	22498.002306
100.536000	0.009238	0.007601	0.011719	0.018307	7101.514311	43553.565359	3851.233246	22755.825414
101.036000	0.009175	0.007945	0.013243	0.018510	7098.841313	43566.841737	3854.704076	22746.477465
101.536500	0.010628	0.007876	0.010224	0.018161	7116.959442	43593.147882	3847.702237	22762.579479
102.037000	0.006471	0.006577	0.007642	0.023010	7027.165559	43019.445800	3828.437051	22540.200193
102.537000	0.009763	0.006576	0.008809	0.017459	7115.327530	43537.047333	3845.839552	22794.995927
103.037500	0.011119	0.006982	0.012610	0.018048	7123.057087	43519.856792	3854.256053	22767.811128
103.537500	0.004807	0.006563	0.006192	0.021033	7030.247707	43201.717470	3829.791534	22630.556625
104.035000	0.004921	0.006511	0.005528	0.022871	7013.260884	43026.190025	3823.370557	22546.536044
104.535500	0.007794	0.007157	0.005785	0.017504	7095.090223	43587.385750	3837.856563	22792.926380
105.035500	0.007627	0.006196	0.008930	0.017387	7094.579587	43508.149201	3846.342263	22798.317731
105.536000	0.005275	0.006921	0.005996	0.022206	7023.290800	43125.942133	3826.273074	22576.902741
106.036000	0.007250	0.006342	0.006813	0.023506	7029.953184	42951.738496	3825.034371	22517.562473
106.536500	0.009693	0.007724	0.011805	0.018273	7106.421509	43568.350994	3851.549859	22757.409009
107.039500	0.008084	0.006324	0.011215	0.017143	7101.614461	43542.989789	3852.964297	22809.566077
107.539500	0.007674	0.006067	0.007180	0.019892	7070.007776	43261.826850	3835.284103	22682.894361
108.034000	0.005340	0.006804	0.004855	0.023632	7009.890734	42982.852092	3819.707914	22511.836929
108.537500	0.009364	0.006069	0.006950	0.017566	7110.225070	43479.399897	3840.715736	22790.029465
109.035000	0.007765	0.007031	0.007347	0.017748	7092.353341	43552.588887	3841.278403	22781.652999
109.535500	0.006366	0.006445	0.004661	0.021712	7038.948684	43127.564679	3824.116463	22599.474732
110.035500	0.003062	0.005313	0.006108	0.022196	7001.616942	42977.658744	3826.585108	22577.332290
110.535500	0.008762	0.006777	0.009655	0.018084	7098.975259	43497.231678	3846.413718	22766.111091
111.036000	0.009351	0.006940	0.008413	0.017966	7106.076687	43523.636390	3843.484296	22771.597980
111.539500	0.007911	0.006797	0.007358	0.018317	7088.111428	43477.340147	3839.826318	22755.400915
112.037000	0.004650	0.005947	0.006712	0.022643	7012.826633	42995.013403	3826.989167	22556.921443
112.537000	0.008577	0.006197	0.005804	0.017526	7102.715776	43495.145616	3837.845598	22791.889472
113.034500	0.009172	0.006087	0.006818	0.017371	7110.259755	43499.398747	3840.883657	22799.072001
113.535000	0.008578	0.006893	0.010801	0.017981	7098.164220	43517.806399	3849.684541	22770.898243
114.038000	0.009269	0.006510	0.005343	0.018163	7103.263666	43464.787481	3835.002211	22762.465381
114.538500	0.006804	0.005795	0.009699	0.017057	7089.644967	43501.454029	3849.215706	22813.575223
115.035500	0.007361	0.005538	0.005570	0.017162	7094.169843	43467.507185	3838.184365	22808.716421
115.536000	0.007069	0.006263	0.010822	0.017473	7088.129709	43506.255840	3851.067960	22794.321127
116.036500	0.005171	0.005550	0.008386	0.022451	7019.856616	42976.034056	3831.790139	22565.701345
116.537000	0.006953	0.006424	0.012768	0.017842	7083.286742	43486.896234	3855.214671	22777.315977
117.037000	0.008599	0.005639	0.006409	0.016858	7109.655489	43505.459252	3841.152708	22822.770092
117.537000	0.008595	0.005876	0.004598	0.017440	7103.761852	43473.149895	3834.947660	22795.867511
118.037500	0.006457	0.005547	0.006879	0.017076	7085.980689	43476.440745	3841.807038	22812.674372
118.535500	0.006528	0.006120	0.003564	0.017025	7087.206413	43534.943930	3833.349878	22815.060995
119.035000	0.007539	0.005494	0.008654	0.016703	7100.556775	43506.390496	3847.408622	22829.943478
119.535000	0.008131	0.005656	0.010512	0.016884	7104.689051	43504.639575	3851.799528	22821.560550
120.036000	0.008318	0.006202	0.005110	0.017233	7103.060746	43523.156431	3836.810121	22805.447652
120.536000	0.008335	0.006831	0.006605	0.017027	7105.301271	43601.591779	3841.223181	22814.957008
121.039000	0.005762	0.005666	0.008166	0.016902	7080.773038	43503.914563	3845.615205	22820.736854
121.537000	0.005069	0.005649	0.012835	0.020106	7042.006277	43202.914622	3849.443669	22673.073184
122.037000	0.005547	0.005515	0.005970	0.020578	7042.067099	43146.552926	3830.389971	22651.424850
122.537500	0.006560	0.005678	0.005786	0.016681	7090.963877	43525.712144	3839.992207	22830.943901
123.038000	0.005668	0.005190	0.005479	0.016400	7084.844788	43506.351275	3839.924884	22843.959518
123.535000	0.003115	0.005226	0.004329	0.020377	7020.025099	43138.357249	3826.689457	22660.642999
124.035500	0.004881	0.005633	0.001538	0.019422	7046.917675	43265.230219	3821.988119	22704.516467
124.535500	0.009283	0.005937	0.006898	0.016686	7118.273559	43549.654491	3842.872415	22830.747957
125.036000	0.005938	0.006122	0.006441	0.016507	7086.479714	43583.752820	3842.148662	22839.013571
125.536500	0.004651	0.005373	0.006837	0.019315	7045.695705	43250.896437	3835.888616	22709.413679
126.036500	0.004744	0.005179	0.003576	0.019246	7047.306223	43239.328300	3827.660624	22712.618956
126.537000	0.006581	0.004775	0.006376	0.015797	7100.039122	43523.962339	3843.826299	22871.911518
127.034500	0.004581	0.005077	0.008971	0.015523	7082.747251	43577.998433	3851.327991	22884.618208
127.537500	0.003832	0.004803	0.004066	0.018288	7047.763646	43293.567202	3831.386527	22756.731291
128.035000	0.005832	0.005474	0.003009	0.018652	7064.014135	43322.167109	3827.728773	22739.942813
128.535000	0.006372	0.004462	0.005836	0.015563	7100.286955	43516.508043	3843.029594	22882.746201
129.035500	0.007266	0.005603	0.001661	0.016207	7102.804612	43563.247680	3830.551797	22852.917620
129.535500	0.003527	0.005326	0.004157	0.021117	7016.794873	43078.964129	3824.350054	22626.716409
130.036000	0.005815	0.005536	0.005539	0.017984	7070.506653	43390.378396	3835.974428	22770.758459
130.539000	0.005517	0.004508	0.008326	0.015317	7094.178292	43544.021541	3850.178076	22894.191910
131.036500	0.005762	0.004950	0.006895	0.015698	7092.812395	43549.645135	3845.439091	22876.489972
131.537000	0.003237	0.005300	0.007355	0.020127	7023.695949	43168.496351	3835.129403	22672.117220
132.037500	0.002958	0.004408	0.001886	0.017855	7043.396729	43297.112534	3826.891272	22776.717584
132.537500	0.005819	0.005398	0.007681	0.015792	7092.443413	43582.920874	3847.245659	22872.141998
133.035000	0.005878	0.005402	0.007055	0.016000	7090.957305	43563.731301	3845.068617	22862.494569
133.535500	0.004877	0.004658	0.008049	0.015395	7086.999145	43550.723084	3849.249669	22890.583466
134.036000	0.005309	0.004826	0.007809	0.017546	7069.814885	43364.956582	3843.003825	22790.947974
134.536500	0.005005	0.004268	0.007221	0.014753	7094.698810	43574.342321	3848.760936	22920.380166
135.036500	0.006336	0.005266	0.008356	0.015998	7095.570078	43551.159135	3848.474378	22862.599159
135.536500	0.003039	0.005431	0.005260	0.015522	7067.366449	43611.391068	3841.638670	22884.659298
136.037000	0.004400	0.004955	0.004497	0.016724	7068.959081	43453.933991	3836.539418	22828.967243
136.537500	0.004634	0.004880	0.008815	0.015068	7087.828466	43602.312029	3852.114849	22905.754720
137.037000	0.005108	0.004828	0.010929	0.015251	7090.749839	43580.230504	3857.195682	22897.268135
137.535000	0.006048	0.004757	0.004418	0.015478	7097.894005	43552.282257	3839.564479	22886.727852
138.035000	0.003538	0.004053	0.002352	0.016175	7065.834343	43420.873732	3832.412537	22854.374032
138.535500	0.005425	0.005664	0.006019	0.015736	7089.060861	43613.206791	3843.055363	22874.735188
139.035500	0.006074	0.005147	0.007689	0.015428	7098.658502	43593.609952	3848.221112	22889.041473
139.536000	0.006741	0.004969	0.006125	0.015454	7105.085949	43574.372204	3844.065897	22887.805521
140.039000	0.006831	0.005001	0.006345	0.015432	7106.215228	43579.457574	3844.697471	22888.845737
140.536500	0.004222	0.004987	0.004181	0.015888	7075.514644	43535.351251	3837.884587	22867.691718
141.037000	0.005381	0.004578	0.004823	0.014697	7099.040676	43608.858133	3842.648292	22923.000638
141.537500	0.003500	0.004360	0.003554	0.018292	7044.431836	43251.815230	3830.054422	22756.530803
142.037500	0.003629	0.005041	0.003088	0.016698	7061.539562	43464.462137	3832.962965	22830.165443
142.535000	0.004240	0.003301	0.002799	0.013525	7099.342364	43598.940337	3840.432639	22977.547918
143.035500	0.002608	0.003421	0.006114	0.013736	7080.890185	43590.374968	3848.524866	22967.706738
143.535500	0.004620	0.004015	0.007851	0.014458	7093.794487	43578.305301	3851.182379	22934.081979
144.036000	0.004105	0.004207	0.008200	0.015552	7077.705415	43493.624456	3849.231268	22883.261153
144.539000	0.004432	0.004283	0.006233	0.014617	7090.327298	43588.556791	3846.532355	22926.714361
145.036500	0.004433	0.004146	0.004010	0.014712	7089.380830	43566.777924	3840.493420	22922.279906
145.537000	0.002201	0.004209	0.001926	0.018082	7033.662326	43257.380944	3826.413125	22766.246696
146.037000	0.003702	0.003788	0.007796	0.014726	7081.933444	43531.847979	3850.337889	22921.633716
146.537500	0.005757	0.004554	0.005819	0.014794	7101.843321	43597.477405	3844.990328	22918.494802
147.035000	0.001649	0.003953	0.006427	0.013983	7068.856855	43617.162282	3848.696539	22956.203097
147.535000	0.004655	0.004717	0.006819	0.018458	7054.243021	43269.577430	3838.061304	22748.871526
148.035500	0.002847	0.003856	0.004994	0.013832	7082.320412	43622.256441	3845.349459	22963.257000
148.538500	0.003574	0.004632	0.004313	0.014556	7082.354899	43627.128693	3841.688779	22929.551505
149.036000	0.003189	0.003608	0.011340	0.014063	7083.428742	43577.124318	3861.416034	22952.460435
149.536000	0.002469	0.003686	0.002904	0.017114	7045.894327	43298.855601	3831.417185	22810.943860
150.037000	0.004378	0.004545	0.006896	0.015207	7083.877272	43557.734664	3846.721982	22899.270417
150.537000	0.004351	0.004073	0.005093	0.013871	7096.989633	43638.992804	3845.505364	22961.429002
151.037000	0.002636	0.004570	0.007798	0.014190	7076.635870	43655.772984	3851.748351	22946.579459
151.535000	0.002596	0.003856	0.001733	0.013808	7080.054886	43624.527881	3836.934387	22964.378709
152.035000	0.005207	0.004013	0.004181	0.014576	7098.507312	43567.049068	3841.293809	22928.629596
152.535500	0.003457	0.003772	0.003621	0.013883	7087.915919	43609.600961	3841.638515	22960.879788
153.036000	0.004192	0.004354	0.003618	0.014121	7092.893573	43641.916598	3841.012433	22949.792879
153.536000	0.003699	0.003364	0.001535	0.013085	7098.337149	43646.234329	3838.293535	22998.071931
154.039000	0.005036	0.004143	0.009250	0.014486	7097.686588	43587.707853	3854.785359	22932.790769
154.536500	0.003984	0.003589	0.004805	0.013579	7096.241589	43620.952648	3845.515211	22975.046021
155.037000	0.003673	0.004520	0.007165	0.014190	7087.004678	43651.050038	3850.087773	22946.572570
155.537000	0.003827	0.004176	0.004320	0.016626	7064.232076	43390.284187	3836.335813	22833.524427
156.037000	0.003042	0.004293	0.006763	0.014550	7077.096505	43595.765540	3848.094436	22929.813360
156.535000	0.006435	0.004598	0.007742	0.014305	7113.569182	43647.599482	3851.300414	22941.238189
157.035000	0.004711	0.003863	0.006918	0.013545	7103.880827	43649.955810	3851.132563	22976.626606
157.535500	0.002749	0.003919	0.002554	0.014643	7073.241114	43551.893246	3836.894572	22925.485359
158.036000	0.004214	0.003067	0.002078	0.013723	7097.098430	43558.256152	3838.045071	22968.301824
158.536000	0.003858	0.003555	0.008051	0.013244	7098.336112	43649.262989	3854.898213	22990.648810
159.036500	0.004785	0.004064	0.007288	0.013577	7104.302578	43665.860539	3852.019812	22975.145525
159.536000	0.001423	0.003824	0.003776	0.016794	7038.701247	43341.641614	3834.492356	22825.734929
160.037000	0.003747	0.003163	0.005169	0.013267	7096.988793	43610.126642	3847.279846	22989.562571
160.537000	0.003473	0.003534	0.004958	0.013396	7092.941450	43632.889910	3846.390049	22983.540580
161.037500	0.005030	0.003547	0.010382	0.013474	7107.796941	43626.823509	3860.440513	22979.924918
161.535000	0.002549	0.003033	0.001172	0.015911	7058.623377	43350.144525	3830.051875	22866.601385
162.035500	0.003612	0.004098	0.003223	0.014007	7088.225068	43628.533378	3840.281175	22955.089538
162.536000	0.003470	0.003141	0.003026	0.012831	7098.583105	43649.147229	3842.827040	23009.909589
163.035500	0.000593	0.002888	0.004073	0.012593	7072.182489	43647.781618	3846.178698	23021.047784
163.539000	0.001432	0.002754	0.007687	0.015532	7051.288248	43359.549000	3847.940854	22884.190736
164.036500	0.005086	0.003768	0.010384	0.013348	7109.620953	43659.482288	3860.780037	22985.785586
164.537000	0.004429	0.004180	0.004049	0.013547	7101.026995	43679.614129	3843.627876	22976.531762
165.037500	0.004328	0.003047	0.001013	0.012718	7108.334159	43650.898279	3837.889476	23015.199176
165.534500	0.002123	0.002795	0.001977	0.016408	7049.461073	43281.546810	3830.846101	22843.589887
166.035000	0.001824	0.003019	0.003344	0.013008	7080.327769	43620.983043	3843.192780	23001.648757
166.538000	0.005895	0.004292	0.010357	0.013504	7116.196971	43694.212225	3860.297983	22978.540727
167.035500	0.003307	0.002394	0.004457	0.012310	7102.175050	43627.933227	3847.920129	23034.272879
167.535500	0.000112	0.001831	0.001361	0.014974	7043.747381	43325.499579	3832.957697	22910.131694
168.036500	0.003540	0.003100	0.003877	0.012828	7099.316524	43645.556212	3845.051936	23010.069674
168.536000	0.002436	0.003581	0.005258	0.012787	7088.662925	43694.702842	3848.769801	23011.983015
169.036500	0.004594	0.003083	0.006918	0.012382	7114.392179	43685.952058	3854.186027	23030.903912
169.536500	-0.000276	0.002507	-0.000936	0.016213	7027.645661	43272.823676	3823.866502	22852.611038
170.037000	0.001811	0.002391	0.005626	0.012380	7086.481740	43621.068957	3850.799735	23031.001911
170.537500	0.002250	0.003049	0.001569	0.012114	7093.535636	43708.000111	3840.900492	23043.419799
171.035000	0.003686	0.003096	0.006338	0.012638	7102.694184	43663.076436	3851.989981	23018.959465
171.538000	0.003088	0.003296	0.001813	0.016601	7057.124670	43310.312739	3829.927970	22834.654224
172.035000	0.002551	0.002676	0.001409	0.012382	7093.878037	43647.644453	3839.791013	23030.921692
172.536000	0.004399	0.003874	0.011607	0.013442	7101.776571	43660.671951	3863.771670	22981.435535
173.039000	0.004072	0.003399	-0.000147	0.012638	7106.565633	43691.643915	3835.093272	23018.936873
173.536500	0.000931	0.002588	0.001090	0.016481	7036.925556	43255.446677	3828.377164	22840.224647
174.036500	0.001551	0.002220	0.003472	0.012038	7087.299598	43637.121837	3846.057513	23046.998640
174.537000	0.003008	0.002504	0.003404	0.012494	7097.333911	43620.932487	3844.689724	23025.670782
175.037500	0.003215	0.003376	0.004934	0.012773	7096.606717	43676.660213	3847.956640	23012.621598
175.534500	0.000505	0.002111	0.002631	0.014362	7053.701455	43408.801154	3837.822308	22938.552445
176.035000	0.001247	0.002112	0.001489	0.011608	7088.564800	43667.433609	3842.011400	23067.133233
176.535500	0.002895	0.002238	0.006127	0.011250	7108.691184	43713.019068	3855.084018	23083.870844
177.035500	0.003977	0.002608	0.002080	0.011839	7113.649027	43692.332616	3842.945522	23056.288201
177.538500	0.000666	0.001739	0.002499	0.014409	7054.840270	43369.652118	3837.358741	22936.377255
178.036500	0.001728	0.001953	0.001667	0.011732	7092.134165	43640.767292	3842.148749	23061.283632
178.536500	0.002394	0.002502	0.004709	0.011864	7097.488115	43680.041866	3849.749385	23055.128082
179.036500	0.002080	0.002510	0.003885	0.011923	7093.748932	43675.172434	3847.437696	23052.364275
179.537000	-0.000674	0.002657	0.001495	0.015022	7035.489154	43398.162851	3833.178136	22907.893395
180.037500	0.003926	0.002927	0.003254	0.012691	7104.571607	43642.183275	3843.787086	23016.469482
180.538000	0.003679	0.002128	0.003300	0.011623	7112.823115	43667.486087	3846.692305	23066.417915
181.035500	0.004276	0.002796	0.005805	0.012024	7114.796488	43692.644007	3852.204189	23047.654972
181.535500	0.000961	0.002308	-0.000590	0.015497	7046.973802	43321.155297	3826.589308	22885.839030
182.036000	0.004056	0.002539	0.002605	0.011762	7115.226935	43693.171959	3844.516847	23059.909308
182.536000	0.002845	0.003260	0.006003	0.012076	7099.885215	43731.518456	3852.586008	23045.208272
183.036500	0.004111	0.002302	0.000674	0.011690	7116.497769	43677.561740	3839.678693	23063.273793
183.537000	-0.000029	0.001776	0.003103	0.017859	7013.861296	43051.842517	3830.009494	22776.520464
184.037000	0.002246	0.002482	0.007280	0.011589	7098.758356	43704.017502	3857.227322	23067.987128
184.537500	0.002292	0.001549	0.002918	0.011195	7103.186342	43653.312524	3846.813198	23086.468693
185.037000	0.001514	0.002611	-0.000374	0.011773	7089.583553	43698.897983	3836.745208	23059.398145
185.611000	-0.001620	0.001606	0.000006	0.016937	7007.286266	43121.599005	3824.423540	22819.100255
186.035500	0.001085	0.001591	0.001236	0.011151	7091.512953	43661.372775	3842.542134	23088.526874
186.535000	0.001571	0.001778	0.005685	0.011171	7096.191291	43677.161157	3854.129756	23087.591516
187.038500	0.001356	0.002056	0.004141	0.011392	7091.819088	43682.421778	3849.496412	23077.223324
187.535500	0.002725	0.002528	0.004511	0.013212	7087.305082	43555.693756	3845.705216	22992.155883
188.036500	0.001310	0.001840	0.006926	0.011150	7093.782777	43684.960517	3857.451066	23088.565918
188.539500	0.001727	0.002144	0.002235	0.011365	7095.807091	43693.352081	3844.585891	23078.505904
189.037000	0.002804	0.002425	0.007216	0.011189	7108.384259	43736.322648	3858.112006	23086.717161
