sample name	sample
index	1374
start time	 05-03-2021  02:34:49 PM


Wavelength (nm)	Absorbance
494.344910	0.047014
494.563924	0.047014
494.782919	0.047014
495.001897	0.067953
495.220856	-0.015473
495.439797	-0.007244
495.658719	-0.111930
495.877624	-0.038798
496.096510	-0.051710
496.315378	-0.029673
496.534227	-0.014721
496.753059	0.050801
496.971872	0.139307
497.190667	0.023753
497.409444	0.022114
497.628203	0.025987
497.846943	0.021583
498.065665	0.022200
498.284369	0.021593
498.503055	0.021032
498.721723	0.021303
498.940372	0.020180
499.159003	0.020688
499.377616	0.019931
499.596210	0.019737
499.814787	0.020559
500.033345	0.021019
500.251885	0.021108
500.470406	0.021265
500.688910	0.020241
500.907395	0.020247
501.125862	0.020368
501.344311	0.021332
501.562742	0.021756
501.781154	0.021688
501.999548	0.020612
502.217924	0.020194
502.436282	0.019944
502.654621	0.021777
502.872942	0.021994
503.091245	0.021629
503.309530	0.021056
503.527797	0.020398
503.746045	0.020085
503.964275	0.020882
504.182487	0.020787
504.400681	0.020954
504.618856	0.020393
504.837013	0.020457
505.055152	0.020888
505.273273	0.021323
505.491376	0.021954
505.709460	0.020342
505.927526	0.020133
506.145574	0.019753
506.363604	0.019272
506.581615	0.018201
506.799608	0.018088
507.017583	0.017218
507.235540	0.017149
507.453478	0.016198
507.671399	0.017684
507.889301	0.016643
508.107185	0.017329
508.325050	0.017869
508.542898	0.018266
508.760727	0.017460
508.978538	0.017141
509.196330	0.017233
509.414105	0.017420
509.631861	0.017739
509.849599	0.017644
510.067319	0.017226
510.285021	0.016892
510.502704	0.016235
510.720369	0.017491
510.938016	0.018044
511.155645	0.017801
511.373255	0.016567
511.590848	0.016083
511.808422	0.017347
512.025977	0.017667
512.243515	0.016910
512.461034	0.017860
512.678536	0.017802
512.896018	0.017421
513.113483	0.017285
513.330930	0.018753
513.548358	0.019253
513.765768	0.017519
513.983160	0.016973
514.200533	0.017779
514.417889	0.017035
514.635226	0.016786
514.852545	0.017616
515.069845	0.017661
515.287128	0.017490
515.504392	0.016587
515.721638	0.016726
515.938866	0.017215
516.156075	0.017199
516.373267	0.018084
516.590440	0.018329
516.807594	0.017502
517.024731	0.017456
517.241850	0.016905
517.458950	0.016982
517.676032	0.017883
517.893095	0.017481
518.110141	0.017650
518.327168	0.017122
518.544177	0.016847
518.761168	0.017322
518.978141	0.017804
519.195095	0.018437
519.412031	0.018372
519.628949	0.018604
519.845849	0.018755
520.062731	0.018026
520.279594	0.017701
520.496439	0.017407
520.713266	0.016665
520.930074	0.015995
521.146865	0.015280
521.363637	0.014611
521.580391	0.014171
521.797127	0.014038
522.013844	0.014198
522.230543	0.014364
522.447224	0.013757
522.663887	0.013759
522.880532	0.013793
523.097158	0.014511
523.313766	0.015647
523.530356	0.015426
523.746928	0.015207
523.963481	0.014900
524.180017	0.014300
524.396534	0.014840
524.613032	0.015037
524.829513	0.014839
525.045975	0.014590
525.262420	0.014503
525.478845	0.015167
525.695253	0.015327
525.911643	0.015867
526.128014	0.016161
526.344367	0.016250
526.560702	0.016465
526.777018	0.016656
526.993316	0.016248
527.209597	0.015748
527.425858	0.015181
527.642102	0.015481
527.858328	0.015661
528.074535	0.015877
528.290724	0.015581
528.506894	0.015611
528.723047	0.015910
528.939181	0.016590
529.155297	0.017025
529.371395	0.017732
529.587475	0.018320
529.803536	0.018019
530.019579	0.017975
530.235604	0.018571
530.451611	0.018583
530.667600	0.018692
530.883570	0.018103
531.099522	0.017635
531.315456	0.016879
531.531372	0.016626
531.747269	0.016741
531.963148	0.017058
532.179009	0.016981
532.394852	0.017453
532.610676	0.017037
532.826482	0.016907
533.042271	0.017727
533.258040	0.018122
533.473792	0.017947
533.689525	0.017947
533.905240	0.017469
534.120937	0.017487
534.336616	0.017329
534.552277	0.017310
534.767919	0.017895
534.983543	0.017557
535.199149	0.017763
535.414736	0.017298
535.630306	0.017559
535.845857	0.018010
536.061390	0.018348
536.276904	0.018494
536.492401	0.018695
536.707879	0.018641
536.923339	0.018577
537.138781	0.018562
537.354204	0.018986
537.569610	0.019211
537.784997	0.019104
538.000366	0.018408
538.215716	0.018362
538.431049	0.018572
538.646363	0.019068
538.861659	0.019278
539.076937	0.019423
539.292196	0.019695
539.507438	0.019293
539.722661	0.019879
539.937866	0.020086
540.153052	0.019677
540.368221	0.019650
540.583371	0.019652
540.798503	0.019129
541.013617	0.019030
541.228712	0.018491
541.443789	0.018929
541.658848	0.018441
541.873889	0.018810
542.088912	0.018828
542.303916	0.018680
542.518902	0.018283
542.733870	0.018757
542.948820	0.018774
543.163752	0.018621
543.378665	0.018069
543.593560	0.018156
543.808437	0.017811
544.023295	0.017809
544.238136	0.017698
544.452958	0.017527
544.667762	0.017479
544.882548	0.017493
545.097315	0.018024
545.312064	0.018361
545.526795	0.018273
545.741508	0.018472
545.956203	0.018542
546.170879	0.018605
546.385537	0.018920
546.600177	0.018902
546.814799	0.018756
547.029402	0.018414
547.243988	0.018335
547.458555	0.018365
547.673103	0.018316
547.887634	0.018562
548.102146	0.018887
548.316640	0.018387
548.531116	0.018323
548.745574	0.018445
548.960013	0.018956
549.174435	0.018835
549.388838	0.019272
549.603222	0.019193
549.817589	0.018885
550.031937	0.018741
550.246267	0.019263
550.460579	0.019573
550.674873	0.019488
550.889148	0.019042
551.103405	0.018906
551.317644	0.018338
551.531865	0.018472
551.746068	0.018599
551.960252	0.018584
552.174418	0.018396
552.388566	0.018192
552.602696	0.018060
552.816807	0.018227
553.030900	0.018153
553.244975	0.018649
553.459032	0.018570
553.673070	0.018835
553.887091	0.018799
554.101093	0.019061
554.315077	0.018877
554.529042	0.018635
554.742990	0.018896
554.956919	0.018887
555.170830	0.018308
555.384722	0.017980
555.598597	0.017368
555.812453	0.017239
556.026291	0.017294
556.240111	0.017273
556.453913	0.017357
556.667696	0.016943
556.881461	0.017362
557.095208	0.017705
557.308937	0.017913
557.522647	0.018355
557.736339	0.018260
557.950013	0.017948
558.163669	0.018026
558.377307	0.018289
558.590926	0.018206
558.804527	0.017888
559.018110	0.017595
559.231675	0.017760
559.445221	0.017432
559.658749	0.017552
559.872259	0.017461
560.085751	0.017305
560.299225	0.017188
560.512680	0.017439
560.726117	0.017536
560.939536	0.017613
561.152937	0.017640
561.366319	0.017794
561.579683	0.017629
561.793029	0.017591
562.006357	0.017690
562.219667	0.017699
562.432958	0.017645
562.646231	0.017397
562.859486	0.017715
563.072723	0.017696
563.285941	0.017664
563.499141	0.017363
563.712323	0.017176
563.925487	0.016909
564.138632	0.016804
564.351760	0.016544
564.564869	0.017004
564.777960	0.016896
564.991032	0.016911
565.204087	0.017088
565.417123	0.017428
565.630141	0.017664
565.843140	0.017680
566.056122	0.017690
566.269085	0.017872
566.482030	0.017190
566.694957	0.016754
566.907866	0.016436
567.120756	0.016048
567.333628	0.016164
567.546482	0.016137
567.759318	0.016461
567.972135	0.016216
568.184935	0.016209
568.397716	0.016354
568.610478	0.016729
568.823223	0.016744
569.035949	0.016934
569.248657	0.017226
569.461347	0.017118
569.674019	0.016983
569.886672	0.017380
570.099308	0.017227
570.311925	0.017675
570.524523	0.017447
570.737104	0.017671
570.949666	0.017500
571.162210	0.017043
571.374736	0.017066
571.587244	0.016990
571.799733	0.017053
572.012205	0.017364
572.224658	0.017154
572.437092	0.016777
572.649509	0.016279
572.861907	0.016036
573.074287	0.015792
573.286649	0.015848
573.498993	0.015804
573.711318	0.015335
573.923625	0.014945
574.135914	0.014834
574.348185	0.015188
574.560438	0.015393
574.772672	0.015760
574.984888	0.016202
575.197086	0.015709
575.409266	0.015651
575.621427	0.015565
575.833570	0.015644
576.045695	0.015828
576.257802	0.015549
576.469890	0.015482
576.681961	0.015176
576.894013	0.014644
577.106046	0.014664
577.318062	0.014490
577.530059	0.014652
577.742039	0.014527
577.954000	0.014012
578.165942	0.014147
578.377867	0.014007
578.589773	0.014067
578.801661	0.014142
579.013531	0.014569
579.225382	0.014809
579.437216	0.014754
579.649031	0.014601
579.860828	0.014572
580.072606	0.014539
580.284367	0.014666
580.496109	0.014703
580.707833	0.015082
580.919539	0.015255
581.131227	0.015221
581.342896	0.015304
581.554547	0.015825
581.766180	0.016020
581.977795	0.016099
582.189391	0.016446
582.400969	0.016408
582.612529	0.016236
582.824071	0.015918
583.035595	0.015938
583.247100	0.015724
583.458587	0.015501
583.670056	0.015785
583.881506	0.015796
584.092939	0.015609
584.304353	0.015613
584.515749	0.015379
584.727127	0.015517
584.938486	0.015344
585.149828	0.015554
585.361151	0.015391
585.572456	0.015273
585.783742	0.015224
585.995011	0.015103
586.206261	0.014997
586.417493	0.015277
586.628706	0.015192
586.839902	0.015555
587.051079	0.015659
587.262238	0.016076
587.473379	0.016165
587.684502	0.016257
587.895606	0.016171
588.106692	0.016228
588.317760	0.016249
588.528810	0.016144
588.739841	0.016071
588.950855	0.016048
589.161850	0.016068
589.372827	0.016159
589.583785	0.016045
589.794726	0.016208
590.005648	0.016585
590.216552	0.016400
590.427437	0.016425
590.638305	0.016459
590.849154	0.016212
591.059985	0.015996
591.270798	0.015830
591.481592	0.015747
591.692369	0.015661
591.903127	0.015465
592.113867	0.015724
592.324588	0.016025
592.535292	0.016055
592.745977	0.016284
592.956644	0.016108
593.167293	0.016078
593.377923	0.016126
593.588536	0.016315
593.799130	0.016059
594.009706	0.016102
594.220263	0.015909
594.430803	0.015924
594.641324	0.016064
594.851827	0.016306
595.062312	0.016274
595.272778	0.016432
595.483227	0.016518
595.693657	0.016803
595.904069	0.016484
596.114462	0.016554
596.324838	0.016212
596.535195	0.016065
596.745534	0.015857
596.955855	0.016080
597.166157	0.015963
597.376441	0.015871
597.586707	0.015833
597.796955	0.015900
598.007185	0.016029
598.217396	0.016226
598.427589	0.016358
598.637764	0.016537
598.847921	0.016723
599.058060	0.016840
599.268180	0.016878
599.478282	0.016923
599.688366	0.017220
599.898431	0.017179
600.108479	0.017549
600.318508	0.017746
600.528519	0.017904
600.738511	0.017780
600.948486	0.017612
601.158442	0.017396
601.368380	0.017402
601.578300	0.017498
601.788202	0.017522
601.998085	0.017322
602.207950	0.017176
602.417797	0.017110
602.627626	0.017301
602.837436	0.017479
603.047228	0.017781
603.257002	0.017907
603.466758	0.017910
603.676496	0.018059
603.886215	0.018117
604.095916	0.018334
604.305599	0.018385
604.515264	0.018275
604.724910	0.018446
604.934538	0.018405
605.144148	0.018343
605.353740	0.018280
605.563314	0.018233
605.772869	0.018325
605.982406	0.018199
606.191925	0.018306
606.401425	0.018219
606.610908	0.018069
606.820372	0.017985
607.029818	0.018056
607.239246	0.018114
607.448655	0.017801
607.658047	0.017774
607.867420	0.017747
608.076775	0.017696
608.286111	0.017716
608.495430	0.017771
608.704730	0.017784
608.914012	0.017764
609.123275	0.017809
609.332521	0.018085
609.541748	0.017947
609.750957	0.017925
609.960148	0.018059
610.169321	0.018154
610.378475	0.018185
610.587611	0.018211
610.796729	0.018103
611.005829	0.018051
611.214910	0.018325
611.423974	0.018200
611.633019	0.018124
611.842045	0.017905
612.051054	0.017748
612.260044	0.017756
612.469017	0.017809
612.677970	0.018096
612.886906	0.017946
613.095824	0.017777
613.304723	0.017874
613.513604	0.017758
613.722467	0.017704
613.931311	0.017917
614.140138	0.017922
614.348946	0.017963
614.557736	0.017989
614.766507	0.018214
614.975261	0.018100
615.183996	0.018233
615.392713	0.018586
615.601412	0.018732
615.810092	0.018568
616.018754	0.018559
616.227399	0.018470
616.436024	0.018311
616.644632	0.018081
616.853222	0.018103
617.061793	0.018193
617.270346	0.017904
617.478880	0.017988
617.687397	0.018199
617.895895	0.018283
618.104375	0.018440
618.312837	0.018389
618.521281	0.018432
618.729706	0.018576
618.938113	0.018467
619.146502	0.018715
619.354873	0.018589
619.563226	0.018570
619.771560	0.018709
619.979876	0.018992
620.188174	0.019304
620.396453	0.019740
620.604715	0.019666
620.812958	0.019969
621.021183	0.020012
621.229390	0.020111
621.437578	0.019843
621.645748	0.019861
621.853900	0.019903
622.062034	0.019730
622.270150	0.019748
622.478247	0.019723
622.686326	0.019606
622.894387	0.019807
623.102430	0.019674
623.310454	0.019997
623.518461	0.020084
623.726449	0.019893
623.934418	0.020072
624.142370	0.020067
624.350303	0.020095
624.558218	0.019885
624.766115	0.019681
624.973994	0.019676
625.181855	0.019634
625.389697	0.019497
625.597521	0.019498
625.805327	0.019460
626.013114	0.019310
626.220883	0.019237
626.428634	0.019368
626.636367	0.019359
626.844082	0.019357
627.051778	0.019229
627.259457	0.019030
627.467117	0.019125
627.674758	0.019222
627.882382	0.019097
628.089987	0.019145
628.297574	0.019317
628.505143	0.019354
628.712694	0.019712
628.920226	0.019911
629.127740	0.020163
629.335236	0.020135
629.542714	0.020097
629.750174	0.020234
629.957615	0.020601
630.165038	0.020490
630.372443	0.020761
630.579829	0.020445
630.787198	0.020429
630.994548	0.020562
631.201880	0.020530
631.409194	0.020485
631.616489	0.020462
631.823766	0.020366
632.031025	0.020523
632.238266	0.020304
632.445489	0.020606
632.652693	0.020673
632.859879	0.020708
633.067047	0.020756
633.274197	0.020934
633.481329	0.020886
633.688442	0.020630
633.895537	0.020416
634.102614	0.020158
634.309672	0.020042
634.516713	0.019919
634.723735	0.019687
634.930739	0.019597
635.137724	0.019339
635.344692	0.019344
635.551641	0.019308
635.758572	0.019354
635.965485	0.019639
636.172379	0.019708
636.379256	0.019557
636.586114	0.019535
636.792954	0.019456
636.999775	0.019541
637.206579	0.019643
637.413364	0.019550
637.620131	0.019531
637.826880	0.019380
638.033610	0.019115
638.240323	0.019196
638.447017	0.019127
638.653692	0.018938
638.860350	0.018888
639.066990	0.018756
639.273611	0.018761
639.480214	0.018953
639.686798	0.018956
639.893365	0.019136
640.099913	0.019114
640.306443	0.019072
640.512955	0.019231
640.719449	0.019195
640.925924	0.019264
641.132381	0.019426
641.338820	0.019335
641.545241	0.019444
641.751644	0.019602
641.958028	0.019870
642.164394	0.020141
642.370742	0.020341
642.577071	0.020368
642.783383	0.020324
642.989676	0.020563
643.195951	0.020567
643.402207	0.020765
643.608446	0.020725
643.814666	0.020633
644.020868	0.020710
644.227052	0.020692
644.433218	0.020915
644.639365	0.021046
644.845494	0.020971
645.051605	0.021116
645.257698	0.021062
645.463772	0.021014
645.669828	0.020982
645.875866	0.021107
646.081886	0.021061
646.287888	0.020935
646.493871	0.020755
646.699836	0.020721
646.905783	0.020540
647.111712	0.020528
647.317622	0.020549
647.523514	0.020487
647.729388	0.020363
647.935244	0.020364
648.141082	0.020484
648.346901	0.020689
648.552702	0.020692
648.758485	0.020745
648.964250	0.020627
649.169996	0.020834
649.375724	0.020895
649.581434	0.021051
649.787126	0.021093
649.992800	0.021119
650.198455	0.021055
650.404092	0.020983
650.609711	0.021227
650.815311	0.021527
651.020894	0.021372
651.226458	0.021594
651.432004	0.021473
651.637532	0.021632
651.843041	0.021515
652.048532	0.021495
652.254006	0.021747
652.459460	0.021783
652.664897	0.021669
652.870315	0.021715
653.075716	0.021721
653.281097	0.021859
653.486461	0.021922
653.691807	0.021963
653.897134	0.022195
654.102443	0.022276
654.307734	0.022152
654.513006	0.022102
654.718261	0.022153
654.923497	0.022016
655.128715	0.021878
655.333915	0.021827
655.539096	0.021947
655.744259	0.021705
655.949404	0.021599
656.154531	0.021563
656.359640	0.021734
656.564730	0.021683
656.769802	0.021767
656.974856	0.021632
657.179892	0.021351
657.384909	0.021320
657.589908	0.021177
657.794889	0.021087
657.999852	0.021053
658.204797	0.020964
658.409723	0.020822
658.614631	0.020645
658.819521	0.020595
659.024393	0.020603
659.229246	0.020381
659.434081	0.020645
659.638898	0.020512
659.843697	0.020479
660.048478	0.020211
660.253240	0.020255
660.457984	0.020360
660.662710	0.020432
660.867417	0.020641
661.072107	0.020739
661.276778	0.020707
661.481431	0.020860
661.686066	0.020896
661.890682	0.021056
662.095281	0.021145
662.299861	0.021101
662.504422	0.021192
662.708966	0.021115
662.913491	0.021172
663.117999	0.021090
663.322488	0.021054
663.526958	0.020985
663.731411	0.021086
663.935845	0.021106
664.140261	0.021291
664.344659	0.021267
664.549038	0.021320
664.753400	0.021323
664.957743	0.021407
665.162068	0.021422
665.366375	0.021483
665.570663	0.021552
665.774933	0.021747
665.979185	0.021524
666.183419	0.021761
666.387635	0.021903
666.591832	0.021983
666.796011	0.022291
667.000172	0.022457
667.204315	0.022734
667.408439	0.022676
667.612545	0.022680
667.816634	0.023041
668.020703	0.022986
668.224755	0.023021
668.428788	0.023100
668.632803	0.022956
668.836800	0.022979
669.040779	0.022995
669.244739	0.022949
669.448681	0.023002
669.652605	0.022785
669.856511	0.022722
670.060399	0.022805
670.264268	0.022872
670.468119	0.022956
670.671952	0.022863
670.875767	0.022806
671.079563	0.022835
671.283341	0.022715
671.487101	0.022753
671.690843	0.022857
671.894567	0.022569
672.098272	0.022621
672.301959	0.022523
672.505628	0.022721
672.709278	0.022852
672.912911	0.023100
673.116525	0.023147
673.320121	0.023338
673.523699	0.023210
673.727258	0.023506
673.930799	0.023485
674.134322	0.023648
674.337827	0.023619
674.541314	0.023537
674.744782	0.023472
674.948232	0.023459
675.151664	0.023410
675.355078	0.023533
675.558474	0.023546
675.761851	0.023641
675.965210	0.023522
676.168551	0.023384
676.371873	0.023232
676.575178	0.023235
676.778464	0.023289
676.981732	0.023229
677.184981	0.023222
677.388213	0.023287
677.591426	0.023239
677.794621	0.023204
677.997798	0.023283
678.200956	0.023284
678.404097	0.023052
678.607219	0.023227
678.810323	0.023134
679.013408	0.023090
679.216476	0.022856
679.419525	0.022981
679.622556	0.023123
679.825569	0.023232
680.028563	0.023416
680.231540	0.023704
680.434498	0.023675
680.637438	0.023973
680.840359	0.024157
681.043263	0.024503
681.246148	0.024345
681.449015	0.024438
681.651864	0.024396
681.854694	0.024336
682.057506	0.024519
682.260301	0.024474
682.463076	0.024632
682.665834	0.024598
682.868573	0.024630
683.071295	0.024783
683.273998	0.024906
683.476682	0.025054
683.679349	0.025382
683.881997	0.025292
684.084627	0.025388
684.287239	0.025233
684.489833	0.025289
684.692408	0.025088
684.894965	0.025102
685.097504	0.024885
685.300025	0.024797
685.502527	0.024694
685.705012	0.024694
685.907478	0.024704
686.109925	0.024662
686.312355	0.024699
686.514766	0.024811
686.717159	0.024735
686.919534	0.024664
687.121891	0.024652
687.324230	0.024565
687.526550	0.024431
687.728852	0.024176
687.931136	0.024092
688.133401	0.023980
688.335649	0.023856
688.537878	0.023700
688.740089	0.023884
688.942281	0.023830
689.144456	0.023859
689.346612	0.023812
689.548750	0.023936
689.750870	0.024027
689.952971	0.024061
690.155055	0.023960
690.357120	0.024023
690.559167	0.023914
690.761195	0.024010
690.963206	0.023924
691.165198	0.024087
691.367172	0.024160
691.569128	0.024072
691.771065	0.024277
691.972984	0.024565
692.174885	0.024778
692.376768	0.024999
692.578633	0.025005
692.780479	0.025101
692.982308	0.024983
693.184118	0.024887
693.385909	0.025096
693.587683	0.025056
693.789438	0.025046
693.991175	0.024988
694.192894	0.024957
694.394595	0.025000
694.596277	0.025090
694.797941	0.025345
694.999587	0.025579
695.201215	0.025591
695.402824	0.025548
695.604416	0.025715
695.805989	0.025887
696.007543	0.025848
696.209080	0.025946
696.410598	0.025982
696.612099	0.026069
696.813580	0.026031
697.015044	0.026014
697.216490	0.026092
697.417917	0.026135
697.619326	0.026130
697.820717	0.026430
698.022089	0.026486
698.223444	0.026448
698.424780	0.026393
698.626098	0.026360
698.827397	0.026538
699.028679	0.026744
699.229942	0.026675
699.431187	0.026612
699.632414	0.026481
699.833622	0.026660
700.034813	0.026654
700.235985	0.026625
700.437139	0.026687
700.638274	0.026529
700.839392	0.026340
701.040491	0.026208
701.241572	0.026174
701.442635	0.026066
701.643679	0.025769
701.844706	0.025846
702.045714	0.025915
702.246704	0.025975
702.447675	0.025865
702.648629	0.025829
702.849564	0.025811
703.050481	0.025883
703.251380	0.025846
703.452260	0.025823
703.653122	0.025587
703.853966	0.025464
704.054792	0.025290
704.255600	0.025388
704.456389	0.025484
704.657160	0.025448
704.857913	0.025420
705.058648	0.025430
705.259365	0.025510
705.460063	0.025467
705.660743	0.025319
705.861405	0.025267
706.062048	0.025237
706.262674	0.024935
706.463281	0.024972
706.663870	0.024871
706.864441	0.024804
707.064993	0.024763
707.265527	0.024885
707.466043	0.025123
707.666541	0.025221
707.867021	0.025143
708.067482	0.025235
708.267925	0.025296
708.468350	0.025304
708.668757	0.025405
708.869145	0.025367
709.069516	0.025189
709.269868	0.024998
709.470201	0.024804
709.670517	0.024882
709.870814	0.024958
710.071093	0.024923
710.271354	0.025059
710.471597	0.025093
710.671821	0.025105
710.872028	0.025328
711.072216	0.025307
711.272385	0.025530
711.472537	0.025616
711.672670	0.025656
711.872785	0.025598
712.072882	0.025614
712.272961	0.025614
712.473021	0.025672
712.673063	0.025577
712.873087	0.025641
713.073093	0.025531
713.273081	0.025475
713.473050	0.025298
713.673001	0.025295
713.872934	0.024991
714.072849	0.024748
714.272745	0.024576
714.472623	0.024535
714.672483	0.024544
714.872325	0.024634
715.072148	0.024424
715.271954	0.024610
715.471741	0.024693
715.671509	0.024970
715.871260	0.025013
716.070992	0.025120
716.270707	0.025317
716.470403	0.025319
716.670080	0.025431
716.869740	0.025759
717.069381	0.025767
717.269004	0.025814
717.468609	0.025717
717.668195	0.025921
717.867764	0.026068
718.067314	0.026114
718.266846	0.026185
718.466360	0.026115
718.665855	0.026009
718.865332	0.025860
719.064791	0.025709
719.264232	0.025638
719.463655	0.025269
719.663059	0.025002
719.862445	0.024859
720.061813	0.024645
720.261163	0.024413
720.460494	0.024168
720.659807	0.024062
720.859102	0.023835
721.058379	0.023705
721.257638	0.023866
721.456878	0.023865
721.656100	0.023670
721.855304	0.023565
722.054490	0.023444
722.253657	0.023542
722.452806	0.023517
722.651937	0.023506
722.851050	0.023533
723.050145	0.023330
723.249221	0.023053
723.448279	0.022914
723.647319	0.022849
723.846340	0.022882
724.045344	0.022546
724.244329	0.022431
724.443296	0.022330
724.642245	0.022141
724.841175	0.022227
725.040088	0.022255
725.238982	0.022186
725.437857	0.022170
725.636715	0.022056
725.835554	0.022181
726.034376	0.022211
726.233179	0.022289
726.431963	0.022336
726.630730	0.022234
726.829478	0.022305
727.028208	0.022423
727.226920	0.022334
727.425614	0.022497
727.624289	0.022557
727.822946	0.022460
728.021585	0.022475
728.220206	0.022448
728.418808	0.022332
728.617392	0.022386
728.815958	0.022369
729.014506	0.022577
729.213036	0.022393
729.411547	0.022191
729.610040	0.022225
729.808515	0.022251
730.006972	0.022412
730.205410	0.022562
730.403831	0.022522
730.602233	0.022398
730.800616	0.022304
730.998982	0.022267
731.197329	0.022311
731.395658	0.022307
731.593969	0.022374
731.792262	0.022176
731.990536	0.022181
732.188793	0.022064
732.387031	0.022168
732.585250	0.022077
732.783452	0.022138
732.981635	0.022292
733.179800	0.022331
733.377947	0.022046
733.576076	0.021952
733.774186	0.021896
733.972278	0.021925
734.170352	0.021959
734.368408	0.021969
734.566446	0.021989
734.764465	0.021889
734.962466	0.021858
735.160449	0.021859
735.358413	0.022008
735.556360	0.022044
735.754288	0.021985
735.952198	0.022040
736.150090	0.022125
736.347963	0.022214
736.545818	0.022192
736.743655	0.022394
736.941474	0.022729
737.139275	0.022777
737.337057	0.022892
737.534821	0.023069
737.732567	0.022970
737.930295	0.022926
738.128005	0.022806
738.325696	0.022870
738.523369	0.022794
738.721024	0.022719
738.918660	0.022796
739.116279	0.022858
739.313879	0.023058
739.511461	0.023225
739.709024	0.023330
739.906570	0.023422
740.104097	0.023398
740.301606	0.023617
740.499097	0.023676
740.696569	0.023670
740.894024	0.023549
741.091460	0.023335
741.288878	0.023260
741.486277	0.023120
741.683659	0.023170
741.881022	0.023433
742.078367	0.023193
742.275694	0.023117
742.473002	0.023044
742.670293	0.023006
742.867565	0.023205
743.064819	0.023200
743.262054	0.023438
743.459272	0.023432
743.656471	0.023470
743.853652	0.023613
744.050815	0.023837
744.247959	0.023981
744.445085	0.024230
744.642194	0.024284
744.839283	0.024541
745.036355	0.024543
745.233408	0.024456
745.430444	0.024451
745.627461	0.024239
745.824459	0.024181
746.021440	0.024139
746.218402	0.023798
746.415346	0.023622
746.612272	0.023417
746.809180	0.023328
747.006069	0.023565
747.202940	0.023398
747.399793	0.023557
747.596628	0.023552
747.793444	0.023720
747.990243	0.023983
748.187023	0.024150
748.383784	0.024255
748.580528	0.024279
748.777253	0.024326
748.973960	0.024366
749.170649	0.024400
749.367320	0.024449
749.563973	0.024349
749.760607	0.024370
749.957223	0.024230
750.153821	0.024233
750.350400	0.024164
750.546962	0.024046
750.743505	0.024207
750.940030	0.024358
751.136536	0.024449
751.333025	0.024520
751.529495	0.024570
751.725947	0.024769
751.922381	0.024742
752.118796	0.024980
752.315194	0.025053
752.511573	0.024980
752.707934	0.024990
752.904276	0.024774
753.100601	0.024815
753.296907	0.024810
753.493195	0.024651
753.689465	0.024886
753.885716	0.024978
754.081949	0.024987
754.278164	0.025096
754.474361	0.025011
754.670540	0.025112
754.866700	0.025079
755.062843	0.025004
755.258967	0.024880
755.455072	0.024453
755.651160	0.024427
755.847229	0.024319
756.043280	0.024195
756.239313	0.024155
756.435328	0.023982
756.631324	0.023797
756.827302	0.024004
757.023262	0.024059
757.219204	0.024433
757.415127	0.024162
757.611033	0.024170
757.806920	0.024118
758.002788	0.024098
758.198639	0.024092
758.394471	0.024122
758.590286	0.023924
758.786081	0.024080
758.981859	0.023743
759.177619	0.023700
759.373360	0.023666
759.569083	0.023565
759.764788	0.023406
759.960474	0.023530
760.156143	0.023536
760.351793	0.023334
760.547425	0.023269
760.743038	0.023150
760.938634	0.023243
761.134211	0.023309
761.329770	0.023224
761.525311	0.023251
761.720833	0.023005
761.916338	0.022930
762.111824	0.022987
762.307292	0.022800
762.502741	0.022982
762.698173	0.022904
762.893586	0.022931
763.088981	0.023036
763.284358	0.023009
763.479716	0.023237
763.675057	0.023203
763.870379	0.023284
764.065683	0.023388
764.260968	0.023413
764.456236	0.023662
764.651485	0.023450
764.846716	0.023521
765.041929	0.023460
765.237123	0.023474
765.432299	0.023480
765.627457	0.023249
765.822597	0.023158
766.017719	0.023028
766.212822	0.022805
766.407907	0.022806
766.602974	0.022634
766.798023	0.022464
766.993054	0.022196
767.188066	0.021996
767.383060	0.021757
767.578036	0.021709
767.772993	0.021587
767.967933	0.021439
768.162854	0.021324
768.357757	0.021181
768.552642	0.021225
768.747508	0.021201
768.942356	0.021183
769.137186	0.021563
769.331998	0.021527
769.526792	0.021547
769.721567	0.021558
769.916324	0.021545
770.111063	0.021631
770.305784	0.021636
770.500486	0.021875
770.695171	0.022091
770.889837	0.021983
771.084484	0.021896
771.279114	0.021929
771.473725	0.021939
771.668318	0.022105
771.862893	0.022340
772.057450	0.022416
772.251988	0.022352
772.446509	0.022278
772.641011	0.022252
772.835494	0.022428
773.029960	0.022447
773.224407	0.022447
773.418836	0.022354
773.613247	0.022309
773.807640	0.022268
774.002014	0.022149
774.196370	0.022069
774.390708	0.022119
774.585028	0.022153
774.779330	0.022030
774.973613	0.022055
775.167878	0.022071
775.362125	0.021764
775.556354	0.021779
775.750564	0.021559
775.944756	0.021523
776.138930	0.021411
776.333086	0.021288
776.527223	0.021460
776.721343	0.021309
776.915444	0.021383
777.109526	0.021431
777.303591	0.021364
777.497637	0.021676
777.691666	0.021800
777.885676	0.021956
778.079667	0.022064
778.273641	0.021850
778.467596	0.022100
778.661533	0.022192
778.855452	0.022401
779.049352	0.022667
779.243235	0.022664
779.437099	0.022656
779.630945	0.022683
779.824773	0.022609
780.018582	0.022729
780.212373	0.022667
780.406146	0.022549
780.599901	0.022646
780.793638	0.022744
780.987356	0.022665
781.181056	0.022801
781.374738	0.022854
781.568402	0.023007
781.762047	0.023341
781.955674	0.023552
782.149283	0.023649
782.342874	0.023744
782.536447	0.023449
782.730001	0.023557
782.923537	0.023742
783.117055	0.023928
783.310555	0.024111
783.504036	0.024080
783.697499	0.024169
783.890944	0.024208
784.084371	0.024028
784.277780	0.024238
784.471170	0.024329
784.664542	0.024147
784.857896	0.023828
785.051231	0.023566
785.244549	0.023496
785.437848	0.023321
785.631129	0.023396
785.824392	0.023286
786.017636	0.023268
786.210863	0.023172
786.404071	0.023129
786.597260	0.023261
786.790432	0.023344
786.983585	0.023228
787.176721	0.023145
787.369838	0.022923
787.562936	0.023145
787.756017	0.022797
787.949079	0.022692
788.142123	0.022771
788.335149	0.022680
788.528156	0.022744
788.721146	0.022729
788.914117	0.022763
789.107070	0.022974
789.300005	0.022933
789.492921	0.023315
789.685819	0.023598
789.878699	0.023644
790.071561	0.024054
790.264405	0.024021
790.457230	0.024369
790.650037	0.024469
790.842826	0.024460
791.035597	0.024505
791.228349	0.024611
791.421084	0.024636
791.613800	0.024690
791.806497	0.024341
791.999177	0.024354
792.191838	0.024165
792.384481	0.024363
792.577106	0.024420
792.769713	0.024559
792.962301	0.024592
793.154871	0.024554
793.347423	0.024538
793.539957	0.024763
793.732473	0.024754
793.924970	0.024986
794.117449	0.024982
794.309910	0.025154
794.502353	0.025222
794.694777	0.025044
794.887183	0.025108
795.079571	0.025133
795.271941	0.025110
795.464293	0.025119
795.656626	0.024952
795.848941	0.024938
796.041238	0.024951
796.233516	0.024894
796.425777	0.025250
796.618019	0.025186
796.810243	0.025295
797.002449	0.025331
797.194636	0.025752
797.386805	0.026064
797.578956	0.026046
797.771089	0.025963
797.963204	0.026130
798.155300	0.025895
798.347378	0.026096
798.539438	0.026016
798.731480	0.026172
798.923503	0.025763
799.115509	0.025539
799.307496	0.025475
799.499465	0.025404
799.691415	0.025249
799.883348	0.025399
800.075262	0.025349
800.267158	0.025353
800.459035	0.025353
800.650895	0.025523
800.842736	0.025451
801.034559	0.025692
801.226364	0.025807
801.418150	0.025956
801.609919	0.026038
801.801669	0.026064
801.993401	0.026104
802.185114	0.026056
802.376810	0.025958
802.568487	0.026291
802.760146	0.026111
802.951787	0.026101
803.143409	0.026060
803.335014	0.026107
803.526600	0.026355
803.718168	0.026405
803.909717	0.026476
804.101249	0.026760
804.292762	0.026786
804.484257	0.027095
804.675734	0.027257
804.867192	0.027453
805.058632	0.027448
805.250054	0.027573
805.441458	0.027689
805.632844	0.027840
805.824211	0.027897
806.015561	0.027688
806.206891	0.027399
806.398204	0.027385
806.589499	0.027198
806.780775	0.027071
806.972033	0.026877
807.163273	0.026943
807.354495	0.026827
807.545698	0.026777
807.736883	0.026807
807.928050	0.026871
808.119199	0.026954
808.310329	0.027094
808.501441	0.027451
808.692535	0.027488
808.883611	0.027409
809.074669	0.027330
809.265708	0.027504
809.456729	0.027814
809.647732	0.028053
809.838717	0.027981
810.029683	0.027927
810.220632	0.027696
810.411562	0.027570
810.602474	0.027668
810.793367	0.027776
810.984242	0.027781
811.175100	0.027689
811.365938	0.027555
811.556759	0.027487
811.747562	0.027414
811.938346	0.027231
812.129112	0.027362
812.319860	0.027328
812.510589	0.027316
812.701300	0.027320
812.891994	0.027498
813.082668	0.027388
813.273325	0.027431
813.463964	0.027506
813.654584	0.027716
813.845186	0.027606
814.035769	0.027665
814.226335	0.027719
814.416882	0.027463
814.607411	0.027256
814.797922	0.027367
814.988415	0.027491
815.178889	0.027786
815.369345	0.027779
815.559783	0.027756
815.750203	0.027760
815.940605	0.027676
816.130988	0.027762
816.321353	0.027782
816.511700	0.027897
816.702028	0.027695
816.892339	0.027575
817.082631	0.027613
817.272905	0.027607
817.463161	0.027627
817.653398	0.027776
817.843617	0.027850
818.033819	0.027816
818.224001	0.027579
818.414166	0.027686
818.604312	0.027545
818.794440	0.027610
818.984550	0.027976
819.174642	0.027825
819.364716	0.027883
819.554771	0.027777
819.744808	0.027815
819.934827	0.028132
820.124827	0.028259
820.314810	0.028189
820.504774	0.028043
820.694720	0.028046
820.884647	0.028152
821.074557	0.028132
821.264448	0.028472
821.454321	0.028785
821.644176	0.028712
821.834012	0.028752
822.023831	0.028999
822.213631	0.029385
822.403413	0.029444
822.593176	0.029571
822.782922	0.029736
822.972649	0.029558
823.162358	0.029295
823.352049	0.029458
823.541721	0.029294
823.731376	0.029400
823.921012	0.029320
824.110629	0.029221
824.300229	0.029291
824.489811	0.029123
824.679374	0.029213
824.868919	0.029540
825.058445	0.029682
825.247954	0.029867
825.437444	0.029737
825.626916	0.029945
825.816370	0.029754
826.005806	0.029762
826.195223	0.030030
826.384622	0.030081
826.574003	0.029732
826.763366	0.029721
826.952711	0.029849
827.142037	0.029788
827.331345	0.029527
827.520635	0.029745
827.709906	0.029659
827.899160	0.029411
828.088395	0.029347
828.277612	0.029309
828.466810	0.028949
828.655991	0.028680
828.845153	0.028618
829.034297	0.028488
829.223423	0.028199
829.412531	0.028049
829.601620	0.028037
829.790691	0.027766
829.979744	0.027720
830.168779	0.027927
830.357795	0.027902
830.546793	0.027886
830.735773	0.028045
830.924735	0.028085
831.113679	0.028414
831.302604	0.028190
831.491511	0.028427
831.680400	0.028491
831.869271	0.028409
832.058123	0.028627
832.246957	0.028750
832.435773	0.028690
832.624571	0.028683
832.813351	0.028538
833.002112	0.028898
833.190855	0.029038
833.379580	0.029026
833.568287	0.029140
833.756975	0.029179
833.945645	0.029359
834.134297	0.029533
834.322931	0.029812
834.511547	0.030003
834.700144	0.029964
834.888723	0.029904
835.077284	0.030026
835.265826	0.030207
835.454351	0.030249
835.642857	0.030192
835.831345	0.030344
836.019815	0.030208
836.208266	0.030090
836.396699	0.030197
836.585114	0.030397
836.773511	0.030541
836.961890	0.030767
837.150250	0.030846
837.338592	0.031230
837.526916	0.031276
837.715222	0.031683
837.903510	0.031946
838.091779	0.032118
838.280030	0.032248
838.468263	0.032652
838.656477	0.032616
838.844674	0.032973
839.032852	0.032935
839.221012	0.032826
839.409153	0.032842
839.597277	0.032794
839.785382	0.032739
839.973469	0.032678
840.161538	0.032640
840.349589	0.032604
840.537621	0.032329
840.725635	0.032208
840.913631	0.032459
841.101609	0.032635
841.289568	0.032886
841.477509	0.033292
841.665432	0.033497
841.853337	0.033585
842.041224	0.033689
842.229092	0.033784
842.416942	0.033814
842.604774	0.033963
842.792588	0.033966
842.980383	0.033981
843.168160	0.034021
843.355919	0.033957
843.543660	0.033735
843.731382	0.033846
843.919087	0.033957
844.106773	0.034115
844.294441	0.033964
844.482090	0.033915
844.669722	0.033785
844.857335	0.033438
845.044930	0.033569
845.232507	0.033757
845.420065	0.033883
845.607605	0.033944
845.795127	0.033936
845.982631	0.034050
846.170117	0.034254
846.357584	0.034598
846.545033	0.035182
846.732464	0.035218
846.919877	0.035246
847.107272	0.035312
847.294648	0.035572
847.482006	0.035786
847.669346	0.035882
847.856667	0.035874
848.043971	0.035586
848.231256	0.035347
848.418523	0.035367
848.605771	0.035386
848.793002	0.035347
848.980214	0.035349
849.167408	0.035334
849.354584	0.035422
849.541742	0.035433
849.728881	0.035450
849.916002	0.035495
850.103105	0.035550
850.290190	0.035627
850.477256	0.035496
850.664304	0.035414
850.851334	0.035582
851.038346	0.035309
851.225340	0.035168
851.412315	0.035365
851.599272	0.035279
851.786211	0.035339
851.973132	0.035353
852.160034	0.035505
852.346918	0.035531
852.533784	0.035607
852.720632	0.035772
852.907462	0.035968
853.094273	0.036110
853.281066	0.036183
853.467841	0.036208
853.654598	0.036064
853.841336	0.035843
854.028056	0.035792
854.214758	0.035530
854.401442	0.035769
854.588107	0.035782
854.774755	0.035657
854.961384	0.035757
855.147995	0.035670
855.334587	0.036011
855.521162	0.036314
855.707718	0.036403
855.894256	0.036622
856.080775	0.036551
856.267277	0.036587
856.453760	0.036654
856.640225	0.036680
856.826672	0.037008
857.013101	0.036910
857.199511	0.036905
857.385903	0.037119
857.572277	0.036990
857.758633	0.036999
857.944970	0.037227
858.131290	0.037428
858.317591	0.037452
858.503873	0.037479
858.690138	0.037674
858.876384	0.038119
859.062612	0.037985
859.248822	0.038222
859.435014	0.038387
859.621188	0.038235
859.807343	0.038397
859.993480	0.038574
860.179599	0.038709
860.365699	0.038793
860.551781	0.038505
860.737846	0.038983
860.923891	0.039273
861.109919	0.039662
861.295929	0.039677
861.481920	0.039785
861.667893	0.039967
861.853848	0.039949
862.039784	0.040326
862.225702	0.040542
862.411603	0.040331
862.597484	0.040571
862.783348	0.040216
862.969193	0.040408
863.155021	0.040534
863.340830	0.040466
863.526620	0.040808
863.712393	0.040700
863.898147	0.040942
864.083883	0.041238
864.269601	0.040919
864.455301	0.041046
864.640982	0.041436
864.826645	0.041156
865.012290	0.041149
865.197917	0.041006
865.383526	0.040961
865.569116	0.040631
865.754688	0.040391
865.940242	0.040573
866.125777	0.040505
866.311295	0.040227
866.496794	0.040367
866.682275	0.040074
866.867737	0.039800
867.053182	0.039805
867.238608	0.040018
867.424016	0.039965
867.609406	0.039758
867.794778	0.040106
867.980131	0.039885
868.165466	0.039904
868.350783	0.040390
868.536082	0.040438
868.721362	0.040469
868.906625	0.040411
869.091869	0.040600
869.277094	0.040515
869.462302	0.040230
869.647491	0.040553
869.832662	0.040284
870.017815	0.040311
870.202950	0.040539
870.388066	0.040396
870.573165	0.040075
870.758245	0.040093
870.943306	0.040321
871.128350	0.040480
871.313375	0.040368
871.498382	0.040682
871.683371	0.040447
871.868342	0.040550
872.053294	0.040853
872.238229	0.040912
872.423144	0.040549
872.608042	0.040530
872.792922	0.040611
872.977783	0.040633
873.162626	0.040800
873.347451	0.041172
873.532258	0.041133
873.717046	0.040771
873.901816	0.040862
874.086568	0.041131
874.271302	0.041207
874.456017	0.041140
874.640715	0.041298
874.825394	0.041134
875.010055	0.041148
875.194697	0.041087
875.379322	0.041346
875.563928	0.041710
875.748516	0.042152
875.933085	0.042310
876.117637	0.042678
876.302170	0.042814
876.486685	0.042951
876.671182	0.043041
876.855661	0.042950
877.040121	0.043007
877.224563	0.042813
877.408987	0.042553
877.593393	0.042710
877.777780	0.042538
877.962150	0.042170
878.146501	0.042155
878.330833	0.042036
878.515148	0.042268
878.699444	0.042432
878.883722	0.042547
879.067982	0.042451
879.252224	0.042220
879.436447	0.042192
879.620653	0.042743
879.804840	0.042988
879.989008	0.043066
880.173159	0.042979
880.357291	0.042853
880.541405	0.042829
880.725501	0.042944
880.909579	0.042877
881.093638	0.042877
881.277680	0.042569
881.461703	0.042460
881.645707	0.042465
881.829694	0.042392
882.013662	0.042243
882.197612	0.042236
882.381544	0.042428
882.565458	0.042638
882.749353	0.042430
882.933230	0.042450
883.117089	0.042133
883.300930	0.042014
883.484753	0.041953
883.668557	0.042058
883.852343	0.042330
884.036111	0.042043
884.219861	0.041715
884.403592	0.042024
884.587305	0.042105
884.771000	0.042305
884.954677	0.042131
885.138335	0.042325
885.321976	0.042383
885.505598	0.042245
885.689201	0.042510
885.872787	0.042602
886.056354	0.042398
886.239904	0.042152
886.423434	0.041924
886.606947	0.042269
886.790442	0.041981
886.973918	0.041911
887.157376	0.041635
887.340816	0.041467
887.524237	0.041618
887.707641	0.041784
887.891026	0.041959
888.074393	0.042026
888.257741	0.041952
888.441072	0.042253
888.624384	0.042474
888.807678	0.042654
888.990954	0.042726
889.174211	0.042486
889.357451	0.042219
889.540672	0.042165
889.723875	0.042057
889.907059	0.041793
890.090226	0.041694
890.273374	0.041529
890.456504	0.041383
890.639616	0.041104
890.822709	0.041233
891.005785	0.041163
891.188842	0.040863
891.371881	0.040656
891.554901	0.040701
891.737904	0.040388
891.920888	0.040152
892.103854	0.040167
892.286802	0.040166
892.469731	0.040253
892.652643	0.040199
892.835536	0.040410
893.018410	0.040902
893.201267	0.040799
893.384106	0.041215
893.566926	0.041308
893.749728	0.041179
893.932511	0.041248
894.115277	0.040958
894.298024	0.041273
894.480753	0.041438
894.663464	0.041588
894.846157	0.041885
895.028831	0.041500
895.211487	0.041512
895.394125	0.041301
895.576745	0.041231
895.759346	0.041165
895.941930	0.041121
896.124495	0.041010
896.307041	0.040872
896.489570	0.040404
896.672080	0.040604
896.854573	0.040720
897.037046	0.041263
897.219502	0.041368
897.401940	0.041532
897.584359	0.041222
897.766760	0.041130
897.949143	0.040763
898.131507	0.040842
898.313854	0.040412
898.496182	0.040091
898.678492	0.039825
898.860783	0.039630
899.043057	0.039242
899.225312	0.039065
899.407549	0.038826
899.589768	0.038842
899.771968	0.038864
899.954151	0.039158
900.136315	0.039018
900.318461	0.038731
900.500588	0.038414
900.682698	0.038326
900.864789	0.038473
901.046862	0.038221
901.228917	0.037953
901.410953	0.037864
901.592971	0.037788
901.774972	0.037375
901.956953	0.037320
902.138917	0.037041
902.320862	0.037328
902.502790	0.037506
902.684699	0.037480
902.866589	0.037847
903.048462	0.037533
903.230316	0.037288
903.412152	0.037808
903.593970	0.037899
903.775770	0.038446
903.957551	0.038283
904.139314	0.038074
904.321059	0.038291
904.502786	0.038418
904.684494	0.038251
904.866185	0.038049
905.047857	0.038002
905.229510	0.038011
905.411146	0.037999
905.592763	0.037754
905.774363	0.037642
905.955943	0.037401
906.137506	0.037264
906.319051	0.037979
906.500577	0.038235
906.682085	0.037946
906.863575	0.037780
907.045046	0.037645
907.226500	0.037972
907.407935	0.037581
907.589352	0.037362
907.770750	0.036826
907.952131	0.036295
908.133493	0.036028
908.314837	0.036012
908.496163	0.036147
908.677470	0.036126
908.858760	0.035700
909.040031	0.036187
909.221284	0.036300
909.402518	0.036355
909.583735	0.036465
909.764933	0.036784
909.946113	0.036516
910.127275	0.036201
910.308418	0.036122
910.489544	0.036119
910.670651	0.035882
910.851740	0.036193
911.032810	0.035624
911.213863	0.035488
911.394897	0.035162
911.575913	0.035137
911.756911	0.035089
911.937890	0.034588
912.118851	0.034750
912.299794	0.034324
912.480719	0.033758
912.661626	0.034086
912.842514	0.033944
913.023384	0.033895
913.204236	0.033819
913.385070	0.033660
913.565886	0.033987
913.746683	0.033658
913.927462	0.033784
914.108223	0.033658
914.288965	0.033516
914.469690	0.033187
914.650396	0.032930
914.831084	0.032774
915.011754	0.032339
915.192405	0.031564
915.373038	0.031126
915.553653	0.030862
915.734250	0.030910
915.914829	0.030896
916.095389	0.030720
916.275931	0.030423
916.456455	0.030174
916.636961	0.030391
916.817448	0.030609
916.997917	0.030533
917.178368	0.030355
917.358801	0.030158
917.539216	0.029380
917.719612	0.029381
917.899990	0.029364
918.080350	0.029104
918.260692	0.028821
918.441015	0.028508
918.621320	0.028454
918.801607	0.028078
918.981876	0.027709
919.162127	0.028257
919.342359	0.027928
919.522573	0.027826
919.702769	0.028059
919.882947	0.027902
920.063106	0.027919
920.243247	0.027960
920.423370	0.027873
920.603475	0.027911
920.783562	0.027776
920.963630	0.027561
921.143680	0.027323
921.323712	0.027126
921.503725	0.026838
921.683721	0.026511
921.863698	0.026162
922.043657	0.026174
922.223598	0.026306
922.403520	0.025853
922.583424	0.025382
922.763311	0.025299
922.943178	0.024868
923.123028	0.025122
923.302859	0.024763
923.482673	0.024420
923.662467	0.024720
923.842244	0.024440
924.022003	0.023780
924.201743	0.023753
924.381465	0.023682
924.561169	0.023973
924.740854	0.023478
924.920522	0.023479
925.100171	0.023720
925.279802	0.023277
925.459414	0.022555
925.639009	0.022793
925.818585	0.022413
925.998143	0.022012
926.177683	0.021561
926.357205	0.020985
926.536708	0.021082
926.716193	0.020717
926.895660	0.019860
927.075109	0.020581
927.254539	0.020458
927.433951	0.020635
927.613345	0.020003
927.792721	0.019277
927.972079	0.019569
928.151418	0.019019
928.330739	0.018516
928.510042	0.018603
928.689327	0.017099
928.868593	0.016753
929.047841	0.016420
929.227071	0.016027
929.406283	0.015991
929.585476	0.015637
929.764652	0.015292
929.943809	0.015001
930.122948	0.014432
930.302068	0.014833
930.481171	0.014308
930.660255	0.014114
930.839321	0.014010
931.018369	0.014146
931.197398	0.013162
931.376409	0.012775
931.555402	0.012489
931.734377	0.012824
931.913334	0.012470
932.092272	0.012577
932.271192	0.011348
932.450094	0.011404
932.628978	0.010272
932.807844	0.010133
932.986691	0.010053
933.165520	0.010440
933.344331	0.009583
933.523123	0.009180
933.701898	0.008366
933.880654	0.008872
934.059392	0.008817
934.238111	0.009197
934.416813	0.009891
934.595496	0.009624
934.774161	0.008846
934.952808	0.008809
935.131437	0.008408
935.310047	0.008626
935.488639	0.008880
935.667213	0.008226
935.845769	0.007693
936.024306	0.006967
936.202825	0.006713
936.381326	0.006662
936.559809	0.006764
936.738274	0.006451
936.916720	0.006027
937.095148	0.005625
937.273558	0.005785
937.451950	0.006182
937.630323	0.005655
937.808678	0.005933
937.987015	0.005153
938.165334	0.004794
938.343635	0.005044
938.521917	0.005693
938.700181	0.004910
938.878427	0.003935
939.056655	0.002805
939.234864	0.003095
939.413055	0.002487
939.591228	0.002357
939.769383	0.001797
939.947519	0.001128
940.125638	-0.000356
940.303738	0.000066
940.481820	0.000378
940.659883	0.000812
940.837929	-0.000173
941.015956	-0.000296
941.193965	-0.000402
941.371955	-0.000836
941.549928	-0.001119
941.727882	-0.001208
941.905818	-0.001851
942.083736	-0.002381
942.261636	-0.002673
942.439517	-0.002047
942.617380	-0.003364
942.795225	-0.003870
942.973052	-0.003625
943.150860	-0.004034
943.328651	-0.003974
943.506423	-0.004481
943.684176	-0.003805
943.861912	-0.003878
944.039629	-0.004751
944.217328	-0.004319
944.395009	-0.004385
944.572672	-0.004906
944.750317	-0.004894
944.927943	-0.004998
945.105551	-0.005485
945.283141	-0.006526
945.460712	-0.007899
945.638265	-0.008115
945.815801	-0.008249
945.993317	-0.008228
946.170816	-0.008448
946.348297	-0.007970
946.525759	-0.008253
946.703203	-0.008248
946.880629	-0.008227
947.058036	-0.006980
947.235425	-0.006082
947.412797	-0.006176
947.590149	-0.005761
947.767484	-0.007416
947.944800	-0.008155
948.122099	-0.007813
948.299379	-0.006677
948.476640	-0.006982
948.653884	-0.007256
948.831109	-0.008533
949.008316	-0.009155
949.185505	-0.008493
949.362676	-0.006309
949.539828	-0.005261
949.716962	-0.006506
949.894078	-0.006608
950.071176	-0.006165
950.248256	-0.005881
950.425317	-0.005884
950.602360	-0.005585
950.779385	-0.006064
950.956391	-0.007323
951.133380	-0.007251
951.310350	-0.006181
951.487302	-0.006116
951.664235	-0.006297
951.841151	-0.008418
952.018048	-0.007849
952.194927	-0.006002
952.371788	-0.007023
952.548631	-0.006241
952.725455	-0.006927
952.902261	-0.006850
953.079049	-0.006723
953.255819	-0.006277
953.432570	-0.005454
953.609303	-0.004781
953.786018	-0.005699
953.962715	-0.004610
954.139394	-0.005065
954.316054	-0.005426
954.492696	-0.004679
954.669320	-0.004959
954.845926	-0.005879
955.022513	-0.004893
955.199083	-0.003865
955.375634	-0.004903
955.552166	-0.006479
955.728681	-0.005187
955.905177	-0.004563
956.081655	-0.006041
956.258115	-0.007987
956.434557	-0.005990
956.610980	-0.005177
956.787385	-0.007051
956.963772	-0.004505
957.140141	-0.002837
957.316492	-0.002825
957.492824	-0.003850
957.669138	-0.002113
957.845434	-0.000582
958.021712	-0.000732
958.197971	-0.001001
958.374212	0.000835
958.550435	0.000568
958.726640	-0.000365
958.902826	-0.001659
959.078995	-0.000446
959.255145	-0.001305
959.431277	-0.001510
959.607390	-0.001851
959.783486	-0.001408
959.959563	-0.000780
960.135622	-0.000907
960.311662	0.002312
960.487685	0.004756
960.663689	0.005453
960.839675	0.006400
961.015643	0.008090
961.191593	0.007706
961.367524	0.007792
961.543437	0.006044
961.719332	0.007068
961.895209	0.003914
962.071067	0.004993
962.246907	0.005719
962.422730	0.006919
962.598533	0.007779
962.774319	0.008335
962.950086	0.010451
963.125835	0.009808
963.301566	0.007348
963.477279	0.010781
963.652973	0.007489
963.828650	0.008213
964.004308	0.008363
964.179947	0.007946
964.355569	0.007666
964.531172	0.007946
964.706757	0.009409
964.882324	0.013149
965.057873	0.009804
965.233403	0.011536
965.408916	0.012561
965.584410	0.011229
965.759885	0.013128
965.935343	0.014754
966.110782	0.014182
966.286203	0.014529
966.461606	0.012438
966.636991	0.016086
966.812357	0.019150
966.987705	0.017264
967.163035	0.019232
967.338347	0.019701
967.513641	0.020079
967.688916	0.020225
967.864173	0.019763
968.039412	0.022476
968.214632	0.019492
968.389835	0.018221
968.565019	0.018046
968.740185	0.015020
968.915333	0.014616
969.090462	0.013249
969.265573	0.013280
969.440667	0.014574
969.615741	0.013842
969.790798	0.016442
969.965836	0.016273
970.140856	0.017807
970.315858	0.019810
970.490842	0.021019
970.665808	0.022363
970.840755	0.021656
971.015684	0.021117
971.190595	0.019398
971.365487	0.017711
971.540362	0.018051
971.715218	0.018853
971.890056	0.019251
972.064875	0.019160
972.239677	0.019659
972.414460	0.019942
972.589225	0.022730
972.763972	0.023536
972.938700	0.023226
973.113411	0.023155
973.288103	0.022467
973.462777	0.023054
973.637432	0.020274
973.812070	0.019508
973.986689	0.019470
974.161290	0.017573
974.335873	0.018155
974.510437	0.020543
974.684984	0.020387
974.859512	0.019159
975.034022	0.019878
975.208513	0.020480
975.382987	0.019724
975.557442	0.019876
975.731879	0.020015
975.906298	0.018358
976.080698	0.018073
976.255080	0.017857
976.429445	0.019849
976.603790	0.018902
976.778118	0.018949
976.952427	0.018974
977.126719	0.018142
977.300992	0.018238
977.475246	0.020448
977.649483	0.018369
977.823701	0.019698
977.997901	0.017407
978.172083	0.019151
978.346247	0.019991
978.520392	0.020689
978.694519	0.022054
978.868628	0.022212
979.042719	0.021997
979.216791	0.023662
979.390845	0.020675
979.564882	0.020285
979.738899	0.017990
979.912899	0.016630
980.086880	0.015737
980.260843	0.013025
980.434788	0.013095
980.608715	0.011800
980.782623	0.011381
980.956514	0.012253
981.130386	0.014379
981.304240	0.015584
981.478075	0.015576
981.651892	0.017129
981.825692	0.018205
981.999472	0.016534
982.173235	0.015284
982.346980	0.016087
982.520706	0.018471
982.694414	0.015645
982.868104	0.014523
983.041775	0.014136
983.215428	0.013879
983.389064	0.016374
983.562680	0.016628
983.736279	0.018384
983.909860	0.017146
984.083422	0.014810
984.256966	0.015502
984.430491	0.014633
984.603999	0.017623
984.777488	0.016491
984.950959	0.013073
985.124412	0.013630
985.297847	0.013185
985.471263	0.013155
985.644661	0.014831
985.818041	0.014924
985.991403	0.015492
986.164747	0.012323
986.338072	0.013055
986.511379	0.015905
986.684668	0.013958
986.857938	0.014484
987.031191	0.012596
987.204425	0.012130
987.377641	0.013813
987.550839	0.015554
987.724018	0.017430
987.897179	0.015291
988.070322	0.014814
988.243447	0.016893
988.416554	0.016041
988.589642	0.018165
988.762712	0.015271
988.935764	0.013697
989.108798	0.012311
989.281813	0.009946
989.454811	0.012918
989.627790	0.012445
989.800751	0.011848
989.973693	0.012809
990.146617	0.012237
990.319524	0.013870
990.492412	0.015949
990.665281	0.017096
990.838133	0.017819
991.010966	0.016609
991.183781	0.017113
991.356578	0.017577
991.529356	0.017050
991.702117	0.016001
991.874859	0.017068
992.047583	0.017302
992.220288	0.016437
992.392976	0.017079
992.565645	0.017307
992.738296	0.016590
992.910929	0.015745
993.083543	0.016097
993.256139	0.017829
993.428718	0.016057
993.601277	0.012602
993.773819	0.012330
993.946342	0.011870
994.118848	0.011446
994.291335	0.012182
994.463803	0.013359
994.636254	0.012547
994.808686	0.012271
994.981100	0.013479
995.153496	0.015214
995.325874	0.016492
995.498233	0.014888
995.670574	0.014073
995.842897	0.012330
996.015202	0.011954
996.187488	0.011073
996.359757	0.011995
996.532007	0.012820
996.704239	0.012559
996.876452	0.010376
997.048648	0.012498
997.220825	0.013626
997.392984	0.013555
997.565124	0.013254
997.737247	0.013916
997.909351	0.011032
998.081437	0.009227
998.253505	0.009613
998.425554	0.010691
998.597586	0.010585
998.769599	0.009971
998.941594	0.010842
999.113571	0.011485
999.285529	0.011868
999.457469	0.013803
999.629391	0.014227
999.801295	0.015376
999.973181	0.015218
1000.145048	0.015623
1000.316897	0.015799
1000.488728	0.017538
1000.660541	0.016075
1000.832335	0.016547
1001.004111	0.014986
1001.175869	0.015147
1001.347609	0.013152
1001.519331	0.011719
1001.691034	0.011393
1001.862719	0.011801
1002.034386	0.010305
1002.206035	0.011397
1002.377665	0.011609
1002.549277	0.011443
1002.720871	0.011347
1002.892447	0.012342
1003.064004	0.013138
1003.235544	0.014650
1003.407065	0.014957
1003.578568	0.014439
1003.750052	0.013077
1003.921519	0.011470
1004.092967	0.011209
1004.264397	0.011530
1004.435809	0.010904
1004.607202	0.011343
1004.778577	0.008837
1004.949934	0.007334
1005.121273	0.007234
1005.292594	0.008122
1005.463896	0.010000
1005.635180	0.010824
1005.806446	0.009746
1005.977694	0.010616
1006.148923	0.011344
1006.320135	0.012098
1006.491328	0.013054
1006.662503	0.012769
1006.833659	0.014516
1007.004798	0.014406
1007.175918	0.014455
1007.347020	0.015195
1007.518103	0.014489
1007.689169	0.012603
1007.860216	0.012391
1008.031245	0.012940
1008.202256	0.012500
1008.373248	0.010237
1008.544223	0.009478
1008.715179	0.010163
1008.886117	0.009831
1009.057036	0.008980
1009.227938	0.009849
1009.398821	0.011079
1009.569686	0.009470
1009.740533	0.010792
1009.911361	0.011271
1010.082172	0.010420
1010.252964	0.009937
1010.423738	0.010464
1010.594493	0.012568
1010.765231	0.012945
1010.935950	0.011973
1011.106651	0.013705
1011.277334	0.014258
1011.447998	0.015058
1011.618645	0.015779
1011.789273	0.014688
1011.959882	0.013253
1012.130474	0.011394
1012.301048	0.010532
1012.471603	0.010213
1012.642140	0.009011
1012.812658	0.006832
1012.983159	0.005363
1013.153641	0.004845
1013.324105	0.005855
1013.494551	0.007022
1013.664979	0.006965
1013.835388	0.007197
1014.005779	0.007882
1014.176152	0.008844
1014.346507	0.010970
1014.516843	0.011109
1014.687162	0.012542
1014.857462	0.013523
1015.027744	0.013697
1015.198007	0.013297
1015.368252	0.013132
1015.538480	0.013167
1015.708689	0.011490
1015.878879	0.011334
1016.049052	0.010586
1016.219206	0.011631
1016.389342	0.011142
1016.559460	0.010292
1016.729559	0.011382
1016.899641	0.012702
1017.069704	0.013186
1017.239749	0.014386
1017.409775	0.014038
1017.579784	0.016207
1017.749774	0.014168
1017.919746	0.014751
1018.089700	0.014388
1018.259635	0.014206
1018.429553	0.014165
1018.599452	0.014415
1018.769333	0.013536
1018.939195	0.014173
1019.109040	0.011769
1019.278866	0.013291
1019.448674	0.012834
1019.618464	0.013143
1019.788235	0.012414
1019.957989	0.012200
1020.127724	0.010806
1020.297441	0.011395
1020.467139	0.009103
1020.636820	0.010535
1020.806482	0.008524
1020.976126	0.008439
1021.145752	0.009507
1021.315359	0.009955
1021.484948	0.010245
1021.654519	0.009798
1021.824072	0.009829
1021.993607	0.011313
1022.163123	0.010189
1022.332621	0.010733
1022.502101	0.010917
1022.671563	0.009776
1022.841007	0.010129
1023.010432	0.009367
1023.179839	0.009901
1023.349228	0.009579
1023.518598	0.009365
1023.687951	0.009450
1023.857285	0.010500
1024.026601	0.009471
1024.195899	0.009225
1024.365178	0.009119
1024.534439	0.009444
1024.703682	0.008021
1024.872907	0.009395
1025.042114	0.008421
1025.211302	0.010026
1025.380472	0.009733
1025.549624	0.010596
1025.718758	0.009926
1025.887873	0.009504
1026.056970	0.009774
1026.226049	0.010431
1026.395110	0.009263
1026.564153	0.009569
1026.733177	0.008597
1026.902183	0.008096
1027.071171	0.008596
1027.240141	0.008646
1027.409092	0.008987
1027.578026	0.009112
1027.746940	0.008625
1027.915837	0.009654
1028.084716	0.009233
1028.253576	0.009657
1028.422418	0.009032
1028.591242	0.007621
1028.760048	0.009784
1028.928835	0.009908
1029.097604	0.009653
1029.266355	0.009263
1029.435088	0.007375
1029.603803	0.007868
1029.772499	0.007570
1029.941177	0.008331
1030.109837	0.009155
1030.278478	0.007030
1030.447102	0.006873
1030.615707	0.007434
1030.784294	0.009752
1030.952863	0.009824
1031.121413	0.010977
1031.289945	0.010773
1031.458460	0.010334
1031.626955	0.009607
1031.795433	0.010395
1031.963892	0.009247
1032.132334	0.008342
1032.300756	0.006686
1032.469161	0.008529
1032.637548	0.007102
1032.805916	0.008646
1032.974266	0.007201
1033.142598	0.007207
1033.310911	0.007104
1033.479207	0.007817
1033.647484	0.008799
1033.815743	0.007920
1033.983983	0.007593
1034.152206	0.008233
1034.320410	0.006268
1034.488596	0.008070
1034.656764	0.007750
1034.824914	0.008497
1034.993045	0.008184
1035.161158	0.007030
1035.329253	0.007812
1035.497330	0.006560
1035.665388	0.006428
1035.833428	0.006382
1036.001450	0.006341
1036.169454	0.007739
1036.337440	0.006487
1036.505407	0.006344
1036.673356	0.006139
1036.841287	0.008805
1037.009200	0.009340
1037.177094	0.009039
1037.344970	0.009343
1037.512828	0.009316
1037.680668	0.008941
1037.848489	0.010079
1038.016293	0.010411
1038.184078	0.009330
1038.351845	0.007869
1038.519593	0.009659
1038.687324	0.010641
1038.855036	0.010595
1039.022730	0.010464
1039.190406	0.009821
1039.358063	0.009510
1039.525702	0.009278
1039.693323	0.010862
1039.860926	0.009605
1040.028511	0.008125
1040.196077	0.008901
1040.363625	0.010054
1040.531155	0.009306
1040.698667	0.008868
1040.866161	0.009869
1041.033636	0.009278
1041.201093	0.007591
1041.368532	0.008259
1041.535952	0.007789
1041.703355	0.006140
1041.870739	0.004975
1042.038105	0.006061
1042.205452	0.008737
1042.372782	0.007220
1042.540093	0.009365
1042.707386	0.010954
1042.874661	0.011012
1043.041918	0.010795
1043.209156	0.010493
1043.376376	0.010935
1043.543578	0.009566
1043.710762	0.006997
1043.877927	0.007245
1044.045074	0.005779
1044.212203	0.005254
1044.379314	0.006802
1044.546407	0.006400
1044.713481	0.006411
1044.880537	0.007302
1045.047575	0.007582
1045.214595	0.010247
1045.381596	0.009589
1045.548579	0.009669
1045.715544	0.009743
1045.882491	0.005936
1046.049420	0.005511
1046.216330	0.005634
1046.383222	0.005778
1046.550096	0.007276
1046.716951	0.004822
1046.883789	0.004830
1047.050608	0.005118
1047.217409	0.004096
1047.384192	0.005956
1047.550956	0.006888
1047.717703	0.007155
1047.884431	0.007292
1048.051140	0.006985
1048.217832	0.007562
1048.384505	0.008771
1048.551161	0.009467
1048.717798	0.010239
1048.884416	0.012126
1049.051017	0.013817
1049.217599	0.013145
1049.384163	0.012348
1049.550709	0.011898
1049.717237	0.011276
1049.883746	0.010240
1050.050237	0.009528
1050.216710	0.009869
1050.383165	0.008242
1050.549601	0.007088
1050.716019	0.007435
1050.882420	0.007120
1051.048801	0.006860
1051.215165	0.007061
1051.381510	0.008509
1051.547837	0.008984
1051.714146	0.010081
1051.880437	0.010153
1052.046709	0.009980
1052.212964	0.009093
1052.379200	0.008636
1052.545417	0.009135
1052.711617	0.010205
1052.877798	0.009162
1053.043961	0.007977
1053.210106	0.006540
1053.376233	0.006264
1053.542341	0.007440
1053.708432	0.007756
1053.874504	0.008590
1054.040557	0.007547
1054.206593	0.006805
1054.372610	0.007097
1054.538609	0.008947
1054.704590	0.010366
1054.870553	0.011103
1055.036497	0.009767
1055.202424	0.011611
1055.368331	0.011137
1055.534221	0.011907
1055.700093	0.011128
1055.865946	0.011532
1056.031781	0.011022
1056.197598	0.010220
1056.363397	0.008490
1056.529177	0.008340
1056.694939	0.008370
1056.860683	0.008739
1057.026409	0.007393
1057.192116	0.007237
1057.357806	0.006793
1057.523477	0.006557
1057.689130	0.006126
1057.854764	0.006783
1058.020381	0.008211
1058.185979	0.006865
1058.351559	0.006247
1058.517120	0.007045
1058.682664	0.008035
1058.848189	0.007070
1059.013696	0.005743
1059.179185	0.004243
1059.344656	0.004391
1059.510108	0.002362
1059.675542	0.002076
1059.840958	0.002053
1060.006356	0.002682
1060.171735	0.002185
1060.337096	0.002846
1060.502439	0.002616
1060.667764	0.003942
1060.833071	0.005042
1060.998359	0.005536
1061.163629	0.006514
1061.328881	0.006217
1061.494115	0.006606
1061.659330	0.007800
1061.824527	0.007404
1061.989706	0.009421
1062.154867	0.010626
1062.320010	0.009436
1062.485134	0.010869
1062.650240	0.008309
1062.815328	0.007714
1062.980398	0.004782
1063.145449	0.003848
1063.310482	0.005153
1063.475497	0.004824
1063.640494	0.004677
1063.805473	0.003946
1063.970433	0.003890
1064.135375	0.007092
1064.300299	0.006957
1064.465204	0.007026
1064.630092	0.006512
1064.794961	0.004311
1064.959812	0.002461
1065.124645	0.001730
1065.289459	0.003756
1065.454256	0.003040
1065.619034	0.003178
1065.783793	0.002557
1065.948535	0.003181
1066.113258	0.002024
1066.277964	0.003817
1066.442651	0.006920
1066.607319	0.006704
1066.771970	0.006268
1066.936602	0.007217
1067.101216	0.005559
1067.265812	0.007762
1067.430389	0.009874
1067.594949	0.010711
1067.759490	0.010295
1067.924013	0.007326
1068.088518	0.008281
1068.253004	0.009694
1068.417472	0.006200
1068.581922	0.005419
1068.746354	0.005847
1068.910768	0.005209
1069.075163	0.005889
1069.239540	0.006653
1069.403899	0.007417
1069.568240	0.006814
1069.732562	0.003626
1069.896866	0.005207
1070.061152	0.006094
1070.225420	0.004528
1070.389670	0.004070
1070.553901	0.003922
1070.718114	0.002183
1070.882309	0.001148
1071.046486	-0.001537
1071.210644	0.000632
1071.374784	0.001818
1071.538906	0.003724
1071.703010	0.004041
1071.867096	0.003471
1072.031163	0.004387
1072.195212	0.006184
1072.359243	0.007423
1072.523256	0.009067
1072.687250	0.006746
1072.851226	0.007581
1073.015184	0.005931
1073.179124	0.007244
1073.343045	0.006016
1073.506949	0.004377
1073.670834	0.002327
1073.834701	0.004074
1073.998549	0.003589
1074.162380	0.004821
1074.326192	0.002604
1074.489986	0.002678
1074.653761	0.001915
1074.817519	0.004565
1074.981258	0.007143
1075.144979	0.008296
1075.308682	0.006824
1075.472367	0.007453
1075.636033	0.008535
1075.799681	0.006553
1075.963311	0.005530
1076.126923	0.003372
1076.290516	0.001651
1076.454092	-0.000674
1076.617649	-0.000040
1076.781187	-0.000273
1076.944708	0.001684
1077.108210	-0.000770
1077.271695	0.002824
1077.435160	0.004048
1077.598608	0.005005
1077.762038	0.007365
1077.925449	0.007084
1078.088842	0.007572
1078.252217	0.006572
1078.415573	0.003194
1078.578912	0.004777
1078.742232	0.005510
1078.905534	0.005339
1079.068817	0.005897
1079.232083	0.002271
1079.395330	0.001933
1079.558559	-0.002017
1079.721770	-0.001453
1079.884962	-0.000600
1080.048136	-0.001069
1080.211293	-0.002168
1080.374430	-0.002600
1080.537550	-0.003139
1080.700651	-0.000780
1080.863735	0.002430
1081.026800	0.004358
1081.189846	0.004597
1081.352875	0.003655
1081.515885	0.004813
1081.678877	0.003135
1081.841851	0.002930
1082.004807	0.001728
1082.167744	0.001504
1082.330663	-0.002269
1082.493564	0.000108
1082.656447	0.000049
1082.819312	0.002860
1082.982158	0.003946
1083.144986	0.003151
1083.307796	0.002195
1083.470587	0.003015
1083.633361	-0.000388
1083.796116	0.000217
1083.958853	-0.000316
1084.121571	-0.001904
1084.284272	-0.004389
1084.446954	-0.006467
1084.609618	-0.005212
1084.772264	-0.003977
1084.934892	-0.002477
1085.097501	0.000828
1085.260092	0.002798
1085.422665	0.002487
1085.585220	0.004232
1085.747756	0.006142
1085.910274	0.005935
1086.072774	0.005048
1086.235256	0.004017
1086.397720	0.005031
1086.560165	0.005036
1086.722592	0.006083
1086.885001	0.003763
1087.047392	0.003395
1087.209764	0.002816
1087.372119	0.002142
1087.534455	0.003395
1087.696772	0.002891
1087.859072	-0.000138
1088.021353	-0.002911
1088.183616	-0.004727
1088.345861	-0.001897
1088.508088	-0.000948
1088.670296	-0.001187
1088.832486	0.001900
1088.994658	0.002945
1089.156812	0.005040
1089.318948	0.008916
1089.481065	0.010596
1089.643164	0.008429
1089.805245	0.005641
1089.967308	0.004114
1090.129352	0.005291
1090.291378	0.003604
1090.453386	0.001139
1090.615376	0.000585
1090.777347	-0.004054
1090.939301	-0.004659
1091.101236	-0.002015
1091.263153	-0.000419
1091.425051	0.001770
1091.586932	-0.000365
1091.748794	-0.000493
1091.910638	0.000397
1092.072463	0.001583
1092.234271	0.003453
1092.396060	0.001239
1092.557831	0.003602
1092.719584	0.000077
1092.881319	-0.000619
1093.043035	0.001072
1093.204733	0.000777
1093.366413	0.001363
1093.528075	0.000360
1093.689718	0.001337
1093.851343	0.007708
1094.012950	0.003188
1094.174539	0.006694
1094.336110	0.001943
1094.497662	0.000159
1094.659196	0.000844
1094.820712	0.001479
1094.982210	-0.000230
1095.143689	-0.000528
1095.305151	-0.004487
1095.466594	-0.003744
1095.628018	-0.006426
1095.789425	-0.004633
1095.950813	-0.002007
1096.112183	-0.003955
1096.273535	-0.004167
1096.434869	-0.003582
1096.596184	-0.004755
1096.757482	-0.003639
1096.918761	-0.004275
1097.080021	-0.003367
1097.241264	-0.001463
1097.402488	-0.001917
1097.563694	-0.004796
1097.724882	-0.005808
1097.886052	-0.008766
1098.047203	-0.006129
1098.208336	-0.008837
1098.369451	-0.010416
1098.530548	-0.008846
1098.691627	-0.010205
1098.852687	-0.010473
1099.013729	-0.007758
1099.174753	-0.008999
1099.335758	-0.005540
1099.496746	-0.009163
1099.657715	-0.006280
1099.818666	-0.004097
1099.979599	-0.004598
1100.140513	-0.001845
1100.301409	-0.004444
1100.462287	-0.003658
1100.623147	-0.002116
1100.783989	-0.000711
1100.944812	0.000654
1101.105617	0.000600
1101.266404	0.002708
1101.427173	0.004163
1101.587923	0.003821
1101.748656	0.004654
1101.909370	0.004766
1102.070066	0.001171
1102.230743	-0.000639
1102.391403	0.000917
1102.552044	-0.000006
1102.712667	-0.004634
1102.873271	-0.004757
1103.033858	-0.006851
1103.194426	-0.006925
1103.354976	-0.007880
1103.515508	-0.003970
1103.676021	-0.003597
1103.836517	-0.004464
1103.996994	-0.004836
1104.157453	-0.001761
1104.317893	-0.002275
1104.478316	-0.000354
1104.638720	0.000683
1104.799106	0.002430
1104.959474	0.000140
1105.119823	-0.000011
1105.280155	0.001796
1105.440468	0.001123
1105.600763	-0.002171
1105.761039	-0.006318
1105.921298	-0.007053
1106.081538	-0.006985
1106.241760	-0.008480
1106.401964	-0.008188
1106.562149	-0.007235
1106.722316	-0.008665
1106.882465	-0.010046
1107.042596	-0.010645
1107.202709	-0.006546
1107.362803	-0.006309
1107.522879	-0.008263
1107.682937	-0.010467
1107.842977	-0.009640
1108.002999	-0.011357
1108.163002	-0.012107
1108.322987	-0.008336
1108.482954	-0.006523
1108.642902	-0.008498
1108.802833	-0.010043
1108.962745	-0.006712
1109.122639	-0.003758
1109.282515	-0.001408
1109.442372	0.000962
1109.602211	-0.000980
1109.762032	0.000832
1109.921835	-0.002271
1110.081620	0.000652
1110.241386	0.002639
1110.401134	0.000724
1110.560864	-0.002009
1110.720576	-0.002384
1110.880269	-0.004956
1111.039945	-0.002501
1111.199602	-0.002893
1111.359240	0.000445
1111.518861	-0.003298
1111.678463	-0.004547
1111.838047	-0.006334
1111.997613	-0.003950
1112.157161	-0.007251
1112.316690	-0.003987
1112.476202	-0.003660
1112.635695	-0.007835
1112.795169	-0.009029
1112.954626	-0.006163
1113.114064	-0.005418
1113.273484	-0.004763
1113.432886	-0.007663
1113.592270	-0.005106
1113.751635	-0.008242
1113.910983	-0.009809
1114.070312	-0.008525
1114.229622	-0.004447
1114.388915	-0.001795
1114.548189	-0.004894
1114.707445	-0.001081
1114.866683	0.003396
1115.025903	0.001816
1115.185104	-0.000385
1115.344287	0.002450
1115.503452	0.002375
1115.662599	-0.000616
1115.821727	-0.005118
1115.980838	0.001609
1116.139930	-0.003462
1116.299004	-0.004326
1116.458059	-0.007786
1116.617097	-0.001875
1116.776116	-0.002769
1116.935117	-0.003057
1117.094099	-0.000077
1117.253064	-0.004394
1117.412010	-0.010537
1117.570938	-0.007044
1117.729848	-0.007874
1117.888740	-0.007626
1118.047613	-0.015221
1118.206468	-0.015828
1118.365305	-0.011248
1118.524124	-0.013053
1118.682924	-0.005616
1118.841707	-0.003215
1119.000471	-0.005244
1119.159216	-0.005018
1119.317944	-0.003210
1119.476653	0.002501
1119.635344	0.003165
1119.794017	0.000811
1119.952672	0.003988
1120.111308	0.002537
1120.269927	0.002052
1120.428527	0.000993
1120.587108	0.003467
1120.745672	0.005777
1120.904217	0.004863
1121.062744	0.002534
1121.221253	0.000911
1121.379744	-0.000381
1121.538216	-0.000653
1121.696671	-0.000538
1121.855107	0.000009
1122.013524	-0.004349
1122.171924	-0.002177
1122.330305	-0.006587
1122.488668	-0.008080
1122.647013	-0.010131
1122.805340	-0.009417
1122.963648	-0.013586
1123.121938	-0.012787
1123.280210	-0.013135
1123.438464	-0.010516
1123.596700	-0.013338
1123.754917	-0.010502
1123.913116	-0.015367
1124.071297	-0.014675
1124.229459	-0.017328
1124.387604	-0.013151
1124.545730	-0.017120
1124.703838	-0.015540
1124.861928	-0.015571
1125.019999	-0.015291
1125.178052	-0.013845
1125.336088	-0.005696
1125.494104	-0.001372
1125.652103	0.002134
1125.810083	0.005240
1125.968045	0.011713
1126.125989	0.014658
1126.283915	0.009690
1126.441823	0.008843
1126.599712	0.008913
1126.757583	0.009150
1126.915436	0.003596
1127.073270	-0.000749
1127.231087	-0.004034
1127.388885	-0.011352
1127.546665	-0.010647
1127.704426	-0.008227
1127.862170	-0.008992
1128.019895	-0.008615
1128.177602	-0.012889
1128.335291	-0.011737
1128.492961	-0.012591
1128.650614	-0.013942
1128.808248	-0.010460
1128.965864	-0.014638
1129.123461	-0.013458
1129.281041	-0.012711
1129.438602	-0.011477
1129.596145	-0.004361
1129.753670	-0.002344
1129.911176	-0.004352
1130.068665	-0.005841
1130.226135	-0.002665
1130.383587	-0.007436
1130.541020	-0.003094
1130.698436	-0.004180
1130.855833	-0.005825
1131.013212	-0.009953
1131.170573	-0.011259
1131.327915	-0.010688
1131.485239	-0.009615
1131.642545	-0.014045
1131.799833	-0.014277
1131.957103	-0.018726
1132.114354	-0.017324
1132.271588	-0.018503
1132.428803	-0.023803
1132.585999	-0.021602
1132.743178	-0.020026
1132.900338	-0.018774
1133.057480	-0.017479
1133.214604	-0.015056
1133.371710	-0.016583
1133.528797	-0.018307
1133.685866	-0.016895
1133.842917	-0.009271
1133.999950	-0.013014
1134.156964	-0.011817
1134.313960	-0.013512
1134.470938	-0.011432
1134.627898	-0.010465
1134.784840	-0.007163
1134.941763	-0.005317
1135.098668	-0.009126
1135.255555	-0.011468
1135.412424	-0.011236
1135.569274	-0.011463
1135.726107	-0.003539
1135.882921	-0.002829
1136.039716	-0.006936
1136.196494	-0.005969
1136.353253	-0.009513
1136.509995	-0.010639
1136.666717	-0.012164
1136.823422	-0.009894
1136.980109	-0.008448
1137.136777	-0.009960
1137.293427	-0.011115
1137.450059	-0.003424
1137.606672	-0.001480
1137.763267	0.007615
1137.919844	0.005689
1138.076403	0.007684
1138.232944	0.001900
1138.389466	0.004925
1138.545971	0.001179
1138.702457	0.004638
1138.858924	0.002100
1139.015374	0.001661
1139.171805	-0.007521
1139.328218	0.003379
1139.484613	0.006242
1139.640990	0.014432
1139.797348	0.015652
1139.953688	0.019432
1140.110010	0.014179
1140.266314	0.013247
1140.422600	0.015064
1140.578867	0.014017
1140.735116	0.006922
1140.891347	0.004448
1141.047559	0.002245
1141.203754	-0.008562
1141.359930	-0.011858
1141.516088	-0.008793
1141.672228	-0.011412
1141.828349	-0.016756
1141.984452	-0.006756
1142.140537	-0.005966
1142.296604	-0.009778
1142.452653	-0.005263
1142.608683	-0.004037
1142.764695	-0.000009
1142.920689	-0.003390
1143.076665	0.005965
1143.232622	0.008768
1143.388562	0.010344
1143.544483	0.013743
1143.700385	0.019103
1143.856270	0.010931
1144.012136	0.017639
1144.167985	0.008997
1144.323814	0.013881
1144.479626	0.012086
1144.635420	0.007705
1144.791195	-0.005479
1144.946952	-0.008051
1145.102691	-0.015126
1145.258411	-0.013778
1145.414113	-0.011622
1145.569798	-0.005856
1145.725463	-0.006753
1145.881111	-0.006889
1146.036741	-0.002047
1146.192352	-0.006401
1146.347945	-0.001401
1146.503519	0.009539
1146.659076	0.011931
1146.814614	0.008916
1146.970134	0.012070
1147.125636	0.005095
1147.281120	0.002425
1147.436585	0.000923
1147.592032	0.010304
1147.747461	0.002083
1147.902872	0.002694
1148.058265	0.004902
1148.213639	0.002427
1148.368995	0.000465
1148.524333	0.001823
1148.679653	0.007453
1148.834954	0.003186
1148.990237	0.002969
1149.145502	0.009666
1149.300749	0.004469
1149.455977	0.000445
1149.611188	0.004525
1149.766380	0.003970
1149.921553	0.010211
1150.076709	0.006405
1150.231846	0.012512
1150.386966	0.018026
1150.542066	0.013303
1150.697149	0.014921
1150.852214	0.021066
1151.007260	0.010754
1151.162288	0.009409
1151.317298	0.003713
1151.472289	0.002039
1151.627263	-0.003903
1151.782218	-0.005661
1151.937155	0.003165
1152.092073	-0.001971
1152.246974	-0.000343
1152.401856	0.002980
1152.556720	0.009131
1152.711566	0.008503
1152.866393	0.007564
1153.021203	0.021992
1153.175994	0.019482
1153.330767	0.014251
1153.485521	0.026174
1153.640258	0.017307
1153.794976	0.018952
1153.949676	0.009205
1154.104358	0.012814
1154.259021	0.014784
1154.413667	0.007168
1154.568294	0.010450
1154.722903	0.012810
1154.877493	0.002670
1155.032066	0.007489
1155.186620	0.006777
1155.341156	-0.002274
1155.495674	-0.005198
1155.650173	-0.007251
1155.804654	-0.016241
1155.959118	-0.022214
1156.113562	-0.025794
1156.267989	-0.019993
1156.422397	-0.030017
1156.576788	-0.026969
1156.731160	-0.015179
1156.885513	-0.014869
1157.039849	-0.015979
1157.194166	-0.017237
1157.348465	-0.018446
1157.502746	-0.013246
1157.657009	-0.023276
1157.811253	-0.019273
1157.965479	-0.018147
1158.119687	-0.014099
1158.273877	-0.013094
1158.428048	-0.006445
1158.582201	-0.000151
1158.736337	0.000189
1158.890453	-0.005885
1159.044552	-0.003326
1159.198632	-0.002804
1159.352694	0.000357
1159.506738	-0.010213
1159.660764	-0.007129
1159.814771	-0.021098
1159.968761	-0.015575
1160.122732	-0.004712
1160.276685	-0.003753
1160.430619	-0.010151
1160.584535	0.002975
1160.738434	0.002185
1160.892313	0.018507
1161.046175	0.018116
1161.200019	0.038217
1161.353844	0.029245
1161.507651	0.027772
1161.661440	0.032787
1161.815210	0.042229
1161.968962	0.021553
1162.122697	0.013826
1162.276412	-0.000570
1162.430110	-0.007330
1162.583789	-0.011380
1162.737451	-0.006453
1162.891094	-0.010927
1163.044718	-0.017304
1163.198325	-0.017509
1163.351913	-0.014990
1163.505483	-0.018834
1163.659035	-0.016234
1163.812569	-0.004765
1163.966084	-0.010446
1164.119581	-0.014227
1164.273060	-0.017504
1164.426521	-0.007837
1164.579964	-0.012792
1164.733388	-0.001592
1164.886794	0.008796
1165.040182	0.006319
1165.193551	0.004724
1165.346903	-0.008874
1165.500236	-0.009685
1165.653551	-0.002545
1165.806848	-0.017467
1165.960126	-0.013865
1166.113386	-0.018396
1166.266628	-0.020805
1166.419852	-0.019130
1166.573058	-0.025987
1166.726245	-0.007245
1166.879414	0.001670
1167.032565	-0.001302
1167.185698	0.017304
1167.338812	0.028190
1167.491909	0.033075
1167.644987	0.040179
1167.798046	0.047134
1167.951088	0.034839
1168.104111	0.048494
1168.257117	0.041194
1168.410103	0.031959
1168.563072	0.025490
1168.716023	0.010988
1168.868955	0.013223
1169.021869	0.004093
1169.174765	0.015929
1169.327642	0.043090
1169.480501	0.028711
1169.633343	0.026677
1169.786165	0.036329
1169.938970	0.035904
1170.091757	0.047606
1170.244525	0.055511
1170.397275	0.070777
1170.550007	0.035867
1170.702720	0.016181
1170.855415	0.013051
1171.008092	0.011450
1171.160751	0.005477
1171.313392	-0.004892
1171.466014	0.007711
1171.618619	-0.032277
1171.771205	-0.032277
1171.923772	-0.032277
