sample name	sample
index	174
start time	 02-18-2021  10:48:56 AM
880	-0.011910
Peak Time (s)	92.036
Peak Height 	-0.01191
calc peak height	90,93
Baseline Time (s)	11.037
Baseline Value 	-0.004114
subtract baseline	10,4
Abs	-0.016275
Peak Time (s)	92.537
Peak Height 	-0.01627
calc peak height	90,93
Baseline Time (s)	9.036
Baseline Value 	6.2007E-4
subtract baseline	10,3
PK_550	-0.000348
Peak Time (s)	92.537
Peak Height 	-3.4787E-4
calc peak height	90,93
Baseline Time (s)	11.037
Baseline Value 	1.3688E-4
subtract baseline	10,2
PK_880	-0.011538
Peak Time (s)	91.035
Peak Height 	-0.01154
calc peak height	90,93
Baseline Time (s)	8.534
Baseline Value 	0.001332
subtract baseline	10,1


Time (s)	A880-A510	A880-A775	A880-A975	A880	I510	I775	I975	I880	
0.038000	0.001105	-0.000252	-0.001695	0.000430	6698.696045	43754.900277	3833.600751	23002.045761
0.536000	-0.004435	-0.000048	-0.005012	0.006022	6599.325767	43249.883160	3811.366999	22743.076641
1.036000	-0.001568	-0.000843	-0.001298	0.002708	6654.183823	43485.288776	3828.870408	22896.161502
1.536500	0.001435	-0.000089	-0.000445	0.000007	6705.516586	43810.273746	3837.829521	23021.806805
2.036500	-0.000812	-0.000714	0.005180	-0.000962	6693.960838	43842.741747	3854.648320	23067.072346
2.540000	-0.003270	-0.000534	0.000380	0.005529	6613.964552	43250.502354	3826.003643	22765.755841
3.037500	0.003181	0.000722	0.000757	-0.001337	6733.598225	44014.250932	3844.292568	23084.589110
3.537000	-0.000522	-0.000477	-0.000132	-0.000328	6690.855418	43805.285661	3839.470337	23037.447201
4.035000	0.000171	0.000693	0.002060	0.001002	6685.102693	43790.071227	3841.657226	22975.396161
4.535000	-0.002134	-0.000962	-0.005345	0.002334	6652.474389	43509.170167	3819.688979	22913.516487
5.035500	-0.001551	-0.000162	-0.001326	0.000036	6678.302805	43800.609370	3835.529193	23020.450743
5.536000	0.000094	0.000221	0.000387	0.000198	6691.660282	43821.479863	3839.451781	23012.866093
6.036500	-0.000602	0.000522	0.001156	0.000551	6682.202713	43816.520983	3840.504988	22996.399443
6.536500	0.001098	0.000145	-0.003196	0.000533	6697.708420	43782.660602	3829.564484	22997.267781
7.033500	0.001538	0.000031	-0.000226	0.000117	6705.448550	43811.189207	3838.104580	23016.648852
7.537000	0.002068	-0.000236	0.002084	0.000118	6710.247346	43785.857152	3843.967624	23016.619585
8.034500	0.000143	-0.000541	0.003154	0.000253	6691.603413	43744.343109	3846.346929	23010.304577
8.534500	0.000000	0.000491	0.002302	0.000272	6690.141367	43839.922012	3844.128108	23009.410492
9.035500	-0.003215	-0.000962	0.000000	-0.000691	6669.878516	43793.700916	3840.725428	23054.378953
9.535500	0.001286	-0.000759	-0.000083	-0.000496	6708.715536	43794.451874	3840.018957	23045.251647
10.035500	-0.000700	-0.000219	0.000330	-0.000297	6688.967225	43826.671142	3840.563825	23035.981402
10.536000	-0.001324	0.000635	-0.002092	0.000287	6678.089065	43852.246857	3832.963636	23008.742131
11.036500	0.000241	0.000000	-0.002272	0.000000	6694.779833	43819.306294	3833.231774	23022.113990
11.536500	0.000248	0.000634	0.000975	0.003028	6667.585470	43593.848943	3833.784612	22881.334454
12.037000	0.000182	0.000147	-0.000237	-0.000420	6698.035751	43872.936056	3839.437958	23041.721869
12.540000	0.002545	0.000795	-0.000718	0.000413	6711.892796	43855.345188	3836.110037	23002.832941
13.034500	0.000136	0.000025	0.001186	-0.002388	6715.452526	44047.855989	3848.065207	23133.833444
13.535000	0.000548	0.000038	-0.002610	0.001954	6679.926861	43638.760478	3827.469569	22931.164641
14.038000	-0.002062	-0.000112	0.002589	-0.001473	6687.287535	43948.030619	3849.312103	23090.949776
14.536000	-0.001224	-0.000013	0.000174	0.002564	6658.550344	43576.587027	3832.933959	22902.837412
15.035500	0.001310	-0.000128	0.001544	-0.000047	6704.867062	43811.611360	3843.012845	23024.300102
15.539000	0.000063	-0.000338	-0.000175	0.002086	6674.376612	43590.977224	3833.258164	22925.004821
16.036500	0.000753	0.000162	0.004453	-0.001165	6709.949907	43944.822973	3853.299467	23076.531049
16.539500	-0.000835	0.000003	0.001843	-0.001241	6696.268509	43937.045604	3846.815969	23080.110914
17.034500	0.002256	-0.000219	0.001792	-0.001439	6726.099850	43934.732325	3847.189611	23089.365914
17.534500	0.001333	0.000607	0.001761	0.001038	6695.265616	43778.588967	3840.806642	22973.737871
18.035000	0.000292	0.000057	0.000973	-0.002575	6718.571830	44068.752062	3847.999691	23142.627544
18.535000	-0.000729	0.000433	0.001345	0.000934	6677.616621	43772.010269	3840.016702	22978.595833
19.035500	-0.000929	-0.000761	0.002342	0.000312	6681.417465	43718.121723	3844.130363	23007.568624
19.535500	0.000490	0.000119	-0.006374	0.001593	6682.654307	43680.315647	3818.971543	22947.941570
20.036000	-0.000893	-0.000229	0.002646	0.000845	6676.939083	43718.005706	3843.546127	22982.722025
20.536500	-0.001311	-0.000270	0.000364	0.000794	6673.640673	43718.908789	3837.885121	22985.116262
21.037000	0.000396	0.000276	0.001816	0.001260	6684.804562	43726.493933	3840.384474	22963.415374
21.536500	-0.000946	0.000366	0.003052	0.002490	6661.704530	43619.216905	3840.399055	22906.276531
22.037500	-0.000695	0.000242	0.003154	0.001311	6674.528741	43718.399954	3843.651992	22961.028026
22.537000	-0.000304	0.000283	0.002009	0.000853	6682.164372	43765.471215	3841.905535	22982.349988
23.035000	-0.000352	0.000000	0.001249	0.001234	6678.311501	43702.978280	3839.012709	22964.634211
23.535500	-0.002123	0.000122	-0.004543	0.001226	6662.483109	43715.210197	3824.453819	22965.008958
24.035500	-0.002136	0.000179	0.001487	0.001414	6660.677427	43702.782795	3839.156961	22956.221595
24.536000	0.001049	0.000878	0.001257	0.001905	6684.871906	43722.398603	3837.330786	22933.405468
25.036000	0.000735	0.000037	-0.000940	0.001199	6688.417704	43709.727925	3833.567409	22966.265578
25.536500	-0.001072	0.000554	0.001228	0.001278	6671.437501	43750.971538	3838.847560	22962.571584
26.036500	-0.000043	0.000459	-0.003551	0.001401	6679.579470	43730.391581	3826.497042	22956.844804
26.537000	0.000223	0.000540	0.005762	0.001184	6683.935962	43758.512040	3850.634293	22966.961191
27.034500	-0.001237	0.000766	-0.000668	0.001676	6666.382325	43733.418025	3833.048379	22944.046218
27.535000	-0.001326	-0.000609	-0.000639	0.000769	6673.731387	43689.304011	3835.410246	22986.262755
28.035000	0.002521	0.000543	0.006765	-0.001695	6730.839899	44031.258531	3860.617006	23101.333068
28.535500	0.001639	-0.000016	-0.002839	-0.000954	6716.075122	43908.040208	3834.208209	23066.676457
29.072000	0.001882	0.000593	0.003908	-0.000909	6717.879025	43961.439273	3851.247379	23064.595057
29.536000	-0.001893	-0.000026	0.001685	0.003053	6648.206536	43529.485297	3835.513632	22880.171028
30.036500	0.001460	-0.000572	0.001496	-0.001594	6720.264762	43915.984314	3846.829947	23096.635289
30.536500	0.000739	0.000739	-0.000529	0.000723	6692.748552	43820.833185	3835.805078	22988.411297
31.036500	-0.000415	-0.000200	0.006865	-0.000909	6697.059192	43886.371516	3858.849134	23064.581188
31.537000	-0.002194	-0.000213	0.000035	0.002795	6647.813097	43536.101769	3832.003297	22892.118843
32.037500	-0.000733	0.000334	0.003848	0.002064	6667.423756	43656.156886	3843.502473	22926.028165
32.555000	0.001542	0.000226	0.000553	-0.000087	6707.332741	43848.824096	3840.594775	23026.159628
33.038000	0.000717	0.000218	0.001953	-0.000708	6705.484717	43906.855196	3845.738198	23055.187732
33.535500	-0.000588	-0.000214	-0.000509	0.002784	6662.282065	43537.078955	3830.662482	22892.643120
34.036000	0.002230	0.000016	0.000218	-0.000780	6719.864158	43894.512151	3841.505005	23058.521688
34.535500	0.000995	-0.000436	0.005626	-0.000451	6705.669505	43820.734161	3854.477766	23043.153978
35.036500	-0.002005	-0.000237	0.004021	0.001038	6665.227798	43699.037400	3846.559622	22973.754750
35.536500	-0.001070	0.000699	0.000171	0.002638	6659.267557	43636.479810	3832.738841	22899.380337
36.036500	-0.000275	0.000478	0.000459	0.002565	6667.044250	43622.568546	3833.649966	22902.771507
36.537500	-0.000175	0.000947	-0.000555	0.002110	6672.025610	43709.621375	3832.242362	22923.908440
37.035000	-0.001260	-0.000378	-0.001047	0.001446	6668.244282	43647.363604	3832.675133	22954.746410
37.535000	0.001275	-0.000378	-0.001275	0.002002	6686.039181	43595.070540	3830.702590	22928.924599
38.035000	0.000634	0.000755	0.001497	0.002231	6678.207595	43680.046169	3837.113204	22918.263451
38.535500	-0.001345	-0.000076	0.004546	0.001804	6664.272831	43642.100108	3845.942783	22938.112785
39.036000	0.001242	0.000320	0.003673	0.002454	6681.678885	43618.262479	3842.068498	22907.956565
39.536500	-0.002343	0.000131	-0.002334	0.002250	6651.351384	43619.623585	3827.419149	22917.407990
40.036500	0.000783	0.000335	0.002976	0.001672	6684.582719	43693.263879	3842.282172	22944.258291
40.536500	0.000714	0.000189	0.003589	0.002073	6680.351477	43641.721956	3842.821256	22925.641327
41.037000	0.000494	0.000123	-0.003606	0.002238	6676.885870	43620.028068	3824.265088	22917.959664
41.537500	-0.000494	0.000314	0.000788	0.003248	6658.963942	43543.141072	3832.758379	22871.142056
42.035500	-0.002137	0.000355	0.001622	0.002031	6655.153117	43661.256062	3837.937107	22927.570791
42.535000	-0.001197	0.000349	0.001122	0.001930	6664.467599	43670.189879	3836.926125	22932.240294
43.036000	-0.000457	0.000251	0.001416	0.001946	6670.968022	43659.446052	3837.630719	22931.509968
43.536000	-0.000984	-0.000658	0.003538	0.002054	6665.266731	43563.883335	3842.738302	22926.480847
44.036000	0.000398	0.000788	0.002987	0.002184	6676.505474	43687.605440	3841.007854	22920.451097
44.536500	-0.000112	0.000355	0.000906	0.001739	6675.923196	43688.748960	3836.865722	22941.137242
45.037000	0.003755	0.000863	0.001723	-0.002439	6748.917513	44132.452129	3849.569587	23136.239712
45.540000	0.000003	0.000775	0.000214	0.003063	6665.073890	43603.726254	3831.778950	22879.710043
46.050500	0.001601	0.001532	0.004123	0.000633	6701.348834	43904.388308	3847.851980	22992.617044
46.534500	0.001816	0.001121	0.001592	0.000611	6703.493853	43867.560571	3841.461282	22993.628388
47.035000	0.000731	0.000379	0.002142	-0.000522	6703.925436	43904.487552	3845.744584	23046.489944
47.535500	-0.000248	0.000483	0.002731	0.003371	6660.066689	43547.416944	3837.352803	22865.444123
48.035500	0.001586	0.000109	0.003606	-0.000391	6710.488756	43866.592230	3849.147643	23040.375309
48.536000	-0.002398	-0.000091	0.000961	0.002483	6648.782639	43576.851690	3835.122569	22906.592377
49.036000	-0.000611	0.000424	-0.000292	0.002686	6662.947252	43606.174923	3831.453919	22897.179577
49.539000	0.000943	0.001151	-0.002656	0.003471	6669.842745	43600.732989	3823.557567	22860.794081
50.037000	0.003338	0.001097	0.005344	0.000194	6721.089537	43904.671666	3852.101629	23013.070912
50.537500	0.001005	0.000535	0.005678	0.000136	6700.452713	43857.069413	3853.105846	23015.783944
51.034500	0.001484	0.000236	0.009834	-0.001702	6721.468796	44002.818220	3868.594503	23101.691930
51.535000	-0.001179	0.001227	0.003197	0.003740	6648.441473	43582.534226	3837.598030	22848.333720
52.035000	0.000637	-0.000562	0.002381	-0.001065	6707.991801	43866.788795	3847.737697	23071.847768
52.535500	-0.022828	-0.017338	0.001786	0.131542	5519.755141	31912.822498	3554.765655	17726.801276
53.035500	-0.046894	-0.027544	-0.010822	-0.007220	6350.308898	41943.667185	3829.886434	23361.828721
53.536500	-0.040838	-0.026546	-0.026094	-0.130431	7590.900235	54905.744013	4137.801818	30120.616982
54.036000	-0.017455	-0.019917	-0.002235	-0.127246	7820.303530	55320.662467	4206.022656	29920.663646
54.536500	-0.026519	-0.016970	-0.011040	-0.104714	7466.064692	53004.556399	4103.866162	28547.356677
55.037000	-0.027816	-0.013465	-0.016314	-0.098463	7385.179202	52687.981249	4068.109066	28178.815445
55.537000	-0.015651	-0.010367	-0.015364	-0.115944	7711.097313	55109.136356	4125.751749	29222.929134
56.034500	-0.013569	-0.008538	-0.015558	-0.106694	7630.251597	54222.923013	4095.912023	28665.228190
56.535000	-0.011397	-0.007506	-0.014864	-0.112165	7716.500522	54998.645987	4115.316745	28993.622437
57.035500	-0.005202	-0.006950	-0.017083	-0.113956	7808.260170	55281.570853	4113.960007	29102.041862
57.535500	-0.003686	-0.007091	-0.014967	-0.102762	7697.286119	53929.464783	4085.510293	28431.734086
58.036000	-0.005897	-0.008083	-0.011199	-0.092097	7553.394032	52575.125854	4064.286318	27808.912821
58.536000	-0.009935	-0.007385	-0.012479	-0.078968	7368.070389	51170.366513	4021.021298	27062.940293
59.036000	-0.011515	-0.008791	-0.013539	-0.077770	7338.771227	50881.371640	4014.374545	26996.039173
59.537000	-0.008010	-0.001249	-0.011230	-0.035523	6949.015321	47188.153524	3902.282901	24749.287902
60.037000	-0.015291	-0.008822	-0.013333	-0.040818	6929.960457	46955.806470	3910.864395	25019.020859
60.534500	-0.010554	-0.003310	-0.018364	-0.035993	6929.120514	47025.863619	3884.560929	24773.102916
61.035000	-0.013971	-0.004023	-0.015397	-0.018901	6737.357714	45249.048414	3847.886614	23923.481597
61.535000	-0.011971	-0.006659	-0.019529	-0.079304	7350.124202	51288.973072	4001.350538	27081.797507
62.038000	-0.015461	-0.005185	-0.017428	-0.041116	6931.184305	47357.800971	3900.660796	25034.311718
62.536000	-0.018939	-0.004098	-0.023609	-0.032573	6817.635381	46599.328487	3861.922584	24600.398842
63.036000	-0.015031	-0.004068	-0.021285	-0.038312	6908.507703	47185.093553	3882.973750	24890.964861
63.536500	-0.012951	-0.000992	-0.019263	-0.033807	6885.478917	47039.243598	3876.448337	24662.545238
64.042000	-0.013343	-0.003243	-0.022327	-0.064513	7182.865524	50035.276078	3951.228620	26267.336506
64.536500	-0.013762	-0.003802	-0.021421	-0.065587	7189.523363	50091.373258	3956.770851	26325.553623
65.063500	-0.012070	-0.003691	-0.020896	-0.066098	7211.989139	50159.092684	3959.680959	26353.303088
65.537500	-0.013437	-0.003212	-0.022140	-0.059501	7131.306421	49496.433992	3937.829404	25997.555058
66.043000	-0.014412	-0.003003	-0.018541	-0.059524	7121.772072	49521.520208	3947.875756	25998.828099
66.535500	-0.012703	-0.003446	-0.019676	-0.062762	7171.593431	49823.144158	3953.742553	26172.722522
67.035500	-0.013962	-0.003098	-0.018704	-0.062362	7154.822275	49817.500990	3955.345362	26151.181330
67.536000	-0.016630	-0.004167	-0.023809	-0.059213	7096.506023	49362.964436	3932.435779	25982.149443
68.039000	-0.014161	-0.003144	-0.019771	-0.059381	7122.851993	49490.999914	3944.056468	25991.176544
68.539000	-0.013071	-0.004776	-0.018287	-0.063205	7172.357335	49727.254303	3958.882894	26196.650910
69.036500	-0.014469	-0.005100	-0.019221	-0.063048	7156.633836	49675.279991	3955.820272	26188.179631
69.537000	-0.016220	-0.004184	-0.022678	-0.056895	7077.549828	49113.438120	3929.180518	25858.568898
70.037500	-0.014811	-0.004598	-0.018648	-0.056318	7085.797136	49007.704920	3938.682915	25827.848632
70.535000	-0.013399	-0.004222	-0.013730	-0.058480	7121.452795	49278.622906	3958.407381	25942.996978
71.035000	-0.013329	-0.004632	-0.018828	-0.057413	7111.483207	49120.798847	3941.214199	25886.125910
71.535500	-0.014990	-0.004345	-0.015671	-0.050918	7030.742583	48463.254365	3932.007225	25542.794166
72.035500	-0.015066	-0.004418	-0.019255	-0.049947	7020.493441	48353.632234	3919.556110	25491.930324
72.535500	-0.012452	-0.004062	-0.016969	-0.051862	7065.025773	48592.545919	3931.032530	25592.372547
73.036500	-0.013934	-0.005093	-0.016902	-0.050965	7041.568567	48389.577506	3928.756164	25545.254193
73.536500	-0.011329	-0.004466	-0.013871	-0.049036	7048.228580	48253.205249	3931.782654	25444.299813
74.039500	-0.014698	-0.004533	-0.016391	-0.042988	6956.500454	47617.586156	3908.472921	25130.562326
74.537000	-0.012303	-0.004500	-0.017865	-0.045159	7000.723242	47845.587684	3910.349359	25242.649242
75.034500	-0.011068	-0.004561	-0.016381	-0.044259	7003.990623	47746.097639	3911.929325	25196.127868
75.535000	-0.015864	-0.004940	-0.021845	-0.037763	6895.375183	47040.068952	3880.055087	24863.010241
76.035500	-0.015714	-0.004540	-0.022246	-0.036254	6882.485704	46927.164174	3875.045467	24786.320373
76.535500	-0.012018	-0.003698	-0.014418	-0.038974	6943.665324	47290.733424	3902.988097	24924.729763
77.036000	-0.012827	-0.003499	-0.017708	-0.038148	6927.986738	47226.431137	3892.002889	24882.591557
77.536000	-0.010748	-0.002318	-0.019339	-0.036228	6929.509951	47151.028642	3882.611986	24785.022152
78.036000	-0.015620	-0.003865	-0.020343	-0.031068	6834.569387	46471.195761	3866.486592	24524.847371
78.539000	-0.010672	-0.003766	-0.016358	-0.035092	6919.373362	46887.806121	3887.479231	24727.459595
79.037000	-0.011698	-0.002836	-0.019841	-0.033663	6895.993530	46837.213057	3874.560263	24655.300470
79.537500	-0.016004	-0.003608	-0.017537	-0.028148	6803.784858	46204.164546	3866.192598	24378.995163
80.035000	-0.014650	-0.002704	-0.012682	-0.026305	6799.244221	46110.380657	3874.038617	24287.418420
80.534500	-0.011242	-0.003105	-0.017117	-0.031395	6878.820684	46580.563466	3875.750061	24541.209852
81.035000	-0.011016	-0.002734	-0.019374	-0.030713	6874.511575	46549.275790	3868.081585	24507.047586
81.537500	-0.012173	-0.001789	-0.018096	-0.028711	6844.771195	46442.894557	3866.200258	24407.006307
82.036000	-0.014386	-0.002479	-0.018728	-0.023125	6772.295765	45816.695210	3850.171845	24130.362471
82.539000	-0.011401	-0.001809	-0.013513	-0.027460	6840.286736	46315.304267	3874.883778	24344.737474
83.036500	-0.012159	-0.001721	-0.016404	-0.026882	6827.794401	46266.369253	3865.845395	24316.070401
83.537000	-0.015250	-0.002405	-0.024213	-0.021420	6748.702092	45655.434310	3831.919517	24046.617913
84.037500	-0.011728	-0.001781	-0.014670	-0.025296	6817.018961	46101.855040	3866.229487	24237.469177
84.537500	-0.012319	-0.001719	-0.017688	-0.025320	6811.744313	46110.485943	3858.484444	24238.668492
85.035000	-0.013964	-0.001847	-0.013110	-0.024072	6784.917006	45973.331693	3867.102380	24176.997638
85.538000	-0.013140	-0.001797	-0.021862	-0.019394	6749.459919	45515.684063	3832.737189	23947.518515
86.035500	-0.011175	-0.001671	-0.016196	-0.022855	6799.470067	45869.996368	3855.975847	24117.064154
86.535500	-0.013038	-0.001121	-0.022582	-0.022321	6777.299507	45871.528551	3838.310594	24090.810566
87.036000	-0.014254	-0.001435	-0.015760	-0.022141	6764.455483	45822.656306	3855.262232	24081.998655
87.536500	-0.014779	-0.001544	-0.021631	-0.016814	6711.012387	45287.454311	3826.836653	23822.039194
88.037000	-0.014919	-0.002166	-0.020179	-0.015219	6695.311023	45071.048972	3826.478125	23744.826249
88.537000	-0.014353	-0.002245	-0.016949	-0.020812	6751.350781	45611.259377	3848.805864	24016.851205
89.034500	-0.013745	-0.001311	-0.017323	-0.020203	6751.337292	45643.216711	3846.295236	23987.032369
89.534500	-0.014356	-0.001619	-0.019261	-0.014894	6697.452188	45092.646930	3827.961899	23729.090924
90.035000	-0.018396	-0.001636	-0.021107	-0.013321	6647.047266	44938.073547	3819.421890	23653.300470
90.535500	-0.012443	-0.001337	-0.017655	-0.018646	6749.002150	45487.359531	3841.485243	23911.059110
91.035500	-0.011538	-0.001369	-0.017141	-0.018492	6755.887613	45469.150037	3842.403064	23903.588193
91.538500	-0.014791	-0.001593	-0.017560	-0.012348	6670.602696	44847.937329	3825.844141	23606.514713
92.036000	-0.017407	-0.001698	-0.020291	-0.011910	6643.294052	44795.438013	3817.943279	23585.537987
92.536500	-0.013341	-0.000348	-0.016275	-0.016478	6721.023082	45371.701174	3839.490099	23805.760941
93.036500	-0.014225	-0.001578	-0.017963	-0.016939	6717.180587	45296.343101	3836.382617	23828.103932
93.537000	-0.016109	-0.000981	-0.019531	-0.010575	6642.960792	44735.687011	3816.513727	23521.611358
94.037500	-0.016691	-0.001158	-0.018749	-0.009625	6629.321885	44626.934563	3816.094640	23476.211418
94.537500	-0.013267	-0.002014	-0.014681	-0.016352	6720.552665	45196.371961	3843.214573	23799.637248
95.035000	-0.012982	-0.001478	-0.013721	-0.015407	6714.548302	45156.368622	3843.252736	23753.884555
95.552000	-0.012061	-0.000957	-0.014411	-0.014896	6718.281852	45157.472188	3840.205055	23729.231731
96.063000	-0.018121	-0.001824	-0.019059	-0.009354	6614.249886	44536.868694	3814.655844	23463.321210
96.536000	-0.014864	-0.001218	-0.017282	-0.014311	6687.611704	45074.953229	3831.471426	23701.002600
97.036000	-0.011067	-0.000418	-0.017869	-0.013710	6716.538080	45094.387213	3828.487384	23672.036277
97.537000	-0.016634	-0.001218	-0.023377	-0.008317	6618.226822	44495.422253	3801.467601	23413.918982
98.065000	-0.017039	-0.000208	-0.017855	-0.007025	6603.223105	44468.265283	3811.871586	23352.546049
98.537500	-0.011920	-0.000789	-0.017328	-0.012900	6701.458027	44979.511858	3827.810969	23633.067696
