sample name	sample
index	800
start time	 03-31-2021  02:46:05 PM


Wavelength (nm)	Absorbance
494.344910	NaN
494.563924	NaN
494.782919	NaN
495.001897	-1.140393
495.220856	NaN
495.439797	NaN
495.658719	NaN
495.877624	NaN
496.096510	NaN
496.315378	NaN
496.534227	0.102793
496.753059	-0.152236
496.971872	-0.165017
497.190667	-0.003450
497.409444	0.009572
497.628203	0.012033
497.846943	0.013109
498.065665	0.013163
498.284369	0.014420
498.503055	0.014503
498.721723	0.014352
498.940372	0.014453
499.159003	0.014714
499.377616	0.014880
499.596210	0.015401
499.814787	0.015350
500.033345	0.015750
500.251885	0.015845
500.470406	0.016064
500.688910	0.016395
500.907395	0.017276
501.125862	0.017239
501.344311	0.016658
501.562742	0.016947
501.781154	0.017580
501.999548	0.016742
502.217924	0.015991
502.436282	0.015875
502.654621	0.015663
502.872942	0.015029
503.091245	0.014111
503.309530	0.014116
503.527797	0.012870
503.746045	0.012656
503.964275	0.013060
504.182487	0.014079
504.400681	0.014595
504.618856	0.015373
504.837013	0.014234
505.055152	0.014916
505.273273	0.014916
505.491376	0.015972
505.709460	0.015606
505.927526	0.015242
506.145574	0.014138
506.363604	0.013445
506.581615	0.012914
506.799608	0.014457
507.017583	0.014293
507.235540	0.014004
507.453478	0.013288
507.671399	0.013125
507.889301	0.013840
508.107185	0.013596
508.325050	0.013918
508.542898	0.013774
508.760727	0.013410
508.978538	0.013131
509.196330	0.014145
509.414105	0.014145
509.631861	0.014837
509.849599	0.013670
510.067319	0.014747
510.285021	0.014815
510.502704	0.015220
510.720369	0.015032
510.938016	0.015400
511.155645	0.014617
511.373255	0.014712
511.590848	0.014249
511.808422	0.014863
512.025977	0.014402
512.243515	0.013999
512.461034	0.013305
512.678536	0.013579
512.896018	0.014413
513.113483	0.014698
513.330930	0.015486
513.548358	0.015600
513.765768	0.015547
513.983160	0.016069
514.200533	0.016418
514.417889	0.017091
514.635226	0.017407
514.852545	0.017327
515.069845	0.017359
515.287128	0.017467
515.504392	0.017188
515.721638	0.017885
515.938866	0.017299
516.156075	0.017418
516.373267	0.017115
516.590440	0.016823
516.807594	0.016248
517.024731	0.015578
517.241850	0.015520
517.458950	0.015834
517.676032	0.015599
517.893095	0.016879
518.110141	0.016413
518.327168	0.016767
518.544177	0.016317
518.761168	0.016689
518.978141	0.018236
519.195095	0.018135
519.412031	0.018587
519.628949	0.018051
519.845849	0.017257
520.062731	0.017212
520.279594	0.017397
520.496439	0.018119
520.713266	0.018298
520.930074	0.016730
521.146865	0.016912
521.363637	0.016668
521.580391	0.016611
521.797127	0.016633
522.013844	0.017240
522.230543	0.016721
522.447224	0.016593
522.663887	0.016034
522.880532	0.017146
523.097158	0.016924
523.313766	0.016578
523.530356	0.017243
523.746928	0.017312
523.963481	0.017880
524.180017	0.018673
524.396534	0.018784
524.613032	0.019031
524.829513	0.018942
525.045975	0.019259
525.262420	0.020408
525.478845	0.020508
525.695253	0.019883
525.911643	0.019153
526.128014	0.018931
526.344367	0.018716
526.560702	0.019116
526.777018	0.018804
526.993316	0.018290
527.209597	0.017387
527.425858	0.017460
527.642102	0.018397
527.858328	0.018821
528.074535	0.018701
528.290724	0.019082
528.506894	0.018968
528.723047	0.019129
528.939181	0.019714
529.155297	0.019980
529.371395	0.019692
529.587475	0.019514
529.803536	0.019290
530.019579	0.019335
530.235604	0.019509
530.451611	0.019820
530.667600	0.020333
530.883570	0.020472
531.099522	0.020535
531.315456	0.020922
531.531372	0.020876
531.747269	0.020783
531.963148	0.021002
532.179009	0.020974
532.394852	0.020424
532.610676	0.020232
532.826482	0.019882
533.042271	0.020084
533.258040	0.020321
533.473792	0.020738
533.689525	0.021152
533.905240	0.021663
534.120937	0.021403
534.336616	0.022319
534.552277	0.022559
534.767919	0.022505
534.983543	0.023197
535.199149	0.022610
535.414736	0.022769
535.630306	0.022818
535.845857	0.022671
536.061390	0.023251
536.276904	0.022682
536.492401	0.022339
536.707879	0.023234
536.923339	0.023287
537.138781	0.023478
537.354204	0.023402
537.569610	0.023588
537.784997	0.023541
538.000366	0.023636
538.215716	0.024020
538.431049	0.024402
538.646363	0.023825
538.861659	0.023206
539.076937	0.023480
539.292196	0.023319
539.507438	0.023405
539.722661	0.023215
539.937866	0.023096
540.153052	0.023018
540.368221	0.023183
540.583371	0.023633
540.798503	0.023828
541.013617	0.023993
541.228712	0.024765
541.443789	0.024651
541.658848	0.025125
541.873889	0.025179
542.088912	0.025273
542.303916	0.025500
542.518902	0.025637
542.733870	0.025880
542.948820	0.026171
543.163752	0.026071
543.378665	0.026391
543.593560	0.026282
543.808437	0.026638
544.023295	0.026898
544.238136	0.026636
544.452958	0.026442
544.667762	0.026298
544.882548	0.026787
545.097315	0.026489
545.312064	0.026627
545.526795	0.026594
545.741508	0.026299
545.956203	0.026100
546.170879	0.025898
546.385537	0.025884
546.600177	0.026077
546.814799	0.025475
547.029402	0.025563
547.243988	0.025247
547.458555	0.025537
547.673103	0.025683
547.887634	0.025887
548.102146	0.026437
548.316640	0.026613
548.531116	0.026385
548.745574	0.026641
548.960013	0.026840
549.174435	0.027206
549.388838	0.027037
549.603222	0.027254
549.817589	0.027124
550.031937	0.027198
550.246267	0.027367
550.460579	0.027783
550.674873	0.027804
550.889148	0.027660
551.103405	0.027827
551.317644	0.027925
551.531865	0.027893
551.746068	0.028357
551.960252	0.028385
552.174418	0.028253
552.388566	0.028496
552.602696	0.028770
552.816807	0.028983
553.030900	0.028628
553.244975	0.028839
553.459032	0.029000
553.673070	0.028559
553.887091	0.028666
554.101093	0.028825
554.315077	0.028463
554.529042	0.028244
554.742990	0.028461
554.956919	0.028877
555.170830	0.029195
555.384722	0.029196
555.598597	0.029469
555.812453	0.029190
556.026291	0.029230
556.240111	0.029623
556.453913	0.029749
556.667696	0.029740
556.881461	0.029743
557.095208	0.029474
557.308937	0.029608
557.522647	0.029778
557.736339	0.030278
557.950013	0.030366
558.163669	0.030486
558.377307	0.030605
558.590926	0.030610
558.804527	0.030632
559.018110	0.030949
559.231675	0.030733
559.445221	0.030719
559.658749	0.030470
559.872259	0.030982
560.085751	0.031018
560.299225	0.031517
560.512680	0.031643
560.726117	0.031738
560.939536	0.031486
561.152937	0.031633
561.366319	0.031511
561.579683	0.031528
561.793029	0.031046
562.006357	0.030858
562.219667	0.030617
562.432958	0.030768
562.646231	0.030482
562.859486	0.030791
563.072723	0.030894
563.285941	0.031253
563.499141	0.031438
563.712323	0.031479
563.925487	0.031211
564.138632	0.031066
564.351760	0.030499
564.564869	0.031019
564.777960	0.031323
564.991032	0.031536
565.204087	0.031282
565.417123	0.031268
565.630141	0.031520
565.843140	0.032155
566.056122	0.032271
566.269085	0.032675
566.482030	0.032429
566.694957	0.032021
566.907866	0.032164
567.120756	0.032321
567.333628	0.032086
567.546482	0.032120
567.759318	0.031746
567.972135	0.031704
568.184935	0.031815
568.397716	0.032023
568.610478	0.032118
568.823223	0.031959
569.035949	0.032426
569.248657	0.032736
569.461347	0.032805
569.674019	0.033090
569.886672	0.032957
570.099308	0.033016
570.311925	0.032873
570.524523	0.033171
570.737104	0.033330
570.949666	0.032592
571.162210	0.032588
571.374736	0.032356
571.587244	0.032810
571.799733	0.032589
572.012205	0.032909
572.224658	0.032901
572.437092	0.032899
572.649509	0.032679
572.861907	0.033349
573.074287	0.033654
573.286649	0.033850
573.498993	0.033726
573.711318	0.034499
573.923625	0.034385
574.135914	0.034384
574.348185	0.034396
574.560438	0.034524
574.772672	0.034390
574.984888	0.034180
575.197086	0.034400
575.409266	0.034326
575.621427	0.034150
575.833570	0.034279
576.045695	0.034696
576.257802	0.034607
576.469890	0.034631
576.681961	0.034727
576.894013	0.034519
577.106046	0.034462
577.318062	0.034469
577.530059	0.034397
577.742039	0.034173
577.954000	0.034337
578.165942	0.034328
578.377867	0.034258
578.589773	0.034326
578.801661	0.034721
579.013531	0.034662
579.225382	0.034833
579.437216	0.034693
579.649031	0.034632
579.860828	0.034467
580.072606	0.034587
580.284367	0.034764
580.496109	0.034829
580.707833	0.035019
580.919539	0.035211
581.131227	0.034900
581.342896	0.035246
581.554547	0.035422
581.766180	0.035450
581.977795	0.035558
582.189391	0.035632
582.400969	0.035669
582.612529	0.035949
582.824071	0.035791
583.035595	0.035832
583.247100	0.036007
583.458587	0.035903
583.670056	0.036196
583.881506	0.036154
584.092939	0.036127
584.304353	0.036210
584.515749	0.035855
584.727127	0.035606
584.938486	0.035733
585.149828	0.035701
585.361151	0.035922
585.572456	0.035683
585.783742	0.035713
585.995011	0.035546
586.206261	0.035393
586.417493	0.035335
586.628706	0.035551
586.839902	0.035579
587.051079	0.035427
587.262238	0.035268
587.473379	0.035178
587.684502	0.035127
587.895606	0.035461
588.106692	0.035552
588.317760	0.035936
588.528810	0.035949
588.739841	0.035925
588.950855	0.036007
589.161850	0.036536
589.372827	0.037148
589.583785	0.037024
589.794726	0.037063
590.005648	0.037310
590.216552	0.037324
590.427437	0.037639
590.638305	0.037789
590.849154	0.037962
591.059985	0.037759
591.270798	0.037312
591.481592	0.037821
591.692369	0.037511
591.903127	0.037675
592.113867	0.037579
592.324588	0.037545
592.535292	0.037755
592.745977	0.038009
592.956644	0.038093
593.167293	0.038292
593.377923	0.038382
593.588536	0.038656
593.799130	0.038443
594.009706	0.038108
594.220263	0.038281
594.430803	0.038244
594.641324	0.037993
594.851827	0.037980
595.062312	0.037889
595.272778	0.038003
595.483227	0.038172
595.693657	0.038132
595.904069	0.038291
596.114462	0.037922
596.324838	0.037957
596.535195	0.038071
596.745534	0.038131
596.955855	0.038293
597.166157	0.037917
597.376441	0.037838
597.586707	0.038364
597.796955	0.038826
598.007185	0.039335
598.217396	0.039180
598.427589	0.039346
598.637764	0.039186
598.847921	0.039160
599.058060	0.039223
599.268180	0.039349
599.478282	0.039150
599.688366	0.038980
599.898431	0.038983
600.108479	0.039096
600.318508	0.039033
600.528519	0.039307
600.738511	0.039452
600.948486	0.039746
601.158442	0.039940
601.368380	0.039901
601.578300	0.040063
601.788202	0.039966
601.998085	0.039926
602.207950	0.039733
602.417797	0.039526
602.627626	0.039316
602.837436	0.039438
603.047228	0.039313
603.257002	0.039135
603.466758	0.038957
603.676496	0.039258
603.886215	0.039364
604.095916	0.039377
604.305599	0.039519
604.515264	0.039690
604.724910	0.039123
604.934538	0.039208
605.144148	0.039460
605.353740	0.039661
605.563314	0.039671
605.772869	0.039734
605.982406	0.039777
606.191925	0.040041
606.401425	0.040031
606.610908	0.040524
606.820372	0.040591
607.029818	0.040701
607.239246	0.040764
607.448655	0.040323
607.658047	0.040587
607.867420	0.040487
608.076775	0.040047
608.286111	0.040045
608.495430	0.039824
608.704730	0.039839
608.914012	0.039722
609.123275	0.039583
609.332521	0.039940
609.541748	0.039914
609.750957	0.040418
609.960148	0.040843
610.169321	0.041013
610.378475	0.041144
610.587611	0.040996
610.796729	0.040926
611.005829	0.040943
611.214910	0.041114
611.423974	0.041281
611.633019	0.041214
611.842045	0.041354
612.051054	0.041237
612.260044	0.041471
612.469017	0.042014
612.677970	0.042113
612.886906	0.042426
613.095824	0.042392
613.304723	0.042165
613.513604	0.042149
613.722467	0.042002
613.931311	0.042314
614.140138	0.042318
614.348946	0.042008
614.557736	0.042132
614.766507	0.042050
614.975261	0.042006
615.183996	0.042030
615.392713	0.042262
615.601412	0.042604
615.810092	0.042326
616.018754	0.042247
616.227399	0.042177
616.436024	0.042420
616.644632	0.042477
616.853222	0.042578
617.061793	0.042718
617.270346	0.042603
617.478880	0.042431
617.687397	0.042760
617.895895	0.043068
618.104375	0.043438
618.312837	0.043547
618.521281	0.043548
618.729706	0.043554
618.938113	0.043785
619.146502	0.043930
619.354873	0.043897
619.563226	0.043824
619.771560	0.043706
619.979876	0.043464
620.188174	0.043172
620.396453	0.043362
620.604715	0.043553
620.812958	0.043372
621.021183	0.043428
621.229390	0.043620
621.437578	0.043781
621.645748	0.043939
621.853900	0.044246
622.062034	0.044551
622.270150	0.044492
622.478247	0.044326
622.686326	0.044489
622.894387	0.044542
623.102430	0.044210
623.310454	0.044162
623.518461	0.044216
623.726449	0.044167
623.934418	0.044245
624.142370	0.044091
624.350303	0.044323
624.558218	0.044337
624.766115	0.044283
624.973994	0.044610
625.181855	0.044730
625.389697	0.044654
625.597521	0.044837
625.805327	0.044775
626.013114	0.044968
626.220883	0.044734
626.428634	0.044785
626.636367	0.044932
626.844082	0.044979
627.051778	0.045028
627.259457	0.045202
627.467117	0.045016
627.674758	0.045141
627.882382	0.045216
628.089987	0.045365
628.297574	0.045516
628.505143	0.045408
628.712694	0.045600
628.920226	0.045490
629.127740	0.045233
629.335236	0.045369
629.542714	0.045335
629.750174	0.045427
629.957615	0.045561
630.165038	0.045696
630.372443	0.045897
630.579829	0.045820
630.787198	0.045915
630.994548	0.046183
631.201880	0.046251
631.409194	0.046195
631.616489	0.046202
631.823766	0.046326
632.031025	0.046341
632.238266	0.046410
632.445489	0.046640
632.652693	0.046759
632.859879	0.046593
633.067047	0.046669
633.274197	0.046830
633.481329	0.046789
633.688442	0.046856
633.895537	0.046630
634.102614	0.046666
634.309672	0.046570
634.516713	0.046758
634.723735	0.046972
634.930739	0.046910
635.137724	0.046828
635.344692	0.047122
635.551641	0.047048
635.758572	0.047209
635.965485	0.047257
636.172379	0.047308
636.379256	0.047118
636.586114	0.047142
636.792954	0.047251
636.999775	0.047534
637.206579	0.047606
637.413364	0.047659
637.620131	0.047651
637.826880	0.047461
638.033610	0.047479
638.240323	0.047724
638.447017	0.047682
638.653692	0.047660
638.860350	0.047505
639.066990	0.047508
639.273611	0.047392
639.480214	0.047232
639.686798	0.047313
639.893365	0.047486
640.099913	0.047327
640.306443	0.047633
640.512955	0.047771
640.719449	0.047756
640.925924	0.047717
641.132381	0.048102
641.338820	0.048482
641.545241	0.048548
641.751644	0.048534
641.958028	0.048945
642.164394	0.048955
642.370742	0.048955
642.577071	0.049182
642.783383	0.049309
642.989676	0.049374
643.195951	0.049441
643.402207	0.049726
643.608446	0.049637
643.814666	0.049524
644.020868	0.049516
644.227052	0.049680
644.433218	0.049707
644.639365	0.049630
644.845494	0.049818
645.051605	0.049819
645.257698	0.049655
645.463772	0.049786
645.669828	0.049847
645.875866	0.049878
646.081886	0.049870
646.287888	0.049757
646.493871	0.049925
646.699836	0.049952
646.905783	0.050022
647.111712	0.050198
647.317622	0.050397
647.523514	0.050453
647.729388	0.050648
647.935244	0.050622
648.141082	0.050943
648.346901	0.050951
648.552702	0.050794
648.758485	0.050921
648.964250	0.051097
649.169996	0.051070
649.375724	0.051088
649.581434	0.050978
649.787126	0.051297
649.992800	0.051275
650.198455	0.051460
650.404092	0.051714
650.609711	0.051662
650.815311	0.051478
651.020894	0.051582
651.226458	0.051624
651.432004	0.051753
651.637532	0.051662
651.843041	0.051623
652.048532	0.051422
652.254006	0.051431
652.459460	0.051519
652.664897	0.051695
652.870315	0.051732
653.075716	0.051697
653.281097	0.051639
653.486461	0.051624
653.691807	0.051614
653.897134	0.051869
654.102443	0.051745
654.307734	0.051835
654.513006	0.051944
654.718261	0.052211
654.923497	0.052561
655.128715	0.052820
655.333915	0.053061
655.539096	0.053246
655.744259	0.053351
655.949404	0.053613
656.154531	0.053776
656.359640	0.053833
656.564730	0.053830
656.769802	0.053651
656.974856	0.053761
657.179892	0.053908
657.384909	0.054092
657.589908	0.053944
657.794889	0.053736
657.999852	0.053858
658.204797	0.054190
658.409723	0.054249
658.614631	0.054515
658.819521	0.054740
659.024393	0.054734
659.229246	0.054786
659.434081	0.054835
659.638898	0.054833
659.843697	0.054622
660.048478	0.054322
660.253240	0.054323
660.457984	0.054277
660.662710	0.054125
660.867417	0.054218
661.072107	0.054175
661.276778	0.054239
661.481431	0.054619
661.686066	0.054925
661.890682	0.055037
662.095281	0.055122
662.299861	0.055032
662.504422	0.055165
662.708966	0.055076
662.913491	0.055150
663.117999	0.055539
663.322488	0.055509
663.526958	0.055402
663.731411	0.055485
663.935845	0.055556
664.140261	0.055713
664.344659	0.055702
664.549038	0.055642
664.753400	0.055693
664.957743	0.055639
665.162068	0.055859
665.366375	0.055894
665.570663	0.055810
665.774933	0.055970
665.979185	0.056161
666.183419	0.056186
666.387635	0.056257
666.591832	0.056513
666.796011	0.056596
667.000172	0.056471
667.204315	0.056749
667.408439	0.056818
667.612545	0.056574
667.816634	0.056566
668.020703	0.056659
668.224755	0.056800
668.428788	0.056742
668.632803	0.056829
668.836800	0.056880
669.040779	0.056829
669.244739	0.057110
669.448681	0.057294
669.652605	0.057366
669.856511	0.057352
670.060399	0.057561
670.264268	0.057595
670.468119	0.057515
670.671952	0.057660
670.875767	0.057624
671.079563	0.057709
671.283341	0.057796
671.487101	0.057860
671.690843	0.058035
671.894567	0.058069
672.098272	0.058216
672.301959	0.058461
672.505628	0.058473
672.709278	0.058535
672.912911	0.058578
673.116525	0.058635
673.320121	0.058732
673.523699	0.058742
673.727258	0.058776
673.930799	0.058792
674.134322	0.058776
674.337827	0.058854
674.541314	0.058841
674.744782	0.058720
674.948232	0.058621
675.151664	0.058670
675.355078	0.058751
675.558474	0.058816
675.761851	0.058741
675.965210	0.058767
676.168551	0.058746
676.371873	0.058977
676.575178	0.059279
676.778464	0.059465
676.981732	0.059688
677.184981	0.059608
677.388213	0.059759
677.591426	0.060069
677.794621	0.060102
677.997798	0.060347
678.200956	0.060467
678.404097	0.060553
678.607219	0.060648
678.810323	0.060658
679.013408	0.060941
679.216476	0.061027
679.419525	0.060813
679.622556	0.060905
679.825569	0.060839
680.028563	0.060955
680.231540	0.060806
680.434498	0.060833
680.637438	0.060795
680.840359	0.060856
681.043263	0.060800
681.246148	0.060871
681.449015	0.060981
681.651864	0.061125
681.854694	0.061112
682.057506	0.061299
682.260301	0.061507
682.463076	0.061636
682.665834	0.061791
682.868573	0.061908
683.071295	0.062096
683.273998	0.062109
683.476682	0.062209
683.679349	0.062446
683.881997	0.062452
684.084627	0.062447
684.287239	0.062342
684.489833	0.062386
684.692408	0.062451
684.894965	0.062697
685.097504	0.062799
685.300025	0.062795
685.502527	0.062661
685.705012	0.062869
685.907478	0.062879
686.109925	0.062903
686.312355	0.062824
686.514766	0.062832
686.717159	0.062755
686.919534	0.062887
687.121891	0.062988
687.324230	0.062904
687.526550	0.062946
687.728852	0.062940
687.931136	0.063212
688.133401	0.063476
688.335649	0.063615
688.537878	0.063849
688.740089	0.063966
688.942281	0.064306
689.144456	0.064644
689.346612	0.064705
689.548750	0.064823
689.750870	0.064877
689.952971	0.064847
690.155055	0.064881
690.357120	0.064740
690.559167	0.064633
690.761195	0.064391
690.963206	0.064274
691.165198	0.063968
691.367172	0.063877
691.569128	0.064040
691.771065	0.064108
691.972984	0.064203
692.174885	0.064375
692.376768	0.064418
692.578633	0.064562
692.780479	0.064634
692.982308	0.064955
693.184118	0.065011
693.385909	0.064874
693.587683	0.064580
693.789438	0.064536
693.991175	0.064578
694.192894	0.064769
694.394595	0.064772
694.596277	0.064777
694.797941	0.064930
694.999587	0.065220
695.201215	0.065098
695.402824	0.065402
695.604416	0.065460
695.805989	0.065437
696.007543	0.065275
696.209080	0.065222
696.410598	0.065203
696.612099	0.065093
696.813580	0.065102
697.015044	0.065319
697.216490	0.065350
697.417917	0.065364
697.619326	0.065509
697.820717	0.065690
698.022089	0.065719
698.223444	0.065890
698.424780	0.066091
698.626098	0.065998
698.827397	0.066030
699.028679	0.065926
699.229942	0.065966
699.431187	0.065871
699.632414	0.066017
699.833622	0.066046
700.034813	0.066215
700.235985	0.066277
700.437139	0.066484
700.638274	0.066619
700.839392	0.066891
701.040491	0.066813
701.241572	0.067083
701.442635	0.067000
701.643679	0.067243
701.844706	0.067233
702.045714	0.067225
702.246704	0.067273
702.447675	0.067406
702.648629	0.067428
702.849564	0.067799
703.050481	0.067652
703.251380	0.067493
703.452260	0.067478
703.653122	0.067455
703.853966	0.067436
704.054792	0.067357
704.255600	0.067237
704.456389	0.067192
704.657160	0.067110
704.857913	0.067036
705.058648	0.067329
705.259365	0.067319
705.460063	0.067364
705.660743	0.067599
705.861405	0.067666
706.062048	0.067780
706.262674	0.067672
706.463281	0.067417
706.663870	0.067606
706.864441	0.067681
707.064993	0.067707
707.265527	0.067529
707.466043	0.067194
707.666541	0.067131
707.867021	0.066932
708.067482	0.066994
708.267925	0.067150
708.468350	0.067083
708.668757	0.067063
708.869145	0.066995
709.069516	0.067299
709.269868	0.067320
709.470201	0.067476
709.670517	0.067845
709.870814	0.067923
710.071093	0.068135
710.271354	0.068155
710.471597	0.068110
710.671821	0.068274
710.872028	0.068111
711.072216	0.068280
711.272385	0.068317
711.472537	0.068131
711.672670	0.068098
711.872785	0.068129
712.072882	0.067900
712.272961	0.067666
712.473021	0.067378
712.673063	0.067381
712.873087	0.067424
713.073093	0.067365
713.273081	0.067185
713.473050	0.067356
713.673001	0.067063
713.872934	0.067178
714.072849	0.067331
714.272745	0.067297
714.472623	0.067324
714.672483	0.067104
714.872325	0.066859
715.072148	0.066912
715.271954	0.066403
715.471741	0.066371
715.671509	0.066289
715.871260	0.066287
716.070992	0.066399
716.270707	0.066064
716.470403	0.066069
716.670080	0.066227
716.869740	0.066186
717.069381	0.066520
717.269004	0.066512
717.468609	0.066555
717.668195	0.066428
717.867764	0.066357
718.067314	0.066511
718.266846	0.066451
718.466360	0.066480
718.665855	0.066391
718.865332	0.066279
719.064791	0.066260
719.264232	0.066194
719.463655	0.066105
719.663059	0.065994
719.862445	0.066121
720.061813	0.066065
720.261163	0.065887
720.460494	0.065905
720.659807	0.065818
720.859102	0.065797
721.058379	0.065690
721.257638	0.065765
721.456878	0.065826
721.656100	0.065615
721.855304	0.065606
722.054490	0.065545
722.253657	0.065404
722.452806	0.065346
722.651937	0.065337
722.851050	0.065566
723.050145	0.065594
723.249221	0.065415
723.448279	0.065477
723.647319	0.065451
723.846340	0.065662
724.045344	0.065722
724.244329	0.065810
724.443296	0.065866
724.642245	0.065606
724.841175	0.065426
725.040088	0.065403
725.238982	0.065274
725.437857	0.065211
725.636715	0.064837
725.835554	0.064685
726.034376	0.064497
726.233179	0.064352
726.431963	0.064378
726.630730	0.064395
726.829478	0.064623
727.028208	0.064485
727.226920	0.064438
727.425614	0.064404
727.624289	0.064306
727.822946	0.064278
728.021585	0.064246
728.220206	0.064032
728.418808	0.063683
728.617392	0.063384
728.815958	0.063618
729.014506	0.063614
729.213036	0.063569
729.411547	0.063538
729.610040	0.063399
729.808515	0.063316
730.006972	0.063298
730.205410	0.063413
730.403831	0.063379
730.602233	0.063165
730.800616	0.063005
730.998982	0.062877
731.197329	0.063101
731.395658	0.063123
731.593969	0.063141
731.792262	0.063194
731.990536	0.063208
732.188793	0.063099
732.387031	0.063202
732.585250	0.063258
732.783452	0.063299
732.981635	0.063212
733.179800	0.063237
733.377947	0.063061
733.576076	0.062944
733.774186	0.062905
733.972278	0.062745
734.170352	0.062554
734.368408	0.062633
734.566446	0.062747
734.764465	0.062636
734.962466	0.062592
735.160449	0.062485
735.358413	0.062242
735.556360	0.062166
735.754288	0.062229
735.952198	0.062082
736.150090	0.061710
736.347963	0.061457
736.545818	0.061169
736.743655	0.061004
736.941474	0.061016
737.139275	0.061000
737.337057	0.060920
737.534821	0.060904
737.732567	0.060654
737.930295	0.060498
738.128005	0.060430
738.325696	0.060637
738.523369	0.060623
738.721024	0.060544
738.918660	0.060456
739.116279	0.060483
739.313879	0.060339
739.511461	0.060366
739.709024	0.060283
739.906570	0.060205
740.104097	0.060027
740.301606	0.059985
740.499097	0.059898
740.696569	0.059971
740.894024	0.059769
741.091460	0.059796
741.288878	0.059888
741.486277	0.060016
741.683659	0.059998
741.881022	0.059963
742.078367	0.060007
742.275694	0.060042
742.473002	0.060090
742.670293	0.060216
742.867565	0.060086
743.064819	0.059889
743.262054	0.059866
743.459272	0.059821
743.656471	0.059657
743.853652	0.059324
744.050815	0.059254
744.247959	0.059098
744.445085	0.059043
744.642194	0.058950
744.839283	0.058954
745.036355	0.058830
745.233408	0.058533
745.430444	0.058334
745.627461	0.058268
745.824459	0.058211
746.021440	0.058211
746.218402	0.057929
746.415346	0.058007
746.612272	0.058022
746.809180	0.057955
747.006069	0.058193
747.202940	0.058356
747.399793	0.058449
747.596628	0.058387
747.793444	0.058269
747.990243	0.058270
748.187023	0.058048
748.383784	0.057844
748.580528	0.057582
748.777253	0.057445
748.973960	0.057294
749.170649	0.057090
749.367320	0.056895
749.563973	0.056882
749.760607	0.056779
749.957223	0.056966
750.153821	0.057060
750.350400	0.057263
750.546962	0.057037
750.743505	0.056847
750.940030	0.056966
751.136536	0.056977
751.333025	0.056967
751.529495	0.057044
751.725947	0.056927
751.922381	0.056637
752.118796	0.056505
752.315194	0.056551
752.511573	0.056542
752.707934	0.056412
752.904276	0.056367
753.100601	0.056187
753.296907	0.055895
753.493195	0.055814
753.689465	0.055953
753.885716	0.056075
754.081949	0.056134
754.278164	0.056046
754.474361	0.055871
754.670540	0.055760
754.866700	0.055712
755.062843	0.055983
755.258967	0.055827
755.455072	0.055860
755.651160	0.055837
755.847229	0.055853
756.043280	0.055928
756.239313	0.056065
756.435328	0.056033
756.631324	0.056026
756.827302	0.056114
757.023262	0.056190
757.219204	0.056013
757.415127	0.055907
757.611033	0.055889
757.806920	0.055766
758.002788	0.055776
758.198639	0.055762
758.394471	0.055731
758.590286	0.055440
758.786081	0.055219
758.981859	0.055152
759.177619	0.054964
759.373360	0.054783
759.569083	0.054497
759.764788	0.054167
759.960474	0.053896
760.156143	0.053770
760.351793	0.053504
760.547425	0.053464
760.743038	0.053369
760.938634	0.053221
761.134211	0.053101
761.329770	0.053452
761.525311	0.053427
761.720833	0.053486
761.916338	0.053539
762.111824	0.053471
762.307292	0.053534
762.502741	0.053590
762.698173	0.053795
762.893586	0.053650
763.088981	0.053481
763.284358	0.053417
763.479716	0.053168
763.675057	0.052954
763.870379	0.053060
764.065683	0.052982
764.260968	0.052862
764.456236	0.052531
764.651485	0.052595
764.846716	0.052402
765.041929	0.052357
765.237123	0.052575
765.432299	0.052587
765.627457	0.052290
765.822597	0.052201
766.017719	0.052102
766.212822	0.052058
766.407907	0.052079
766.602974	0.052108
766.798023	0.052024
766.993054	0.051995
767.188066	0.051952
767.383060	0.052196
767.578036	0.052110
767.772993	0.052036
767.967933	0.052002
768.162854	0.051832
768.357757	0.051851
768.552642	0.052037
768.747508	0.051836
768.942356	0.051543
769.137186	0.051395
769.331998	0.051556
769.526792	0.051377
769.721567	0.051120
769.916324	0.051054
770.111063	0.051000
770.305784	0.050758
770.500486	0.050623
770.695171	0.050925
770.889837	0.050664
771.084484	0.050576
771.279114	0.050786
771.473725	0.050909
771.668318	0.050842
771.862893	0.050564
772.057450	0.050548
772.251988	0.050755
772.446509	0.050647
772.641011	0.050710
772.835494	0.050424
773.029960	0.050100
773.224407	0.050245
773.418836	0.050312
773.613247	0.050299
773.807640	0.050450
774.002014	0.050250
774.196370	0.050107
774.390708	0.050185
774.585028	0.050352
774.779330	0.050460
774.973613	0.050420
775.167878	0.050284
775.362125	0.050570
775.556354	0.050309
775.750564	0.050224
775.944756	0.050277
776.138930	0.050335
776.333086	0.050374
776.527223	0.050597
776.721343	0.050413
776.915444	0.050205
777.109526	0.050009
777.303591	0.049990
777.497637	0.050040
777.691666	0.049896
777.885676	0.049812
778.079667	0.049736
778.273641	0.049801
778.467596	0.050017
778.661533	0.050423
778.855452	0.050431
779.049352	0.050527
779.243235	0.050756
779.437099	0.050836
779.630945	0.050957
779.824773	0.050996
780.018582	0.050713
780.212373	0.050631
780.406146	0.050567
780.599901	0.050685
780.793638	0.050568
780.987356	0.050495
781.181056	0.050696
781.374738	0.050572
781.568402	0.050524
781.762047	0.050662
781.955674	0.050649
782.149283	0.050606
782.342874	0.050439
782.536447	0.050823
782.730001	0.050814
782.923537	0.050576
783.117055	0.050458
783.310555	0.050361
783.504036	0.050369
783.697499	0.050258
783.890944	0.050142
784.084371	0.050315
784.277780	0.050098
784.471170	0.050125
784.664542	0.050278
784.857896	0.050377
785.051231	0.050370
785.244549	0.050250
785.437848	0.050492
785.631129	0.050676
785.824392	0.050568
786.017636	0.050596
786.210863	0.050464
786.404071	0.050412
786.597260	0.050377
786.790432	0.050466
786.983585	0.050418
787.176721	0.050313
787.369838	0.050152
787.562936	0.050256
787.756017	0.050136
787.949079	0.050142
788.142123	0.050132
788.335149	0.050183
788.528156	0.050110
788.721146	0.050150
788.914117	0.050211
789.107070	0.050562
789.300005	0.050439
789.492921	0.050498
789.685819	0.050606
789.878699	0.050758
790.071561	0.050916
790.264405	0.050990
790.457230	0.051028
790.650037	0.051086
790.842826	0.050844
791.035597	0.050966
791.228349	0.051180
791.421084	0.051199
791.613800	0.051190
791.806497	0.051285
791.999177	0.051218
792.191838	0.051401
792.384481	0.051307
792.577106	0.051392
792.769713	0.051644
792.962301	0.051493
793.154871	0.051475
793.347423	0.051430
793.539957	0.051240
793.732473	0.051345
793.924970	0.051307
794.117449	0.051614
794.309910	0.051597
794.502353	0.051569
794.694777	0.051526
794.887183	0.051661
795.079571	0.051755
795.271941	0.051985
795.464293	0.052014
795.656626	0.052146
795.848941	0.051954
796.041238	0.052060
796.233516	0.051816
796.425777	0.051965
796.618019	0.052070
796.810243	0.052084
797.002449	0.052087
797.194636	0.051958
797.386805	0.051875
797.578956	0.052068
797.771089	0.052121
797.963204	0.052471
798.155300	0.052610
798.347378	0.052547
798.539438	0.052621
798.731480	0.052360
798.923503	0.052782
799.115509	0.052941
799.307496	0.052703
799.499465	0.052808
799.691415	0.052892
799.883348	0.052987
800.075262	0.053011
800.267158	0.053282
800.459035	0.053545
800.650895	0.053555
800.842736	0.053714
801.034559	0.054304
801.226364	0.054313
801.418150	0.054118
801.609919	0.054260
801.801669	0.054616
801.993401	0.054504
802.185114	0.054669
802.376810	0.054865
802.568487	0.055064
802.760146	0.055042
802.951787	0.055088
803.143409	0.055371
803.335014	0.055340
803.526600	0.055350
803.718168	0.055423
803.909717	0.055564
804.101249	0.055479
804.292762	0.055265
804.484257	0.055144
804.675734	0.055239
804.867192	0.055131
805.058632	0.055217
805.250054	0.055077
805.441458	0.055085
805.632844	0.054902
805.824211	0.054739
806.015561	0.054749
806.206891	0.054688
806.398204	0.054791
806.589499	0.054994
806.780775	0.054917
806.972033	0.055167
807.163273	0.055166
807.354495	0.055451
807.545698	0.055523
807.736883	0.055612
807.928050	0.055896
808.119199	0.055867
808.310329	0.056197
808.501441	0.056290
808.692535	0.056427
808.883611	0.056758
809.074669	0.056812
809.265708	0.057207
809.456729	0.057348
809.647732	0.057219
809.838717	0.057411
810.029683	0.057368
810.220632	0.057645
810.411562	0.057615
810.602474	0.057684
810.793367	0.057676
810.984242	0.057602
811.175100	0.057965
811.365938	0.058409
811.556759	0.058405
811.747562	0.058409
811.938346	0.058581
812.129112	0.058677
812.319860	0.058595
812.510589	0.058760
812.701300	0.058960
812.891994	0.058901
813.082668	0.058769
813.273325	0.058855
813.463964	0.058793
813.654584	0.058716
813.845186	0.058794
814.035769	0.059069
814.226335	0.059137
814.416882	0.059261
814.607411	0.059269
814.797922	0.059431
814.988415	0.059641
815.178889	0.059920
815.369345	0.060003
815.559783	0.060065
815.750203	0.059983
815.940605	0.060148
816.130988	0.060398
816.321353	0.060639
816.511700	0.060822
816.702028	0.060930
816.892339	0.060994
817.082631	0.061296
817.272905	0.061590
817.463161	0.061904
817.653398	0.061931
817.843617	0.061985
818.033819	0.062083
818.224001	0.062055
818.414166	0.062109
818.604312	0.062227
818.794440	0.062196
818.984550	0.062374
819.174642	0.062462
819.364716	0.062491
819.554771	0.062404
819.744808	0.062416
819.934827	0.062720
820.124827	0.062932
820.314810	0.063194
820.504774	0.063409
820.694720	0.063540
820.884647	0.063575
821.074557	0.063864
821.264448	0.064166
821.454321	0.064295
821.644176	0.064152
821.834012	0.064241
822.023831	0.064037
822.213631	0.064033
822.403413	0.063991
822.593176	0.064018
822.782922	0.063758
822.972649	0.063709
823.162358	0.063814
823.352049	0.064174
823.541721	0.064137
823.731376	0.064321
823.921012	0.064703
824.110629	0.064877
824.300229	0.064982
824.489811	0.065574
824.679374	0.065768
824.868919	0.066036
825.058445	0.065963
825.247954	0.066454
825.437444	0.066708
825.626916	0.066824
825.816370	0.066966
826.005806	0.067301
826.195223	0.067358
826.384622	0.067355
826.574003	0.067443
826.763366	0.067796
826.952711	0.067743
827.142037	0.068041
827.331345	0.068017
827.520635	0.068008
827.709906	0.068121
827.899160	0.068188
828.088395	0.068385
828.277612	0.068532
828.466810	0.068711
828.655991	0.068671
828.845153	0.068690
829.034297	0.068899
829.223423	0.069128
829.412531	0.069347
829.601620	0.069733
829.790691	0.070032
829.979744	0.070203
830.168779	0.070183
830.357795	0.070668
830.546793	0.070868
830.735773	0.070902
830.924735	0.070652
831.113679	0.070787
831.302604	0.070827
831.491511	0.070868
831.680400	0.070871
831.869271	0.071162
832.058123	0.071301
832.246957	0.071564
832.435773	0.071884
832.624571	0.072385
832.813351	0.072761
833.002112	0.073052
833.190855	0.073286
833.379580	0.073959
833.568287	0.074163
833.756975	0.074263
833.945645	0.074329
834.134297	0.074478
834.322931	0.074749
834.511547	0.074618
834.700144	0.074675
834.888723	0.075082
835.077284	0.074927
835.265826	0.074829
835.454351	0.075096
835.642857	0.075314
835.831345	0.075342
836.019815	0.075570
836.208266	0.076014
836.396699	0.076259
836.585114	0.076224
836.773511	0.076337
836.961890	0.076759
837.150250	0.076843
837.338592	0.076991
837.526916	0.077244
837.715222	0.077312
837.903510	0.077144
838.091779	0.077221
838.280030	0.077596
838.468263	0.077811
838.656477	0.078012
838.844674	0.077943
839.032852	0.078077
839.221012	0.078383
839.409153	0.078496
839.597277	0.078877
839.785382	0.079206
839.973469	0.079182
840.161538	0.079273
840.349589	0.079619
840.537621	0.079977
840.725635	0.080300
840.913631	0.080417
841.101609	0.080774
841.289568	0.080934
841.477509	0.081313
841.665432	0.081569
841.853337	0.081585
842.041224	0.081650
842.229092	0.081577
842.416942	0.081336
842.604774	0.081229
842.792588	0.081384
842.980383	0.081373
843.168160	0.081221
843.355919	0.081298
843.543660	0.081505
843.731382	0.081542
843.919087	0.082209
844.106773	0.082802
844.294441	0.082969
844.482090	0.083094
844.669722	0.083414
844.857335	0.083668
845.044930	0.083825
845.232507	0.084388
845.420065	0.084408
845.607605	0.084344
845.795127	0.084497
845.982631	0.084970
846.170117	0.085268
846.357584	0.085179
846.545033	0.085243
846.732464	0.085674
846.919877	0.085789
847.107272	0.086235
847.294648	0.086611
847.482006	0.086812
847.669346	0.086871
847.856667	0.087067
848.043971	0.087373
848.231256	0.087516
848.418523	0.087452
848.605771	0.087639
848.793002	0.087985
848.980214	0.088290
849.167408	0.088196
849.354584	0.088354
849.541742	0.088215
849.728881	0.088527
849.916002	0.088736
850.103105	0.089259
850.290190	0.089284
850.477256	0.089055
850.664304	0.088921
850.851334	0.089326
851.038346	0.089707
851.225340	0.090047
851.412315	0.090475
851.599272	0.090521
851.786211	0.090467
851.973132	0.090625
852.160034	0.090991
852.346918	0.091156
852.533784	0.090907
852.720632	0.090693
852.907462	0.090737
853.094273	0.090704
853.281066	0.091232
853.467841	0.091174
853.654598	0.091212
853.841336	0.091349
854.028056	0.091550
854.214758	0.091887
854.401442	0.092421
854.588107	0.092524
854.774755	0.092669
854.961384	0.092501
855.147995	0.092633
855.334587	0.092936
855.521162	0.093198
855.707718	0.093339
855.894256	0.093621
856.080775	0.093573
856.267277	0.093871
856.453760	0.094139
856.640225	0.094477
856.826672	0.094819
857.013101	0.095043
857.199511	0.095169
857.385903	0.095514
857.572277	0.095956
857.758633	0.096434
857.944970	0.096765
858.131290	0.096825
858.317591	0.097196
858.503873	0.097413
858.690138	0.097372
858.876384	0.097853
859.062612	0.098070
859.248822	0.097868
859.435014	0.097896
859.621188	0.097700
859.807343	0.097858
859.993480	0.097691
860.179599	0.097599
860.365699	0.097734
860.551781	0.097196
860.737846	0.097136
860.923891	0.097370
861.109919	0.097288
861.295929	0.097767
861.481920	0.097810
861.667893	0.098028
861.853848	0.098453
862.039784	0.098585
862.225702	0.098802
862.411603	0.098728
862.597484	0.098731
862.783348	0.099036
862.969193	0.099090
863.155021	0.099230
863.340830	0.099281
863.526620	0.099202
863.712393	0.099344
863.898147	0.099661
864.083883	0.100391
864.269601	0.100624
864.455301	0.100667
864.640982	0.100430
864.826645	0.100707
865.012290	0.100969
865.197917	0.101580
865.383526	0.102002
865.569116	0.102000
865.754688	0.101944
865.940242	0.102081
866.125777	0.102478
866.311295	0.102861
866.496794	0.102871
866.682275	0.102983
866.867737	0.102930
867.053182	0.102912
867.238608	0.103211
867.424016	0.103059
867.609406	0.103417
867.794778	0.103325
867.980131	0.103579
868.165466	0.103688
868.350783	0.103859
868.536082	0.103710
868.721362	0.103809
868.906625	0.104011
869.091869	0.104175
869.277094	0.104244
869.462302	0.104276
869.647491	0.104664
869.832662	0.104804
870.017815	0.104773
870.202950	0.105230
870.388066	0.105413
870.573165	0.105512
870.758245	0.105865
870.943306	0.106129
871.128350	0.106854
871.313375	0.106783
871.498382	0.107064
871.683371	0.107299
871.868342	0.107406
872.053294	0.107547
872.238229	0.107708
872.423144	0.107573
872.608042	0.107665
872.792922	0.107215
872.977783	0.107358
873.162626	0.107334
873.347451	0.107483
873.532258	0.107352
873.717046	0.107378
873.901816	0.107242
874.086568	0.107575
874.271302	0.107337
874.456017	0.107568
874.640715	0.107595
874.825394	0.108034
875.010055	0.108238
875.194697	0.108090
875.379322	0.108410
875.563928	0.108539
875.748516	0.108673
875.933085	0.108923
876.117637	0.109177
876.302170	0.109272
876.486685	0.108840
876.671182	0.108622
876.855661	0.108992
877.040121	0.108728
877.224563	0.108960
877.408987	0.108844
877.593393	0.108850
877.777780	0.108462
877.962150	0.108656
878.146501	0.108934
878.330833	0.109266
878.515148	0.109241
878.699444	0.109710
878.883722	0.109505
879.067982	0.109513
879.252224	0.109600
879.436447	0.110118
879.620653	0.109960
879.804840	0.110055
879.989008	0.109793
880.173159	0.110041
880.357291	0.109569
880.541405	0.109712
880.725501	0.110065
880.909579	0.110040
881.093638	0.109920
881.277680	0.110052
881.461703	0.109898
881.645707	0.110307
881.829694	0.110250
882.013662	0.110628
882.197612	0.110820
882.381544	0.110589
882.565458	0.110608
882.749353	0.110742
882.933230	0.110907
883.117089	0.111219
883.300930	0.111032
883.484753	0.111304
883.668557	0.111485
883.852343	0.111524
884.036111	0.111687
884.219861	0.111724
884.403592	0.111171
884.587305	0.111065
884.771000	0.111012
884.954677	0.111294
885.138335	0.111058
885.321976	0.111187
885.505598	0.111237
885.689201	0.111323
885.872787	0.111582
886.056354	0.112139
886.239904	0.112119
886.423434	0.112463
886.606947	0.112316
886.790442	0.112493
886.973918	0.112477
887.157376	0.112595
887.340816	0.112460
887.524237	0.112303
887.707641	0.111898
887.891026	0.112163
888.074393	0.111696
888.257741	0.112046
888.441072	0.112151
888.624384	0.112034
888.807678	0.112239
888.990954	0.112490
889.174211	0.112362
889.357451	0.112646
889.540672	0.112309
889.723875	0.112243
889.907059	0.111770
890.090226	0.111579
890.273374	0.111194
890.456504	0.110536
890.639616	0.110186
890.822709	0.110746
891.005785	0.110428
891.188842	0.110272
891.371881	0.110141
891.554901	0.110010
891.737904	0.109835
891.920888	0.110020
892.103854	0.110135
892.286802	0.110057
892.469731	0.109556
892.652643	0.109680
892.835536	0.110028
893.018410	0.110348
893.201267	0.110995
893.384106	0.111094
893.566926	0.110967
893.749728	0.111129
893.932511	0.111337
894.115277	0.111576
894.298024	0.111859
894.480753	0.111844
894.663464	0.111862
894.846157	0.111669
895.028831	0.111442
895.211487	0.111708
895.394125	0.111290
895.576745	0.111060
895.759346	0.111007
895.941930	0.110884
896.124495	0.110847
896.307041	0.110638
896.489570	0.110195
896.672080	0.110255
896.854573	0.110086
897.037046	0.110607
897.219502	0.110698
897.401940	0.110375
897.584359	0.110256
897.766760	0.110221
897.949143	0.110373
898.131507	0.110542
898.313854	0.110745
898.496182	0.110365
898.678492	0.109979
898.860783	0.109808
899.043057	0.109516
899.225312	0.109455
899.407549	0.109325
899.589768	0.108813
899.771968	0.108552
899.954151	0.108199
900.136315	0.108418
900.318461	0.108470
900.500588	0.108667
900.682698	0.108700
900.864789	0.108833
901.046862	0.108868
901.228917	0.109084
901.410953	0.108622
901.592971	0.109115
901.774972	0.108844
901.956953	0.109028
902.138917	0.108609
902.320862	0.108705
902.502790	0.108499
902.684699	0.108207
902.866589	0.107947
903.048462	0.108485
903.230316	0.107591
903.412152	0.107915
903.593970	0.107410
903.775770	0.107100
903.957551	0.106848
904.139314	0.106823
904.321059	0.106405
904.502786	0.106133
904.684494	0.105756
904.866185	0.105762
905.047857	0.105403
905.229510	0.105284
905.411146	0.105657
905.592763	0.105640
905.774363	0.105233
905.955943	0.105159
906.137506	0.105288
906.319051	0.105189
906.500577	0.105324
906.682085	0.105092
906.863575	0.104662
907.045046	0.104549
907.226500	0.104214
907.407935	0.104032
907.589352	0.104217
907.770750	0.104241
907.952131	0.104036
908.133493	0.103909
908.314837	0.104210
908.496163	0.104814
908.677470	0.104286
908.858760	0.104334
909.040031	0.104306
909.221284	0.103909
909.402518	0.103630
909.583735	0.103476
909.764933	0.103066
909.946113	0.102469
910.127275	0.101936
910.308418	0.101809
910.489544	0.101278
910.670651	0.101037
910.851740	0.100821
911.032810	0.100515
911.213863	0.100398
911.394897	0.100072
911.575913	0.099826
911.756911	0.099380
911.937890	0.099230
912.118851	0.099029
912.299794	0.098835
912.480719	0.098683
912.661626	0.098444
912.842514	0.098128
913.023384	0.098056
913.204236	0.097693
913.385070	0.097617
913.565886	0.097737
913.746683	0.098096
913.927462	0.097641
914.108223	0.097397
914.288965	0.097156
914.469690	0.097015
914.650396	0.096936
914.831084	0.096743
915.011754	0.096512
915.192405	0.096577
915.373038	0.096226
915.553653	0.096062
915.734250	0.096265
915.914829	0.096096
916.095389	0.095863
916.275931	0.095545
916.456455	0.095217
916.636961	0.094805
916.817448	0.093957
916.997917	0.093547
917.178368	0.093961
917.358801	0.093194
917.539216	0.092768
917.719612	0.092549
917.899990	0.092669
918.080350	0.092722
918.260692	0.092374
918.441015	0.092467
918.621320	0.092356
918.801607	0.091515
918.981876	0.091317
919.162127	0.091026
919.342359	0.090736
919.522573	0.090079
919.702769	0.090136
919.882947	0.089921
920.063106	0.089318
920.243247	0.088434
920.423370	0.088110
920.603475	0.087925
920.783562	0.088132
920.963630	0.088000
921.143680	0.087234
921.323712	0.086328
921.503725	0.086383
921.683721	0.086066
921.863698	0.085985
922.043657	0.085466
922.223598	0.085486
922.403520	0.084955
922.583424	0.084374
922.763311	0.084745
922.943178	0.084523
923.123028	0.083889
923.302859	0.083536
923.482673	0.083288
923.662467	0.083632
923.842244	0.083076
924.022003	0.082229
924.201743	0.081877
924.381465	0.080989
924.561169	0.080502
924.740854	0.080653
924.920522	0.080163
925.100171	0.079902
925.279802	0.079177
925.459414	0.078326
925.639009	0.078450
925.818585	0.077984
925.998143	0.078106
926.177683	0.078007
926.357205	0.077461
926.536708	0.077366
926.716193	0.076983
926.895660	0.076350
927.075109	0.076075
927.254539	0.075751
927.433951	0.075626
927.613345	0.074680
927.792721	0.074591
927.972079	0.073880
928.151418	0.073215
928.330739	0.073003
928.510042	0.072952
928.689327	0.072915
928.868593	0.072243
929.047841	0.071703
929.227071	0.072100
929.406283	0.071373
929.585476	0.070613
929.764652	0.070349
929.943809	0.070139
930.122948	0.069386
930.302068	0.068944
930.481171	0.068539
930.660255	0.068160
930.839321	0.067179
931.018369	0.066851
931.197398	0.067152
931.376409	0.066727
931.555402	0.065854
931.734377	0.065924
931.913334	0.065726
932.092272	0.065798
932.271192	0.065469
932.450094	0.065453
932.628978	0.065875
932.807844	0.065143
932.986691	0.064763
933.165520	0.064924
933.344331	0.064443
933.523123	0.063556
933.701898	0.062786
933.880654	0.062237
934.059392	0.061747
934.238111	0.061194
934.416813	0.060938
934.595496	0.060733
934.774161	0.060310
934.952808	0.059573
935.131437	0.059551
935.310047	0.059187
935.488639	0.059088
935.667213	0.058736
935.845769	0.057617
936.024306	0.056634
936.202825	0.055640
936.381326	0.054047
936.559809	0.053896
936.738274	0.053362
936.916720	0.053201
937.095148	0.052290
937.273558	0.052030
937.451950	0.051606
937.630323	0.051287
937.808678	0.051265
937.987015	0.051502
938.165334	0.051170
938.343635	0.051467
938.521917	0.051248
938.700181	0.051362
938.878427	0.051131
939.056655	0.050206
939.234864	0.050810
939.413055	0.049530
939.591228	0.049045
939.769383	0.048694
939.947519	0.047149
940.125638	0.046956
940.303738	0.045990
940.481820	0.045138
940.659883	0.044745
940.837929	0.043258
941.015956	0.044106
941.193965	0.044362
941.371955	0.043341
941.549928	0.042488
941.727882	0.041376
941.905818	0.040783
942.083736	0.040220
942.261636	0.039243
942.439517	0.039788
942.617380	0.039419
942.795225	0.037527
942.973052	0.036885
943.150860	0.037198
943.328651	0.036839
943.506423	0.036250
943.684176	0.035372
943.861912	0.035918
944.039629	0.034533
944.217328	0.034081
944.395009	0.034314
944.572672	0.033473
944.750317	0.033442
944.927943	0.032574
945.105551	0.031893
945.283141	0.031925
945.460712	0.031224
945.638265	0.031538
945.815801	0.029591
945.993317	0.029934
946.170816	0.029896
946.348297	0.029142
946.525759	0.029637
946.703203	0.031085
946.880629	0.030067
947.058036	0.029927
947.235425	0.028556
947.412797	0.028407
947.590149	0.027606
947.767484	0.027756
947.944800	0.027310
948.122099	0.026239
948.299379	0.025055
948.476640	0.024913
948.653884	0.025287
948.831109	0.025615
949.008316	0.026187
949.185505	0.025840
949.362676	0.025374
949.539828	0.025126
949.716962	0.024615
949.894078	0.023567
950.071176	0.023109
950.248256	0.021593
950.425317	0.020248
950.602360	0.019961
950.779385	0.019752
950.956391	0.020087
951.133380	0.019517
951.310350	0.019510
951.487302	0.019770
951.664235	0.019200
951.841151	0.019636
952.018048	0.019605
952.194927	0.019357
952.371788	0.019870
952.548631	0.018130
952.725455	0.017418
952.902261	0.016461
953.079049	0.016964
953.255819	0.015898
953.432570	0.016370
953.609303	0.017551
953.786018	0.016680
953.962715	0.014669
954.139394	0.014014
954.316054	0.013691
954.492696	0.013894
954.669320	0.013191
954.845926	0.014203
955.022513	0.011680
955.199083	0.010277
955.375634	0.009829
955.552166	0.009241
955.728681	0.011231
955.905177	0.009968
956.081655	0.008869
956.258115	0.007847
956.434557	0.006356
956.610980	0.007511
956.787385	0.008141
956.963772	0.007701
957.140141	0.009947
957.316492	0.009388
957.492824	0.010651
957.669138	0.011077
957.845434	0.012926
958.021712	0.014129
958.197971	0.013882
958.374212	0.013399
958.550435	0.012480
958.726640	0.011317
958.902826	0.009947
959.078995	0.007796
959.255145	0.006237
959.431277	0.003246
959.607390	0.002476
959.783486	0.001273
959.959563	0.000024
960.135622	0.000959
960.311662	0.002090
960.487685	0.002158
960.663689	0.004948
960.839675	0.007401
961.015643	0.009079
961.191593	0.010305
961.367524	0.009858
961.543437	0.010382
961.719332	0.011012
961.895209	0.009312
962.071067	0.008471
962.246907	0.008201
962.422730	0.005385
962.598533	0.004209
962.774319	0.005473
962.950086	0.005670
963.125835	0.005556
963.301566	0.006070
963.477279	0.004447
963.652973	0.007655
963.828650	0.006473
964.004308	0.009651
964.179947	0.012305
964.355569	0.010988
964.531172	0.012805
964.706757	0.014347
964.882324	0.012557
965.057873	0.014020
965.233403	0.011595
965.408916	0.011600
965.584410	0.009806
965.759885	0.009249
965.935343	0.008482
966.110782	0.007455
966.286203	0.004439
966.461606	0.005380
966.636991	0.004667
966.812357	0.005208
966.987705	0.004699
967.163035	0.004843
967.338347	0.002355
967.513641	0.002212
967.688916	0.002022
967.864173	0.006185
968.039412	0.007002
968.214632	0.009020
968.389835	0.010301
968.565019	0.011251
968.740185	0.012679
968.915333	0.012964
969.090462	0.014014
969.265573	0.014798
969.440667	0.013528
969.615741	0.011222
969.790798	0.010984
969.965836	0.009696
970.140856	0.010740
970.315858	0.009697
970.490842	0.007655
970.665808	0.008285
970.840755	0.008981
971.015684	0.009791
971.190595	0.011118
971.365487	0.011190
971.540362	0.010242
971.715218	0.009515
971.890056	0.009687
972.064875	0.012225
972.239677	0.011322
972.414460	0.011319
972.589225	0.008630
972.763972	0.009742
972.938700	0.008829
973.113411	0.010286
973.288103	0.009817
973.462777	0.010653
973.637432	0.008801
973.812070	0.009121
973.986689	0.008552
974.161290	0.009156
974.335873	0.008338
974.510437	0.009515
974.684984	0.010666
974.859512	0.010858
975.034022	0.010704
975.208513	0.013625
975.382987	0.014849
975.557442	0.015851
975.731879	0.015646
975.906298	0.016624
976.080698	0.015554
976.255080	0.014848
976.429445	0.015715
976.603790	0.016043
976.778118	0.012959
976.952427	0.009800
977.126719	0.007572
977.300992	0.008962
977.475246	0.007703
977.649483	0.008567
977.823701	0.008200
977.997901	0.008118
978.172083	0.007118
978.346247	0.009896
978.520392	0.009974
978.694519	0.011208
978.868628	0.010673
979.042719	0.010645
979.216791	0.010669
979.390845	0.010057
979.564882	0.010054
979.738899	0.009041
979.912899	0.009677
980.086880	0.011484
980.260843	0.010041
980.434788	0.009198
980.608715	0.012213
980.782623	0.010766
980.956514	0.009657
981.130386	0.008709
981.304240	0.009634
981.478075	0.008194
981.651892	0.007957
981.825692	0.008639
981.999472	0.009082
982.173235	0.005898
982.346980	0.005701
982.520706	0.006710
982.694414	0.005908
982.868104	0.005770
983.041775	0.006920
983.215428	0.005147
983.389064	0.005888
983.562680	0.006051
983.736279	0.004161
983.909860	0.005025
984.083422	0.006646
984.256966	0.005426
984.430491	0.006358
984.603999	0.007010
984.777488	0.008346
984.950959	0.007652
985.124412	0.007933
985.297847	0.008501
985.471263	0.008057
985.644661	0.007783
985.818041	0.008678
985.991403	0.008548
986.164747	0.006319
986.338072	0.007154
986.511379	0.006594
986.684668	0.005858
986.857938	0.007843
987.031191	0.008026
987.204425	0.005871
987.377641	0.006821
987.550839	0.005933
987.724018	0.005179
987.897179	0.002758
988.070322	0.005037
988.243447	0.005200
988.416554	0.005352
988.589642	0.005714
988.762712	0.007986
988.935764	0.007457
989.108798	0.007134
989.281813	0.006961
989.454811	0.008300
989.627790	0.006964
989.800751	0.006217
989.973693	0.005738
990.146617	0.005527
990.319524	0.004280
990.492412	0.005729
990.665281	0.006402
990.838133	0.008595
991.010966	0.007917
991.183781	0.006943
991.356578	0.008058
991.529356	0.007458
991.702117	0.007165
991.874859	0.005725
992.047583	0.004045
992.220288	0.001597
992.392976	-0.000046
992.565645	0.000038
992.738296	-0.000026
992.910929	-0.000342
993.083543	-0.001170
993.256139	-0.000868
993.428718	-0.000054
993.601277	0.002364
993.773819	0.006783
993.946342	0.007603
994.118848	0.007314
994.291335	0.007933
994.463803	0.008755
994.636254	0.008959
994.808686	0.008032
994.981100	0.008974
995.153496	0.006542
995.325874	0.004198
995.498233	0.003475
995.670574	0.006267
995.842897	0.004363
996.015202	0.003043
996.187488	0.003855
996.359757	0.004333
996.532007	0.003214
996.704239	0.002376
996.876452	0.002327
997.048648	0.001843
997.220825	-0.001627
997.392984	-0.001468
997.565124	-0.002114
997.737247	-0.001661
997.909351	-0.002363
998.081437	-0.002381
998.253505	0.000001
998.425554	-0.001194
998.597586	-0.000444
998.769599	0.001642
998.941594	0.002228
999.113571	0.002444
999.285529	0.002780
999.457469	0.002884
999.629391	0.002614
999.801295	0.001024
999.973181	0.002572
1000.145048	0.001090
1000.316897	0.000490
1000.488728	0.001852
1000.660541	0.001568
1000.832335	-0.000997
1001.004111	-0.000321
1001.175869	0.000852
1001.347609	0.001550
1001.519331	0.001131
1001.691034	0.002023
1001.862719	0.000664
1002.034386	-0.000472
1002.206035	-0.000685
1002.377665	0.000236
1002.549277	0.001459
1002.720871	0.000812
1002.892447	0.000063
1003.064004	0.000137
1003.235544	-0.000202
1003.407065	-0.000663
1003.578568	-0.000421
1003.750052	0.001674
1003.921519	0.001257
1004.092967	-0.000555
1004.264397	-0.001035
1004.435809	-0.002337
1004.607202	-0.002620
1004.778577	-0.002400
1004.949934	-0.002006
1005.121273	-0.002034
1005.292594	-0.002787
1005.463896	-0.003098
1005.635180	-0.003041
1005.806446	-0.002539
1005.977694	-0.001376
1006.148923	-0.001630
1006.320135	-0.002991
1006.491328	-0.002288
1006.662503	-0.003144
1006.833659	-0.002286
1007.004798	-0.002103
1007.175918	-0.001858
1007.347020	-0.001954
1007.518103	-0.000771
1007.689169	-0.000581
1007.860216	0.000678
1008.031245	0.000621
1008.202256	0.002842
1008.373248	0.001194
1008.544223	0.001742
1008.715179	0.002745
1008.886117	0.002814
1009.057036	0.002857
1009.227938	0.001726
1009.398821	0.003183
1009.569686	0.003348
1009.740533	0.003306
1009.911361	0.003913
1010.082172	0.005183
1010.252964	0.003261
1010.423738	0.003317
1010.594493	0.000347
1010.765231	0.001643
1010.935950	0.001510
1011.106651	0.000763
1011.277334	-0.000678
1011.447998	0.000007
1011.618645	-0.001162
1011.789273	0.000898
1011.959882	0.001913
1012.130474	0.005113
1012.301048	0.004671
1012.471603	0.003535
1012.642140	0.004717
1012.812658	0.004782
1012.983159	0.005272
1013.153641	0.005211
1013.324105	0.002994
1013.494551	0.001062
1013.664979	-0.000265
1013.835388	0.000187
1014.005779	-0.000497
1014.176152	-0.002376
1014.346507	-0.002290
1014.516843	-0.004063
1014.687162	-0.005494
1014.857462	-0.003483
1015.027744	-0.003465
1015.198007	-0.004175
1015.368252	-0.004740
1015.538480	-0.003524
1015.708689	-0.001319
1015.878879	-0.002645
1016.049052	-0.002003
1016.219206	-0.000200
1016.389342	-0.001912
1016.559460	-0.001895
1016.729559	-0.002151
1016.899641	-0.001328
1017.069704	-0.001718
1017.239749	-0.002979
1017.409775	-0.001853
1017.579784	-0.001103
1017.749774	0.000732
1017.919746	0.001848
1018.089700	0.003679
1018.259635	0.004619
1018.429553	0.003435
1018.599452	0.001662
1018.769333	0.003202
1018.939195	0.003537
1019.109040	0.001546
1019.278866	0.000911
1019.448674	0.001478
1019.618464	0.000920
1019.788235	0.001208
1019.957989	0.001666
1020.127724	0.004043
1020.297441	0.003438
1020.467139	0.004940
1020.636820	0.005056
1020.806482	0.003506
1020.976126	0.002094
1021.145752	0.001506
1021.315359	0.001026
1021.484948	0.001168
1021.654519	-0.000250
1021.824072	-0.002150
1021.993607	-0.003400
1022.163123	-0.002847
1022.332621	-0.003292
1022.502101	-0.002803
1022.671563	-0.003453
1022.841007	-0.003722
1023.010432	-0.005007
1023.179839	-0.005340
1023.349228	-0.002663
1023.518598	-0.004301
1023.687951	-0.003508
1023.857285	-0.003378
1024.026601	-0.003790
1024.195899	-0.003086
1024.365178	-0.002295
1024.534439	-0.000745
1024.703682	-0.000669
1024.872907	-0.003563
1025.042114	-0.002067
1025.211302	-0.002024
1025.380472	-0.002520
1025.549624	-0.002688
1025.718758	-0.004281
1025.887873	-0.004715
1026.056970	-0.004722
1026.226049	-0.004196
1026.395110	-0.002329
1026.564153	-0.003818
1026.733177	-0.004437
1026.902183	-0.003678
1027.071171	-0.002135
1027.240141	-0.000310
1027.409092	-0.001212
1027.578026	-0.003148
1027.746940	-0.002930
1027.915837	-0.004363
1028.084716	-0.004337
1028.253576	-0.004958
1028.422418	-0.004702
1028.591242	-0.007018
1028.760048	-0.007925
1028.928835	-0.006225
1029.097604	-0.004180
1029.266355	-0.004127
1029.435088	-0.005026
1029.603803	-0.004820
1029.772499	-0.006002
1029.941177	-0.006407
1030.109837	-0.005664
1030.278478	-0.004618
1030.447102	-0.005616
1030.615707	-0.005778
1030.784294	-0.006106
1030.952863	-0.004454
1031.121413	-0.004073
1031.289945	-0.003239
1031.458460	-0.002796
1031.626955	-0.001809
1031.795433	-0.003471
1031.963892	-0.002956
1032.132334	-0.003367
1032.300756	-0.003367
1032.469161	-0.004429
1032.637548	-0.005985
1032.805916	-0.005164
1032.974266	-0.005290
1033.142598	-0.007767
1033.310911	-0.008538
1033.479207	-0.010150
1033.647484	-0.011734
1033.815743	-0.011162
1033.983983	-0.010962
1034.152206	-0.008719
1034.320410	-0.008253
1034.488596	-0.008366
1034.656764	-0.005822
1034.824914	-0.005795
1034.993045	-0.006513
1035.161158	-0.006162
1035.329253	-0.007577
1035.497330	-0.007544
1035.665388	-0.008635
1035.833428	-0.008775
1036.001450	-0.010388
1036.169454	-0.012193
1036.337440	-0.011185
1036.505407	-0.009330
1036.673356	-0.009140
1036.841287	-0.008312
1037.009200	-0.007780
1037.177094	-0.006694
1037.344970	-0.005834
1037.512828	-0.003844
1037.680668	-0.002760
1037.848489	-0.001449
1038.016293	-0.002179
1038.184078	-0.000488
1038.351845	0.000042
1038.519593	0.000134
1038.687324	-0.001908
1038.855036	-0.004840
1039.022730	-0.006398
1039.190406	-0.005813
1039.358063	-0.007178
1039.525702	-0.007332
1039.693323	-0.008288
1039.860926	-0.011046
1040.028511	-0.012820
1040.196077	-0.012163
1040.363625	-0.010338
1040.531155	-0.009181
1040.698667	-0.009322
1040.866161	-0.009359
1041.033636	-0.007646
1041.201093	-0.008999
1041.368532	-0.007346
1041.535952	-0.005138
1041.703355	-0.005401
1041.870739	-0.004371
1042.038105	-0.004614
1042.205452	-0.006097
1042.372782	-0.004789
1042.540093	-0.005747
1042.707386	-0.004817
1042.874661	-0.005050
1043.041918	-0.005968
1043.209156	-0.004312
1043.376376	-0.006548
1043.543578	-0.006218
1043.710762	-0.005560
1043.877927	-0.006194
1044.045074	-0.006892
1044.212203	-0.005713
1044.379314	-0.003465
1044.546407	-0.004345
1044.713481	-0.005884
1044.880537	-0.006541
1045.047575	-0.007263
1045.214595	-0.007065
1045.381596	-0.007035
1045.548579	-0.005110
1045.715544	-0.005401
1045.882491	-0.008648
1046.049420	-0.008122
1046.216330	-0.005882
1046.383222	-0.004147
1046.550096	-0.004370
1046.716951	-0.005458
1046.883789	-0.005125
1047.050608	-0.007505
1047.217409	-0.010285
1047.384192	-0.009148
1047.550956	-0.007666
1047.717703	-0.008076
1047.884431	-0.008364
1048.051140	-0.007989
1048.217832	-0.006286
1048.384505	-0.007329
1048.551161	-0.005405
1048.717798	-0.004377
1048.884416	-0.003815
1049.051017	-0.006025
1049.217599	-0.006273
1049.384163	-0.005889
1049.550709	-0.004779
1049.717237	-0.004700
1049.883746	-0.003632
1050.050237	-0.004877
1050.216710	-0.004126
1050.383165	-0.003079
1050.549601	-0.001095
1050.716019	-0.002660
1050.882420	-0.002845
1051.048801	-0.003400
1051.215165	-0.005022
1051.381510	-0.007214
1051.547837	-0.006794
1051.714146	-0.006669
1051.880437	-0.007424
1052.046709	-0.007131
1052.212964	-0.005686
1052.379200	-0.005541
1052.545417	-0.005209
1052.711617	-0.004537
1052.877798	-0.001895
1053.043961	-0.003201
1053.210106	-0.001457
1053.376233	-0.000284
1053.542341	-0.000434
1053.708432	-0.001557
1053.874504	-0.002053
1054.040557	-0.003093
1054.206593	-0.004247
1054.372610	-0.004674
1054.538609	-0.001465
1054.704590	-0.002583
1054.870553	-0.005059
1055.036497	-0.004672
1055.202424	-0.002730
1055.368331	-0.001408
1055.534221	0.000501
1055.700093	0.000670
1055.865946	-0.000199
1056.031781	-0.001421
1056.197598	-0.001099
1056.363397	0.000519
1056.529177	0.000115
1056.694939	-0.002041
1056.860683	-0.002711
1057.026409	-0.003607
1057.192116	-0.002615
1057.357806	-0.001475
1057.523477	-0.001077
1057.689130	-0.001473
1057.854764	-0.001733
1058.020381	-0.002112
1058.185979	-0.002819
1058.351559	-0.003040
1058.517120	-0.002711
1058.682664	-0.002103
1058.848189	-0.004531
1059.013696	-0.005318
1059.179185	-0.005844
1059.344656	-0.006520
1059.510108	-0.007349
1059.675542	-0.004732
1059.840958	-0.005758
1060.006356	-0.005573
1060.171735	-0.005875
1060.337096	-0.004951
1060.502439	-0.004797
1060.667764	-0.004727
1060.833071	-0.003200
1060.998359	-0.002795
1061.163629	-0.004621
1061.328881	-0.003724
1061.494115	-0.004311
1061.659330	-0.005866
1061.824527	-0.006025
1061.989706	-0.006592
1062.154867	-0.007152
1062.320010	-0.007735
1062.485134	-0.006806
1062.650240	-0.006671
1062.815328	-0.007908
1062.980398	-0.007617
1063.145449	-0.004611
1063.310482	-0.002472
1063.475497	-0.001783
1063.640494	-0.000308
1063.805473	-0.001196
1063.970433	0.000108
1064.135375	-0.000652
1064.300299	0.000753
1064.465204	0.001540
1064.630092	-0.000682
1064.794961	-0.001583
1064.959812	-0.002135
1065.124645	-0.001589
1065.289459	-0.000150
1065.454256	-0.002156
1065.619034	-0.000307
1065.783793	0.000857
1065.948535	0.000050
1066.113258	0.000595
1066.277964	0.000735
1066.442651	0.000187
1066.607319	-0.001132
1066.771970	-0.002126
1066.936602	-0.000421
1067.101216	-0.002260
1067.265812	-0.003034
1067.430389	-0.003956
1067.594949	-0.003782
1067.759490	-0.002070
1067.924013	-0.000988
1068.088518	-0.000257
1068.253004	0.000833
1068.417472	-0.003016
1068.581922	-0.002740
1068.746354	-0.004606
1068.910768	-0.004538
1069.075163	-0.004918
1069.239540	-0.006213
1069.403899	-0.005894
1069.568240	-0.007384
1069.732562	-0.006826
1069.896866	-0.003638
1070.061152	-0.002980
1070.225420	0.000054
1070.389670	-0.000474
1070.553901	-0.000553
1070.718114	-0.001233
1070.882309	-0.002154
1071.046486	-0.001463
1071.210644	-0.001457
1071.374784	-0.003294
1071.538906	-0.001414
1071.703010	-0.002190
1071.867096	-0.002618
1072.031163	-0.002706
1072.195212	-0.002826
1072.359243	-0.000997
1072.523256	-0.001240
1072.687250	-0.003028
1072.851226	-0.003231
1073.015184	-0.004524
1073.179124	-0.004979
1073.343045	-0.003586
1073.506949	-0.002653
1073.670834	-0.001245
1073.834701	-0.002098
1073.998549	-0.001379
1074.162380	0.000465
1074.326192	0.002061
1074.489986	0.000855
1074.653761	-0.000406
1074.817519	-0.000993
1074.981258	-0.000473
1075.144979	-0.000155
1075.308682	-0.001185
1075.472367	-0.001209
1075.636033	-0.002678
1075.799681	-0.002542
1075.963311	-0.001172
1076.126923	0.000349
1076.290516	0.000059
1076.454092	0.000563
1076.617649	-0.000271
1076.781187	-0.001306
1076.944708	-0.002471
1077.108210	-0.000321
1077.271695	-0.003479
1077.435160	-0.002605
1077.598608	-0.002239
1077.762038	-0.003265
1077.925449	-0.003680
1078.088842	-0.003327
1078.252217	-0.001641
1078.415573	0.000552
1078.578912	-0.000591
1078.742232	0.004686
1078.905534	0.003316
1079.068817	0.001580
1079.232083	0.004849
1079.395330	0.004825
1079.558559	0.003534
1079.721770	0.004694
1079.884962	0.004994
1080.048136	0.002598
1080.211293	0.000819
1080.374430	0.001797
1080.537550	0.002418
1080.700651	0.001124
1080.863735	0.000988
1081.026800	0.000739
1081.189846	-0.000517
1081.352875	-0.001061
1081.515885	0.001039
1081.678877	-0.000320
1081.841851	-0.002919
1082.004807	-0.004062
1082.167744	-0.004317
1082.330663	-0.005723
1082.493564	-0.003782
1082.656447	-0.004484
1082.819312	-0.005194
1082.982158	-0.005787
1083.144986	-0.005224
1083.307796	-0.001486
1083.470587	-0.001042
1083.633361	0.000064
1083.796116	0.002442
1083.958853	0.001577
1084.121571	0.002821
1084.284272	0.003664
1084.446954	0.002333
1084.609618	0.003912
1084.772264	0.002516
1084.934892	0.003674
1085.097501	0.002015
1085.260092	0.002956
1085.422665	0.000686
1085.585220	0.000269
1085.747756	-0.000896
1085.910274	-0.000312
1086.072774	-0.000208
1086.235256	-0.001464
1086.397720	-0.002346
1086.560165	-0.000494
1086.722592	-0.003525
1086.885001	-0.000606
1087.047392	-0.002001
1087.209764	0.001845
1087.372119	0.002254
1087.534455	0.001060
1087.696772	0.003454
1087.859072	0.004059
1088.021353	0.003450
1088.183616	0.004254
1088.345861	0.005223
1088.508088	0.007236
1088.670296	0.002923
1088.832486	0.005695
1088.994658	0.004923
1089.156812	0.003421
1089.318948	0.004607
1089.481065	0.004619
1089.643164	0.005798
1089.805245	0.003083
1089.967308	0.002076
1090.129352	0.004018
1090.291378	0.001526
1090.453386	0.001744
1090.615376	0.002804
1090.777347	0.000561
1090.939301	-0.002415
1091.101236	-0.002246
1091.263153	-0.000350
1091.425051	-0.000430
1091.586932	0.000166
1091.748794	0.000847
1091.910638	0.004290
1092.072463	0.003047
1092.234271	0.006145
1092.396060	0.007865
1092.557831	0.006144
1092.719584	0.002641
1092.881319	0.006139
1093.043035	0.005396
1093.204733	0.003405
1093.366413	-0.000281
1093.528075	0.000811
1093.689718	0.002024
1093.851343	0.004309
1094.012950	0.008012
1094.174539	0.010349
1094.336110	0.005549
1094.497662	0.003771
1094.659196	0.005583
1094.820712	0.004435
1094.982210	0.005822
1095.143689	0.001716
1095.305151	0.001405
1095.466594	-0.001493
1095.628018	-0.002479
1095.789425	0.002528
1095.950813	0.003877
1096.112183	0.003615
1096.273535	0.007934
1096.434869	0.005617
1096.596184	0.005667
1096.757482	0.004288
1096.918761	0.005166
1097.080021	0.006398
1097.241264	0.002573
1097.402488	0.001785
1097.563694	0.003793
1097.724882	0.001684
1097.886052	0.002020
1098.047203	0.001557
1098.208336	0.003218
1098.369451	0.001753
1098.530548	0.000668
1098.691627	0.001421
1098.852687	0.001705
1099.013729	0.000523
1099.174753	0.003849
1099.335758	0.003245
1099.496746	0.005666
1099.657715	0.002878
1099.818666	0.003537
1099.979599	0.004318
1100.140513	0.003755
1100.301409	0.002929
1100.462287	0.001289
1100.623147	-0.003341
1100.783989	-0.002255
1100.944812	-0.000955
1101.105617	0.001613
1101.266404	0.002825
1101.427173	0.004160
1101.587923	0.008452
1101.748656	0.010700
1101.909370	0.013696
1102.070066	0.015591
1102.230743	0.016222
1102.391403	0.015756
1102.552044	0.015012
1102.712667	0.011753
1102.873271	0.013593
1103.033858	0.009959
1103.194426	0.007309
1103.354976	0.006762
1103.515508	0.007927
1103.676021	0.009888
1103.836517	0.008023
1103.996994	0.009050
1104.157453	0.011210
1104.317893	0.007912
1104.478316	0.007976
1104.638720	0.011018
1104.799106	0.010314
1104.959474	0.009847
1105.119823	0.005592
1105.280155	0.007069
1105.440468	0.004772
1105.600763	0.005396
1105.761039	0.008523
1105.921298	0.010839
1106.081538	0.010955
1106.241760	0.010510
1106.401964	0.010057
1106.562149	0.012740
1106.722316	0.011190
1106.882465	0.013564
1107.042596	0.011916
1107.202709	0.011112
1107.362803	0.009019
1107.522879	0.009370
1107.682937	0.011054
1107.842977	0.012327
1108.002999	0.009370
1108.163002	0.011037
1108.322987	0.009404
1108.482954	0.009270
1108.642902	0.006300
1108.802833	0.007475
1108.962745	0.008128
1109.122639	0.006739
1109.282515	0.002273
1109.442372	0.008664
1109.602211	0.010146
1109.762032	0.011556
1109.921835	0.012388
1110.081620	0.012947
1110.241386	0.011300
1110.401134	0.010307
1110.560864	0.010560
1110.720576	0.013632
1110.880269	0.010711
1111.039945	0.008213
1111.199602	0.009871
1111.359240	0.008799
1111.518861	0.012054
1111.678463	0.012503
1111.838047	0.012488
1111.997613	0.011385
1112.157161	0.010675
1112.316690	0.006410
1112.476202	0.006776
1112.635695	0.003238
1112.795169	0.003640
1112.954626	-0.000767
1113.114064	-0.003355
1113.273484	-0.004009
1113.432886	-0.001536
1113.592270	0.002037
1113.751635	0.003837
1113.910983	-0.000392
1114.070312	-0.001613
1114.229622	0.000694
1114.388915	0.001833
1114.548189	0.002455
1114.707445	0.005524
1114.866683	0.004659
1115.025903	0.003193
1115.185104	0.001982
1115.344287	0.009624
1115.503452	0.011220
1115.662599	0.010367
1115.821727	0.012080
1115.980838	0.013185
1116.139930	0.013306
1116.299004	0.014221
1116.458059	0.012016
1116.617097	0.015172
1116.776116	0.011298
1116.935117	0.013434
1117.094099	0.012979
1117.253064	0.014539
1117.412010	0.017483
1117.570938	0.013803
1117.729848	0.015437
1117.888740	0.020180
1118.047613	0.017405
1118.206468	0.020432
1118.365305	0.024140
1118.524124	0.025413
1118.682924	0.023695
1118.841707	0.021069
1119.000471	0.020569
1119.159216	0.017588
1119.317944	0.011233
1119.476653	0.010678
1119.635344	0.007936
1119.794017	0.003288
1119.952672	0.005193
1120.111308	0.002368
1120.269927	0.000142
1120.428527	-0.002900
1120.587108	-0.001502
1120.745672	0.001484
1120.904217	0.007319
1121.062744	0.005775
1121.221253	0.008727
1121.379744	0.005887
1121.538216	0.009184
1121.696671	0.011328
1121.855107	0.018977
1122.013524	0.014676
1122.171924	0.012323
1122.330305	0.010201
1122.488668	0.012743
1122.647013	0.010469
1122.805340	0.010089
1122.963648	0.010544
1123.121938	0.011895
1123.280210	0.008171
1123.438464	0.009344
1123.596700	0.009742
1123.754917	0.007916
1123.913116	0.005857
1124.071297	0.005311
1124.229459	0.006120
1124.387604	0.005579
1124.545730	0.004750
1124.703838	0.008267
1124.861928	0.009047
1125.019999	0.014710
1125.178052	0.016821
1125.336088	0.019395
1125.494104	0.016410
1125.652103	0.015431
1125.810083	0.014354
1125.968045	0.016896
1126.125989	0.015844
1126.283915	0.020066
1126.441823	0.014387
1126.599712	0.009265
1126.757583	0.010068
1126.915436	0.015398
1127.073270	0.018480
1127.231087	0.019019
1127.388885	0.017894
1127.546665	0.018612
1127.704426	0.016976
1127.862170	0.020979
1128.019895	0.024538
1128.177602	0.019560
1128.335291	0.017534
1128.492961	0.017704
1128.650614	0.019523
1128.808248	0.014418
1128.965864	0.013628
1129.123461	0.010003
1129.281041	0.009804
1129.438602	0.012968
1129.596145	0.014482
1129.753670	0.012385
1129.911176	0.002405
1130.068665	0.005315
1130.226135	0.011294
1130.383587	0.009203
1130.541020	0.013268
1130.698436	0.008120
1130.855833	0.006983
1131.013212	0.012019
1131.170573	0.016192
1131.327915	0.023391
1131.485239	0.016037
1131.642545	0.013331
1131.799833	0.017096
1131.957103	0.014930
1132.114354	0.019479
1132.271588	0.019616
1132.428803	0.018930
1132.585999	0.020422
1132.743178	0.018859
1132.900338	0.020825
1133.057480	0.020175
1133.214604	0.016852
1133.371710	0.013538
1133.528797	0.009142
1133.685866	0.007129
1133.842917	0.005633
1133.999950	0.003046
1134.156964	0.007327
1134.313960	0.004740
1134.470938	0.006750
1134.627898	0.010704
1134.784840	0.012719
1134.941763	0.017691
1135.098668	0.016197
1135.255555	0.014814
1135.412424	0.013294
1135.569274	0.008783
1135.726107	0.011298
1135.882921	0.011461
1136.039716	0.004758
1136.196494	0.010485
1136.353253	0.015136
1136.509995	0.018726
1136.666717	0.021027
1136.823422	0.028738
1136.980109	0.032248
1137.136777	0.036147
1137.293427	0.032931
1137.450059	0.033878
1137.606672	0.029256
1137.763267	0.019155
1137.919844	0.018730
1138.076403	0.021275
1138.232944	0.012535
1138.389466	0.010634
1138.545971	0.004983
1138.702457	0.013871
1138.858924	0.008302
1139.015374	0.011626
1139.171805	0.015535
1139.328218	0.014001
1139.484613	0.001807
1139.640990	0.004600
1139.797348	0.007096
1139.953688	0.009987
1140.110010	0.010961
1140.266314	0.018294
1140.422600	0.015871
1140.578867	0.011546
1140.735116	0.015365
1140.891347	0.023723
1141.047559	0.025107
1141.203754	0.021372
1141.359930	0.020210
1141.516088	0.016511
1141.672228	0.018056
1141.828349	0.015800
1141.984452	0.020325
1142.140537	0.012800
1142.296604	0.010198
1142.452653	0.005553
1142.608683	0.002554
1142.764695	0.007095
1142.920689	-0.001598
1143.076665	-0.000783
1143.232622	0.006626
1143.388562	0.004664
1143.544483	0.005933
1143.700385	0.012581
1143.856270	0.015280
1144.012136	0.022882
1144.167985	0.021458
1144.323814	0.024238
1144.479626	0.019442
1144.635420	0.009296
1144.791195	0.007570
1144.946952	0.011431
1145.102691	0.003569
1145.258411	0.003698
1145.414113	0.002244
1145.569798	0.003716
1145.725463	0.009573
1145.881111	0.016190
1146.036741	0.018848
1146.192352	0.022549
1146.347945	0.027246
1146.503519	0.031090
1146.659076	0.034209
1146.814614	0.034568
1146.970134	0.025603
1147.125636	0.024969
1147.281120	0.023888
1147.436585	0.031218
1147.592032	0.032230
1147.747461	0.027039
1147.902872	0.024278
1148.058265	0.019195
1148.213639	0.023565
1148.368995	0.026988
1148.524333	0.025830
1148.679653	0.028680
1148.834954	0.021061
1148.990237	0.018303
1149.145502	0.018969
1149.300749	0.021401
1149.455977	0.022006
1149.611188	0.019767
1149.766380	0.023689
1149.921553	0.016828
1150.076709	0.008540
1150.231846	0.006963
1150.386966	0.013671
1150.542066	0.011208
1150.697149	0.010213
1150.852214	0.017383
1151.007260	0.010616
1151.162288	0.004609
1151.317298	0.006784
1151.472289	0.013724
1151.627263	0.016031
1151.782218	0.015453
1151.937155	0.014870
1152.092073	0.018540
1152.246974	0.018002
1152.401856	0.025154
1152.556720	0.024944
1152.711566	0.026828
1152.866393	0.025082
1153.021203	0.023170
1153.175994	0.016034
1153.330767	0.018413
1153.485521	0.016065
1153.640258	0.012001
1153.794976	0.005326
1153.949676	0.016346
1154.104358	0.022650
1154.259021	0.024173
1154.413667	0.029185
1154.568294	0.040923
1154.722903	0.040719
1154.877493	0.053397
1155.032066	0.050401
1155.186620	0.052024
1155.341156	0.040166
1155.495674	0.043511
1155.650173	0.042333
1155.804654	0.036044
1155.959118	0.027932
1156.113562	0.022167
1156.267989	0.007691
1156.422397	0.012191
1156.576788	0.011072
1156.731160	0.012291
1156.885513	-0.002364
1157.039849	-0.001998
1157.194166	0.000721
1157.348465	-0.000335
1157.502746	0.009289
1157.657009	0.007405
1157.811253	0.010090
1157.965479	0.017760
1158.119687	0.021550
1158.273877	0.028845
1158.428048	0.031498
1158.582201	0.040649
1158.736337	0.036067
1158.890453	0.035851
1159.044552	0.048134
1159.198632	0.046146
1159.352694	0.047177
1159.506738	0.050316
1159.660764	0.049476
1159.814771	0.036353
1159.968761	0.030331
1160.122732	0.031616
1160.276685	0.028410
1160.430619	0.023473
1160.584535	0.022133
1160.738434	0.020248
1160.892313	0.019403
1161.046175	0.020034
1161.200019	0.019880
1161.353844	0.013594
1161.507651	0.014638
1161.661440	0.010597
1161.815210	0.010887
1161.968962	0.010819
1162.122697	0.003152
1162.276412	0.004945
1162.430110	0.001238
1162.583789	0.006315
1162.737451	0.007383
1162.891094	0.011612
1163.044718	0.011256
1163.198325	0.008395
1163.351913	0.010243
1163.505483	0.008450
1163.659035	0.007209
1163.812569	0.015768
1163.966084	0.020344
1164.119581	0.029019
1164.273060	0.036375
1164.426521	0.040656
1164.579964	0.042352
1164.733388	0.044306
1164.886794	0.052416
1165.040182	0.061491
1165.193551	0.052910
1165.346903	0.056400
1165.500236	0.058633
1165.653551	0.053037
1165.806848	0.056839
1165.960126	0.058813
1166.113386	0.047524
1166.266628	0.041490
1166.419852	0.032291
1166.573058	0.037755
1166.726245	0.028081
1166.879414	0.023871
1167.032565	0.012787
1167.185698	0.010804
1167.338812	0.010240
1167.491909	0.006408
1167.644987	0.002464
1167.798046	-0.005943
1167.951088	-0.000953
1168.104111	0.000622
1168.257117	-0.006371
1168.410103	0.005512
1168.563072	0.001525
1168.716023	-0.007117
1168.868955	-0.000530
1169.021869	0.003990
1169.174765	0.010107
1169.327642	0.008609
1169.480501	0.000999
1169.633343	0.000103
1169.786165	-0.014699
1169.938970	-0.014417
1170.091757	-0.003536
1170.244525	0.001501
1170.397275	0.004607
1170.550007	0.013166
1170.702720	0.010861
1170.855415	0.025970
1171.008092	0.043053
1171.160751	0.066094
1171.313392	0.079519
1171.466014	0.086009
1171.618619	0.120494
1171.771205	0.120494
1171.923772	0.120494
