sample name	sample
index	1309
start time	 04-29-2021  04:15:08 PM


Wavelength (nm)	Absorbance
494.344910	-0.937922
494.563924	-0.937922
494.782919	-0.937922
495.001897	0.365853
495.220856	-0.308340
495.439797	-0.239341
495.658719	-0.221042
495.877624	-0.097422
496.096510	-0.150175
496.315378	-0.123184
496.534227	-0.081796
496.753059	-0.093021
496.971872	-0.143927
497.190667	0.001194
497.409444	0.016498
497.628203	0.021589
497.846943	0.023211
498.065665	0.025662
498.284369	0.025559
498.503055	0.026867
498.721723	0.026564
498.940372	0.027551
499.159003	0.027411
499.377616	0.028029
499.596210	0.029462
499.814787	0.029522
500.033345	0.029989
500.251885	0.029809
500.470406	0.029041
500.688910	0.029968
500.907395	0.029362
501.125862	0.029882
501.344311	0.030040
501.562742	0.029179
501.781154	0.028805
501.999548	0.028402
502.217924	0.029215
502.436282	0.029442
502.654621	0.028364
502.872942	0.028063
503.091245	0.027667
503.309530	0.027066
503.527797	0.027134
503.746045	0.026638
503.964275	0.025866
504.182487	0.025177
504.400681	0.024870
504.618856	0.025652
504.837013	0.025985
505.055152	0.026659
505.273273	0.027305
505.491376	0.027094
505.709460	0.028160
505.927526	0.028124
506.145574	0.028347
506.363604	0.028038
506.581615	0.027698
506.799608	0.026951
507.017583	0.026812
507.235540	0.026465
507.453478	0.027377
507.671399	0.026242
507.889301	0.026296
508.107185	0.024502
508.325050	0.025536
508.542898	0.025755
508.760727	0.026353
508.978538	0.025860
509.196330	0.025484
509.414105	0.024701
509.631861	0.024750
509.849599	0.024400
510.067319	0.025935
510.285021	0.025130
510.502704	0.024657
510.720369	0.025300
510.938016	0.026077
511.155645	0.026203
511.373255	0.025941
511.590848	0.026909
511.808422	0.027705
512.025977	0.027942
512.243515	0.027981
512.461034	0.027584
512.678536	0.027477
512.896018	0.026433
513.113483	0.027027
513.330930	0.027585
513.548358	0.026756
513.765768	0.026300
513.983160	0.026625
514.200533	0.026344
514.417889	0.027189
514.635226	0.027280
514.852545	0.028087
515.069845	0.027971
515.287128	0.028545
515.504392	0.029443
515.721638	0.029299
515.938866	0.029193
516.156075	0.029591
516.373267	0.029308
516.590440	0.028936
516.807594	0.028756
517.024731	0.027939
517.241850	0.027293
517.458950	0.026441
517.676032	0.026773
517.893095	0.026919
518.110141	0.027124
518.327168	0.027574
518.544177	0.027705
518.761168	0.028136
518.978141	0.029203
519.195095	0.029563
519.412031	0.029564
519.628949	0.029967
519.845849	0.029401
520.062731	0.029149
520.279594	0.029128
520.496439	0.029288
520.713266	0.028702
520.930074	0.028347
521.146865	0.028229
521.363637	0.028829
521.580391	0.028817
521.797127	0.029855
522.013844	0.030184
522.230543	0.030704
522.447224	0.030752
522.663887	0.031951
522.880532	0.032558
523.097158	0.032223
523.313766	0.032671
523.530356	0.032656
523.746928	0.032178
523.963481	0.032504
524.180017	0.032772
524.396534	0.032624
524.613032	0.032607
524.829513	0.032758
525.045975	0.033059
525.262420	0.033317
525.478845	0.033352
525.695253	0.033809
525.911643	0.033783
526.128014	0.034093
526.344367	0.034487
526.560702	0.034117
526.777018	0.034220
526.993316	0.034853
527.209597	0.034977
527.425858	0.035542
527.642102	0.035557
527.858328	0.035692
528.074535	0.035231
528.290724	0.035044
528.506894	0.035163
528.723047	0.034979
528.939181	0.035020
529.155297	0.034739
529.371395	0.034629
529.587475	0.034299
529.803536	0.034318
530.019579	0.034190
530.235604	0.034643
530.451611	0.035197
530.667600	0.035694
530.883570	0.035915
531.099522	0.036114
531.315456	0.036856
531.531372	0.036683
531.747269	0.037442
531.963148	0.037891
532.179009	0.038429
532.394852	0.038641
532.610676	0.038630
532.826482	0.038435
533.042271	0.038530
533.258040	0.038117
533.473792	0.039375
533.689525	0.039151
533.905240	0.038942
534.120937	0.039124
534.336616	0.038653
534.552277	0.038754
534.767919	0.039563
534.983543	0.039379
535.199149	0.039550
535.414736	0.039362
535.630306	0.039783
535.845857	0.039542
536.061390	0.039154
536.276904	0.039885
536.492401	0.040314
536.707879	0.039966
536.923339	0.040758
537.138781	0.040804
537.354204	0.040783
537.569610	0.040833
537.784997	0.041873
538.000366	0.042394
538.215716	0.042595
538.431049	0.042778
538.646363	0.042882
538.861659	0.042944
539.076937	0.043121
539.292196	0.043562
539.507438	0.043415
539.722661	0.043312
539.937866	0.043289
540.153052	0.043495
540.368221	0.043451
540.583371	0.043714
540.798503	0.043288
541.013617	0.043816
541.228712	0.043851
541.443789	0.044118
541.658848	0.044187
541.873889	0.043990
542.088912	0.044031
542.303916	0.043991
542.518902	0.044363
542.733870	0.044981
542.948820	0.044535
543.163752	0.044741
543.378665	0.045144
543.593560	0.045559
543.808437	0.046116
544.023295	0.045743
544.238136	0.045726
544.452958	0.045429
544.667762	0.045394
544.882548	0.045535
545.097315	0.045674
545.312064	0.045186
545.526795	0.045044
545.741508	0.044754
545.956203	0.044920
546.170879	0.045553
546.385537	0.045865
546.600177	0.045837
546.814799	0.046394
547.029402	0.046303
547.243988	0.046320
547.458555	0.046559
547.673103	0.047121
547.887634	0.047308
548.102146	0.047610
548.316640	0.047785
548.531116	0.047949
548.745574	0.047977
548.960013	0.048020
549.174435	0.048233
549.388838	0.048318
549.603222	0.048063
549.817589	0.048196
550.031937	0.047673
550.246267	0.047372
550.460579	0.047125
550.674873	0.047084
550.889148	0.047206
551.103405	0.047510
551.317644	0.047714
551.531865	0.047964
551.746068	0.047557
551.960252	0.047524
552.174418	0.047965
552.388566	0.048550
552.602696	0.048446
552.816807	0.048593
553.030900	0.048728
553.244975	0.048700
553.459032	0.048585
553.673070	0.049327
553.887091	0.049463
554.101093	0.049491
554.315077	0.049433
554.529042	0.049195
554.742990	0.049048
554.956919	0.049134
555.170830	0.048999
555.384722	0.049089
555.598597	0.049294
555.812453	0.049373
556.026291	0.049077
556.240111	0.049181
556.453913	0.049643
556.667696	0.049790
556.881461	0.049836
557.095208	0.049744
557.308937	0.049697
557.522647	0.049153
557.736339	0.049184
557.950013	0.049431
558.163669	0.049043
558.377307	0.049167
558.590926	0.049450
558.804527	0.049278
559.018110	0.049569
559.231675	0.049780
559.445221	0.049819
559.658749	0.049842
559.872259	0.049715
560.085751	0.050295
560.299225	0.050040
560.512680	0.050043
560.726117	0.050415
560.939536	0.050576
561.152937	0.051137
561.366319	0.051130
561.579683	0.051118
561.793029	0.051635
562.006357	0.051299
562.219667	0.051835
562.432958	0.051855
562.646231	0.051806
562.859486	0.052044
563.072723	0.051494
563.285941	0.051520
563.499141	0.051699
563.712323	0.051633
563.925487	0.051914
564.138632	0.051849
564.351760	0.051790
564.564869	0.051773
564.777960	0.051492
564.991032	0.051919
565.204087	0.052484
565.417123	0.052740
565.630141	0.052829
565.843140	0.052965
566.056122	0.052657
566.269085	0.052474
566.482030	0.052562
566.694957	0.052638
566.907866	0.052645
567.120756	0.052428
567.333628	0.052010
567.546482	0.052067
567.759318	0.052238
567.972135	0.052609
568.184935	0.053011
568.397716	0.052943
568.610478	0.053148
568.823223	0.053017
569.035949	0.053224
569.248657	0.053831
569.461347	0.053705
569.674019	0.053476
569.886672	0.052905
570.099308	0.052583
570.311925	0.052713
570.524523	0.052410
570.737104	0.052578
570.949666	0.052377
571.162210	0.052237
571.374736	0.052158
571.587244	0.052396
571.799733	0.052764
572.012205	0.053214
572.224658	0.053234
572.437092	0.053158
572.649509	0.052946
572.861907	0.053157
573.074287	0.052889
573.286649	0.052925
573.498993	0.052520
573.711318	0.052726
573.923625	0.052546
574.135914	0.052404
574.348185	0.052639
574.560438	0.052926
574.772672	0.052851
574.984888	0.053178
575.197086	0.053029
575.409266	0.053391
575.621427	0.053052
575.833570	0.053178
576.045695	0.053469
576.257802	0.053134
576.469890	0.053167
576.681961	0.053009
576.894013	0.052774
577.106046	0.053185
577.318062	0.053191
577.530059	0.053711
577.742039	0.053753
577.954000	0.053709
578.165942	0.054024
578.377867	0.053629
578.589773	0.053538
578.801661	0.053541
579.013531	0.053526
579.225382	0.053441
579.437216	0.053051
579.649031	0.052912
579.860828	0.052992
580.072606	0.053146
580.284367	0.053106
580.496109	0.053412
580.707833	0.053432
580.919539	0.053566
581.131227	0.053828
581.342896	0.054100
581.554547	0.053958
581.766180	0.053922
581.977795	0.054124
582.189391	0.054598
582.400969	0.054781
582.612529	0.055184
582.824071	0.055050
583.035595	0.055002
583.247100	0.055276
583.458587	0.055762
583.670056	0.056078
583.881506	0.056152
584.092939	0.056217
584.304353	0.056453
584.515749	0.056570
584.727127	0.056667
584.938486	0.056721
585.149828	0.056589
585.361151	0.056597
585.572456	0.056156
585.783742	0.056100
585.995011	0.055873
586.206261	0.055425
586.417493	0.055450
586.628706	0.055558
586.839902	0.055555
587.051079	0.055518
587.262238	0.055248
587.473379	0.055714
587.684502	0.055948
587.895606	0.056196
588.106692	0.056425
588.317760	0.056430
588.528810	0.056523
588.739841	0.056919
588.950855	0.057020
589.161850	0.057560
589.372827	0.057580
589.583785	0.057694
589.794726	0.057971
590.005648	0.058270
590.216552	0.058243
590.427437	0.058376
590.638305	0.058317
590.849154	0.058433
591.059985	0.058518
591.270798	0.058600
591.481592	0.058308
591.692369	0.058124
591.903127	0.058175
592.113867	0.058240
592.324588	0.057972
592.535292	0.057760
592.745977	0.058075
592.956644	0.057892
593.167293	0.057983
593.377923	0.058209
593.588536	0.058168
593.799130	0.058497
594.009706	0.058266
594.220263	0.058282
594.430803	0.058558
594.641324	0.058426
594.851827	0.058763
595.062312	0.058835
595.272778	0.058879
595.483227	0.059168
595.693657	0.058639
595.904069	0.059188
596.114462	0.059468
596.324838	0.059313
596.535195	0.059657
596.745534	0.059446
596.955855	0.059319
597.166157	0.059459
597.376441	0.059660
597.586707	0.060148
597.796955	0.060134
598.007185	0.060096
598.217396	0.060146
598.427589	0.059974
598.637764	0.060091
598.847921	0.059964
599.058060	0.059812
599.268180	0.059894
599.478282	0.059683
599.688366	0.059454
599.898431	0.059553
600.108479	0.059886
600.318508	0.059834
600.528519	0.059805
600.738511	0.060040
600.948486	0.060054
601.158442	0.059577
601.368380	0.059388
601.578300	0.059509
601.788202	0.059886
601.998085	0.059571
602.207950	0.059497
602.417797	0.059638
602.627626	0.059548
602.837436	0.059620
603.047228	0.059708
603.257002	0.060091
603.466758	0.060146
603.676496	0.059752
603.886215	0.060128
604.095916	0.060414
604.305599	0.060246
604.515264	0.060376
604.724910	0.060585
604.934538	0.060786
605.144148	0.060887
605.353740	0.061182
605.563314	0.061447
605.772869	0.061479
605.982406	0.061399
606.191925	0.061521
606.401425	0.061607
606.610908	0.061496
606.820372	0.061622
607.029818	0.061545
607.239246	0.061694
607.448655	0.061736
607.658047	0.061774
607.867420	0.062002
608.076775	0.061798
608.286111	0.062135
608.495430	0.062413
608.704730	0.062450
608.914012	0.062631
609.123275	0.062540
609.332521	0.062616
609.541748	0.062561
609.750957	0.062417
609.960148	0.062829
610.169321	0.062801
610.378475	0.062851
610.587611	0.063056
610.796729	0.063306
611.005829	0.063213
611.214910	0.063467
611.423974	0.063680
611.633019	0.063992
611.842045	0.064258
612.051054	0.064096
612.260044	0.064110
612.469017	0.064199
612.677970	0.063837
612.886906	0.063972
613.095824	0.063717
613.304723	0.063727
613.513604	0.063579
613.722467	0.063314
613.931311	0.063500
614.140138	0.063627
614.348946	0.063505
614.557736	0.064003
614.766507	0.064069
614.975261	0.064068
615.183996	0.064052
615.392713	0.064477
615.601412	0.064723
615.810092	0.064835
616.018754	0.064831
616.227399	0.064924
616.436024	0.064873
616.644632	0.064965
616.853222	0.065173
617.061793	0.065121
617.270346	0.064778
617.478880	0.064940
617.687397	0.065008
617.895895	0.064909
618.104375	0.065070
618.312837	0.065111
618.521281	0.064933
618.729706	0.065018
618.938113	0.065350
619.146502	0.065334
619.354873	0.064993
619.563226	0.064635
619.771560	0.064501
619.979876	0.064402
620.188174	0.064159
620.396453	0.064092
620.604715	0.063853
620.812958	0.063612
621.021183	0.063713
621.229390	0.063821
621.437578	0.064044
621.645748	0.064338
621.853900	0.064271
622.062034	0.064572
622.270150	0.064961
622.478247	0.065339
622.686326	0.065549
622.894387	0.065618
623.102430	0.065755
623.310454	0.065714
623.518461	0.065769
623.726449	0.066036
623.934418	0.065825
624.142370	0.065911
624.350303	0.065817
624.558218	0.065564
624.766115	0.065628
624.973994	0.065606
625.181855	0.065706
625.389697	0.065387
625.597521	0.065269
625.805327	0.065509
626.013114	0.065532
626.220883	0.065807
626.428634	0.066156
626.636367	0.066213
626.844082	0.066529
627.051778	0.066590
627.259457	0.067032
627.467117	0.067157
627.674758	0.067118
627.882382	0.067083
628.089987	0.066849
628.297574	0.066717
628.505143	0.066735
628.712694	0.066564
628.920226	0.066720
629.127740	0.066823
629.335236	0.067015
629.542714	0.067068
629.750174	0.067125
629.957615	0.067274
630.165038	0.067407
630.372443	0.067410
630.579829	0.067374
630.787198	0.067566
630.994548	0.067563
631.201880	0.067493
631.409194	0.067498
631.616489	0.067477
631.823766	0.067300
632.031025	0.067399
632.238266	0.067617
632.445489	0.067909
632.652693	0.068005
632.859879	0.067950
633.067047	0.067888
633.274197	0.067953
633.481329	0.068104
633.688442	0.068256
633.895537	0.068265
634.102614	0.068176
634.309672	0.068226
634.516713	0.068136
634.723735	0.068393
634.930739	0.068783
635.137724	0.068860
635.344692	0.068813
635.551641	0.069146
635.758572	0.069288
635.965485	0.069576
636.172379	0.069812
636.379256	0.069961
636.586114	0.069976
636.792954	0.069992
636.999775	0.070181
637.206579	0.070501
637.413364	0.070509
637.620131	0.070831
637.826880	0.070727
638.033610	0.070660
638.240323	0.070696
638.447017	0.070742
638.653692	0.070825
638.860350	0.071061
639.066990	0.070929
639.273611	0.070820
639.480214	0.070753
639.686798	0.070876
639.893365	0.070905
640.099913	0.070670
640.306443	0.070770
640.512955	0.070595
640.719449	0.070435
640.925924	0.070464
641.132381	0.070597
641.338820	0.070473
641.545241	0.070608
641.751644	0.070753
641.958028	0.071175
642.164394	0.071248
642.370742	0.071728
642.577071	0.071834
642.783383	0.072046
642.989676	0.072184
643.195951	0.072290
643.402207	0.072287
643.608446	0.072216
643.814666	0.072408
644.020868	0.072377
644.227052	0.072154
644.433218	0.072295
644.639365	0.072304
644.845494	0.072427
645.051605	0.072746
645.257698	0.072883
645.463772	0.073163
645.669828	0.072945
645.875866	0.073041
646.081886	0.073248
646.287888	0.073237
646.493871	0.073287
646.699836	0.073168
646.905783	0.073342
647.111712	0.073304
647.317622	0.073176
647.523514	0.073313
647.729388	0.073362
647.935244	0.073306
648.141082	0.073310
648.346901	0.073490
648.552702	0.073897
648.758485	0.073699
648.964250	0.073754
649.169996	0.073872
649.375724	0.074078
649.581434	0.074358
649.787126	0.074615
649.992800	0.075069
650.198455	0.075057
650.404092	0.075031
650.609711	0.075256
650.815311	0.075377
651.020894	0.075679
651.226458	0.075597
651.432004	0.075645
651.637532	0.075602
651.843041	0.075444
652.048532	0.075535
652.254006	0.075544
652.459460	0.075456
652.664897	0.075524
652.870315	0.075303
653.075716	0.075554
653.281097	0.075701
653.486461	0.075761
653.691807	0.075683
653.897134	0.075662
654.102443	0.075684
654.307734	0.075846
654.513006	0.076065
654.718261	0.076166
654.923497	0.076109
655.128715	0.075821
655.333915	0.075788
655.539096	0.076012
655.744259	0.076030
655.949404	0.076195
656.154531	0.076072
656.359640	0.076100
656.564730	0.076182
656.769802	0.076191
656.974856	0.076378
657.179892	0.076518
657.384909	0.076678
657.589908	0.076918
657.794889	0.076983
657.999852	0.076998
658.204797	0.076975
658.409723	0.077094
658.614631	0.077372
658.819521	0.077722
659.024393	0.077907
659.229246	0.078061
659.434081	0.078331
659.638898	0.078527
659.843697	0.079180
660.048478	0.079288
660.253240	0.079205
660.457984	0.079183
660.662710	0.079080
660.867417	0.078952
661.072107	0.078651
661.276778	0.078522
661.481431	0.078551
661.686066	0.078116
661.890682	0.078224
662.095281	0.078596
662.299861	0.078606
662.504422	0.078671
662.708966	0.078834
662.913491	0.079445
663.117999	0.079524
663.322488	0.079626
663.526958	0.079850
663.731411	0.080050
663.935845	0.079846
664.140261	0.080247
664.344659	0.080605
664.549038	0.080730
664.753400	0.080591
664.957743	0.080794
665.162068	0.080770
665.366375	0.080606
665.570663	0.080597
665.774933	0.080636
665.979185	0.080252
666.183419	0.079937
666.387635	0.079726
666.591832	0.079605
666.796011	0.079388
667.000172	0.079437
667.204315	0.079558
667.408439	0.079422
667.612545	0.079431
667.816634	0.079577
668.020703	0.079662
668.224755	0.079955
668.428788	0.079867
668.632803	0.080014
668.836800	0.079941
669.040779	0.080010
669.244739	0.080321
669.448681	0.080602
669.652605	0.080537
669.856511	0.080703
670.060399	0.080875
670.264268	0.081154
670.468119	0.081393
670.671952	0.081567
670.875767	0.081876
671.079563	0.081870
671.283341	0.082128
671.487101	0.082535
671.690843	0.082545
671.894567	0.082574
672.098272	0.082684
672.301959	0.082684
672.505628	0.082647
672.709278	0.082551
672.912911	0.082649
673.116525	0.082673
673.320121	0.082576
673.523699	0.082527
673.727258	0.082536
673.930799	0.082548
674.134322	0.082747
674.337827	0.082766
674.541314	0.082586
674.744782	0.082522
674.948232	0.082505
675.151664	0.082519
675.355078	0.082772
675.558474	0.082871
675.761851	0.082940
675.965210	0.082839
676.168551	0.082866
676.371873	0.083354
676.575178	0.083628
676.778464	0.083692
676.981732	0.083996
677.184981	0.084171
677.388213	0.084097
677.591426	0.084216
677.794621	0.084276
677.997798	0.084575
678.200956	0.084380
678.404097	0.084353
678.607219	0.084417
678.810323	0.084397
679.013408	0.084680
679.216476	0.084957
679.419525	0.084980
679.622556	0.085225
679.825569	0.085621
680.028563	0.086018
680.231540	0.086348
680.434498	0.086398
680.637438	0.086649
680.840359	0.086503
681.043263	0.086577
681.246148	0.086802
681.449015	0.086785
681.651864	0.086620
681.854694	0.086769
682.057506	0.086754
682.260301	0.086874
682.463076	0.086763
682.665834	0.086729
682.868573	0.086877
683.071295	0.086838
683.273998	0.087036
683.476682	0.087001
683.679349	0.086958
683.881997	0.087015
684.084627	0.087061
684.287239	0.087228
684.489833	0.087220
684.692408	0.087312
684.894965	0.087270
685.097504	0.087218
685.300025	0.087495
685.502527	0.087333
685.705012	0.087111
685.907478	0.087278
686.109925	0.087212
686.312355	0.087459
686.514766	0.087511
686.717159	0.087586
686.919534	0.087812
687.121891	0.087863
687.324230	0.088092
687.526550	0.088565
687.728852	0.088548
687.931136	0.088710
688.133401	0.088698
688.335649	0.088881
688.537878	0.089039
688.740089	0.089096
688.942281	0.089162
689.144456	0.089204
689.346612	0.089026
689.548750	0.089219
689.750870	0.089334
689.952971	0.089298
690.155055	0.089410
690.357120	0.089658
690.559167	0.089568
690.761195	0.089483
690.963206	0.089437
691.165198	0.089615
691.367172	0.089609
691.569128	0.089769
691.771065	0.090143
691.972984	0.089962
692.174885	0.089894
692.376768	0.089959
692.578633	0.090004
692.780479	0.090426
692.982308	0.090297
693.184118	0.090365
693.385909	0.090119
693.587683	0.090122
693.789438	0.090238
693.991175	0.090266
694.192894	0.090338
694.394595	0.090526
694.596277	0.090331
694.797941	0.090485
694.999587	0.090629
695.201215	0.090877
695.402824	0.090963
695.604416	0.090976
695.805989	0.091094
696.007543	0.091041
696.209080	0.091118
696.410598	0.091234
696.612099	0.091271
696.813580	0.091162
697.015044	0.091390
697.216490	0.091414
697.417917	0.091457
697.619326	0.091383
697.820717	0.091548
698.022089	0.091529
698.223444	0.091671
698.424780	0.091676
698.626098	0.091950
698.827397	0.091855
699.028679	0.091777
699.229942	0.091799
699.431187	0.091909
699.632414	0.091990
699.833622	0.092053
700.034813	0.092029
700.235985	0.092091
700.437139	0.091754
700.638274	0.091750
700.839392	0.091820
701.040491	0.091805
701.241572	0.092002
701.442635	0.092119
701.643679	0.092167
701.844706	0.092198
702.045714	0.092240
702.246704	0.092680
702.447675	0.092635
702.648629	0.092711
702.849564	0.092820
703.050481	0.092804
703.251380	0.092780
703.452260	0.092737
703.653122	0.092921
703.853966	0.093106
704.054792	0.092976
704.255600	0.093109
704.456389	0.093234
704.657160	0.092974
704.857913	0.092801
705.058648	0.092855
705.259365	0.092853
705.460063	0.092663
705.660743	0.092544
705.861405	0.092334
706.062048	0.092203
706.262674	0.091797
706.463281	0.091954
706.663870	0.092070
706.864441	0.091816
707.064993	0.091753
707.265527	0.091884
707.466043	0.091996
707.666541	0.092070
707.867021	0.092285
708.067482	0.092488
708.267925	0.092512
708.468350	0.092612
708.668757	0.092696
708.869145	0.093006
709.069516	0.093069
709.269868	0.093156
709.470201	0.093461
709.670517	0.093497
709.870814	0.093626
710.071093	0.093913
710.271354	0.093972
710.471597	0.094261
710.671821	0.094308
710.872028	0.094171
711.072216	0.094089
711.272385	0.093795
711.472537	0.093765
711.672670	0.093912
711.872785	0.093804
712.072882	0.093807
712.272961	0.093452
712.473021	0.093458
712.673063	0.093455
712.873087	0.093430
713.073093	0.093586
713.273081	0.093485
713.473050	0.093232
713.673001	0.093110
713.872934	0.092822
714.072849	0.093056
714.272745	0.092744
714.472623	0.092643
714.672483	0.092531
714.872325	0.092267
715.072148	0.092224
715.271954	0.092229
715.471741	0.092255
715.671509	0.092382
715.871260	0.092178
716.070992	0.092188
716.270707	0.092172
716.470403	0.092274
716.670080	0.092330
716.869740	0.092376
717.069381	0.092269
717.269004	0.092247
717.468609	0.092129
717.668195	0.092247
717.867764	0.092152
718.067314	0.092273
718.266846	0.092036
718.466360	0.092069
718.665855	0.091859
718.865332	0.091954
719.064791	0.091819
719.264232	0.091616
719.463655	0.091608
719.663059	0.091517
719.862445	0.091431
720.061813	0.091508
720.261163	0.091306
720.460494	0.091222
720.659807	0.091005
720.859102	0.090906
721.058379	0.090967
721.257638	0.090743
721.456878	0.090732
721.656100	0.090693
721.855304	0.090441
722.054490	0.090393
722.253657	0.090403
722.452806	0.090384
722.651937	0.090558
722.851050	0.090524
723.050145	0.090393
723.249221	0.090341
723.448279	0.090068
723.647319	0.090096
723.846340	0.090141
724.045344	0.090262
724.244329	0.090208
724.443296	0.090152
724.642245	0.090431
724.841175	0.090770
725.040088	0.091001
725.238982	0.091039
725.437857	0.091147
725.636715	0.091163
725.835554	0.090958
726.034376	0.091139
726.233179	0.091117
726.431963	0.090929
726.630730	0.090623
726.829478	0.090296
727.028208	0.090370
727.226920	0.090111
727.425614	0.089972
727.624289	0.089892
727.822946	0.089639
728.021585	0.089198
728.220206	0.088789
728.418808	0.088666
728.617392	0.088625
728.815958	0.088290
729.014506	0.088365
729.213036	0.088145
729.411547	0.088070
729.610040	0.087860
729.808515	0.088086
730.006972	0.088191
730.205410	0.088177
730.403831	0.088306
730.602233	0.088584
730.800616	0.088491
730.998982	0.088765
731.197329	0.088781
731.395658	0.089144
731.593969	0.089118
731.792262	0.089174
731.990536	0.089433
732.188793	0.089365
732.387031	0.089204
732.585250	0.089217
732.783452	0.089127
732.981635	0.089103
733.179800	0.088885
733.377947	0.088856
733.576076	0.088842
733.774186	0.088465
733.972278	0.088385
734.170352	0.088310
734.368408	0.088290
734.566446	0.088300
734.764465	0.088108
734.962466	0.088065
735.160449	0.087942
735.358413	0.087723
735.556360	0.087727
735.754288	0.087462
735.952198	0.087439
736.150090	0.087388
736.347963	0.087085
736.545818	0.087048
736.743655	0.086867
736.941474	0.086784
737.139275	0.086999
737.337057	0.086845
737.534821	0.086959
737.732567	0.086718
737.930295	0.086489
738.128005	0.086475
738.325696	0.086475
738.523369	0.086352
738.721024	0.086176
738.918660	0.085930
739.116279	0.085833
739.313879	0.085615
739.511461	0.085742
739.709024	0.085627
739.906570	0.085636
740.104097	0.085476
740.301606	0.085535
740.499097	0.085429
740.696569	0.085292
740.894024	0.085404
741.091460	0.085561
741.288878	0.085303
741.486277	0.085393
741.683659	0.085397
741.881022	0.085440
742.078367	0.085391
742.275694	0.085384
742.473002	0.085236
742.670293	0.084885
742.867565	0.084690
743.064819	0.084801
743.262054	0.084781
743.459272	0.084677
743.656471	0.084552
743.853652	0.084177
744.050815	0.084251
744.247959	0.084061
744.445085	0.084130
744.642194	0.084097
744.839283	0.083691
745.036355	0.083419
745.233408	0.083320
745.430444	0.083316
745.627461	0.083656
745.824459	0.083426
746.021440	0.083513
746.218402	0.083454
746.415346	0.083348
746.612272	0.083491
746.809180	0.083409
747.006069	0.083156
747.202940	0.082974
747.399793	0.082773
747.596628	0.082839
747.793444	0.082899
747.990243	0.082903
748.187023	0.082775
748.383784	0.082758
748.580528	0.082766
748.777253	0.082945
748.973960	0.082985
749.170649	0.082821
749.367320	0.082759
749.563973	0.082816
749.760607	0.082854
749.957223	0.082956
750.153821	0.083011
750.350400	0.082917
750.546962	0.082926
750.743505	0.082813
750.940030	0.082860
751.136536	0.082732
751.333025	0.082481
751.529495	0.082291
751.725947	0.081997
751.922381	0.081569
752.118796	0.081542
752.315194	0.081355
752.511573	0.081272
752.707934	0.081106
752.904276	0.081003
753.100601	0.080985
753.296907	0.081074
753.493195	0.081008
753.689465	0.080871
753.885716	0.080854
754.081949	0.080601
754.278164	0.080333
754.474361	0.080229
754.670540	0.080140
754.866700	0.079903
755.062843	0.079696
755.258967	0.079792
755.455072	0.079988
755.651160	0.079973
755.847229	0.080001
756.043280	0.080074
756.239313	0.080101
756.435328	0.079973
756.631324	0.080117
756.827302	0.080071
757.023262	0.080091
757.219204	0.080040
757.415127	0.080113
757.611033	0.080088
757.806920	0.080112
758.002788	0.079979
758.198639	0.080016
758.394471	0.079857
758.590286	0.079639
758.786081	0.079365
758.981859	0.079160
759.177619	0.078681
759.373360	0.078429
759.569083	0.078311
759.764788	0.078174
759.960474	0.078080
760.156143	0.077969
760.351793	0.078030
760.547425	0.077833
760.743038	0.077831
760.938634	0.077700
761.134211	0.077798
761.329770	0.077641
761.525311	0.077470
761.720833	0.077306
761.916338	0.077239
762.111824	0.076963
762.307292	0.076909
762.502741	0.076789
762.698173	0.076803
762.893586	0.076652
763.088981	0.076642
763.284358	0.076722
763.479716	0.076713
763.675057	0.076689
763.870379	0.076705
764.065683	0.076679
764.260968	0.076779
764.456236	0.076840
764.651485	0.076787
764.846716	0.076655
765.041929	0.076524
765.237123	0.076572
765.432299	0.076452
765.627457	0.076480
765.822597	0.076458
766.017719	0.076301
766.212822	0.076408
766.407907	0.076472
766.602974	0.076410
766.798023	0.076409
766.993054	0.076232
767.188066	0.076111
767.383060	0.076239
767.578036	0.076120
767.772993	0.075973
767.967933	0.075689
768.162854	0.075511
768.357757	0.075503
768.552642	0.075422
768.747508	0.075365
768.942356	0.075548
769.137186	0.075242
769.331998	0.075241
769.526792	0.075298
769.721567	0.075181
769.916324	0.075128
770.111063	0.075079
770.305784	0.075171
770.500486	0.075044
770.695171	0.074999
770.889837	0.074956
771.084484	0.074810
771.279114	0.074755
771.473725	0.074734
771.668318	0.074700
771.862893	0.074590
772.057450	0.074183
772.251988	0.074123
772.446509	0.073754
772.641011	0.073721
772.835494	0.073810
773.029960	0.073610
773.224407	0.073640
773.418836	0.073575
773.613247	0.073436
773.807640	0.073628
774.002014	0.073656
774.196370	0.073564
774.390708	0.073343
774.585028	0.073188
774.779330	0.073304
774.973613	0.073282
775.167878	0.073242
775.362125	0.073473
775.556354	0.073531
775.750564	0.073596
775.944756	0.074022
776.138930	0.074370
776.333086	0.074470
776.527223	0.074494
776.721343	0.074472
776.915444	0.074479
777.109526	0.074423
777.303591	0.074344
777.497637	0.074307
777.691666	0.074033
777.885676	0.074023
778.079667	0.074033
778.273641	0.074103
778.467596	0.074318
778.661533	0.074389
778.855452	0.074208
779.049352	0.074268
779.243235	0.074249
779.437099	0.074292
779.630945	0.074062
779.824773	0.073952
780.018582	0.073931
780.212373	0.073708
780.406146	0.073563
780.599901	0.073670
780.793638	0.073702
780.987356	0.073933
781.181056	0.073872
781.374738	0.073967
781.568402	0.074174
781.762047	0.074127
781.955674	0.074263
782.149283	0.074423
782.342874	0.074591
782.536447	0.074605
782.730001	0.074487
782.923537	0.074709
783.117055	0.074771
783.310555	0.074843
783.504036	0.074769
783.697499	0.074873
783.890944	0.075086
784.084371	0.074968
784.277780	0.075004
784.471170	0.075028
784.664542	0.074940
784.857896	0.075215
785.051231	0.075274
785.244549	0.075385
785.437848	0.075488
785.631129	0.075399
785.824392	0.075633
786.017636	0.075757
786.210863	0.075937
786.404071	0.075928
786.597260	0.075735
786.790432	0.075699
786.983585	0.075971
787.176721	0.075812
787.369838	0.076008
787.562936	0.076164
787.756017	0.076024
787.949079	0.075991
788.142123	0.076214
788.335149	0.076360
788.528156	0.076512
788.721146	0.076428
788.914117	0.076732
789.107070	0.076790
789.300005	0.076477
789.492921	0.076767
789.685819	0.076964
789.878699	0.077081
790.071561	0.077222
790.264405	0.077501
790.457230	0.077502
790.650037	0.077433
790.842826	0.077200
791.035597	0.077469
791.228349	0.077408
791.421084	0.077189
791.613800	0.077153
791.806497	0.077032
791.999177	0.076496
792.191838	0.076520
792.384481	0.076593
792.577106	0.076647
792.769713	0.076549
792.962301	0.076714
793.154871	0.076710
793.347423	0.076724
793.539957	0.076538
793.732473	0.076806
793.924970	0.076882
794.117449	0.076770
794.309910	0.076665
794.502353	0.076747
794.694777	0.076572
794.887183	0.076626
795.079571	0.076468
795.271941	0.076570
795.464293	0.076567
795.656626	0.076558
795.848941	0.076573
796.041238	0.076685
796.233516	0.076878
796.425777	0.076882
796.618019	0.076991
796.810243	0.077168
797.002449	0.077386
797.194636	0.077441
797.386805	0.077399
797.578956	0.077286
797.771089	0.077369
797.963204	0.077463
798.155300	0.077453
798.347378	0.077458
798.539438	0.077366
798.731480	0.077431
798.923503	0.077645
799.115509	0.077830
799.307496	0.078047
799.499465	0.078166
799.691415	0.077944
799.883348	0.078123
800.075262	0.078383
800.267158	0.078448
800.459035	0.078449
800.650895	0.078272
800.842736	0.078490
801.034559	0.078619
801.226364	0.078466
801.418150	0.078857
801.609919	0.078828
801.801669	0.078830
801.993401	0.079122
802.185114	0.079195
802.376810	0.079188
802.568487	0.079176
802.760146	0.079262
802.951787	0.079755
803.143409	0.079664
803.335014	0.079904
803.526600	0.079959
803.718168	0.080114
803.909717	0.080374
804.101249	0.080825
804.292762	0.080926
804.484257	0.081117
804.675734	0.081130
804.867192	0.081265
805.058632	0.081376
805.250054	0.081436
805.441458	0.081520
805.632844	0.081424
805.824211	0.081276
806.015561	0.081347
806.206891	0.081567
806.398204	0.081572
806.589499	0.081515
806.780775	0.081537
806.972033	0.081773
807.163273	0.081405
807.354495	0.081305
807.545698	0.081375
807.736883	0.081334
807.928050	0.081066
808.119199	0.081187
808.310329	0.081330
808.501441	0.081285
808.692535	0.081075
808.883611	0.081307
809.074669	0.081545
809.265708	0.081330
809.456729	0.081456
809.647732	0.081555
809.838717	0.081538
810.029683	0.081649
810.220632	0.081945
810.411562	0.082148
810.602474	0.082318
810.793367	0.082362
810.984242	0.082757
811.175100	0.082529
811.365938	0.082548
811.556759	0.082654
811.747562	0.082533
811.938346	0.082268
812.129112	0.082290
812.319860	0.082266
812.510589	0.082291
812.701300	0.082310
812.891994	0.082490
813.082668	0.082638
813.273325	0.082687
813.463964	0.082982
813.654584	0.083380
813.845186	0.083318
814.035769	0.083532
814.226335	0.083691
814.416882	0.083445
814.607411	0.083657
814.797922	0.083790
814.988415	0.084071
815.178889	0.084203
815.369345	0.084271
815.559783	0.084410
815.750203	0.084622
815.940605	0.084742
816.130988	0.085233
816.321353	0.085631
816.511700	0.085760
816.702028	0.085833
816.892339	0.085842
817.082631	0.086011
817.272905	0.086345
817.463161	0.086382
817.653398	0.086416
817.843617	0.086483
818.033819	0.086298
818.224001	0.086669
818.414166	0.086794
818.604312	0.087051
818.794440	0.086955
818.984550	0.087034
819.174642	0.086905
819.364716	0.087084
819.554771	0.087140
819.744808	0.087155
819.934827	0.087018
820.124827	0.087195
820.314810	0.087154
820.504774	0.087577
820.694720	0.087547
820.884647	0.088018
821.074557	0.088114
821.264448	0.088411
821.454321	0.088624
821.644176	0.088773
821.834012	0.088911
822.023831	0.089050
822.213631	0.089170
822.403413	0.089583
822.593176	0.089513
822.782922	0.089827
822.972649	0.089893
823.162358	0.090348
823.352049	0.090555
823.541721	0.090612
823.731376	0.090808
823.921012	0.090497
824.110629	0.090403
824.300229	0.090555
824.489811	0.090447
824.679374	0.090689
824.868919	0.090579
825.058445	0.090546
825.247954	0.090351
825.437444	0.090518
825.626916	0.090890
825.816370	0.090953
826.005806	0.091124
826.195223	0.091369
826.384622	0.091456
826.574003	0.091658
826.763366	0.091822
826.952711	0.092030
827.142037	0.092084
827.331345	0.092147
827.520635	0.092498
827.709906	0.092518
827.899160	0.092562
828.088395	0.092617
828.277612	0.092797
828.466810	0.093096
828.655991	0.093258
828.845153	0.093257
829.034297	0.093673
829.223423	0.093860
829.412531	0.094429
829.601620	0.094845
829.790691	0.094983
829.979744	0.094942
830.168779	0.095037
830.357795	0.095254
830.546793	0.095561
830.735773	0.095446
830.924735	0.095544
831.113679	0.095773
831.302604	0.096006
831.491511	0.096263
831.680400	0.096560
831.869271	0.096672
832.058123	0.096970
832.246957	0.096955
832.435773	0.097213
832.624571	0.097244
832.813351	0.096948
833.002112	0.096862
833.190855	0.097000
833.379580	0.096919
833.568287	0.096805
833.756975	0.096920
833.945645	0.097033
834.134297	0.097060
834.322931	0.097322
834.511547	0.097410
834.700144	0.097638
834.888723	0.097859
835.077284	0.098110
835.265826	0.098603
835.454351	0.098629
835.642857	0.099132
835.831345	0.099553
836.019815	0.099988
836.208266	0.100610
836.396699	0.100923
836.585114	0.101155
836.773511	0.101638
836.961890	0.101674
837.150250	0.102057
837.338592	0.102083
837.526916	0.102264
837.715222	0.102305
837.903510	0.102222
838.091779	0.102149
838.280030	0.102161
838.468263	0.102378
838.656477	0.102514
838.844674	0.102654
839.032852	0.103027
839.221012	0.103182
839.409153	0.103284
839.597277	0.103561
839.785382	0.103604
839.973469	0.103830
840.161538	0.103920
840.349589	0.104171
840.537621	0.104155
840.725635	0.103984
840.913631	0.103840
841.101609	0.103889
841.289568	0.103675
841.477509	0.104023
841.665432	0.104273
841.853337	0.104086
842.041224	0.104045
842.229092	0.104392
842.416942	0.104652
842.604774	0.105180
842.792588	0.105399
842.980383	0.105619
843.168160	0.105771
843.355919	0.105742
843.543660	0.106134
843.731382	0.106524
843.919087	0.106707
844.106773	0.106800
844.294441	0.106756
844.482090	0.106993
844.669722	0.107183
844.857335	0.107479
845.044930	0.107637
845.232507	0.107589
845.420065	0.107499
845.607605	0.107521
845.795127	0.107714
845.982631	0.107858
846.170117	0.107762
846.357584	0.108235
846.545033	0.108417
846.732464	0.108847
846.919877	0.109150
847.107272	0.109551
847.294648	0.109395
847.482006	0.109550
847.669346	0.109866
847.856667	0.110195
848.043971	0.110394
848.231256	0.110636
848.418523	0.110734
848.605771	0.110960
848.793002	0.111378
848.980214	0.112221
849.167408	0.112537
849.354584	0.112637
849.541742	0.112843
849.728881	0.113189
849.916002	0.113493
850.103105	0.113623
850.290190	0.113671
850.477256	0.113765
850.664304	0.113725
850.851334	0.114004
851.038346	0.114471
851.225340	0.114843
851.412315	0.114613
851.599272	0.114457
851.786211	0.114544
851.973132	0.115107
852.160034	0.115585
852.346918	0.115740
852.533784	0.116050
852.720632	0.116215
852.907462	0.116341
853.094273	0.116865
853.281066	0.117406
853.467841	0.117881
853.654598	0.118066
853.841336	0.118053
854.028056	0.118667
854.214758	0.118800
854.401442	0.118837
854.588107	0.118971
854.774755	0.118829
854.961384	0.118612
855.147995	0.118691
855.334587	0.118773
855.521162	0.118825
855.707718	0.118510
855.894256	0.118621
856.080775	0.118866
856.267277	0.119378
856.453760	0.119773
856.640225	0.120323
856.826672	0.120670
857.013101	0.120897
857.199511	0.120929
857.385903	0.121390
857.572277	0.121534
857.758633	0.121449
857.944970	0.121167
858.131290	0.121309
858.317591	0.121343
858.503873	0.121382
858.690138	0.121440
858.876384	0.121702
859.062612	0.121809
859.248822	0.122305
859.435014	0.123182
859.621188	0.123733
859.807343	0.124059
859.993480	0.124173
860.179599	0.124069
860.365699	0.124181
860.551781	0.124426
860.737846	0.124555
860.923891	0.124502
861.109919	0.123996
861.295929	0.123843
861.481920	0.123779
861.667893	0.123486
861.853848	0.123472
862.039784	0.123505
862.225702	0.123357
862.411603	0.123555
862.597484	0.123379
862.783348	0.123699
862.969193	0.123868
863.155021	0.123959
863.340830	0.124477
863.526620	0.124884
863.712393	0.124936
863.898147	0.125291
864.083883	0.125379
864.269601	0.125677
864.455301	0.125682
864.640982	0.125640
864.826645	0.125942
865.012290	0.125952
865.197917	0.126084
865.383526	0.126293
865.569116	0.126430
865.754688	0.126242
865.940242	0.126514
866.125777	0.126354
866.311295	0.126425
866.496794	0.126324
866.682275	0.126468
866.867737	0.126705
867.053182	0.126806
867.238608	0.127017
867.424016	0.127171
867.609406	0.127076
867.794778	0.126951
867.980131	0.127111
868.165466	0.127252
868.350783	0.127434
868.536082	0.127503
868.721362	0.127760
868.906625	0.127757
869.091869	0.127843
869.277094	0.127716
869.462302	0.128010
869.647491	0.128354
869.832662	0.128345
870.017815	0.128338
870.202950	0.128418
870.388066	0.128268
870.573165	0.128331
870.758245	0.128247
870.943306	0.128644
871.128350	0.129118
871.313375	0.129290
871.498382	0.129522
871.683371	0.129507
871.868342	0.129352
872.053294	0.129532
872.238229	0.129727
872.423144	0.130277
872.608042	0.130355
872.792922	0.130366
872.977783	0.130020
873.162626	0.130243
873.347451	0.130504
873.532258	0.130595
873.717046	0.130987
873.901816	0.130876
874.086568	0.130905
874.271302	0.130981
874.456017	0.131248
874.640715	0.131178
874.825394	0.131377
875.010055	0.131437
875.194697	0.131820
875.379322	0.131931
875.563928	0.132237
875.748516	0.131845
875.933085	0.132163
876.117637	0.132349
876.302170	0.132629
876.486685	0.132254
876.671182	0.132129
876.855661	0.132115
877.040121	0.132223
877.224563	0.132018
877.408987	0.132395
877.593393	0.132335
877.777780	0.131900
877.962150	0.132146
878.146501	0.132725
878.330833	0.132935
878.515148	0.133284
878.699444	0.133195
878.883722	0.133552
879.067982	0.133658
879.252224	0.133797
879.436447	0.134273
879.620653	0.134272
879.804840	0.133908
879.989008	0.134048
880.173159	0.134000
880.357291	0.133976
880.541405	0.133712
880.725501	0.133537
880.909579	0.133393
881.093638	0.133406
881.277680	0.133281
881.461703	0.133551
881.645707	0.133409
881.829694	0.133429
882.013662	0.133562
882.197612	0.133930
882.381544	0.134555
882.565458	0.134695
882.749353	0.134645
882.933230	0.135153
883.117089	0.135017
883.300930	0.135456
883.484753	0.135300
883.668557	0.135458
883.852343	0.135421
884.036111	0.135423
884.219861	0.135454
884.403592	0.135583
884.587305	0.135647
884.771000	0.135549
884.954677	0.135263
885.138335	0.135373
885.321976	0.135328
885.505598	0.135416
885.689201	0.135344
885.872787	0.135416
886.056354	0.135247
886.239904	0.135253
886.423434	0.135717
886.606947	0.136191
886.790442	0.136213
886.973918	0.136511
887.157376	0.136524
887.340816	0.136224
887.524237	0.136496
887.707641	0.136605
887.891026	0.136327
888.074393	0.135965
888.257741	0.135612
888.441072	0.135298
888.624384	0.135005
888.807678	0.134900
888.990954	0.134885
889.174211	0.134594
889.357451	0.134783
889.540672	0.134986
889.723875	0.135089
889.907059	0.134964
890.090226	0.135519
890.273374	0.135556
890.456504	0.135276
890.639616	0.135142
890.822709	0.135203
891.005785	0.134757
891.188842	0.134494
891.371881	0.134544
891.554901	0.134585
891.737904	0.134097
891.920888	0.133713
892.103854	0.133882
892.286802	0.133916
892.469731	0.133612
892.652643	0.133836
892.835536	0.133601
893.018410	0.133339
893.201267	0.133292
893.384106	0.133079
893.566926	0.133155
893.749728	0.132846
893.932511	0.132806
894.115277	0.132575
894.298024	0.132247
894.480753	0.132542
894.663464	0.132611
894.846157	0.132448
895.028831	0.132883
895.211487	0.132824
895.394125	0.133254
895.576745	0.133264
895.759346	0.133478
895.941930	0.133739
896.124495	0.133547
896.307041	0.133630
896.489570	0.133777
896.672080	0.133684
896.854573	0.133665
897.037046	0.133612
897.219502	0.133743
897.401940	0.133352
897.584359	0.132705
897.766760	0.132227
897.949143	0.132161
898.131507	0.131829
898.313854	0.131530
898.496182	0.131262
898.678492	0.130975
898.860783	0.131026
899.043057	0.131297
899.225312	0.131636
899.407549	0.131940
899.589768	0.131617
899.771968	0.131584
899.954151	0.131693
900.136315	0.131807
900.318461	0.131600
900.500588	0.131718
900.682698	0.131529
900.864789	0.131311
901.046862	0.130745
901.228917	0.130619
901.410953	0.130588
901.592971	0.130086
901.774972	0.129663
901.956953	0.129364
902.138917	0.128354
902.320862	0.128210
902.502790	0.128182
902.684699	0.128183
902.866589	0.127967
903.048462	0.127471
903.230316	0.127207
903.412152	0.127132
903.593970	0.127109
903.775770	0.127179
903.957551	0.126922
904.139314	0.126483
904.321059	0.126635
904.502786	0.126725
904.684494	0.126748
904.866185	0.126607
905.047857	0.126199
905.229510	0.125925
905.411146	0.125637
905.592763	0.125394
905.774363	0.125481
905.955943	0.125078
906.137506	0.124711
906.319051	0.124584
906.500577	0.124253
906.682085	0.124261
906.863575	0.123742
907.045046	0.123508
907.226500	0.123433
907.407935	0.123302
907.589352	0.123054
907.770750	0.123130
907.952131	0.122825
908.133493	0.123143
908.314837	0.123263
908.496163	0.123808
908.677470	0.123823
908.858760	0.123255
909.040031	0.122951
909.221284	0.122764
909.402518	0.122309
909.583735	0.122256
909.764933	0.121878
909.946113	0.121551
910.127275	0.121260
910.308418	0.121051
910.489544	0.121752
910.670651	0.121287
910.851740	0.121109
911.032810	0.120959
911.213863	0.120760
911.394897	0.120524
911.575913	0.120006
911.756911	0.119940
911.937890	0.119517
912.118851	0.118530
912.299794	0.118328
912.480719	0.117813
912.661626	0.117512
912.842514	0.117406
913.023384	0.116942
913.204236	0.117042
913.385070	0.116778
913.565886	0.116867
913.746683	0.116665
913.927462	0.116484
914.108223	0.116818
914.288965	0.116563
914.469690	0.116236
914.650396	0.116004
914.831084	0.115370
915.011754	0.114757
915.192405	0.114233
915.373038	0.113846
915.553653	0.113669
915.734250	0.112943
915.914829	0.112561
916.095389	0.112163
916.275931	0.112101
916.456455	0.112003
916.636961	0.111448
916.817448	0.111104
916.997917	0.110757
917.178368	0.110202
917.358801	0.109628
917.539216	0.109449
917.719612	0.108587
917.899990	0.108092
918.080350	0.107959
918.260692	0.108145
918.441015	0.107930
918.621320	0.107619
918.801607	0.107622
918.981876	0.107924
919.162127	0.107302
919.342359	0.107493
919.522573	0.107097
919.702769	0.106559
919.882947	0.106087
920.063106	0.105492
920.243247	0.105085
920.423370	0.104075
920.603475	0.103392
920.783562	0.102528
920.963630	0.102032
921.143680	0.102125
921.323712	0.101401
921.503725	0.100477
921.683721	0.100131
921.863698	0.099858
922.043657	0.100083
922.223598	0.099667
922.403520	0.099938
922.583424	0.099531
922.763311	0.098327
922.943178	0.098177
923.123028	0.098158
923.302859	0.097844
923.482673	0.097181
923.662467	0.096567
923.842244	0.096186
924.022003	0.095881
924.201743	0.095499
924.381465	0.095555
924.561169	0.095222
924.740854	0.094425
924.920522	0.094001
925.100171	0.093468
925.279802	0.093061
925.459414	0.092943
925.639009	0.092503
925.818585	0.091815
925.998143	0.091507
926.177683	0.090657
926.357205	0.090002
926.536708	0.089862
926.716193	0.090129
926.895660	0.089830
927.075109	0.089509
927.254539	0.088422
927.433951	0.088356
927.613345	0.087412
927.792721	0.087411
927.972079	0.087845
928.151418	0.087295
928.330739	0.086831
928.510042	0.086708
928.689327	0.085350
928.868593	0.085357
929.047841	0.084221
929.227071	0.084070
929.406283	0.083553
929.585476	0.082516
929.764652	0.082402
929.943809	0.081057
930.122948	0.080185
930.302068	0.079509
930.481171	0.079054
930.660255	0.079178
930.839321	0.077813
931.018369	0.077507
931.197398	0.076722
931.376409	0.074862
931.555402	0.075056
931.734377	0.074163
931.913334	0.074309
932.092272	0.073219
932.271192	0.072485
932.450094	0.072305
932.628978	0.071364
932.807844	0.071112
932.986691	0.071930
933.165520	0.071304
933.344331	0.071087
933.523123	0.070670
933.701898	0.070985
933.880654	0.070648
934.059392	0.070806
934.238111	0.069858
934.416813	0.069760
934.595496	0.069090
934.774161	0.068295
934.952808	0.067879
935.131437	0.067786
935.310047	0.066563
935.488639	0.065832
935.667213	0.065540
935.845769	0.065245
936.024306	0.064938
936.202825	0.064037
936.381326	0.064174
936.559809	0.063422
936.738274	0.062379
936.916720	0.061873
937.095148	0.061257
937.273558	0.060279
937.451950	0.059957
937.630323	0.057965
937.808678	0.057646
937.987015	0.056125
938.165334	0.055457
938.343635	0.055232
938.521917	0.054968
938.700181	0.054631
938.878427	0.054219
939.056655	0.052711
939.234864	0.052563
939.413055	0.051322
939.591228	0.050384
939.769383	0.050014
939.947519	0.048910
940.125638	0.048281
940.303738	0.048007
940.481820	0.047149
940.659883	0.047799
940.837929	0.047529
941.015956	0.047226
941.193965	0.047508
941.371955	0.046781
941.549928	0.046153
941.727882	0.045184
941.905818	0.043644
942.083736	0.042335
942.261636	0.041824
942.439517	0.041385
942.617380	0.041628
942.795225	0.041675
942.973052	0.040943
943.150860	0.040996
943.328651	0.041511
943.506423	0.041769
943.684176	0.042823
943.861912	0.042276
944.039629	0.041727
944.217328	0.040357
944.395009	0.040156
944.572672	0.039807
944.750317	0.039027
944.927943	0.038342
945.105551	0.037482
945.283141	0.036088
945.460712	0.035474
945.638265	0.036153
945.815801	0.036564
945.993317	0.036341
946.170816	0.036634
946.348297	0.035874
946.525759	0.034873
946.703203	0.034263
946.880629	0.033328
947.058036	0.032806
947.235425	0.031448
947.412797	0.029425
947.590149	0.027738
947.767484	0.026587
947.944800	0.028263
948.122099	0.027748
948.299379	0.027945
948.476640	0.028428
948.653884	0.026885
948.831109	0.026036
949.008316	0.025288
949.185505	0.025649
949.362676	0.025663
949.539828	0.023231
949.716962	0.023511
949.894078	0.022697
950.071176	0.021987
950.248256	0.022096
950.425317	0.021667
950.602360	0.022290
950.779385	0.021317
950.956391	0.020264
951.133380	0.019520
951.310350	0.018313
951.487302	0.017927
951.664235	0.017419
951.841151	0.016901
952.018048	0.017378
952.194927	0.018315
952.371788	0.018333
952.548631	0.017813
952.725455	0.016579
952.902261	0.016649
953.079049	0.015142
953.255819	0.014186
953.432570	0.014674
953.609303	0.013330
953.786018	0.012439
953.962715	0.011372
954.139394	0.013096
954.316054	0.014410
954.492696	0.014454
954.669320	0.015445
954.845926	0.015776
955.022513	0.016150
955.199083	0.015294
955.375634	0.012970
955.552166	0.013157
955.728681	0.011496
955.905177	0.010275
956.081655	0.007342
956.258115	0.008407
956.434557	0.007599
956.610980	0.007054
956.787385	0.009157
956.963772	0.010602
957.140141	0.009654
957.316492	0.009642
957.492824	0.010996
957.669138	0.012756
957.845434	0.011316
958.021712	0.012064
958.197971	0.012109
958.374212	0.009193
958.550435	0.010021
958.726640	0.011685
958.902826	0.010478
959.078995	0.009590
959.255145	0.009929
959.431277	0.010436
959.607390	0.010470
959.783486	0.010015
959.959563	0.011073
960.135622	0.009903
960.311662	0.010976
960.487685	0.011307
960.663689	0.010033
960.839675	0.010849
961.015643	0.009188
961.191593	0.008220
961.367524	0.009042
961.543437	0.010855
961.719332	0.009828
961.895209	0.005098
962.071067	0.007114
962.246907	0.008789
962.422730	0.010461
962.598533	0.013524
962.774319	0.015969
962.950086	0.015987
963.125835	0.013244
963.301566	0.014163
963.477279	0.016389
963.652973	0.015817
963.828650	0.014993
964.004308	0.013558
964.179947	0.013768
964.355569	0.011434
964.531172	0.010930
964.706757	0.013698
964.882324	0.014514
965.057873	0.015813
965.233403	0.013151
965.408916	0.014628
965.584410	0.014842
965.759885	0.013816
965.935343	0.014053
966.110782	0.014340
966.286203	0.013199
966.461606	0.014244
966.636991	0.015113
966.812357	0.015472
966.987705	0.014150
967.163035	0.014572
967.338347	0.013734
967.513641	0.016320
967.688916	0.018197
967.864173	0.018391
968.039412	0.016321
968.214632	0.014017
968.389835	0.017603
968.565019	0.018798
968.740185	0.019818
968.915333	0.021384
969.090462	0.021016
969.265573	0.018295
969.440667	0.018048
969.615741	0.018367
969.790798	0.018119
969.965836	0.016489
970.140856	0.016008
970.315858	0.014753
970.490842	0.015536
970.665808	0.014395
970.840755	0.014949
971.015684	0.013726
971.190595	0.015216
971.365487	0.016610
971.540362	0.017217
971.715218	0.015732
971.890056	0.015567
972.064875	0.013936
972.239677	0.012914
972.414460	0.013633
972.589225	0.014805
972.763972	0.013316
972.938700	0.011382
973.113411	0.010779
973.288103	0.012664
973.462777	0.012380
973.637432	0.011909
973.812070	0.010714
973.986689	0.011227
974.161290	0.012445
974.335873	0.012915
974.510437	0.014237
974.684984	0.013476
974.859512	0.013500
975.034022	0.013231
975.208513	0.015587
975.382987	0.018876
975.557442	0.017208
975.731879	0.016260
975.906298	0.016558
976.080698	0.015726
976.255080	0.016315
976.429445	0.015044
976.603790	0.013807
976.778118	0.013598
976.952427	0.010968
977.126719	0.011160
977.300992	0.012848
977.475246	0.012547
977.649483	0.013234
977.823701	0.011930
977.997901	0.013112
978.172083	0.012664
978.346247	0.011785
978.520392	0.013760
978.694519	0.012856
978.868628	0.011052
979.042719	0.011978
979.216791	0.013040
979.390845	0.012675
979.564882	0.011351
979.738899	0.013733
979.912899	0.012769
980.086880	0.013224
980.260843	0.015503
980.434788	0.017016
980.608715	0.015949
980.782623	0.015754
980.956514	0.017115
981.130386	0.016897
981.304240	0.016148
981.478075	0.016975
981.651892	0.016276
981.825692	0.015593
981.999472	0.012157
982.173235	0.013466
982.346980	0.014131
982.520706	0.014659
982.694414	0.015315
982.868104	0.015404
983.041775	0.015123
983.215428	0.014809
983.389064	0.016265
983.562680	0.017040
983.736279	0.015650
983.909860	0.013215
984.083422	0.011545
984.256966	0.012767
984.430491	0.013594
984.603999	0.014529
984.777488	0.015512
984.950959	0.014568
985.124412	0.016712
985.297847	0.015303
985.471263	0.016047
985.644661	0.017704
985.818041	0.017082
985.991403	0.015742
986.164747	0.014245
986.338072	0.012781
986.511379	0.009193
986.684668	0.007604
986.857938	0.008935
987.031191	0.008032
987.204425	0.008032
987.377641	0.008422
987.550839	0.007653
987.724018	0.008338
987.897179	0.010340
988.070322	0.013505
988.243447	0.014094
988.416554	0.015231
988.589642	0.016619
988.762712	0.014909
988.935764	0.013887
989.108798	0.014542
989.281813	0.015546
989.454811	0.012465
989.627790	0.012871
989.800751	0.013454
989.973693	0.012809
990.146617	0.012794
990.319524	0.014797
990.492412	0.014736
990.665281	0.017006
990.838133	0.014967
991.010966	0.016828
991.183781	0.014576
991.356578	0.013873
991.529356	0.015257
991.702117	0.015092
991.874859	0.014198
992.047583	0.014691
992.220288	0.012951
992.392976	0.014104
992.565645	0.012495
992.738296	0.013017
992.910929	0.013729
993.083543	0.012640
993.256139	0.011344
993.428718	0.011258
993.601277	0.009556
993.773819	0.009132
993.946342	0.007895
994.118848	0.008453
994.291335	0.009078
994.463803	0.009079
994.636254	0.009654
994.808686	0.010455
994.981100	0.012802
995.153496	0.014818
995.325874	0.015229
995.498233	0.016183
995.670574	0.016666
995.842897	0.017304
996.015202	0.017137
996.187488	0.015048
996.359757	0.015615
996.532007	0.011028
996.704239	0.010986
996.876452	0.010175
997.048648	0.010121
997.220825	0.010901
997.392984	0.008926
997.565124	0.009980
997.737247	0.010122
997.909351	0.009065
998.081437	0.010899
998.253505	0.009812
998.425554	0.010287
998.597586	0.009119
998.769599	0.008910
998.941594	0.011022
999.113571	0.007550
999.285529	0.008649
999.457469	0.009537
999.629391	0.009807
999.801295	0.009173
999.973181	0.009436
1000.145048	0.010136
1000.316897	0.009736
1000.488728	0.009573
1000.660541	0.011703
1000.832335	0.010126
1001.004111	0.010996
1001.175869	0.011256
1001.347609	0.010137
1001.519331	0.011128
1001.691034	0.009448
1001.862719	0.009937
1002.034386	0.010804
1002.206035	0.009777
1002.377665	0.010779
1002.549277	0.011494
1002.720871	0.010748
1002.892447	0.011983
1003.064004	0.009435
1003.235544	0.010978
1003.407065	0.010327
1003.578568	0.007224
1003.750052	0.008656
1003.921519	0.008570
1004.092967	0.006994
1004.264397	0.007392
1004.435809	0.009304
1004.607202	0.010872
1004.778577	0.011036
1004.949934	0.011163
1005.121273	0.012882
1005.292594	0.012839
1005.463896	0.012792
1005.635180	0.011629
1005.806446	0.010679
1005.977694	0.009807
1006.148923	0.011888
1006.320135	0.012085
1006.491328	0.011673
1006.662503	0.011067
1006.833659	0.009838
1007.004798	0.009877
1007.175918	0.009975
1007.347020	0.009529
1007.518103	0.009996
1007.689169	0.005964
1007.860216	0.006332
1008.031245	0.007333
1008.202256	0.008186
1008.373248	0.009429
1008.544223	0.009252
1008.715179	0.011499
1008.886117	0.013042
1009.057036	0.012761
1009.227938	0.014884
1009.398821	0.016488
1009.569686	0.015603
1009.740533	0.013940
1009.911361	0.013058
1010.082172	0.014300
1010.252964	0.014648
1010.423738	0.014347
1010.594493	0.015223
1010.765231	0.014256
1010.935950	0.011548
1011.106651	0.010490
1011.277334	0.011481
1011.447998	0.010823
1011.618645	0.009366
1011.789273	0.006046
1011.959882	0.006749
1012.130474	0.005055
1012.301048	0.005704
1012.471603	0.005302
1012.642140	0.006984
1012.812658	0.007447
1012.983159	0.009399
1013.153641	0.009208
1013.324105	0.010626
1013.494551	0.008499
1013.664979	0.009102
1013.835388	0.008571
1014.005779	0.008488
1014.176152	0.007289
1014.346507	0.005732
1014.516843	0.006048
1014.687162	0.007260
1014.857462	0.008926
1015.027744	0.011511
1015.198007	0.012605
1015.368252	0.012547
1015.538480	0.013554
1015.708689	0.012399
1015.878879	0.015198
1016.049052	0.013558
1016.219206	0.012538
1016.389342	0.011498
1016.559460	0.010471
1016.729559	0.008751
1016.899641	0.008980
1017.069704	0.008548
1017.239749	0.009034
1017.409775	0.007657
1017.579784	0.007131
1017.749774	0.007197
1017.919746	0.006481
1018.089700	0.005664
1018.259635	0.004945
1018.429553	0.005874
1018.599452	0.005611
1018.769333	0.006450
1018.939195	0.005861
1019.109040	0.006684
1019.278866	0.006747
1019.448674	0.006677
1019.618464	0.006348
1019.788235	0.006732
1019.957989	0.007412
1020.127724	0.007418
1020.297441	0.007171
1020.467139	0.006364
1020.636820	0.006583
1020.806482	0.008520
1020.976126	0.007645
1021.145752	0.009324
1021.315359	0.009177
1021.484948	0.007360
1021.654519	0.007322
1021.824072	0.006765
1021.993607	0.007438
1022.163123	0.007659
1022.332621	0.006956
1022.502101	0.008067
1022.671563	0.006531
1022.841007	0.007096
1023.010432	0.008188
1023.179839	0.006965
1023.349228	0.008534
1023.518598	0.006790
1023.687951	0.004818
1023.857285	0.003530
1024.026601	0.003043
1024.195899	0.003717
1024.365178	0.004419
1024.534439	0.003866
1024.703682	0.005023
1024.872907	0.004406
1025.042114	0.006664
1025.211302	0.007208
1025.380472	0.008038
1025.549624	0.007368
1025.718758	0.005572
1025.887873	0.004150
1026.056970	0.002227
1026.226049	0.001020
1026.395110	0.001576
1026.564153	0.000992
1026.733177	0.003458
1026.902183	0.002925
1027.071171	0.004139
1027.240141	0.004442
1027.409092	0.004777
1027.578026	0.005597
1027.746940	0.006833
1027.915837	0.007934
1028.084716	0.008594
1028.253576	0.007403
1028.422418	0.007454
1028.591242	0.008703
1028.760048	0.010574
1028.928835	0.011259
1029.097604	0.009611
1029.266355	0.010476
1029.435088	0.009998
1029.603803	0.008634
1029.772499	0.007950
1029.941177	0.007891
1030.109837	0.005287
1030.278478	0.004064
1030.447102	0.003540
1030.615707	0.005200
1030.784294	0.005430
1030.952863	0.003657
1031.121413	0.005649
1031.289945	0.008098
1031.458460	0.007559
1031.626955	0.008968
1031.795433	0.009549
1031.963892	0.008865
1032.132334	0.009605
1032.300756	0.007893
1032.469161	0.008376
1032.637548	0.008020
1032.805916	0.006395
1032.974266	0.006363
1033.142598	0.005369
1033.310911	0.004957
1033.479207	0.005343
1033.647484	0.004459
1033.815743	0.005783
1033.983983	0.004179
1034.152206	0.003882
1034.320410	0.003455
1034.488596	0.004524
1034.656764	0.006009
1034.824914	0.008060
1034.993045	0.008462
1035.161158	0.009517
1035.329253	0.007787
1035.497330	0.007521
1035.665388	0.007108
1035.833428	0.007125
1036.001450	0.007042
1036.169454	0.005984
1036.337440	0.004505
1036.505407	0.004179
1036.673356	0.003837
1036.841287	0.005212
1037.009200	0.005595
1037.177094	0.006538
1037.344970	0.006612
1037.512828	0.006364
1037.680668	0.004933
1037.848489	0.005349
1038.016293	0.005400
1038.184078	0.005573
1038.351845	0.005132
1038.519593	0.006958
1038.687324	0.006560
1038.855036	0.003976
1039.022730	0.002568
1039.190406	0.004387
1039.358063	0.006003
1039.525702	0.004501
1039.693323	0.002921
1039.860926	0.003431
1040.028511	0.004854
1040.196077	0.002910
1040.363625	0.003768
1040.531155	0.005027
1040.698667	0.003882
1040.866161	0.001260
1041.033636	0.003673
1041.201093	0.004490
1041.368532	0.002880
1041.535952	-0.000815
1041.703355	0.000101
1041.870739	0.000985
1042.038105	0.000780
1042.205452	-0.000005
1042.372782	0.000900
1042.540093	0.000105
1042.707386	0.000943
1042.874661	0.002476
1043.041918	0.004313
1043.209156	0.003796
1043.376376	0.002946
1043.543578	0.002817
1043.710762	0.004018
1043.877927	0.004430
1044.045074	0.005771
1044.212203	0.006090
1044.379314	0.004649
1044.546407	0.005068
1044.713481	0.005813
1044.880537	0.004790
1045.047575	0.004056
1045.214595	0.005792
1045.381596	0.004936
1045.548579	0.002068
1045.715544	0.001067
1045.882491	0.001568
1046.049420	-0.000140
1046.216330	-0.000280
1046.383222	0.001847
1046.550096	0.003005
1046.716951	0.001155
1046.883789	0.001275
1047.050608	0.003775
1047.217409	0.003803
1047.384192	0.004230
1047.550956	0.006378
1047.717703	0.005773
1047.884431	0.004866
1048.051140	0.004377
1048.217832	0.003092
1048.384505	0.005159
1048.551161	0.004559
1048.717798	0.003997
1048.884416	0.004510
1049.051017	0.004336
1049.217599	0.004138
1049.384163	0.003628
1049.550709	0.002507
1049.717237	0.002188
1049.883746	-0.003158
1050.050237	-0.002694
1050.216710	-0.002486
1050.383165	-0.004066
1050.549601	-0.003704
1050.716019	-0.001218
1050.882420	-0.000617
1051.048801	-0.000106
1051.215165	0.001863
1051.381510	0.004575
1051.547837	0.003696
1051.714146	0.003220
1051.880437	0.003565
1052.046709	0.001809
1052.212964	-0.001821
1052.379200	-0.001727
1052.545417	0.000157
1052.711617	0.000731
1052.877798	0.000852
1053.043961	0.001400
1053.210106	0.001278
1053.376233	0.001730
1053.542341	0.003438
1053.708432	0.005950
1053.874504	0.006078
1054.040557	0.004540
1054.206593	0.002266
1054.372610	0.001670
1054.538609	0.001099
1054.704590	0.002924
1054.870553	0.004294
1055.036497	0.002163
1055.202424	0.000438
1055.368331	0.001297
1055.534221	0.000410
1055.700093	0.000066
1055.865946	0.001274
1056.031781	0.001191
1056.197598	-0.000562
1056.363397	-0.001688
1056.529177	-0.001265
1056.694939	-0.000224
1056.860683	-0.000588
1057.026409	-0.001023
1057.192116	0.000833
1057.357806	0.000313
1057.523477	0.000809
1057.689130	-0.000526
1057.854764	0.000656
1058.020381	-0.000025
1058.185979	-0.000494
1058.351559	0.000220
1058.517120	0.004391
1058.682664	0.003176
1058.848189	0.001541
1059.013696	0.001333
1059.179185	0.005190
1059.344656	0.002102
1059.510108	0.002922
1059.675542	0.001849
1059.840958	0.000077
1060.006356	-0.001983
1060.171735	-0.000195
1060.337096	0.001821
1060.502439	0.002189
1060.667764	0.001106
1060.833071	0.002774
1060.998359	0.002058
1061.163629	0.002958
1061.328881	0.003558
1061.494115	0.003063
1061.659330	0.002381
1061.824527	0.001719
1061.989706	0.000646
1062.154867	0.000112
1062.320010	-0.000217
1062.485134	-0.001133
1062.650240	0.000788
1062.815328	-0.000003
1062.980398	0.000471
1063.145449	0.000174
1063.310482	0.000075
1063.475497	-0.001009
1063.640494	-0.000435
1063.805473	0.001063
1063.970433	0.004033
1064.135375	0.001650
1064.300299	0.002315
1064.465204	0.002748
1064.630092	0.003995
1064.794961	0.003157
1064.959812	0.004376
1065.124645	0.002573
1065.289459	-0.000746
1065.454256	-0.002328
1065.619034	-0.000702
1065.783793	-0.001116
1065.948535	-0.001844
1066.113258	-0.003360
1066.277964	-0.001410
1066.442651	-0.002017
1066.607319	-0.001771
1066.771970	-0.000030
1066.936602	0.001127
1067.101216	0.000949
1067.265812	0.002496
1067.430389	0.003952
1067.594949	0.006150
1067.759490	0.006026
1067.924013	0.004474
1068.088518	0.006032
1068.253004	0.007562
1068.417472	0.007394
1068.581922	0.008233
1068.746354	0.006311
1068.910768	0.003065
1069.075163	0.001129
1069.239540	-0.000290
1069.403899	0.002397
1069.568240	0.002568
1069.732562	0.001459
1069.896866	-0.001838
1070.061152	-0.001812
1070.225420	-0.000479
1070.389670	0.001673
1070.553901	0.004331
1070.718114	0.006835
1070.882309	0.009296
1071.046486	0.008109
1071.210644	0.008385
1071.374784	0.010597
1071.538906	0.009539
1071.703010	0.009922
1071.867096	0.009010
1072.031163	0.004607
1072.195212	0.001749
1072.359243	0.000046
1072.523256	-0.001200
1072.687250	-0.000781
1072.851226	-0.001712
1073.015184	0.000418
1073.179124	0.002050
1073.343045	0.002723
1073.506949	0.004992
1073.670834	0.005054
1073.834701	0.003184
1073.998549	0.004992
1074.162380	0.005012
1074.326192	0.005202
1074.489986	0.001835
1074.653761	-0.001049
1074.817519	-0.001934
1074.981258	-0.001282
1075.144979	-0.000513
1075.308682	0.000326
1075.472367	-0.000379
1075.636033	-0.001738
1075.799681	-0.002043
1075.963311	-0.000544
1076.126923	0.000043
1076.290516	0.001269
1076.454092	-0.000129
1076.617649	0.000933
1076.781187	0.001511
1076.944708	0.003236
1077.108210	0.005052
1077.271695	0.005747
1077.435160	0.005119
1077.598608	0.005507
1077.762038	0.005217
1077.925449	0.005999
1078.088842	0.005161
1078.252217	0.003575
1078.415573	0.001080
1078.578912	-0.000050
1078.742232	0.000840
1078.905534	0.003345
1079.068817	0.000209
1079.232083	0.001256
1079.395330	0.001985
1079.558559	0.002839
1079.721770	0.000325
1079.884962	0.004049
1080.048136	0.004469
1080.211293	0.004856
1080.374430	0.001352
1080.537550	0.004944
1080.700651	0.004059
1080.863735	0.005415
1081.026800	0.004378
1081.189846	0.008592
1081.352875	0.008361
1081.515885	0.006767
1081.678877	0.005330
1081.841851	0.007412
1082.004807	0.008685
1082.167744	0.007802
1082.330663	0.006192
1082.493564	0.007191
1082.656447	0.003500
1082.819312	0.002029
1082.982158	0.002380
1083.144986	0.003125
1083.307796	0.002608
1083.470587	0.000647
1083.633361	-0.000243
1083.796116	-0.000891
1083.958853	-0.001796
1084.121571	-0.000581
1084.284272	-0.001523
1084.446954	0.003531
1084.609618	0.003129
1084.772264	0.003166
1084.934892	0.003237
1085.097501	0.004715
1085.260092	0.006329
1085.422665	0.007951
1085.585220	0.009493
1085.747756	0.008680
1085.910274	0.003551
1086.072774	0.003156
1086.235256	0.000913
1086.397720	0.000794
1086.560165	0.001073
1086.722592	-0.001881
1086.885001	-0.001932
1087.047392	0.001266
1087.209764	0.002331
1087.372119	0.003720
1087.534455	0.005048
1087.696772	0.009268
1087.859072	0.010122
1088.021353	0.010868
1088.183616	0.011800
1088.345861	0.010882
1088.508088	0.009158
1088.670296	0.007543
1088.832486	0.009042
1088.994658	0.009838
1089.156812	0.008629
1089.318948	0.009115
1089.481065	0.009326
1089.643164	0.010178
1089.805245	0.011377
1089.967308	0.010250
1090.129352	0.013519
1090.291378	0.011174
1090.453386	0.009337
1090.615376	0.007200
1090.777347	0.005770
1090.939301	0.004011
1091.101236	0.006034
1091.263153	0.004428
1091.425051	0.005362
1091.586932	0.003137
1091.748794	0.000628
1091.910638	0.003332
1092.072463	0.005991
1092.234271	0.005615
1092.396060	0.007005
1092.557831	0.003947
1092.719584	0.005972
1092.881319	0.004103
1093.043035	0.005404
1093.204733	0.012431
1093.366413	0.011173
1093.528075	0.009679
1093.689718	0.010118
1093.851343	0.008131
1094.012950	0.006962
1094.174539	0.005861
1094.336110	0.007615
1094.497662	0.009423
1094.659196	0.006067
1094.820712	0.006230
1094.982210	0.007234
1095.143689	0.005074
1095.305151	0.004412
1095.466594	0.005097
1095.628018	0.005737
1095.789425	0.005748
1095.950813	0.003716
1096.112183	0.003494
1096.273535	0.003762
1096.434869	0.005201
1096.596184	0.007951
1096.757482	0.009220
1096.918761	0.010630
1097.080021	0.008572
1097.241264	0.010219
1097.402488	0.014113
1097.563694	0.014704
1097.724882	0.011188
1097.886052	0.008808
1098.047203	0.007315
1098.208336	0.006175
1098.369451	0.005933
1098.530548	0.002907
1098.691627	-0.001535
1098.852687	-0.003332
1099.013729	-0.005643
1099.174753	-0.004807
1099.335758	-0.002386
1099.496746	-0.001987
1099.657715	-0.002608
1099.818666	-0.004059
1099.979599	-0.000854
1100.140513	-0.001408
1100.301409	-0.003488
1100.462287	-0.002140
1100.623147	0.000320
1100.783989	-0.003449
1100.944812	-0.001640
1101.105617	-0.000926
1101.266404	0.001459
1101.427173	-0.003335
1101.587923	0.001122
1101.748656	0.001154
1101.909370	0.001773
1102.070066	0.000833
1102.230743	0.004098
1102.391403	0.001463
1102.552044	0.002412
1102.712667	0.002589
1102.873271	0.008511
1103.033858	0.005347
1103.194426	0.005733
1103.354976	0.002279
1103.515508	0.004048
1103.676021	0.002966
1103.836517	0.005747
1103.996994	0.005820
1104.157453	0.005804
1104.317893	0.010293
1104.478316	0.014563
1104.638720	0.015012
1104.799106	0.018800
1104.959474	0.019026
1105.119823	0.019158
1105.280155	0.018275
1105.440468	0.019904
1105.600763	0.017403
1105.761039	0.011371
1105.921298	0.012752
1106.081538	0.012171
1106.241760	0.011951
1106.401964	0.010184
1106.562149	0.008354
1106.722316	0.006336
1106.882465	0.004346
1107.042596	0.005729
1107.202709	0.008842
1107.362803	0.002761
1107.522879	0.005571
1107.682937	0.001542
1107.842977	0.001265
1108.002999	0.002146
1108.163002	0.002884
1108.322987	0.004808
1108.482954	0.003518
1108.642902	0.002921
1108.802833	0.002010
1108.962745	-0.002227
1109.122639	0.005295
1109.282515	0.006065
1109.442372	0.007422
1109.602211	0.008439
1109.762032	0.009504
1109.921835	0.012004
1110.081620	0.010631
1110.241386	0.012184
1110.401134	0.010215
1110.560864	0.002979
1110.720576	0.004079
1110.880269	0.004131
1111.039945	0.002812
1111.199602	0.000011
1111.359240	0.001545
1111.518861	0.004162
1111.678463	0.004471
1111.838047	0.006033
1111.997613	0.007387
1112.157161	0.008291
1112.316690	0.009634
1112.476202	0.007539
1112.635695	0.006491
1112.795169	0.001153
1112.954626	-0.000264
1113.114064	-0.002000
1113.273484	-0.004605
1113.432886	-0.004762
1113.592270	-0.009420
1113.751635	-0.012225
1113.910983	-0.006568
1114.070312	-0.003936
1114.229622	0.002160
1114.388915	-0.001942
1114.548189	-0.004133
1114.707445	0.001093
1114.866683	0.003554
1115.025903	0.012379
1115.185104	0.008611
1115.344287	0.004347
1115.503452	0.002437
1115.662599	-0.001066
1115.821727	0.002410
1115.980838	0.011349
1116.139930	0.008702
1116.299004	0.007539
1116.458059	0.004285
1116.617097	0.006149
1116.776116	0.010223
1116.935117	0.009991
1117.094099	0.010982
1117.253064	0.008197
1117.412010	0.006626
1117.570938	0.007553
1117.729848	0.003864
1117.888740	-0.000089
1118.047613	0.004104
1118.206468	-0.001946
1118.365305	0.000683
1118.524124	0.003854
1118.682924	0.005320
1118.841707	0.005922
1119.000471	0.007650
1119.159216	0.010716
1119.317944	0.011523
1119.476653	0.006262
1119.635344	0.010879
1119.794017	0.010506
1119.952672	0.007019
1120.111308	0.011589
1120.269927	0.006255
1120.428527	0.005272
1120.587108	0.003926
1120.745672	0.002689
1120.904217	0.005713
1121.062744	0.002408
1121.221253	-0.001086
1121.379744	0.003765
1121.538216	0.002317
1121.696671	0.007463
1121.855107	0.008166
1122.013524	0.010150
1122.171924	0.011303
1122.330305	0.012894
1122.488668	0.016120
1122.647013	0.021909
1122.805340	0.018990
1122.963648	0.016783
1123.121938	0.010514
1123.280210	0.012326
1123.438464	0.016647
1123.596700	0.010820
1123.754917	0.008129
1123.913116	0.009313
1124.071297	0.005902
1124.229459	0.004937
1124.387604	0.006475
1124.545730	0.008803
1124.703838	0.005409
1124.861928	0.006742
1125.019999	0.008747
1125.178052	0.013802
1125.336088	0.013721
1125.494104	0.012561
1125.652103	0.006064
1125.810083	0.001627
1125.968045	0.006811
1126.125989	0.006259
1126.283915	0.001955
1126.441823	0.004753
1126.599712	0.001354
1126.757583	0.003148
1126.915436	0.004424
1127.073270	0.005010
1127.231087	0.010670
1127.388885	0.008964
1127.546665	0.009799
1127.704426	0.008911
1127.862170	0.009643
1128.019895	0.005495
1128.177602	0.003072
1128.335291	0.004891
1128.492961	0.009966
1128.650614	0.004486
1128.808248	0.000362
1128.965864	0.001561
1129.123461	-0.002717
1129.281041	0.001473
1129.438602	0.010916
1129.596145	0.011711
1129.753670	0.013666
1129.911176	0.014520
1130.068665	0.017251
1130.226135	0.020851
1130.383587	0.022037
1130.541020	0.027342
1130.698436	0.020194
1130.855833	0.017782
1131.013212	0.014777
1131.170573	0.014672
1131.327915	0.015068
1131.485239	0.016641
1131.642545	0.017928
1131.799833	0.008037
1131.957103	0.004291
1132.114354	0.005824
1132.271588	0.002753
1132.428803	0.007944
1132.585999	0.000809
1132.743178	-0.001261
1132.900338	-0.005201
1133.057480	-0.005727
1133.214604	0.005033
1133.371710	0.011389
1133.528797	0.009899
1133.685866	0.002029
1133.842917	0.000650
1133.999950	0.004979
1134.156964	-0.003764
1134.313960	-0.000921
1134.470938	-0.006816
1134.627898	-0.003182
1134.784840	-0.008398
1134.941763	-0.004626
1135.098668	0.006852
1135.255555	0.000235
1135.412424	-0.005854
1135.569274	0.004107
1135.726107	0.001940
1135.882921	0.004403
1136.039716	0.002546
1136.196494	0.003554
1136.353253	0.008224
1136.509995	0.000458
1136.666717	0.002548
1136.823422	0.013310
1136.980109	0.007643
1137.136777	0.007719
1137.293427	0.003935
1137.450059	0.006565
1137.606672	0.011414
1137.763267	0.004736
1137.919844	0.009998
1138.076403	0.009580
1138.232944	0.006576
1138.389466	0.013303
1138.545971	0.019109
1138.702457	0.019608
1138.858924	0.014126
1139.015374	0.011205
1139.171805	0.015206
1139.328218	0.015208
1139.484613	0.016193
1139.640990	0.018808
1139.797348	0.013269
1139.953688	0.005592
1140.110010	0.008448
1140.266314	0.008643
1140.422600	0.009628
1140.578867	0.008742
1140.735116	0.013917
1140.891347	0.010565
1141.047559	0.007134
1141.203754	0.005511
1141.359930	0.002041
1141.516088	0.000711
1141.672228	-0.001918
1141.828349	-0.008242
1141.984452	-0.016288
1142.140537	-0.025154
1142.296604	-0.022694
1142.452653	-0.021737
1142.608683	-0.011452
1142.764695	0.000368
1142.920689	0.005095
1143.076665	0.007528
1143.232622	0.008574
1143.388562	0.011111
1143.544483	0.013061
1143.700385	0.016009
1143.856270	0.013171
1144.012136	0.005057
1144.167985	-0.002637
1144.323814	-0.003274
1144.479626	-0.013107
1144.635420	-0.001960
1144.791195	0.006976
1144.946952	0.003387
1145.102691	0.006884
1145.258411	0.008376
1145.414113	0.009073
1145.569798	0.008913
1145.725463	0.007981
1145.881111	0.015625
1146.036741	0.008170
1146.192352	0.006949
1146.347945	0.017367
1146.503519	0.020654
1146.659076	0.024354
1146.814614	0.031698
1146.970134	0.033898
1147.125636	0.034480
1147.281120	0.037885
1147.436585	0.041624
1147.592032	0.044295
1147.747461	0.029259
1147.902872	0.021485
1148.058265	0.008011
1148.213639	-0.006899
1148.368995	-0.005661
1148.524333	-0.007937
1148.679653	-0.003211
1148.834954	-0.014025
1148.990237	-0.016291
1149.145502	-0.008280
1149.300749	-0.009276
1149.455977	0.003985
1149.611188	0.018138
1149.766380	0.012602
1149.921553	0.007511
1150.076709	-0.001216
1150.231846	0.004610
1150.386966	0.002221
1150.542066	0.000396
1150.697149	0.007300
1150.852214	-0.001869
1151.007260	-0.009710
1151.162288	-0.008384
1151.317298	0.000202
1151.472289	-0.002628
1151.627263	0.007781
1151.782218	0.003239
1151.937155	0.001903
1152.092073	-0.000948
1152.246974	-0.003932
1152.401856	-0.009727
1152.556720	-0.011706
1152.711566	-0.012925
1152.866393	-0.012107
1153.021203	-0.022173
1153.175994	-0.021556
1153.330767	-0.015963
1153.485521	-0.012122
1153.640258	-0.011481
1153.794976	-0.003184
1153.949676	0.015312
1154.104358	0.009289
1154.259021	0.009126
1154.413667	0.017540
1154.568294	0.021616
1154.722903	0.024012
1154.877493	0.019797
1155.032066	0.021170
1155.186620	0.028274
1155.341156	0.012819
1155.495674	0.018332
1155.650173	0.018655
1155.804654	0.011509
1155.959118	0.017806
1156.113562	0.008915
1156.267989	0.005556
1156.422397	0.012982
1156.576788	0.015587
1156.731160	0.017870
1156.885513	0.020435
1157.039849	0.031414
1157.194166	0.043716
1157.348465	0.032950
1157.502746	0.034864
1157.657009	0.029155
1157.811253	0.037569
1157.965479	0.039779
1158.119687	0.044254
1158.273877	0.037194
1158.428048	0.035140
1158.582201	0.011640
1158.736337	0.024346
1158.890453	0.025239
1159.044552	0.031734
1159.198632	0.012148
1159.352694	0.011036
1159.506738	0.009365
1159.660764	0.009890
1159.814771	0.001325
1159.968761	0.010881
1160.122732	0.007330
1160.276685	0.016232
1160.430619	0.021026
1160.584535	0.036517
1160.738434	0.025942
1160.892313	0.028887
1161.046175	0.039347
1161.200019	0.039112
1161.353844	0.068068
1161.507651	0.045932
1161.661440	0.052101
1161.815210	0.064951
1161.968962	0.048310
1162.122697	0.049628
1162.276412	0.030719
1162.430110	0.017665
1162.583789	0.011931
1162.737451	-0.011205
1162.891094	0.009162
1163.044718	-0.002639
1163.198325	-0.025183
1163.351913	-0.012376
1163.505483	-0.008198
1163.659035	-0.003287
1163.812569	0.006841
1163.966084	0.015570
1164.119581	0.019034
1164.273060	0.011051
1164.426521	0.004986
1164.579964	0.003829
1164.733388	0.002301
1164.886794	-0.014503
1165.040182	0.011025
1165.193551	0.008365
1165.346903	0.000394
1165.500236	-0.000735
1165.653551	-0.006629
1165.806848	-0.022916
1165.960126	-0.009638
1166.113386	-0.003126
1166.266628	0.002949
1166.419852	-0.020019
1166.573058	-0.020253
1166.726245	-0.019374
1166.879414	-0.016031
1167.032565	-0.001983
1167.185698	0.017325
1167.338812	0.006919
1167.491909	0.000573
1167.644987	0.006399
1167.798046	0.008868
1167.951088	0.007966
1168.104111	0.018816
1168.257117	0.011140
1168.410103	-0.009864
1168.563072	-0.005582
1168.716023	-0.001056
1168.868955	-0.007001
1169.021869	-0.000465
1169.174765	0.002715
1169.327642	-0.002677
1169.480501	-0.008002
1169.633343	-0.003493
1169.786165	0.017430
1169.938970	0.018389
1170.091757	0.007208
1170.244525	0.020367
1170.397275	0.005684
1170.550007	0.005430
1170.702720	-0.006735
1170.855415	-0.009218
1171.008092	-0.014979
1171.160751	-0.025464
1171.313392	-0.032930
1171.466014	-0.025656
1171.618619	-0.023666
1171.771205	-0.023666
1171.923772	-0.023666
