sample name	sample
index	29
start time	 02-11-2021  12:37:15 PM
880	-0.004753
Peak Time (s)	81.037
Peak Height 	-0.004753
calc peak height	80,83
Baseline Time (s)	10.579
Baseline Value 	0.003453
subtract baseline	10,4
Abs	0.008340
Peak Time (s)	82.538
Peak Height 	0.00834
calc peak height	80,83
Baseline Time (s)	11.536
Baseline Value 	-0.001685
subtract baseline	10,3
PK_550	0.009158
Peak Time (s)	80.036
Peak Height 	0.009158
calc peak height	80,83
Baseline Time (s)	9.585
Baseline Value 	-3.037E-4
subtract baseline	10,2
PK_880	0.000455
Peak Time (s)	80.036
Peak Height 	4.5474E-4
calc peak height	80,83
Baseline Time (s)	11.536
Baseline Value 	-0.004261
subtract baseline	10,1


Time (s)	A880-A510	A880-A775	A880-A975	A880	I510	I775	I975	I880	
0.034500	0.000812	-0.000183	-0.000996	0.001232	4432.948401	18655.876748	3237.252527	10096.584927
0.535000	0.000885	-0.000558	0.007674	-0.001410	4442.397718	18738.010541	3246.384896	10140.413096
1.035000	0.001754	-0.001286	0.006852	-0.005170	4458.637585	18848.492707	3248.794996	10203.224936
1.535500	0.001524	-0.000596	-0.003512	-0.004238	4454.546762	18839.649033	3239.614549	10187.605871
2.039000	-0.001867	-0.001831	-0.004968	0.000725	4425.433277	18614.745819	3234.502524	10104.981785
2.535500	-0.000074	-0.000584	-0.006295	-0.000999	4437.619624	18722.134963	3234.816434	10133.569992
3.036000	0.001257	0.000998	-0.008738	0.000895	4435.665965	18710.861994	3231.402857	10102.171862
3.539000	0.001673	-0.000577	0.011122	-0.000573	4442.223800	18706.939956	3248.526324	10126.497285
4.037000	-0.000492	-0.000113	-0.000141	0.001031	4429.126064	18665.686584	3238.094693	10099.914010
4.537000	0.001974	0.000458	-0.006167	0.000273	4440.322958	18713.822226	3233.912815	10112.466596
5.037000	0.002351	-0.000222	0.003636	0.000420	4441.124265	18683.854201	3241.617285	10110.029885
5.534500	0.001445	-0.000867	-0.000463	-0.003781	4452.662571	18813.091042	3241.700307	10179.962351
6.034500	-0.000343	0.000765	0.008840	-0.001691	4439.093923	18796.402287	3247.569737	10145.091084
6.535500	0.003191	0.000551	0.006101	0.001412	4440.593667	18675.894751	3242.808288	10093.611306
7.035500	0.004276	0.000453	-0.010878	-0.001656	4455.143024	18783.745031	3231.724204	10144.501864
7.536000	0.004846	0.001213	0.005505	-0.001684	4457.251381	18812.472013	3244.838291	10144.975963
8.038500	0.004106	-0.001567	0.004751	-0.002768	4458.465001	18750.700592	3245.106740	10163.042361
8.536000	0.007146	0.000616	0.005885	-0.001183	4463.604073	18772.447892	3244.739415	10136.632682
9.037000	-0.000466	-0.000832	0.005424	0.001631	4427.145872	18618.107751	3242.084157	10090.006115
9.585500	0.003003	0.000000	-0.004446	-0.000988	4448.326881	18742.938256	3236.273476	10133.386200
10.037500	0.003083	0.000250	-0.000096	0.000291	4444.133684	18705.609850	3238.723099	10112.170241
10.579000	-0.002130	0.000462	0.001938	0.000000	4427.028033	18723.871291	3240.588418	10116.992679
11.035000	-0.000744	-0.000181	-0.006311	0.001369	4427.084705	18650.992905	3232.935262	10094.320247
11.535500	0.000000	-0.000214	0.000000	-0.000012	4434.449380	18699.792932	3239.042415	10117.197918
12.035500	0.003041	-0.000753	0.007311	-0.000555	4446.945420	18699.917518	3245.389992	10126.204359
12.536000	0.000714	-0.000118	0.013438	0.000221	4436.120918	18694.836744	3249.780588	10113.334574
13.078000	0.003089	0.000852	-0.003914	0.000814	4442.324248	18708.468678	3235.266178	10103.503231
13.620000	0.002842	0.000484	-0.000191	0.000717	4441.803779	18698.662065	3238.306492	10105.119736
14.094500	0.003211	0.000029	0.001112	0.000356	4444.351328	18695.263805	3239.638820	10111.096183
14.537000	0.004263	0.000655	-0.004058	0.001192	4445.107377	18687.637004	3234.853323	10097.251723
15.037500	0.005462	0.000738	0.004562	0.001934	4446.707074	18663.825157	3241.143648	10085.001449
15.535000	0.001603	-0.000053	0.004410	0.000492	4438.270037	18687.374795	3242.184909	10108.842150
16.035000	-0.000932	-0.000065	0.007912	0.000387	4429.832309	18690.706514	3245.111852	10110.575999
16.535500	0.006128	0.000263	-0.005678	0.000721	4453.298952	18690.494605	3233.945125	10105.047660
17.036000	0.000177	-0.000194	-0.003958	0.001613	4429.427258	18641.734514	3234.599076	10090.296421
17.536500	0.000790	-0.000364	0.005390	0.000631	4434.958436	18671.079738	3242.864852	10106.541825
18.036500	0.004648	0.002007	0.002884	0.001055	4446.933809	18741.651711	3240.500593	10099.528226
18.536500	-0.000444	-0.001067	0.009128	-0.000972	4436.241425	18703.660258	3247.216390	10133.130874
19.039500	0.002144	-0.000012	0.008001	0.003490	4429.741298	18580.686785	3242.664261	10059.361415
19.537500	0.001945	-0.000969	0.007526	-0.004153	4455.728464	18822.925653	3248.512656	10186.180590
20.035000	0.004917	-0.000571	0.009256	0.001357	4446.817650	18637.366575	3245.416140	10094.521697
20.534500	0.000504	-0.000647	-0.000516	-0.001249	4440.507549	18728.934633	3239.620488	10137.736762
21.037500	0.002752	-0.000399	0.012535	-0.001482	4449.180066	18746.414483	3250.441907	10141.605850
21.535500	0.001427	-0.000579	-0.011358	-0.002077	4446.623672	18761.503324	3231.678898	10151.521810
22.035500	-0.001387	-0.000953	-0.006075	-0.000629	4431.775099	18695.332872	3234.698020	10127.421843
22.536000	0.001224	-0.000898	-0.003912	0.001266	4434.261085	18628.868113	3234.909819	10096.027532
23.042500	0.002472	-0.000336	0.016238	0.002257	4435.153698	18613.412417	3250.412230	10079.673117
23.536500	0.002183	-0.000197	0.003819	-0.001687	4447.903450	18761.222091	3243.470278	10145.023881
24.037000	0.005200	-0.000179	0.007626	0.000323	4451.437785	18688.924611	3244.931228	10111.643771
24.537000	0.001297	-0.001957	-0.007415	-0.002297	4446.935687	18719.427418	3234.957380	10155.179464
25.035000	0.004244	-0.001373	0.000766	-0.001871	4455.788891	18725.164117	3241.151084	10148.085067
25.535000	0.003985	-0.000034	0.006070	-0.000705	4450.780405	18731.449916	3244.501400	10128.699397
26.035500	-0.000498	-0.001093	0.006759	0.000926	4429.470639	18634.098247	3243.735267	10101.650716
26.536000	-0.003701	0.000029	0.003485	0.001654	4415.927683	18648.293893	3240.501643	10089.612930
27.036000	0.000574	-0.000618	0.006779	0.000208	4435.676785	18677.195944	3244.334822	10113.543906
27.536000	0.001961	-0.002226	0.007690	0.000788	4438.484618	18598.228232	3244.604252	10103.930106
28.036500	0.004505	-0.000664	0.004840	0.001994	4443.148578	18611.044498	3241.319160	10084.004968
28.539500	0.001431	-0.001126	-0.000857	0.000992	4435.932178	18630.525357	3237.555162	10100.561918
29.037500	0.002135	-0.001031	0.011021	0.001794	4435.589233	18605.030191	3246.501279	10087.304211
29.535000	-0.000060	-0.000664	0.016262	0.001454	4429.157933	18630.499887	3251.096460	10092.923453
30.035000	0.001150	-0.000077	0.004187	0.001742	4432.352041	18641.312013	3240.996315	10088.167523
30.535500	0.002436	-0.000507	0.012637	0.000940	4439.609599	18654.724951	3248.528200	10101.423787
31.035500	0.005919	-0.000767	0.015210	0.001338	4450.397688	18630.966773	3250.321393	10094.839621
31.536000	-0.001710	-0.001699	0.007196	0.000162	4427.918967	18639.796585	3244.712217	10114.306028
32.036000	-0.000216	-0.000968	0.005555	0.000849	4430.712422	18641.378096	3242.822042	10102.932150
32.536000	0.003531	-0.001708	-0.009400	0.000019	4446.650650	18644.625532	3231.569951	10116.676290
33.037000	0.002118	0.000633	0.003349	0.001952	4434.980670	18659.349844	3240.152720	10084.691499
33.537000	-0.000185	-0.002090	0.007874	0.000189	4433.109324	18624.709025	3245.242281	10113.858669
34.037000	0.005756	-0.000633	0.000979	0.001465	4449.378589	18631.215651	3238.642935	10092.738157
34.535000	-0.000599	-0.001694	0.005783	0.000437	4430.815488	18630.059369	3243.341123	10109.757566
35.035000	0.003485	-0.000838	-0.004458	0.002639	4437.346396	18581.576226	3233.394852	10073.370925
35.535500	0.001457	-0.000183	-0.000117	-0.003846	4452.932341	18840.448038	3242.032016	10181.055090
36.036000	0.000931	-0.001341	0.003885	-0.001612	4443.262761	18716.911110	3243.462842	10143.769430
36.535500	0.004659	0.000254	-0.001866	-0.000042	4450.817561	18717.854750	3237.575079	10117.691210
37.036500	-0.004583	-0.000769	0.011774	0.005574	4399.551796	18478.859784	3244.033995	10025.164192
37.537000	0.003535	0.000363	-0.003249	-0.000140	4447.218303	18725.324830	3236.551548	10119.311625
38.040000	0.003896	-0.001913	0.003059	-0.001073	4451.761312	18676.700420	3242.357718	10134.814819
38.537000	0.004892	0.000309	0.005731	0.000485	4449.788679	18700.742103	3243.260132	10108.961663
39.034000	0.003991	0.000019	0.008132	0.003531	4436.004116	18580.323977	3242.736902	10058.681322
39.535000	0.003501	-0.001066	-0.003244	0.002801	4436.838378	18567.561636	3234.224160	10070.691521
40.035500	0.002803	0.000129	0.000987	0.000770	4441.480648	18683.881209	3239.205825	10104.229799
40.535500	0.002973	-0.001482	-0.003639	-0.000158	4445.318351	18659.207076	3236.255746	10119.618597
41.036000	0.000007	-0.000462	0.003154	0.004575	4418.629091	18525.582245	3237.896718	10041.532356
41.536000	0.006496	-0.001099	0.014345	-0.002783	4466.970814	18768.260184	3253.024592	10163.288629
42.036500	0.011971	0.000648	0.002810	-0.011630	4518.618902	19158.510345	3250.791725	10312.445678
42.539500	0.009919	0.000285	0.013160	-0.006968	4494.197292	18972.216551	3255.532965	10233.471998
43.037000	-0.047623	-0.026471	0.003301	0.215597	3749.036114	11980.701554	3104.544501	7299.138429
43.537000	-0.044908	-0.025798	0.011088	0.135085	3922.780441	13833.815818	3152.642959	8191.956371
44.035000	-0.038531	-0.020814	-0.001103	-0.047716	4466.635429	19713.044023	3278.441411	10953.297842
44.535500	-0.031209	-0.016452	-0.005589	-0.169319	4998.954582	25348.504234	3398.303420	13550.494625
45.038500	-0.023570	-0.013149	-0.005607	-0.135077	4875.812315	23809.357825	3359.837943	12744.186102
45.536000	-0.029278	-0.014291	-0.007405	-0.144359	4891.921645	24203.773903	3367.983671	12956.513524
46.038500	-0.035207	-0.011604	-0.009299	-0.144982	4868.052619	24366.260575	3366.590561	12970.925422
46.536500	-0.022346	-0.006470	-0.007052	-0.125322	4837.896862	23662.318097	3347.907561	12525.902296
47.036500	-0.017753	-0.003846	-0.010964	-0.122618	4846.226485	23658.439914	3341.002430	12466.239116
47.536500	-0.021726	-0.002665	-0.018675	-0.097976	4723.814822	22570.250230	3308.712256	11939.432478
48.034500	-0.012151	0.000070	-0.014479	-0.090410	4732.148002	22353.386062	3305.484932	11783.587934
48.537500	-0.018332	-0.000705	-0.014862	-0.070416	4626.536448	21448.000047	3286.496371	11384.581792
49.035000	-0.017240	0.000377	-0.017366	-0.059200	4587.363500	21021.717822	3274.203708	11168.660879
49.535000	-0.010508	0.003622	-0.003845	-0.050755	4580.826613	20806.793872	3278.706555	11009.733763
50.035500	-0.005669	0.005718	-0.004030	-0.034199	4536.791479	20222.565053	3264.053746	10706.998385
50.536000	-0.009238	0.002705	-0.009451	-0.027807	4500.277546	19852.842427	3254.048794	10593.153225
51.036000	-0.011889	0.002068	-0.006385	-0.029247	4495.895016	19884.092254	3257.832466	10618.649145
51.539000	-0.009573	0.003837	-0.007759	-0.027490	4497.918144	19884.592191	3255.200051	10587.563219
52.052500	-0.009077	0.004018	-0.002366	-0.026665	4496.725226	19859.499787	3259.048120	10572.993007
52.537000	-0.009733	0.003799	-0.004014	-0.024472	4486.461065	19765.954321	3255.809676	10534.433399
53.034000	-0.009616	0.004316	-0.005322	-0.022049	4478.198588	19692.351986	3252.689870	10492.031870
53.538500	-0.010554	0.005608	-0.012373	-0.019554	4465.980521	19646.080865	3244.831681	10448.638580
54.035000	-0.008399	0.005246	-0.010705	-0.017369	4465.875132	19548.522193	3244.410718	10410.829484
54.535000	-0.007169	0.004456	0.000901	-0.015856	4464.872338	19460.814849	3252.715415	10384.762696
55.035500	-0.010924	0.005000	-0.022708	-0.008876	4427.310156	19218.170289	3228.129040	10265.678395
55.536500	-0.005273	0.006630	-0.002274	-0.013576	4463.511234	19456.818854	3248.202877	10345.656378
56.036500	-0.005278	0.007095	-0.009890	-0.011963	4457.796900	19413.265789	3240.696538	10318.111274
56.536500	-0.003572	0.007347	-0.010006	-0.011893	4463.573489	19420.149139	3240.546347	10316.914877
57.069000	-0.009602	0.005445	-0.023489	-0.007937	4428.636674	19199.732846	3226.797159	10249.813598
57.537500	-0.002711	0.006903	-0.002359	-0.008680	4455.274499	19282.213718	3244.132423	10262.376082
58.035000	-0.004159	0.008618	-0.001893	-0.008393	4449.179473	19335.921153	3244.277053	10257.512888
58.535000	-0.002327	0.007577	-0.012325	-0.009284	4458.756807	19330.297395	3236.605943	10272.598533
59.035500	-0.010966	0.006997	-0.006114	-0.004457	4411.974365	19127.796782	3237.707452	10191.270323
59.538500	-0.007470	0.009224	-0.006770	-0.007014	4432.826214	19306.834384	3239.228065	10234.245552
60.036000	-0.002371	0.009255	-0.001069	-0.009104	4457.967408	19386.845494	3245.528012	10269.548780
60.539000	-0.004371	0.007522	-0.002818	-0.008358	4448.312898	19293.378654	3243.498457	10256.927067
61.036500	-0.009172	0.007323	0.003399	-0.003227	4413.903963	19094.188283	3244.379905	10170.699324
61.539500	-0.006429	0.007612	-0.015473	-0.005538	4431.318021	19191.053877	3231.165893	10209.416039
62.037000	-0.006379	0.007480	-0.014353	-0.006151	4433.612747	19209.008596	3232.524885	10219.704127
62.537000	-0.000591	0.006080	-0.005387	-0.006240	4454.148481	19160.051555	3239.715680	10221.201057
63.037500	-0.004072	0.007310	0.000048	0.000491	4418.646828	18956.236895	3238.678171	10108.857433
63.537500	-0.004087	0.008523	0.003440	-0.001038	4423.857888	19057.515565	3242.637355	10134.230563
64.035500	-0.002675	0.006995	-0.000011	-0.004409	4440.437240	19125.921714	3242.572442	10190.469754
64.536000	-0.007295	0.006528	0.004783	-0.004030	4423.111277	19094.485245	3246.162357	10184.122714
65.036000	-0.008419	0.006380	-0.007593	0.001519	4400.291045	18884.266462	3231.810308	10091.845394
65.536000	-0.003304	0.007734	0.000277	0.001617	4417.414087	18930.372036	3237.961028	10090.225552
66.053000	-0.003175	0.008495	-0.003527	-0.000398	4424.795562	19032.764947	3236.535539	10123.591525
66.536500	-0.005948	0.007497	-0.006080	-0.001487	4418.997480	19036.127795	3235.373541	10141.689474
67.037000	-0.003474	0.007417	0.009013	-0.000909	4425.525720	19011.794954	3247.070332	10132.080730
67.537000	-0.009249	0.006413	-0.007398	-0.000860	4405.560901	18972.969285	3233.835731	10131.275021
68.034500	-0.006860	0.007151	-0.018460	-0.006801	4434.202684	19221.051309	3229.819363	10230.652902
68.535000	-0.005170	0.006481	-0.016801	-0.006698	4439.720818	19192.137320	3231.034862	10228.921611
69.068500	-0.005392	0.007384	-0.007815	-0.003722	4428.620665	19114.873801	3235.770163	10178.976157
69.535500	-0.006879	0.005996	-0.006264	-0.004391	4425.794205	19088.163154	3237.536158	10190.176561
70.036000	-0.005787	0.007400	-0.001269	-0.007058	4438.828155	19240.015734	3243.700409	10234.989687
70.536500	-0.002304	0.006964	-0.005667	-0.007810	4453.646392	19251.827660	3240.753257	10247.666415
71.039500	-0.003807	0.008334	0.004955	-0.006934	4445.302145	19270.369035	3248.686360	10232.895021
71.537000	-0.003133	0.006522	0.002929	-0.003089	4434.255057	19059.381075	3243.886370	10168.400442
72.037000	-0.001965	0.008065	-0.003839	-0.006095	4448.815926	19228.828148	3240.843646	10218.769129
72.537500	-0.001111	0.008818	-0.006802	-0.006678	4453.862900	19278.941709	3238.933692	10228.586907
73.035500	-0.002339	0.007962	0.000950	-0.007134	4451.146226	19263.915619	3245.567828	10236.260352
73.535500	-0.001737	0.008880	-0.011013	-0.002437	4436.840750	19122.718499	3232.231873	10157.518894
74.035500	0.000651	0.008338	-0.007434	-0.006995	4461.189235	19272.839603	3238.681476	10233.927690
74.537000	-0.002122	0.007688	0.003933	-0.008036	4455.079682	19287.492687	3248.752100	10251.483527
75.036000	-0.002772	0.008250	0.004452	-0.007188	4449.817633	19276.771235	3248.481172	10237.179526
75.539500	-0.002734	0.008495	-0.004566	-0.002225	4432.641081	19100.506309	3237.162671	10153.981922
76.037000	-0.000476	0.008544	0.000975	-0.007488	4458.949698	19299.043008	3245.876470	10242.225824
76.537000	0.000033	0.009447	-0.003810	-0.008057	4462.758200	19354.534562	3242.450879	10251.837455
77.034500	0.001525	0.007366	-0.017208	-0.009066	4471.628450	19314.116889	3232.571776	10268.895006
77.535000	-0.003676	0.008770	-0.013277	-0.008193	4450.171199	19334.140953	3234.984578	10254.138804
78.035500	-0.000938	0.008227	-0.004774	-0.009583	4464.720358	19366.047823	3242.905425	10277.652529
78.538500	-0.000835	0.008719	-0.004732	-0.009088	4463.334303	19365.979395	3242.538790	10269.270564
79.035500	0.000040	0.009234	-0.002133	-0.008290	4463.608816	19355.260929	3243.998379	10255.769835
79.536000	-0.003434	0.010130	0.001685	-0.003385	4434.236974	19204.677443	3243.116776	10173.336583
80.036000	0.000455	0.009158	-0.001172	-0.008906	4467.261978	19375.676950	3245.282699	10266.199541
80.536500	-0.000826	0.007390	0.000004	-0.010580	4468.655000	19372.103420	3247.613236	10294.571228
81.036500	-0.002621	0.008416	-0.008692	-0.004753	4441.826803	19191.751001	3235.891882	10196.232332
81.537500	0.000214	0.008379	0.002266	-0.010383	4471.655575	19402.109477	3249.312356	10291.241725
82.038000	0.000436	0.009036	-0.003690	-0.009286	4468.544029	19385.429163	3243.543677	10272.628403
82.538500	-0.001992	0.008761	0.008340	-0.009876	4462.029327	19397.357453	3253.931740	10282.631204
83.035000	-0.001679	0.007597	-0.003079	-0.004428	4443.980419	19149.057695	3240.114557	10190.794598
83.539000	-0.004365	0.006928	0.001353	-0.004841	4436.062517	19139.531144	3244.028882	10197.716569
84.039500	0.000651	0.008476	0.013691	-0.009807	4471.159465	19383.955373	3258.370345	10281.460347
