sample name	sample
index	732
start time	 03-25-2021  03:22:36 PM
880	-0.040650
Peak Time (s)	92.035
Peak Height 	-0.04065
calc peak height	90,93
Baseline Time (s)	11.536
Baseline Value 	-0.005452
subtract baseline	10,4
Abs	-0.000808
Peak Time (s)	90.538
Peak Height 	-8.0845E-4
calc peak height	90,93
Baseline Time (s)	8.537
Baseline Value 	0.002335
subtract baseline	10,3
PK_550	-0.000904
Peak Time (s)	92.035
Peak Height 	-9.0353E-4
calc peak height	90,93
Baseline Time (s)	9.037
Baseline Value 	4.0282E-4
subtract baseline	10,2
PK_880	-0.001224
Peak Time (s)	92.535
Peak Height 	-0.001224
calc peak height	90,93
Baseline Time (s)	8.537
Baseline Value 	0.002568
subtract baseline	10,1


Time (s)	A880-A510	A880-A775	A880-A975	A880	I510	I775	I975	I880	
0.035000	-0.001678	-0.001129	-0.003653	0.002633	7164.540720	43985.315519	3952.327065	23513.937310
0.537500	-0.003702	-0.000630	-0.004037	0.007084	7101.376560	43613.356169	3940.328689	23303.627155
1.035000	-0.002142	-0.000605	-0.006991	0.004510	7141.590692	43857.605586	3939.390659	23424.983689
1.535500	-0.000848	-0.000333	-0.002196	0.002494	7174.064594	44073.825768	3956.317423	23520.527494
2.035500	-0.000833	0.000167	0.000050	0.002772	7171.472034	44094.852322	3961.257689	23507.317255
2.536000	-0.003598	-0.000162	-0.002176	0.005987	7113.019810	43760.250676	3947.653664	23355.261548
3.036000	0.000699	0.000141	-0.001938	0.001636	7197.814447	44200.102432	3959.115659	23561.292729
3.536500	-0.001509	0.000019	0.003138	0.001360	7178.727221	44214.771263	3972.637419	23574.434986
4.037000	0.000525	0.000633	0.002907	0.001661	7195.847200	44244.615636	3971.287292	23560.119734
4.537000	-0.000518	-0.000435	0.005036	0.001135	7190.737081	44193.136152	3978.050874	23585.199220
5.034500	0.000305	0.000310	-0.002198	0.001387	7196.381305	44239.885750	3959.088995	23573.166306
5.535000	0.001011	0.000219	0.001449	0.001322	7204.020395	44237.478335	3968.449086	23576.268369
6.035000	0.000205	0.000155	-0.003465	0.000603	7203.152536	44299.739567	3957.874322	23610.520368
6.535500	-0.000622	0.000539	-0.001432	0.000503	7195.953082	44345.870923	3963.239166	23615.297532
7.036000	-0.000942	0.000032	-0.003651	0.000090	7196.883987	44337.012729	3958.697622	23635.054642
7.536500	0.000610	-0.000247	0.002639	-0.000223	7215.385327	44340.259121	3975.400281	23649.996561
8.036500	0.000330	-0.000354	0.000070	0.000033	7210.061172	44305.657926	3968.222552	23637.773899
8.536500	0.000000	0.000344	0.000000	0.000522	7201.935655	44325.551947	3966.808561	23614.428262
9.037000	0.000334	0.000000	0.000263	0.000836	7202.129237	44262.852540	3966.679493	23599.424439
9.537000	0.000735	-0.000923	0.001198	-0.000031	7214.717128	44257.484674	3971.243638	23640.797935
10.034500	-0.002531	-0.000809	-0.002352	0.000184	7180.253003	44247.988664	3961.727505	23630.564264
10.535000	0.000307	-0.000032	0.000575	-0.000022	7210.367800	44341.560150	3969.640313	23640.365737
11.035500	-0.001312	0.000299	-0.002247	-0.000130	7195.401140	44383.436012	3962.780936	23645.560602
11.536000	-0.000338	0.000290	-0.003868	0.000000	7203.757888	44370.178806	3958.378394	23639.331563
12.035500	0.000372	-0.000511	-0.000688	-0.000466	7215.431920	44338.222534	3967.565520	23661.613552
12.536000	-0.000698	-0.000187	-0.001242	-0.000065	7200.826732	44330.884493	3965.151667	23642.436757
13.039000	-0.000571	-0.000229	-0.000062	0.001646	7185.158768	44164.072564	3963.812350	23560.825038
13.537000	-0.001789	0.000493	0.001151	0.001644	7173.169363	44232.824017	3966.879190	23560.924511
14.037500	-0.002862	-0.000463	0.000961	0.002696	7152.293007	44042.338322	3963.744132	23510.931261
14.534500	-0.000735	0.000582	0.001017	0.003506	7165.226509	44064.628589	3961.846055	23472.518295
15.043000	-0.000812	0.000316	-0.003159	0.002315	7176.191233	44152.300593	3954.354967	23529.037092
15.535500	-0.000437	-0.000480	0.001385	0.000889	7193.966714	44212.133774	3969.384258	23596.886294
16.035500	-0.000015	-0.000256	-0.002084	0.000952	7197.519923	44227.507218	3960.468420	23593.905364
16.536000	-0.002961	-0.000133	-0.000173	0.006238	7116.762796	43739.387782	3952.016459	23343.432698
17.036000	-0.000692	0.000346	-0.002762	0.000854	7191.794570	44294.045550	3959.009949	23598.567413
17.536000	0.000795	-0.000459	-0.003251	0.000195	7213.066935	44280.211613	3959.438658	23630.012675
18.037000	0.000177	0.000962	-0.000878	0.002685	7182.292436	44178.562775	3959.145422	23511.468201
18.537000	0.001540	0.000863	-0.004429	0.002631	7196.299584	44174.321912	3950.397815	23514.027190
19.037000	-0.001510	0.000328	-0.000569	0.002536	7167.138073	44132.440959	3960.293511	23518.500062
19.534500	-0.001525	-0.000709	0.002040	0.001650	7175.713947	44118.114959	3969.115585	23560.649365
20.035500	-0.002612	-0.000373	0.004311	0.002004	7161.536439	44116.389946	3973.984397	23543.789384
20.535500	-0.001834	0.000258	0.002402	0.001775	7171.434336	44198.088422	3969.718222	23554.703538
21.036000	-0.000979	-0.000263	-0.004931	0.001770	7179.913616	44149.125997	3951.292638	23554.943879
21.536000	-0.000196	-0.000736	-0.004007	0.001559	7189.724406	44124.242646	3954.124234	23564.979261
22.036500	-0.003497	0.000587	-0.000861	0.002189	7151.041491	44190.069443	3960.433184	23535.017243
22.536500	-0.001479	-0.000604	-0.001046	0.001151	7181.087759	44175.454775	3962.579431	23584.422358
23.037000	-0.000490	0.000573	0.002335	0.002775	7174.827165	44133.073044	3967.014421	23507.189111
23.537000	0.000102	-0.000349	-0.001475	0.001539	7192.877307	44162.915824	3960.523573	23565.954235
24.035000	-0.000839	0.000030	-0.006705	0.001857	7180.440310	44168.632400	3946.662822	23550.812729
24.535000	-0.002909	-0.000054	-0.004992	0.002014	7158.522326	44145.777414	3950.533114	23543.342415
25.035000	-0.001082	0.000457	-0.001214	0.002163	7175.026577	44180.158130	3959.611157	23536.257526
25.536000	-0.002314	-0.001063	0.001070	0.001464	7169.776188	44102.200233	3967.131182	23569.493552
26.036000	-0.000044	0.000067	-0.000213	0.001699	7189.839923	44187.115308	3963.297693	23558.296968
26.536500	-0.001467	-0.000299	0.000705	0.002602	7166.913759	44066.801334	3963.335787	23515.386413
27.036000	-0.000215	0.000005	-0.005612	0.001899	7186.179794	44162.337811	3949.274340	23548.810623
27.536500	-0.000116	0.000734	0.002485	-0.001189	7217.770422	44526.314931	3977.470030	23696.202990
28.037500	-0.000591	0.000508	0.003802	0.001154	7189.820752	44280.933237	3974.853159	23584.262778
28.536500	-0.003151	0.000542	0.000128	0.006738	7110.062763	43755.806802	3951.519308	23319.891629
29.037500	-0.000060	0.001106	0.000492	0.001549	7191.173506	44300.250637	3965.456179	23565.457721
29.534500	-0.001175	0.000394	-0.001070	0.001276	7182.851640	44258.470063	3962.204739	23578.444972
30.035000	-0.000535	-0.000050	0.004006	0.001005	7191.849414	44242.015098	3975.751597	23591.351730
30.538500	-0.003889	0.001079	-0.004280	0.005890	7111.136853	43886.218182	3942.676801	23359.820024
31.036000	-0.002257	0.000083	-0.002739	0.003047	7154.791691	44060.831760	3953.575838	23494.286057
31.536000	-0.000493	0.000998	0.000741	0.002053	7181.909866	44241.993199	3964.809130	23541.455339
32.036500	0.000379	0.000228	0.002919	0.001249	7198.479732	44245.255667	3972.363789	23579.728605
32.537000	-0.001508	0.000866	-0.006678	0.004663	7146.294426	43981.985282	3939.784355	23417.736692
33.034500	0.001411	0.001085	0.002078	0.003098	7190.397892	44150.981253	3965.549942	23491.854877
33.534000	-0.001872	-0.000358	-0.000953	0.000829	7180.381070	44229.512219	3963.626097	23599.769133
34.035000	-0.000417	0.000747	0.002940	0.001633	7186.816471	44258.141459	3971.444695	23561.481455
34.535500	0.000214	-0.000285	-0.001485	0.002679	7182.706973	44060.825021	3957.635171	23511.720396
35.035500	-0.002785	-0.000047	0.001236	0.002534	7154.639118	44097.101771	3964.846553	23518.616651
35.535500	-0.001690	0.000936	-0.004633	0.003034	7160.480086	44142.967292	3948.886514	23494.892119
36.036000	-0.002757	0.000062	0.000253	0.002461	7155.624767	44114.368887	3962.551097	23522.080255
36.594000	-0.001664	-0.000269	0.002952	0.002420	7166.766324	44086.861598	3969.476145	23524.026110
37.038500	0.000726	0.000640	-0.000516	0.002321	7191.305427	44182.452201	3960.967379	23528.729005
37.533500	-0.001635	0.001181	0.000874	0.003073	7160.624161	44162.455512	3962.574095	23493.009824
38.037000	-0.001844	0.000182	-0.000231	0.002575	7163.472213	44114.949281	3961.046940	23516.676814
38.537500	-0.000703	0.000984	0.004259	0.002976	7170.746372	44153.002734	3971.382105	23497.626689
39.035000	-0.000729	0.000378	-0.003611	0.002579	7174.400226	44133.124698	3952.566508	23516.486431
39.535000	-0.001923	0.000006	-0.003728	0.002229	7166.098568	44131.068482	3953.148712	23533.124179
40.038500	0.000302	0.000247	-0.006871	0.002812	7182.267435	44098.616009	3943.883143	23505.411467
40.536500	-0.000085	0.000200	0.003290	0.002898	7177.599374	44086.031098	3969.121593	23501.331147
41.036000	-0.000512	0.000390	-0.003671	0.002354	7178.758002	44155.699037	3952.978537	23527.177779
41.536500	-0.000225	-0.000231	0.001700	0.002261	7182.504546	44105.563337	3966.710288	23531.601526
42.036500	-0.000145	0.000418	-0.002286	0.002834	7177.648140	44112.804350	3955.240770	23504.391431
42.537500	0.000122	0.000779	0.000110	0.002738	7181.225460	44156.124210	3961.494585	23508.943804
43.037500	-0.001682	-0.000208	0.000008	0.001733	7173.344170	44157.800059	3963.770503	23556.699419
43.534500	-0.002154	-0.000640	-0.000886	0.001896	7167.097657	44101.428511	3961.106827	23548.948781
44.035000	0.002105	0.000503	0.003182	-0.001776	7245.796032	44560.396158	3980.753092	23724.336590
44.535000	-0.000066	0.000659	0.001860	0.004548	7161.559612	43973.298697	3961.343121	23423.170546
45.036000	-0.002256	-0.000867	-0.000883	0.001927	7165.790704	44076.900570	3961.035752	23547.476818
45.536000	0.000048	0.000375	0.002271	0.001140	7196.285898	44269.677645	3970.996534	23584.945490
46.036500	-0.000597	0.000940	-0.001544	0.001589	7185.466583	44280.744784	3960.226274	23563.571096
46.536500	-0.001207	-0.000303	-0.004145	0.002309	7172.352592	44094.173601	3951.906395	23529.302523
47.034500	-0.002409	-0.000329	-0.003567	0.004671	7137.409254	43868.454609	3947.466653	23417.362554
47.537500	0.000062	0.000266	-0.005289	0.002804	7179.978934	44101.189905	3947.827144	23505.779594
48.035000	-0.000944	-0.000190	0.002032	0.002919	7168.937628	44047.155184	3965.885783	23500.353048
48.537500	0.000550	0.000331	0.002997	0.001028	7202.368029	44276.120330	3973.123381	23590.265368
49.035500	-0.003231	0.000091	-0.002086	0.005218	7124.059684	43856.475232	3949.790134	23391.531923
49.535500	-0.001014	0.000625	0.001115	0.000921	7187.946986	44314.278832	3968.619485	23595.365894
50.041500	0.000638	0.000514	0.001872	-0.001009	7223.488561	44488.020345	3975.446483	23687.600985
50.536000	-0.000495	0.000443	0.001933	0.002275	7179.703877	44168.147350	3967.262437	23530.932111
51.036500	-0.000893	-0.000448	0.000860	0.000604	7192.276698	44242.347217	3968.776216	23610.499494
51.536500	-0.056574	-0.012407	0.003333	0.235307	5097.764618	26339.658876	3513.079328	14959.825792
52.037000	-0.061280	-0.010774	-0.003424	0.095004	5904.382845	35389.751199	3745.135609	19562.515837
52.537000	-0.064138	-0.017074	-0.008660	-0.059132	7157.714844	48553.986029	4103.644294	26665.844751
53.035000	-0.048887	-0.051021	-0.001192	-0.215036	9216.007317	63346.524323	4667.734723	36933.811197
53.537500	-0.029698	-0.037978	0.006788	-0.193475	9181.585387	62173.113483	4612.340606	35284.989743
54.035000	-0.025814	-0.025825	0.002999	-0.163027	8808.674651	59729.158303	4480.145138	33091.572331
54.535500	-0.021473	-0.023646	-0.006628	-0.163601	8875.958438	60090.336179	4446.896794	33131.493593
55.035500	-0.013082	-0.018551	-0.002034	-0.156614	8895.319733	59841.773736	4438.224841	32648.851936
55.536500	-0.001247	-0.027312	-0.005399	-0.183348	9452.430169	62246.609872	4525.002363	34538.283307
56.036500	0.014395	-0.028217	-0.004033	-0.189589	9791.221256	62979.894132	4554.277011	34996.380318
56.537000	0.020203	-0.020803	-0.004132	-0.176897	9682.790900	62254.517687	4505.346562	34071.645689
57.037500	0.015472	-0.008041	-0.001202	-0.141074	9077.805404	59186.437852	4385.955177	31602.874475
57.534500	0.014706	-0.015698	-0.005343	-0.163170	9388.970299	61088.314717	4450.007201	33101.500199
58.037500	0.010912	-0.008213	-0.000571	-0.136214	8945.179482	58538.345873	4371.252260	31283.380215
58.535500	0.009276	-0.006562	-0.007498	-0.120417	8707.190086	56756.206965	4294.646182	30269.163961
59.035500	0.003672	-0.005499	-0.002699	-0.094793	8304.060646	53796.458359	4227.873608	28700.499080
59.536000	0.002068	-0.003198	-0.007123	-0.081826	8125.640303	52562.327459	4174.514743	27941.241410
60.036000	0.001126	-0.003859	-0.005383	-0.074536	8027.451825	51661.824628	4157.931411	27524.237158
60.536500	-0.005317	-0.005779	-0.001697	-0.068643	7883.762461	50792.946828	4151.392623	27192.224514
61.036500	-0.008188	-0.005414	-0.006105	-0.067419	7836.961293	50698.354413	4134.864581	27123.837921
61.537000	-0.013231	-0.006638	-0.005451	-0.070092	7810.074300	50858.034533	4144.604097	27273.449309
62.037500	-0.006060	-0.002850	-0.003381	-0.070673	7898.574077	51342.624001	4152.417358	27306.110100
62.537500	0.006855	-0.001609	-0.013934	-0.078144	8138.960426	52323.721228	4143.338937	27729.781906
63.035500	0.006211	-0.001570	-0.013898	-0.078159	8131.378403	52329.834560	4143.488456	27730.641009
63.535500	0.007797	-0.000424	-0.005876	-0.078429	8153.791163	52491.245937	4168.065071	27746.081185
64.043500	0.009687	-0.000241	-0.011385	-0.075634	8142.846994	52193.960867	4143.454561	27586.618932
64.538500	0.010138	0.000494	-0.009557	-0.072106	8105.804143	51878.080350	4138.471623	27386.796603
65.036000	0.014418	0.001991	-0.011265	-0.067970	8107.546433	51581.570407	4121.499104	27154.634258
65.537000	0.010704	0.001768	-0.011139	-0.065890	8038.470898	51324.164951	4115.870322	27038.657946
66.036500	0.010233	0.001489	-0.009258	-0.063467	8004.329064	51024.073916	4114.317330	26904.313351
66.537500	0.012689	0.001689	-0.010690	-0.060567	7999.115287	50725.962356	4101.951784	26744.508901
67.037000	0.012461	0.002022	-0.009037	-0.057669	7962.522844	50444.516865	4098.422204	26585.874138
67.535000	0.010834	0.002252	-0.012641	-0.056442	7929.334445	50335.483349	4084.814719	26518.986973
68.035000	0.010142	0.002832	-0.004355	-0.054054	7893.767178	50138.587525	4101.446663	26389.432960
68.535500	0.010319	0.001809	-0.015428	-0.052869	7882.180402	49899.134828	4067.133389	26325.398610
69.036000	0.007876	0.002295	-0.008546	-0.048886	7808.962907	49522.484228	4075.161840	26111.469492
69.536000	0.008540	0.001531	-0.013052	-0.047341	7798.998556	49275.430787	4058.464294	26028.995027
70.036000	0.008017	0.001968	-0.008672	-0.045018	7766.984744	49074.586815	4064.114421	25905.566418
70.536500	0.006751	0.002754	-0.009790	-0.042189	7721.276047	48857.987328	4053.298631	25756.115060
71.036500	0.004958	0.002027	-0.011177	-0.039741	7674.388809	48523.419226	4042.881426	25627.602950
71.537000	0.005099	0.001381	-0.013439	-0.039550	7673.839437	48435.689727	4036.269978	25617.622467
72.035000	0.004447	0.001611	-0.012408	-0.037872	7648.277875	48284.073134	4034.527807	25529.940260
72.535000	0.003531	0.002184	-0.010983	-0.035556	7613.046981	48102.492106	4032.140171	25409.551336
73.035500	0.002315	0.001592	-0.010918	-0.034517	7588.618503	47933.067683	4029.532164	25355.716036
73.535500	0.002554	0.001026	-0.007680	-0.034810	7594.379825	47904.870410	4039.010737	25370.903956
74.036000	0.002625	0.001761	-0.007592	-0.033539	7581.405166	47849.296531	4035.825570	25305.183585
74.536000	0.002751	0.001397	-0.007833	-0.032932	7576.219008	47749.055051	4033.547930	25273.879550
75.036500	0.001457	0.000784	-0.009889	-0.032271	7555.210089	47617.785157	4026.282910	25239.855351
75.537000	0.001525	0.000908	-0.013291	-0.032359	7556.881182	47639.625328	4017.484884	25244.400506
76.040000	0.000759	0.000077	-0.009982	-0.032783	7553.216903	47597.689059	4027.401186	25266.233959
76.534500	0.000310	0.000202	-0.004796	-0.031894	7538.883363	47519.185761	4038.925546	25220.455337
77.035000	-0.001569	0.000859	-0.007572	-0.030601	7505.107053	47453.939815	4028.009004	25154.066757
77.535000	-0.002304	-0.000120	-0.009501	-0.032357	7515.959175	47533.683094	4027.548742	25244.288454
78.035500	-0.001952	-0.000325	-0.007054	-0.032876	7525.226570	47565.929773	4035.491761	25271.032569
78.535500	-0.003674	-0.000907	-0.007288	-0.032780	7505.895217	47496.323817	4034.604821	25266.063763
79.036500	-0.004764	-0.000529	-0.008319	-0.032931	7495.943959	47550.690711	4032.245433	25273.859937
79.536500	-0.002867	-0.000629	-0.010337	-0.033687	7524.118882	47618.100027	4028.868367	25312.863231
80.036500	-0.004456	-0.000711	-0.005612	-0.033840	7508.844012	47625.372699	4041.973519	25320.751941
80.537000	-0.005033	-0.001257	-0.007202	-0.034423	7508.905229	47629.154806	4039.256429	25350.870585
81.034500	-0.005033	-0.001580	-0.008010	-0.035157	7516.711962	47671.602603	4039.057851	25388.895689
81.534500	-0.002937	-0.000917	-0.007266	-0.034672	7533.877891	47689.820867	4039.755319	25363.756706
82.040500	-0.003329	-0.000742	-0.004380	-0.035211	7535.446412	47763.552641	4049.028617	25391.662597
82.535000	-0.004348	-0.000912	-0.002739	-0.035728	7530.087225	47799.350219	4054.908118	25418.448857
83.036000	-0.004092	-0.001077	-0.005654	-0.036298	7538.911674	47841.175140	4048.520123	25448.039167
83.536000	-0.005629	-0.000976	0.000041	-0.037006	7530.063756	47924.933457	4066.047269	25484.868325
84.036000	-0.006397	-0.001546	-0.004386	-0.037303	7525.043413	47896.773703	4054.713310	25500.342160
84.536500	-0.004793	-0.002092	-0.004693	-0.038092	7550.604431	47921.797809	4056.029699	25541.418070
85.037000	-0.005626	-0.002032	-0.007944	-0.038836	7549.657864	48005.288716	4049.194593	25580.276134
85.537000	-0.005293	-0.001998	-0.006734	-0.039634	7561.794605	48091.706676	4054.667470	25622.011203
86.037500	-0.006921	-0.002068	-0.004822	-0.039204	7539.736103	48039.658647	4058.719901	25599.508577
86.535000	-0.004738	-0.001429	-0.004744	-0.039632	7567.728462	48150.686434	4060.106849	25621.881195
87.035000	-0.005678	-0.001541	-0.007817	-0.039544	7556.689971	48129.944995	4051.468772	25617.314411
87.538000	-0.003716	-0.001667	-0.008887	-0.040547	7588.607041	48221.191097	4051.282072	25669.819786
88.036000	-0.003662	-0.001725	-0.003748	-0.040367	7587.253299	48196.404023	4064.868298	25660.417096
88.536000	-0.003921	-0.002045	-0.001851	-0.041367	7595.257418	48267.306504	4072.873596	25712.887575
89.036000	-0.003149	-0.001671	-0.010764	-0.041303	7602.925758	48299.630198	4048.233565	25709.502874
89.537000	-0.003806	-0.001587	-0.003250	-0.042365	7607.324988	48419.605370	4071.763738	25765.409707
90.037000	-0.002708	-0.002050	-0.003356	-0.041398	7608.732734	48270.047612	4068.791196	25714.506035
90.537500	-0.003614	-0.001189	-0.000808	-0.041992	7605.353690	48422.203912	4077.506355	25745.743080
91.035000	-0.003908	-0.001637	-0.002509	-0.041725	7599.271509	48347.312193	4072.042102	25731.700483
91.535000	-0.004207	-0.001603	-0.002412	-0.043165	7611.652180	48501.768552	4076.310308	25807.575255
92.035500	-0.002031	-0.000904	-0.004507	-0.040650	7607.975796	48311.691094	4063.555955	25675.247653
92.535500	-0.001224	-0.000995	-0.004436	-0.041992	7631.339126	48442.530047	4067.450605	25745.748013
93.036000	-0.001369	-0.000488	0.000011	-0.041796	7627.627020	48475.135908	4079.244085	25735.449790
93.536000	0.000079	-0.000441	-0.005114	-0.042022	7645.895202	48503.802209	4065.664556	25747.350137
94.036000	-0.000176	-0.000093	-0.004256	-0.041475	7637.135380	48482.958669	4066.522421	25718.593268
94.536000	0.000714	-0.000314	-0.005460	-0.041933	7651.872538	48507.830027	4064.465445	25742.668146
95.037000	0.000098	-0.000110	-0.000227	-0.041570	7641.156487	48491.124335	4077.952261	25723.557416
95.534500	0.000618	-0.001198	-0.002743	-0.042149	7653.180775	48437.762386	4072.569911	25754.024159
96.035000	0.000821	-0.000662	-0.005594	-0.041713	7650.637030	48448.278281	4063.490147	25731.097064
96.535500	0.000930	-0.000400	-0.001392	-0.040864	7642.539232	48386.659754	4072.751877	25686.450614
