sample name	sample
index	532
start time	 03-11-2021  04:39:17 PM
880	0.168614
Peak Time (s)	121.546
Peak Height 	0.1686
calc peak height	120,123
Baseline Time (s)	8.536
Baseline Value 	-0.002166
subtract baseline	10,4
Abs	0.096531
Peak Time (s)	122.035
Peak Height 	0.09653
calc peak height	120,123
Baseline Time (s)	9.537
Baseline Value 	0.002277
subtract baseline	10,3
PK_550	0.056974
Peak Time (s)	122.537
Peak Height 	0.05697
calc peak height	120,123
Baseline Time (s)	9.537
Baseline Value 	2.349E-4
subtract baseline	10,2
PK_880	0.092042
Peak Time (s)	122.537
Peak Height 	0.09204
calc peak height	120,123
Baseline Time (s)	8.536
Baseline Value 	1.3734E-4
subtract baseline	10,1


Time (s)	A880-A510	A880-A775	A880-A975	A880	I510	I775	I975	I880	
0.036500	-0.002071	-0.000159	-0.005798	0.006885	6958.445072	44629.711744	3960.139724	23727.159450
0.537000	-0.000854	-0.000521	-0.001811	0.003361	7002.768851	44934.154623	3978.870267	23896.747501
1.034500	-0.000861	-0.001636	-0.003113	0.002438	7011.395567	44915.649375	3977.917812	23941.403307
1.534500	-0.000686	-0.000215	-0.000360	0.000181	7034.368521	45272.395279	3990.584564	24050.994551
2.035500	-0.004338	-0.001140	-0.003874	0.004777	6956.972651	44738.028507	3970.157070	23828.472387
2.535000	-0.000974	0.000085	-0.001099	-0.000009	7033.444582	45320.163829	3989.188528	24060.223591
3.036000	0.001809	0.000362	-0.001007	-0.001673	7075.778041	45509.935572	3993.656138	24141.437733
3.536000	0.001370	-0.000535	-0.001119	-0.000477	7060.157361	45305.294936	3990.327391	24083.029491
4.036500	-0.000414	-0.000772	-0.007178	0.001167	7027.610284	45122.454224	3970.919365	24003.057611
4.539500	0.001479	-0.000352	-0.002698	-0.000688	7063.218066	45343.821262	3986.855735	24093.330693
5.037000	0.000681	0.000409	-0.000378	0.000162	7047.519766	45335.057589	3990.584564	24051.900581
5.537500	-0.001047	0.000265	0.002639	-0.000193	7034.485767	45355.636557	3999.191002	24069.172574
6.034500	0.000256	-0.000308	-0.003586	-0.000005	7045.069996	45281.426527	3982.880473	24060.024455
6.535000	0.000240	-0.000533	-0.000751	-0.000767	7052.166137	45333.878765	3992.001344	24097.189676
7.035500	-0.000536	-0.000626	-0.000936	-0.000585	7043.052501	45307.017842	3991.066395	24088.285748
7.535500	0.000630	-0.000400	-0.001675	-0.000140	7049.904366	45285.695753	3988.057858	24066.613043
8.036000	0.001713	-0.000100	0.000679	-0.000277	7061.522319	45328.210750	3994.395366	24073.270370
8.536000	0.000000	0.000259	0.001892	0.000000	7042.591816	45336.273015	3996.785033	24059.795394
9.039500	-0.000232	0.000244	0.002139	0.000000	7040.386075	45334.827057	3997.417949	24059.791995
9.536500	0.000895	0.000000	0.000000	0.002903	7023.579642	45028.952209	3984.595223	23918.922731
10.037000	-0.001428	-0.000467	-0.003049	-0.000287	7031.772107	45293.423720	3984.951427	24073.761316
10.537500	0.000482	-0.000078	-0.002270	-0.000453	7051.475851	45347.509802	3987.342523	24081.854090
11.035000	0.000339	0.000056	0.001557	0.000183	7044.072143	45298.635800	3995.462930	24050.871402
11.535500	-0.000553	-0.000681	-0.000580	-0.000924	7046.114590	45334.678081	3992.836659	24104.844623
12.035500	0.000809	0.000860	0.000774	0.000347	7046.982202	45361.102917	3993.046891	24042.926989
12.535500	0.001511	-0.000286	0.001265	-0.000185	7058.723923	45301.129330	3995.656395	24068.812963
13.036000	0.001629	0.000296	0.002811	-0.001639	7073.728776	45500.095725	4003.346664	24139.761853
13.539000	-0.001807	-0.000412	-0.000274	0.002551	7001.428647	45023.097132	3984.792372	23935.949900
14.036500	0.000799	-0.000075	-0.000517	0.000475	7045.676485	45257.416247	3989.437594	24036.701861
14.537000	0.001620	0.000297	-0.002852	0.002112	7037.926670	45134.406611	3979.396044	23957.198763
15.037000	0.000830	-0.000521	-0.003232	-0.000346	7053.770281	45293.961907	3984.638429	24076.649510
15.546000	-0.002101	-0.000029	-0.005693	0.002400	7000.093334	45074.933253	3971.550783	23943.275497
16.035000	0.000357	0.000653	0.001760	-0.000322	7049.042782	45406.177179	3997.271580	24075.480937
16.535500	0.001256	-0.000065	0.000668	-0.000540	7059.672615	45357.303287	3995.039781	24086.108152
17.035500	0.001303	-0.000047	-0.001815	-0.000167	7056.571246	45322.722563	3987.771903	24067.919719
17.535500	0.001416	-0.000129	-0.000375	0.000319	7053.022583	45267.370427	3990.195155	24044.285731
18.039000	0.001065	0.000370	0.005341	-0.000003	7052.742239	45347.354363	4005.645941	24059.938815
18.536500	-0.000471	-0.000188	-0.005996	0.000546	7032.948126	45239.452300	3975.431610	24033.210914
19.037000	0.001093	-0.000070	0.001072	0.000825	7045.138130	45223.843783	3992.587300	24019.658844
19.537000	-0.001953	-0.000500	0.001610	0.001540	7009.568739	45112.583322	3992.138985	23984.962311
20.037500	-0.002023	-0.000080	-0.006229	0.001122	7012.843234	45193.953468	3973.405274	24005.229463
20.534500	-0.001501	-0.000748	-0.000166	0.000720	7021.567285	45168.119829	3989.706800	24024.775225
21.035000	-0.001073	0.000206	-0.002648	0.001123	7021.796688	45221.681292	3982.402481	24005.193727
21.535500	0.000176	0.000007	-0.002180	0.001608	7029.022081	45155.249308	3982.360256	23981.663160
22.036000	-0.000098	-0.000416	-0.002469	0.000539	7036.546692	45218.026773	3984.329253	24033.560213
22.538500	-0.000227	-0.000864	-0.000277	0.000596	7034.792988	45168.899113	3989.739695	24030.802241
23.036500	-0.000347	-0.000445	-0.002462	0.000722	7032.451127	45197.354439	3983.884174	24024.652228
23.536500	-0.001069	-0.000305	-0.000482	0.000864	7024.283416	45197.212769	3988.538708	24017.755126
24.037000	0.001794	-0.000193	0.001906	0.001187	7048.362575	45176.748187	3993.792729	24002.097018
24.537000	-0.000674	0.000283	-0.002478	0.000752	7029.079939	45265.312965	3983.767568	24023.197978
25.037500	-0.000517	0.000440	-0.000983	0.001661	7021.977918	45192.149317	3985.250379	23979.091806
25.535000	0.000077	0.000220	0.000076	0.001177	7032.165793	45217.843282	3989.161175	24002.563990
26.035000	-0.000813	-0.000076	0.001671	0.001149	7024.016857	45191.748258	3993.289416	24003.944271
26.535500	-0.001823	0.000023	0.001759	0.001060	7015.315386	45210.000800	3993.740210	24008.239636
27.039000	-0.000488	-0.000175	0.001644	0.000519	7033.040767	45243.358315	3994.825349	24034.515123
27.536000	-0.001043	0.000187	-0.003018	0.001112	7022.188349	45220.888037	3981.494799	24005.704707
28.036500	0.001645	0.000258	0.000435	-0.001719	7074.646884	45504.165420	3997.455664	24143.646406
28.536000	0.002017	-0.000635	0.002945	-0.000413	7065.723322	45289.409708	4000.541439	24079.936899
29.045000	0.002570	0.000700	-0.000707	0.000444	7062.818056	45335.955636	3989.033983	24038.189771
29.537000	-0.000262	-0.000182	0.005192	0.003427	7007.717305	44960.617838	3996.459934	23893.561241
30.035000	-0.000646	0.000364	-0.002573	0.000699	7029.849574	45278.369028	3983.661255	24025.791198
30.535000	0.000100	0.000030	0.001203	0.000014	7043.408983	45312.583520	3994.991840	24059.135664
31.035500	-0.001264	0.000527	-0.003787	0.000253	7028.214945	45337.716427	3981.722606	24047.480232
31.541000	-0.000576	0.000677	0.000464	0.004754	6992.301670	44915.349501	3981.093443	23829.567112
32.039000	0.000405	-0.000178	-0.005524	0.002002	7027.467098	45099.075278	3972.967407	23962.554079
32.537000	0.000375	-0.000225	-0.004458	-0.000450	7050.435013	45332.951714	3981.803976	24081.725915
33.041500	-0.000586	-0.000321	-0.001415	-0.000567	7042.417207	45334.981599	3989.803042	24087.430890
33.540000	-0.004622	-0.000795	-0.007638	0.003159	6969.388007	44927.272426	3964.813640	23906.534714
34.037000	-0.000082	-0.000255	-0.001016	0.000318	7038.792455	45255.124739	3988.566956	24044.299388
34.537500	-0.000827	0.000229	-0.001134	0.000348	7031.454657	45299.420449	3988.194071	24042.871402
35.035000	0.002159	-0.000218	0.001833	-0.002029	7082.535635	45487.890852	4001.831990	24158.801720
35.535000	0.000136	-0.000156	-0.007590	0.001631	7028.421472	45137.089748	3968.733767	23980.505264
36.038000	0.000131	-0.000327	0.001059	0.001568	7028.969313	45126.660516	3990.663989	23983.565366
36.535000	-0.000196	0.000396	0.000246	0.002195	7019.959435	45135.915557	3987.007888	23953.169523
37.036000	-0.001022	-0.000467	-0.001795	0.001662	7017.196366	45104.029379	3983.194384	23979.038083
37.536500	-0.001162	0.000188	-0.001858	0.003072	7002.596070	45030.793989	3979.480495	23910.745974
38.036500	-0.001244	-0.000911	-0.001096	0.001411	7017.470929	45085.240206	3985.596445	23991.206510
38.537000	0.000221	0.000453	0.003714	0.002704	7019.089154	45092.122750	3994.533162	23928.523113
39.037000	-0.000095	-0.000891	-0.001820	0.001458	7027.875163	45082.649648	3983.648328	23988.933857
39.537500	-0.002884	-0.000451	-0.006625	0.002407	6992.670060	45033.264502	3969.206491	23942.907699
40.035500	-0.001218	0.000091	0.005466	0.002085	7011.359597	45117.019358	4000.598469	23958.500834
40.538500	-0.000784	-0.000156	-0.000002	0.001872	7017.454081	45113.718804	3987.198117	23968.831999
41.035500	-0.000619	-0.000206	-0.003790	0.001973	7018.061014	45099.160276	3977.388058	23963.957731
41.536000	-0.000243	0.000243	-0.001614	0.003061	7011.345862	45037.172038	3980.123705	23911.259537
42.036500	-0.001316	-0.000452	-0.001316	0.001910	7012.086791	45081.323643	3983.778377	23966.994790
42.536500	0.000941	0.000090	-0.003244	0.002241	7030.269546	45101.832683	3978.085061	23950.947499
43.034000	0.000195	-0.000418	-0.000527	0.002015	7025.344462	45074.454007	3985.506210	23961.884335
43.537000	-0.000778	-0.000584	0.000849	0.002015	7016.161654	45058.317265	3988.995510	23961.885206
44.034500	0.001039	0.000108	0.001903	0.002605	7027.757175	45068.347982	3990.175996	23933.347592
44.535000	-0.001022	0.000580	0.000155	0.002444	7009.817016	45129.654880	3986.147233	23941.120157
45.038000	0.000759	-0.000437	0.000353	0.001389	7036.609886	45133.365209	3989.326324	23992.261046
45.535000	-0.000624	-0.000168	-0.001091	0.003145	7006.970595	44989.177461	3981.228984	23907.198715
46.036000	0.000745	0.000494	0.002707	0.000965	7040.501394	45265.110193	3996.402836	24012.837186
46.558000	-0.000491	-0.000526	0.000708	-0.000458	7042.275652	45304.402748	3994.931885	24082.107613
47.036000	0.001458	0.000770	0.002983	0.000603	7050.718963	45327.329603	3998.035321	24030.465337
47.539500	-0.001373	-0.000582	-0.004112	0.002505	7005.938403	45011.043029	3975.243463	23938.148973
48.037000	-0.000276	0.000250	0.001228	0.000789	7032.496237	45258.532448	3993.078220	24021.432845
48.562500	0.000953	0.000629	0.003012	0.001129	7040.916672	45262.224338	3996.762793	24004.879988
49.035000	0.000404	0.000614	0.001116	0.003263	7015.546667	45053.557531	3986.508395	23901.504394
49.537500	-0.002649	-0.000254	-0.001224	0.003698	6982.788765	44927.441031	3979.502443	23880.503633
50.066000	0.003069	0.000241	-0.001837	0.001148	7060.858220	45222.646393	3984.385835	24003.945745
50.535500	0.000148	-0.000364	-0.000960	0.000252	7041.602758	45251.030087	3988.877785	24047.534139
51.035500	0.001516	0.000894	0.000734	0.001041	7047.099843	45296.633545	3991.178715	24009.156520
51.539000	0.000822	-0.000371	0.000412	0.002023	7031.205243	45078.233881	3987.866648	23961.501529
52.036500	0.000697	-0.000069	0.002561	0.000203	7047.284434	45284.444951	3997.976553	24049.896641
52.536500	0.001600	0.000113	-0.000854	0.000715	7051.000097	45252.408039	3987.974458	24025.017193
53.037000	0.001380	-0.002070	-0.001688	-0.015137	7202.389768	46604.308735	4026.728523	24809.852360
53.534500	-0.029528	-0.011016	-0.012564	0.070202	6196.746539	38089.155009	3800.137235	20903.397576
54.037500	-0.028307	-0.017846	-0.000318	-0.064302	7398.826113	50091.249038	4167.441847	27434.566173
54.537500	-0.030037	-0.045274	-0.004272	-0.194412	8939.243896	62659.362704	4599.229670	36000.231182
55.035000	-0.023548	-0.019115	-0.001390	-0.105274	7896.166996	54602.034056	4290.703747	29860.670933
55.535000	-0.041788	-0.021622	-0.025127	-0.122594	7885.637215	56393.458968	4270.110295	30957.108556
56.036000	-0.029722	-0.027235	-0.025514	-0.164430	8541.805619	61040.488067	4408.672947	33793.094743
56.539000	-0.008897	-0.018540	-0.016113	-0.151335	8642.753015	60454.993834	4395.775977	32875.827335
57.036500	-0.006287	-0.009841	-0.020182	-0.120385	8281.248517	57583.902053	4278.850242	30814.788982
57.536500	-0.010541	-0.007731	-0.020424	-0.107148	8069.616306	56202.459347	4236.299576	29977.178380
58.037000	-0.010062	-0.010972	-0.018401	-0.112618	8140.647922	56476.496649	4259.795184	30320.264125
58.540000	-0.016231	-0.010324	-0.014747	-0.090272	7808.885582	53868.875298	4201.937914	28945.667540
59.035000	-0.019714	-0.008918	-0.019248	-0.069103	7539.110493	51604.638915	4126.435531	27707.140520
59.537500	-0.019687	-0.007003	-0.019389	-0.049023	7330.678468	49612.351372	4070.027575	26586.848601
60.035000	-0.015975	-0.005377	-0.017479	-0.036042	7237.543240	48408.655384	4040.234877	25889.672811
60.539000	-0.016920	-0.005953	-0.015752	-0.016539	7038.978132	46355.740654	3993.965831	24880.688808
61.036500	-0.016985	-0.003544	-0.012849	0.000438	6880.473446	44924.485670	3958.648495	24038.455744
61.536500	-0.019951	-0.003244	-0.015052	0.014059	6732.072640	43657.242709	3920.285715	23386.186420
62.037000	-0.012673	-0.000197	-0.006551	0.020154	6742.468969	43372.657230	3926.029003	23100.829939
62.536500	-0.010270	0.001056	-0.003920	0.030021	6677.337364	42579.220762	3908.850471	22647.324832
63.040000	-0.006710	0.002914	-0.003251	0.039720	6624.601549	41870.550943	3887.813643	22211.509925
63.537500	-0.004566	0.004039	0.005988	0.029201	6734.201058	42927.607255	3934.422437	22684.638102
64.035000	0.005048	0.007386	0.003024	0.032587	6789.296571	42923.968960	3919.208994	22531.071236
64.535500	0.007816	0.009657	0.004457	0.030092	6836.474132	43364.876931	3928.594114	22644.122479
65.036000	0.006107	0.010194	0.003683	0.031642	6807.194189	43270.775516	3923.031966	22573.833223
65.586000	0.012477	0.011250	0.010888	0.030869	6871.650381	43440.854106	3942.248626	22608.827524
66.036500	0.009913	0.010466	0.013905	0.031986	6838.303332	43264.113762	3946.878373	22558.258678
66.536000	0.014301	0.011770	0.015633	0.034169	6858.239741	43182.624944	3945.767602	22459.739748
67.037000	0.014591	0.012968	0.015167	0.036960	6835.631718	43035.456474	3937.854571	22334.545379
67.540000	0.013698	0.013392	0.013215	0.038178	6816.642469	42962.262649	3930.207130	22280.144803
68.037500	0.017849	0.013957	0.017950	0.039975	6837.825157	42848.934235	3937.292954	22200.152896
68.540500	0.018933	0.014813	0.018539	0.042215	6827.408126	42722.063261	3933.305591	22100.934382
69.035000	0.017128	0.015231	0.015913	0.044158	6793.837455	42582.709184	3922.350885	22015.298173
69.541000	0.017325	0.015865	0.020772	0.050863	6736.223593	42032.880582	3917.956830	21722.637038
70.035500	0.021241	0.017605	0.020645	0.049000	6787.340441	42358.196243	3922.087997	21803.489583
70.541500	0.021196	0.018236	0.022960	0.050920	6769.875739	42241.501465	3923.029711	21720.161040
71.036500	0.022744	0.018841	0.019579	0.053194	6763.450466	42090.887182	3909.621251	21621.951823
71.539000	0.020577	0.019086	0.024215	0.058973	6693.766663	41595.536766	3906.930378	21374.625349
72.040000	0.026678	0.019695	0.020300	0.057005	6764.538687	41825.418637	3902.365699	21458.491643
72.534000	0.024957	0.018681	0.022302	0.057409	6745.775729	41698.755269	3906.110159	21441.231679
73.034500	0.026579	0.019972	0.030821	0.059503	6741.622602	41627.198108	3921.309246	21352.113910
73.535000	0.024267	0.020327	0.019871	0.064510	6677.751555	41215.336751	3883.973612	21140.712520
74.035000	0.026868	0.021678	0.030589	0.063192	6711.813001	41451.127312	3912.007235	21196.134271
74.535500	0.028937	0.021429	0.029753	0.063797	6724.613545	41375.518438	3908.609288	21170.676646
75.036000	0.027981	0.022575	0.027270	0.065752	6699.205298	41304.079967	3898.218007	21088.680793
75.536000	0.026045	0.022583	0.027293	0.071922	6629.320600	40763.923578	3883.996610	20832.255295
76.037000	0.032318	0.022391	0.034855	0.067973	6717.659157	41092.295767	3910.790772	20995.945681
76.539500	0.030547	0.023541	0.035423	0.069672	6687.443270	41044.253363	3908.127612	20925.370753
77.037000	0.031603	0.024325	0.031443	0.071086	6684.337900	40989.029455	3895.517510	20866.819291
77.537000	0.028716	0.023607	0.028814	0.077577	6603.920011	40363.147579	3874.546887	20600.447030
78.035000	0.032266	0.024356	0.032064	0.073111	6672.548648	40814.912774	3892.260149	20783.296912
78.535000	0.034270	0.025318	0.031920	0.074912	6674.309120	40741.847912	3887.766013	20709.340615
79.035500	0.035597	0.026384	0.037459	0.076675	6670.541479	40681.284300	3896.509644	20637.245141
79.535500	0.032558	0.025658	0.032359	0.083068	6589.956985	40068.109595	3870.129610	20378.205305
80.036000	0.034833	0.026303	0.034034	0.078260	6650.303875	40536.851152	3884.923296	20572.654695
80.541500	0.037217	0.026312	0.036140	0.079834	6657.270369	40401.684251	3886.148263	20508.754027
81.039500	0.038603	0.027222	0.043101	0.081328	6656.346233	40351.445444	3898.813879	20448.354801
81.536500	0.036009	0.027410	0.038317	0.088008	6577.400865	39796.794670	3872.438510	20180.671021
82.037000	0.039276	0.027725	0.044494	0.083328	6644.940588	40222.839918	3897.398975	20367.779631
82.534500	0.040087	0.029976	0.046961	0.086116	6628.028915	40176.757745	3896.652690	20256.087428
83.035000	0.039167	0.029155	0.045328	0.085683	6623.871243	40143.513518	3893.864369	20273.374558
83.535500	0.040002	0.029889	0.041425	0.087644	6614.279284	40038.644088	3880.353058	20195.167903
84.035500	0.040022	0.029759	0.039643	0.088087	6610.686894	39989.837267	3875.275598	20177.552178
84.536000	0.042641	0.031115	0.043361	0.090465	6612.730971	39902.780612	3878.329355	20083.263725
85.036500	0.043431	0.030462	0.045859	0.090444	6619.627798	39849.007111	3884.097741	20084.068922
85.541500	0.043991	0.031467	0.046046	0.092715	6605.091288	39741.740831	3879.324259	19994.541425
86.037000	0.043305	0.030851	0.042400	0.092763	6598.863205	39685.514982	3870.912871	19992.628449
86.539500	0.046403	0.031897	0.050467	0.094543	6610.040928	39623.495872	3885.267554	19922.773889
87.037500	0.046315	0.032565	0.047358	0.096182	6595.393051	39541.666256	3874.408867	19858.688618
87.535000	0.046493	0.031557	0.046812	0.096086	6597.722364	39465.018031	3873.385405	19862.458653
88.035000	0.046958	0.032596	0.047933	0.098192	6583.849409	39375.455632	3871.149388	19780.459371
88.535000	0.047612	0.032361	0.053978	0.098560	6586.260986	39324.883937	3884.105780	19766.147999
89.035500	0.047383	0.032874	0.047662	0.099873	6573.271010	39257.988876	3866.733695	19715.288969
89.541500	0.045621	0.032975	0.050083	0.105920	6508.166728	38764.573204	3858.582338	19482.946651
90.039000	0.048838	0.033940	0.051601	0.102693	6561.802814	39111.738814	3869.263413	19606.541241
90.539000	0.050192	0.034203	0.051923	0.103577	6565.752377	39060.073386	3867.992538	19572.592937
91.037000	0.052188	0.034131	0.052068	0.104141	6577.787239	39007.326181	3867.046177	19550.975704
91.539500	0.049998	0.034421	0.050320	0.105039	6551.875174	38956.852557	3861.089816	19516.611927
92.037500	0.049488	0.034269	0.046321	0.105639	6542.605753	38894.656200	3850.823094	19493.695755
92.535000	0.050854	0.035207	0.052314	0.107292	6540.216212	38835.569930	3860.508439	19430.701444
93.035000	0.054147	0.036688	0.053710	0.108901	6554.277265	38824.947228	3860.030447	19369.599266
93.535500	0.049344	0.035723	0.051036	0.115517	6459.967745	38204.539127	3839.426838	19120.795834
94.036000	0.054355	0.036116	0.060374	0.110435	6543.192034	38651.474259	3871.597549	19311.570997
94.539000	0.055385	0.036843	0.050519	0.111497	6542.922560	38623.967500	3847.142652	19271.508355
95.036500	0.053731	0.036122	0.052828	0.111779	6526.808586	38541.703848	3851.637529	19260.887037
95.539000	0.053225	0.037667	0.055172	0.118984	6463.343133	38081.134181	3840.894932	18991.919959
96.037000	0.055673	0.037783	0.058328	0.115239	6514.227169	38394.693892	3856.181551	19131.163034
96.537000	0.058870	0.037604	0.056077	0.115515	6538.485780	38357.584062	3850.556074	19120.878015
97.035000	0.059170	0.038784	0.056514	0.116585	6532.079826	38366.586159	3849.153582	19080.995767
97.535500	0.056071	0.038953	0.057549	0.122853	6455.001406	37872.947133	3837.619978	18849.289412
98.035000	0.059800	0.039472	0.052710	0.119236	6515.299777	38206.865151	3834.947729	18982.576767
98.535500	0.058119	0.039250	0.059106	0.119675	6497.803601	38153.402968	3848.049577	18966.366344
99.039000	0.061761	0.040302	0.066499	0.120912	6517.663082	38138.340257	3861.775923	18920.687110
99.558000	0.057079	0.040715	0.056958	0.129255	6411.377596	37502.083458	3822.429446	18616.109528
100.036500	0.061943	0.040655	0.062914	0.122940	6502.407481	38002.957069	3849.250272	18846.103663
100.540000	0.063006	0.040842	0.061653	0.123174	6509.248180	37999.188823	3845.943007	18837.520997
101.037500	0.061881	0.041060	0.064601	0.124642	6487.885151	37898.491317	3849.216619	18783.778768
101.537500	0.059459	0.041400	0.064577	0.130620	6419.540712	37447.975623	3836.002967	18566.805275
102.035000	0.062713	0.042204	0.060346	0.126824	6476.810592	37815.129609	3835.053594	18704.241438
102.612500	0.065945	0.042789	0.066128	0.128499	6489.579515	37727.732943	3844.066500	18643.447133
103.035500	0.064232	0.042620	0.067816	0.128692	6473.956414	37698.887453	3847.368720	18636.482177
103.554500	0.063313	0.043219	0.065398	0.134189	6421.837415	37309.379461	3830.015055	18438.699159
104.039000	0.066326	0.043097	0.067375	0.130710	6474.574662	37575.809317	3841.942200	18563.569020
104.539500	0.068154	0.043283	0.071385	0.131159	6485.877834	37554.895318	3849.809857	18547.400321
105.039500	0.069588	0.044035	0.068762	0.132610	6485.739095	37499.233218	3840.814612	18495.247973
105.540500	0.064825	0.044246	0.066348	0.137403	6408.137835	37136.856561	3825.109199	18324.221557
106.037000	0.070342	0.045237	0.072654	0.135124	6471.315829	37395.101616	3843.847713	18405.305782
106.559500	0.070887	0.045956	0.078017	0.136139	6467.482079	37371.689381	3853.482793	18369.159337
107.035000	0.069662	0.045684	0.074996	0.136387	6455.466536	37330.535839	3846.230546	18360.328447
107.538000	0.070985	0.045732	0.071173	0.141867	6421.794133	36903.411176	3825.890274	18166.634081
108.038500	0.073376	0.045036	0.070557	0.137843	6473.898854	37164.456539	3833.291885	18308.620028
108.539000	0.073700	0.046971	0.075268	0.139902	6459.731128	37154.647069	3839.089121	18235.796544
109.036000	0.072886	0.046767	0.074856	0.140209	6450.605733	37114.426309	3837.513063	18224.959698
109.536500	0.071527	0.047023	0.076223	0.144067	6408.449849	36832.445285	3832.075715	18089.551571
110.091500	0.073040	0.048235	0.072578	0.142678	6431.828150	37035.790405	3827.175867	18138.150793
110.537000	0.076889	0.048653	0.076017	0.143635	6455.295040	36993.540876	3832.566635	18104.630838
111.037000	0.076885	0.048955	0.076011	0.144547	6447.846320	36945.806494	3830.568701	18072.769403
111.538500	0.076032	0.049475	0.076177	0.149086	6404.317227	36632.862333	3821.109666	17915.154164
112.035500	0.077858	0.049136	0.079485	0.146590	6439.167232	36800.445068	3833.685357	18001.623668
112.538000	0.078375	0.049051	0.078533	0.146631	6443.023907	36790.646255	3831.521466	18000.188160
113.036000	0.077329	0.049529	0.078135	0.147779	6425.275304	36738.543860	3828.163645	17960.361048
113.538500	0.077632	0.049282	0.073559	0.150801	6403.397785	36485.336548	3811.831547	17856.035356
114.036000	0.079460	0.051569	0.086261	0.150798	6418.117304	36662.550736	3839.304896	17856.145750
114.541000	0.079247	0.050287	0.079393	0.150692	6417.255473	36571.406423	3824.583422	17859.786861
115.036500	0.081183	0.052093	0.085317	0.152355	6419.458645	36582.476327	3833.832243	17802.667357
115.537000	0.078660	0.050511	0.075601	0.157949	6354.655063	36031.665632	3801.017409	17612.094728
116.035000	0.081782	0.052034	0.084934	0.154209	6409.357778	36434.760202	3828.963500	17739.217927
116.539000	0.083393	0.053053	0.085822	0.155439	6412.423820	36418.494991	3828.222843	17697.300693
117.035500	0.084541	0.052851	0.087828	0.155948	6417.560817	36363.711675	3831.472923	17679.962490
117.539500	0.084827	0.052751	0.085570	0.156276	6417.227063	36330.904560	3825.865107	17668.838645
118.039000	0.085693	0.053596	0.084725	0.157916	6410.992012	36269.822738	3820.502519	17613.188430
118.539500	0.086125	0.053641	0.088261	0.158207	6412.129247	36250.984529	3827.507800	17603.348036
119.036000	0.085844	0.053657	0.091077	0.159428	6400.075660	36158.785026	3830.971709	17562.123619
119.539000	0.084697	0.054796	0.090843	0.166637	6333.750594	35698.170883	3814.922125	17320.936480
120.087000	0.087310	0.054464	0.085286	0.161554	6394.785793	36058.151533	3813.908509	17490.558343
120.539000	0.089126	0.054856	0.094406	0.162352	6402.936014	36027.225786	3831.852952	17463.794797
121.038000	0.089023	0.055843	0.089398	0.163682	6391.472018	36001.197779	3818.156282	17419.328168
121.546000	0.087464	0.055359	0.088360	0.168614	6339.974626	35591.803493	3805.437234	17255.515839
122.035500	0.090634	0.055646	0.096531	0.164458	6398.148631	35927.215992	3831.893593	17393.403058
122.537000	0.092042	0.056974	0.092178	0.166039	6396.760698	35907.963595	3819.062002	17340.780400
123.036000	0.090570	0.057720	0.097471	0.167948	6369.806609	35819.959710	3826.360829	17277.523065
123.538000	0.087763	0.057487	0.094598	0.173094	6307.199826	35415.566637	3809.162535	17108.295289
124.036000	0.091730	0.057683	0.093694	0.169035	6370.387208	35735.051428	3815.892241	17241.613623
124.539000	0.093896	0.058835	0.099339	0.170494	6376.004455	35711.864670	3824.893338	17193.534615
125.040000	0.093145	0.058194	0.099849	0.170806	6367.556449	35640.080018	3825.320171	17183.292879
125.539500	0.092990	0.057817	0.090086	0.178147	6308.562856	35064.657408	3789.064426	16944.092662
126.035000	0.097755	0.060258	0.101226	0.173844	6380.054219	35566.902856	3821.737022	17083.810560
126.535500	0.096526	0.059712	0.093622	0.173827	6370.417644	35527.237661	3805.541602	17084.375294
127.038000	0.095655	0.059413	0.098994	0.174548	6357.790128	35450.831704	3815.435353	17060.856757
127.535500	0.094248	0.059887	0.092519	0.182172	6287.049428	34920.523585	3785.761585	16814.665648
128.036000	0.097265	0.060912	0.098269	0.176280	6356.827009	35433.453735	3810.196204	17004.555296
128.567000	0.098810	0.060948	0.099061	0.177392	6360.257685	35353.154287	3809.514677	16968.514311
