sample name	sample
index	1380
start time	 05-03-2021  02:52:22 PM


Wavelength (nm)	Absorbance
494.344910	0.085940
494.563924	0.085940
494.782919	0.085940
495.001897	-0.119805
495.220856	-0.011044
495.439797	-0.050314
495.658719	-0.084117
495.877624	-0.122161
496.096510	-0.090430
496.315378	-0.063783
496.534227	-0.046811
496.753059	-0.077504
496.971872	-0.090354
497.190667	0.013404
497.409444	0.032940
497.628203	0.036465
497.846943	0.039853
498.065665	0.041168
498.284369	0.039504
498.503055	0.038815
498.721723	0.039625
498.940372	0.039802
499.159003	0.040096
499.377616	0.040387
499.596210	0.040190
499.814787	0.039699
500.033345	0.038536
500.251885	0.038607
500.470406	0.038330
500.688910	0.037563
500.907395	0.036755
501.125862	0.036855
501.344311	0.035541
501.562742	0.034250
501.781154	0.034173
501.999548	0.033868
502.217924	0.034163
502.436282	0.034462
502.654621	0.034444
502.872942	0.034492
503.091245	0.034025
503.309530	0.034732
503.527797	0.035722
503.746045	0.035389
503.964275	0.035916
504.182487	0.036044
504.400681	0.035930
504.618856	0.036505
504.837013	0.036199
505.055152	0.036023
505.273273	0.036204
505.491376	0.036244
505.709460	0.037077
505.927526	0.036320
506.145574	0.035087
506.363604	0.034996
506.581615	0.033697
506.799608	0.035577
507.017583	0.036104
507.235540	0.034964
507.453478	0.034565
507.671399	0.033408
507.889301	0.033351
508.107185	0.034248
508.325050	0.034818
508.542898	0.034807
508.760727	0.033154
508.978538	0.032398
509.196330	0.033326
509.414105	0.033155
509.631861	0.033500
509.849599	0.033284
510.067319	0.032480
510.285021	0.032119
510.502704	0.033510
510.720369	0.034003
510.938016	0.035082
511.155645	0.034500
511.373255	0.034507
511.590848	0.034190
511.808422	0.035074
512.025977	0.035749
512.243515	0.036047
512.461034	0.035507
512.678536	0.035343
512.896018	0.034330
513.113483	0.034503
513.330930	0.035586
513.548358	0.036571
513.765768	0.035935
513.983160	0.035671
514.200533	0.035241
514.417889	0.036479
514.635226	0.036410
514.852545	0.037044
515.069845	0.037076
515.287128	0.036204
515.504392	0.035704
515.721638	0.036130
515.938866	0.035849
516.156075	0.036185
516.373267	0.034506
516.590440	0.034726
516.807594	0.034360
517.024731	0.034271
517.241850	0.034890
517.458950	0.034771
517.676032	0.034511
517.893095	0.034821
518.110141	0.034080
518.327168	0.034848
518.544177	0.035209
518.761168	0.035295
518.978141	0.035165
519.195095	0.034440
519.412031	0.034481
519.628949	0.034733
519.845849	0.035107
520.062731	0.035192
520.279594	0.034531
520.496439	0.033864
520.713266	0.034178
520.930074	0.034399
521.146865	0.035217
521.363637	0.034922
521.580391	0.034783
521.797127	0.034177
522.013844	0.034995
522.230543	0.035336
522.447224	0.035542
522.663887	0.035347
522.880532	0.035538
523.097158	0.034983
523.313766	0.035428
523.530356	0.035399
523.746928	0.035840
523.963481	0.035993
524.180017	0.036317
524.396534	0.036572
524.613032	0.036578
524.829513	0.036333
525.045975	0.036807
525.262420	0.036968
525.478845	0.037578
525.695253	0.037364
525.911643	0.036832
526.128014	0.037160
526.344367	0.037013
526.560702	0.037758
526.777018	0.038183
526.993316	0.038167
527.209597	0.037797
527.425858	0.037523
527.642102	0.038048
527.858328	0.038778
528.074535	0.038828
528.290724	0.039003
528.506894	0.038533
528.723047	0.038952
528.939181	0.039122
529.155297	0.039584
529.371395	0.039894
529.587475	0.040066
529.803536	0.040036
530.019579	0.040008
530.235604	0.040294
530.451611	0.040401
530.667600	0.040122
530.883570	0.039467
531.099522	0.039828
531.315456	0.039865
531.531372	0.039604
531.747269	0.039783
531.963148	0.039377
532.179009	0.039340
532.394852	0.039834
532.610676	0.039647
532.826482	0.040226
533.042271	0.040043
533.258040	0.039993
533.473792	0.040313
533.689525	0.040656
533.905240	0.041013
534.120937	0.040939
534.336616	0.040149
534.552277	0.040505
534.767919	0.041191
534.983543	0.041772
535.199149	0.042402
535.414736	0.042542
535.630306	0.042508
535.845857	0.042386
536.061390	0.042841
536.276904	0.043189
536.492401	0.043391
536.707879	0.043380
536.923339	0.043524
537.138781	0.043178
537.354204	0.043411
537.569610	0.043082
537.784997	0.043328
538.000366	0.043314
538.215716	0.044151
538.431049	0.043873
538.646363	0.044057
538.861659	0.043193
539.076937	0.043261
539.292196	0.043165
539.507438	0.043439
539.722661	0.043517
539.937866	0.043640
540.153052	0.043115
540.368221	0.043738
540.583371	0.043264
540.798503	0.043619
541.013617	0.043471
541.228712	0.043315
541.443789	0.043263
541.658848	0.043504
541.873889	0.043734
542.088912	0.044056
542.303916	0.043946
542.518902	0.044315
542.733870	0.044998
542.948820	0.045361
543.163752	0.046064
543.378665	0.046273
543.593560	0.046154
543.808437	0.045893
544.023295	0.046094
544.238136	0.046117
544.452958	0.045979
544.667762	0.045798
544.882548	0.045702
545.097315	0.044865
545.312064	0.044718
545.526795	0.045138
545.741508	0.044840
545.956203	0.044812
546.170879	0.044799
546.385537	0.045118
546.600177	0.044690
546.814799	0.044756
547.029402	0.045238
547.243988	0.045205
547.458555	0.044674
547.673103	0.045195
547.887634	0.045218
548.102146	0.045107
548.316640	0.044766
548.531116	0.044852
548.745574	0.044802
548.960013	0.044966
549.174435	0.045475
549.388838	0.045892
549.603222	0.045916
549.817589	0.046124
550.031937	0.046086
550.246267	0.046493
550.460579	0.046754
550.674873	0.047334
550.889148	0.047065
551.103405	0.046665
551.317644	0.046551
551.531865	0.046736
551.746068	0.047077
551.960252	0.047283
552.174418	0.047370
552.388566	0.047676
552.602696	0.047696
552.816807	0.048218
553.030900	0.048472
553.244975	0.048673
553.459032	0.048876
553.673070	0.048543
553.887091	0.049054
554.101093	0.049217
554.315077	0.049432
554.529042	0.049414
554.742990	0.049237
554.956919	0.049290
555.170830	0.049241
555.384722	0.049134
555.598597	0.049227
555.812453	0.048950
556.026291	0.049032
556.240111	0.048850
556.453913	0.048637
556.667696	0.049253
556.881461	0.049451
557.095208	0.049839
557.308937	0.050153
557.522647	0.050159
557.736339	0.050196
557.950013	0.050045
558.163669	0.050228
558.377307	0.050065
558.590926	0.049618
558.804527	0.049241
559.018110	0.048966
559.231675	0.048749
559.445221	0.048874
559.658749	0.048900
559.872259	0.048963
560.085751	0.048646
560.299225	0.048362
560.512680	0.048811
560.726117	0.049445
560.939536	0.049774
561.152937	0.049801
561.366319	0.049548
561.579683	0.049912
561.793029	0.049845
562.006357	0.050008
562.219667	0.050420
562.432958	0.049737
562.646231	0.049575
562.859486	0.049210
563.072723	0.049114
563.285941	0.048916
563.499141	0.048482
563.712323	0.048469
563.925487	0.048496
564.138632	0.048861
564.351760	0.049243
564.564869	0.048922
564.777960	0.049231
564.991032	0.049300
565.204087	0.049910
565.417123	0.050086
565.630141	0.050165
565.843140	0.050186
566.056122	0.049781
566.269085	0.049718
566.482030	0.049925
566.694957	0.049311
566.907866	0.049427
567.120756	0.049329
567.333628	0.049264
567.546482	0.049324
567.759318	0.049429
567.972135	0.049559
568.184935	0.049139
568.397716	0.049065
568.610478	0.049353
568.823223	0.049056
569.035949	0.048688
569.248657	0.048924
569.461347	0.048595
569.674019	0.048340
569.886672	0.048466
570.099308	0.048961
570.311925	0.049348
570.524523	0.049622
570.737104	0.049727
570.949666	0.050046
571.162210	0.049914
571.374736	0.050017
571.587244	0.050206
571.799733	0.050317
572.012205	0.050422
572.224658	0.050148
572.437092	0.050002
572.649509	0.050076
572.861907	0.050020
573.074287	0.049910
573.286649	0.050216
573.498993	0.050549
573.711318	0.050868
573.923625	0.051087
574.135914	0.051123
574.348185	0.051734
574.560438	0.051964
574.772672	0.052273
574.984888	0.052288
575.197086	0.052208
575.409266	0.052165
575.621427	0.052098
575.833570	0.052087
576.045695	0.052001
576.257802	0.051887
576.469890	0.052092
576.681961	0.051842
576.894013	0.052042
577.106046	0.051984
577.318062	0.051826
577.530059	0.051619
577.742039	0.051345
577.954000	0.051586
578.165942	0.051163
578.377867	0.051128
578.589773	0.051067
578.801661	0.051241
579.013531	0.050996
579.225382	0.050998
579.437216	0.050904
579.649031	0.051063
579.860828	0.050908
580.072606	0.051042
580.284367	0.051004
580.496109	0.051576
580.707833	0.051637
580.919539	0.052077
581.131227	0.052247
581.342896	0.052290
581.554547	0.052671
581.766180	0.053145
581.977795	0.053067
582.189391	0.053171
582.400969	0.053009
582.612529	0.052898
582.824071	0.052833
583.035595	0.053078
583.247100	0.053445
583.458587	0.053334
583.670056	0.053002
583.881506	0.053229
584.092939	0.053077
584.304353	0.053095
584.515749	0.053096
584.727127	0.053391
584.938486	0.053236
585.149828	0.052937
585.361151	0.052922
585.572456	0.053044
585.783742	0.053118
585.995011	0.053028
586.206261	0.053141
586.417493	0.053307
586.628706	0.053233
586.839902	0.053108
587.051079	0.053264
587.262238	0.053201
587.473379	0.053363
587.684502	0.053105
587.895606	0.053423
588.106692	0.053252
588.317760	0.053008
588.528810	0.053063
588.739841	0.053230
588.950855	0.053169
589.161850	0.053062
589.372827	0.053051
589.583785	0.053661
589.794726	0.053667
590.005648	0.054076
590.216552	0.054249
590.427437	0.054364
590.638305	0.054477
590.849154	0.054763
591.059985	0.054900
591.270798	0.054812
591.481592	0.054829
591.692369	0.054865
591.903127	0.054499
592.113867	0.055000
592.324588	0.055033
592.535292	0.055021
592.745977	0.055087
592.956644	0.054933
593.167293	0.055252
593.377923	0.054834
593.588536	0.054895
593.799130	0.055165
594.009706	0.054823
594.220263	0.054981
594.430803	0.054971
594.641324	0.054976
594.851827	0.055136
595.062312	0.055067
595.272778	0.055303
595.483227	0.055360
595.693657	0.055386
595.904069	0.055413
596.114462	0.055562
596.324838	0.055558
596.535195	0.055914
596.745534	0.055957
596.955855	0.055868
597.166157	0.055902
597.376441	0.056158
597.586707	0.056207
597.796955	0.056398
598.007185	0.056300
598.217396	0.056453
598.427589	0.056271
598.637764	0.056449
598.847921	0.056702
599.058060	0.057005
599.268180	0.056976
599.478282	0.057059
599.688366	0.057158
599.898431	0.056992
600.108479	0.057034
600.318508	0.057097
600.528519	0.057385
600.738511	0.057230
600.948486	0.057485
601.158442	0.057659
601.368380	0.057336
601.578300	0.057399
601.788202	0.057729
601.998085	0.058093
602.207950	0.058166
602.417797	0.058046
602.627626	0.058112
602.837436	0.058023
603.047228	0.057983
603.257002	0.058126
603.466758	0.058040
603.676496	0.058055
603.886215	0.058070
604.095916	0.058037
604.305599	0.058204
604.515264	0.058588
604.724910	0.058592
604.934538	0.058494
605.144148	0.058615
605.353740	0.058759
605.563314	0.058636
605.772869	0.058360
605.982406	0.058472
606.191925	0.058509
606.401425	0.058500
606.610908	0.057867
606.820372	0.058155
607.029818	0.058550
607.239246	0.058574
607.448655	0.058689
607.658047	0.058679
607.867420	0.058740
608.076775	0.058424
608.286111	0.058208
608.495430	0.058956
608.704730	0.058449
608.914012	0.058081
609.123275	0.058291
609.332521	0.058609
609.541748	0.058707
609.750957	0.058543
609.960148	0.058691
610.169321	0.058966
610.378475	0.058866
610.587611	0.059594
610.796729	0.059739
611.005829	0.059703
611.214910	0.059472
611.423974	0.059840
611.633019	0.059968
611.842045	0.060187
612.051054	0.060284
612.260044	0.060376
612.469017	0.060021
612.677970	0.060186
612.886906	0.060146
613.095824	0.060446
613.304723	0.060432
613.513604	0.060641
613.722467	0.060969
613.931311	0.060884
614.140138	0.061221
614.348946	0.061150
614.557736	0.061278
614.766507	0.061288
614.975261	0.061160
615.183996	0.061355
615.392713	0.061532
615.601412	0.061330
615.810092	0.061446
616.018754	0.061263
616.227399	0.061470
616.436024	0.061648
616.644632	0.061843
616.853222	0.061888
617.061793	0.061794
617.270346	0.061383
617.478880	0.061301
617.687397	0.061347
617.895895	0.061322
618.104375	0.061388
618.312837	0.061042
618.521281	0.060988
618.729706	0.061101
618.938113	0.061259
619.146502	0.061637
619.354873	0.061722
619.563226	0.061736
619.771560	0.061782
619.979876	0.062005
620.188174	0.062180
620.396453	0.062352
620.604715	0.062248
620.812958	0.062045
621.021183	0.062000
621.229390	0.062127
621.437578	0.062361
621.645748	0.062402
621.853900	0.062184
622.062034	0.062152
622.270150	0.062209
622.478247	0.062400
622.686326	0.062618
622.894387	0.062829
623.102430	0.062916
623.310454	0.062726
623.518461	0.062963
623.726449	0.063110
623.934418	0.063347
624.142370	0.063453
624.350303	0.063582
624.558218	0.063597
624.766115	0.063569
624.973994	0.063687
625.181855	0.063775
625.389697	0.063531
625.597521	0.063747
625.805327	0.063865
626.013114	0.063772
626.220883	0.063805
626.428634	0.063669
626.636367	0.063587
626.844082	0.063614
627.051778	0.063706
627.259457	0.064037
627.467117	0.063903
627.674758	0.063982
627.882382	0.063924
628.089987	0.063701
628.297574	0.064043
628.505143	0.064276
628.712694	0.064052
628.920226	0.064194
629.127740	0.064217
629.335236	0.064454
629.542714	0.064548
629.750174	0.064833
629.957615	0.065078
630.165038	0.064957
630.372443	0.064831
630.579829	0.065224
630.787198	0.065400
630.994548	0.065329
631.201880	0.065429
631.409194	0.065367
631.616489	0.065508
631.823766	0.065630
632.031025	0.065808
632.238266	0.066168
632.445489	0.066204
632.652693	0.066232
632.859879	0.066590
633.067047	0.066707
633.274197	0.066812
633.481329	0.066417
633.688442	0.066530
633.895537	0.066288
634.102614	0.066012
634.309672	0.065826
634.516713	0.065544
634.723735	0.065376
634.930739	0.065304
635.137724	0.065266
635.344692	0.065687
635.551641	0.065749
635.758572	0.065956
635.965485	0.066075
636.172379	0.066198
636.379256	0.066310
636.586114	0.066249
636.792954	0.066099
636.999775	0.066187
637.206579	0.066169
637.413364	0.066093
637.620131	0.066165
637.826880	0.066414
638.033610	0.066358
638.240323	0.066367
638.447017	0.066574
638.653692	0.066702
638.860350	0.066701
639.066990	0.066662
639.273611	0.066635
639.480214	0.066345
639.686798	0.066111
639.893365	0.066315
640.099913	0.066577
640.306443	0.066295
640.512955	0.066297
640.719449	0.066093
640.925924	0.066132
641.132381	0.066090
641.338820	0.066372
641.545241	0.066463
641.751644	0.066346
641.958028	0.066264
642.164394	0.066462
642.370742	0.066614
642.577071	0.066814
642.783383	0.066942
642.989676	0.067206
643.195951	0.067467
643.402207	0.067616
643.608446	0.067946
643.814666	0.067972
644.020868	0.068226
644.227052	0.067863
644.433218	0.067984
644.639365	0.068069
644.845494	0.068176
645.051605	0.068191
645.257698	0.068184
645.463772	0.068048
645.669828	0.068245
645.875866	0.068238
646.081886	0.068699
646.287888	0.068708
646.493871	0.068807
646.699836	0.068650
646.905783	0.068332
647.111712	0.068473
647.317622	0.068449
647.523514	0.068346
647.729388	0.068468
647.935244	0.068443
648.141082	0.068627
648.346901	0.068606
648.552702	0.068797
648.758485	0.069248
648.964250	0.069491
649.169996	0.069746
649.375724	0.069801
649.581434	0.069808
649.787126	0.069967
649.992800	0.070071
650.198455	0.070183
650.404092	0.070049
650.609711	0.070185
650.815311	0.069936
651.020894	0.069939
651.226458	0.070217
651.432004	0.070402
651.637532	0.070609
651.843041	0.070522
652.048532	0.070487
652.254006	0.070602
652.459460	0.070460
652.664897	0.070644
652.870315	0.070907
653.075716	0.070902
653.281097	0.070935
653.486461	0.070945
653.691807	0.071214
653.897134	0.071349
654.102443	0.071707
654.307734	0.071897
654.513006	0.072022
654.718261	0.071916
654.923497	0.072024
655.128715	0.071951
655.333915	0.072004
655.539096	0.072036
655.744259	0.072315
655.949404	0.072148
656.154531	0.072174
656.359640	0.072182
656.564730	0.072318
656.769802	0.072254
656.974856	0.072266
657.179892	0.072242
657.384909	0.072134
657.589908	0.071717
657.794889	0.071641
657.999852	0.071567
658.204797	0.071625
658.409723	0.071694
658.614631	0.071637
658.819521	0.071766
659.024393	0.071706
659.229246	0.071690
659.434081	0.071842
659.638898	0.072097
659.843697	0.072048
660.048478	0.072086
660.253240	0.072041
660.457984	0.072244
660.662710	0.072161
660.867417	0.072431
661.072107	0.072502
661.276778	0.072608
661.481431	0.072620
661.686066	0.072765
661.890682	0.072777
662.095281	0.072755
662.299861	0.072825
662.504422	0.072845
662.708966	0.072549
662.913491	0.072712
663.117999	0.072771
663.322488	0.072733
663.526958	0.072964
663.731411	0.073066
663.935845	0.072919
664.140261	0.072832
664.344659	0.072995
664.549038	0.073149
664.753400	0.073164
664.957743	0.073177
665.162068	0.073382
665.366375	0.073337
665.570663	0.073146
665.774933	0.073270
665.979185	0.073269
666.183419	0.073398
666.387635	0.073606
666.591832	0.073508
666.796011	0.073624
667.000172	0.073666
667.204315	0.073477
667.408439	0.073882
667.612545	0.074353
667.816634	0.074496
668.020703	0.074379
668.224755	0.074558
668.428788	0.074859
668.632803	0.074838
668.836800	0.074826
669.040779	0.075175
669.244739	0.075147
669.448681	0.074916
669.652605	0.075193
669.856511	0.075349
670.060399	0.075376
670.264268	0.075519
670.468119	0.075831
670.671952	0.075849
670.875767	0.075789
671.079563	0.075936
671.283341	0.076121
671.487101	0.076166
671.690843	0.076347
671.894567	0.076341
672.098272	0.076390
672.301959	0.076440
672.505628	0.076614
672.709278	0.076930
672.912911	0.077059
673.116525	0.077073
673.320121	0.077039
673.523699	0.077060
673.727258	0.077058
673.930799	0.077143
674.134322	0.077242
674.337827	0.077275
674.541314	0.077191
674.744782	0.076977
674.948232	0.077220
675.151664	0.077323
675.355078	0.077376
675.558474	0.077616
675.761851	0.077628
675.965210	0.077566
676.168551	0.077646
676.371873	0.077864
676.575178	0.078130
676.778464	0.078006
676.981732	0.078160
677.184981	0.078261
677.388213	0.078048
677.591426	0.078116
677.794621	0.078275
677.997798	0.078434
678.200956	0.078202
678.404097	0.078168
678.607219	0.078191
678.810323	0.078314
679.013408	0.078390
679.216476	0.078695
679.419525	0.078906
679.622556	0.078951
679.825569	0.078884
680.028563	0.079123
680.231540	0.079251
680.434498	0.079374
680.637438	0.079232
680.840359	0.079251
681.043263	0.079118
681.246148	0.079228
681.449015	0.079320
681.651864	0.079554
681.854694	0.079745
682.057506	0.079694
682.260301	0.079903
682.463076	0.080126
682.665834	0.080213
682.868573	0.080466
683.071295	0.080469
683.273998	0.080635
683.476682	0.080803
683.679349	0.080707
683.881997	0.081101
684.084627	0.081104
684.287239	0.081030
684.489833	0.081296
684.692408	0.081377
684.894965	0.081304
685.097504	0.081308
685.300025	0.081223
685.502527	0.081308
685.705012	0.081139
685.907478	0.081229
686.109925	0.081368
686.312355	0.081334
686.514766	0.081274
686.717159	0.081573
686.919534	0.081652
687.121891	0.081676
687.324230	0.081758
687.526550	0.081798
687.728852	0.081785
687.931136	0.081825
688.133401	0.081864
688.335649	0.082075
688.537878	0.081825
688.740089	0.081659
688.942281	0.081756
689.144456	0.081878
689.346612	0.081948
689.548750	0.081971
689.750870	0.081918
689.952971	0.081783
690.155055	0.081583
690.357120	0.081708
690.559167	0.081914
690.761195	0.082048
690.963206	0.082125
691.165198	0.082213
691.367172	0.082343
691.569128	0.082491
691.771065	0.082822
691.972984	0.083137
692.174885	0.083155
692.376768	0.083146
692.578633	0.083105
692.780479	0.083093
692.982308	0.083113
693.184118	0.083365
693.385909	0.083380
693.587683	0.083446
693.789438	0.083428
693.991175	0.083519
694.192894	0.083494
694.394595	0.083599
694.596277	0.083571
694.797941	0.083751
694.999587	0.083732
695.201215	0.083987
695.402824	0.083963
695.604416	0.084023
695.805989	0.084193
696.007543	0.084522
696.209080	0.084762
696.410598	0.085173
696.612099	0.085430
696.813580	0.085563
697.015044	0.085575
697.216490	0.085763
697.417917	0.085768
697.619326	0.085877
697.820717	0.085901
698.022089	0.085828
698.223444	0.085781
698.424780	0.085770
698.626098	0.085589
698.827397	0.085670
699.028679	0.085603
699.229942	0.085609
699.431187	0.085424
699.632414	0.085265
699.833622	0.085304
700.034813	0.085128
700.235985	0.085024
700.437139	0.085295
700.638274	0.085271
700.839392	0.085488
701.040491	0.085754
701.241572	0.085920
701.442635	0.086014
701.643679	0.086003
701.844706	0.086249
702.045714	0.086449
702.246704	0.086491
702.447675	0.086253
702.648629	0.086140
702.849564	0.085992
703.050481	0.085938
703.251380	0.085904
703.452260	0.085844
703.653122	0.085903
703.853966	0.085789
704.054792	0.085289
704.255600	0.085601
704.456389	0.085402
704.657160	0.085463
704.857913	0.085520
705.058648	0.085656
705.259365	0.085632
705.460063	0.085440
705.660743	0.085473
705.861405	0.085843
706.062048	0.085588
706.262674	0.085719
706.463281	0.085463
706.663870	0.085426
706.864441	0.085353
707.064993	0.085294
707.265527	0.085015
707.466043	0.084711
707.666541	0.084522
707.867021	0.084675
708.067482	0.084537
708.267925	0.084548
708.468350	0.084501
708.668757	0.084407
708.869145	0.084558
709.069516	0.084744
709.269868	0.084837
709.470201	0.084886
709.670517	0.084947
709.870814	0.084963
710.071093	0.085183
710.271354	0.085370
710.471597	0.085310
710.671821	0.085256
710.872028	0.085137
711.072216	0.085226
711.272385	0.085196
711.472537	0.085176
711.672670	0.085291
711.872785	0.085199
712.072882	0.085077
712.272961	0.085246
712.473021	0.085246
712.673063	0.085312
712.873087	0.085256
713.073093	0.085222
713.273081	0.085110
713.473050	0.084953
713.673001	0.084980
713.872934	0.084959
714.072849	0.084996
714.272745	0.084914
714.472623	0.085033
714.672483	0.085005
714.872325	0.085127
715.072148	0.085221
715.271954	0.085357
715.471741	0.085478
715.671509	0.085422
715.871260	0.085501
716.070992	0.085518
716.270707	0.085554
716.470403	0.085504
716.670080	0.085542
716.869740	0.085496
717.069381	0.085426
717.269004	0.085356
717.468609	0.085452
717.668195	0.085295
717.867764	0.085278
718.067314	0.085227
718.266846	0.085281
718.466360	0.085042
718.665855	0.084928
718.865332	0.084838
719.064791	0.084691
719.264232	0.084539
719.463655	0.084272
719.663059	0.084164
719.862445	0.084044
720.061813	0.083836
720.261163	0.084010
720.460494	0.083855
720.659807	0.083727
720.859102	0.083661
721.058379	0.083354
721.257638	0.083416
721.456878	0.083442
721.656100	0.083235
721.855304	0.083258
722.054490	0.082960
722.253657	0.082947
722.452806	0.082676
722.651937	0.082631
722.851050	0.082719
723.050145	0.082678
723.249221	0.082609
723.448279	0.082706
723.647319	0.082690
723.846340	0.082728
724.045344	0.082634
724.244329	0.082660
724.443296	0.082580
724.642245	0.082420
724.841175	0.082249
725.040088	0.082068
725.238982	0.081928
725.437857	0.081795
725.636715	0.081525
725.835554	0.081426
726.034376	0.081648
726.233179	0.081520
726.431963	0.081468
726.630730	0.081566
726.829478	0.081523
727.028208	0.081439
727.226920	0.081440
727.425614	0.081521
727.624289	0.081520
727.822946	0.081268
728.021585	0.081121
728.220206	0.081149
728.418808	0.080886
728.617392	0.080748
728.815958	0.080765
729.014506	0.080646
729.213036	0.080527
729.411547	0.080591
729.610040	0.080676
729.808515	0.080858
730.006972	0.081131
730.205410	0.081305
730.403831	0.081545
730.602233	0.081543
730.800616	0.081327
730.998982	0.081449
731.197329	0.081417
731.395658	0.081403
731.593969	0.081260
731.792262	0.080849
731.990536	0.080782
732.188793	0.080683
732.387031	0.080727
732.585250	0.081163
732.783452	0.081336
732.981635	0.081414
733.179800	0.081229
733.377947	0.081256
733.576076	0.081305
733.774186	0.081262
733.972278	0.081217
734.170352	0.081373
734.368408	0.081388
734.566446	0.081138
734.764465	0.080943
734.962466	0.080995
735.160449	0.081307
735.358413	0.081618
735.556360	0.081793
735.754288	0.081771
735.952198	0.081590
736.150090	0.081525
736.347963	0.081750
736.545818	0.081796
736.743655	0.081883
736.941474	0.081794
737.139275	0.081846
737.337057	0.081686
737.534821	0.081643
737.732567	0.081562
737.930295	0.081223
738.128005	0.081132
738.325696	0.081001
738.523369	0.081014
738.721024	0.080905
738.918660	0.080710
739.116279	0.080996
739.313879	0.081090
739.511461	0.081094
739.709024	0.081124
739.906570	0.080901
740.104097	0.081171
740.301606	0.081021
740.499097	0.080946
740.696569	0.080930
740.894024	0.080694
741.091460	0.080556
741.288878	0.080649
741.486277	0.080772
741.683659	0.081081
741.881022	0.080800
742.078367	0.080872
742.275694	0.080807
742.473002	0.080820
742.670293	0.080707
742.867565	0.080859
743.064819	0.080704
743.262054	0.080581
743.459272	0.080454
743.656471	0.080681
743.853652	0.080794
744.050815	0.080669
744.247959	0.080598
744.445085	0.080632
744.642194	0.080431
744.839283	0.080423
745.036355	0.080333
745.233408	0.080234
745.430444	0.080002
745.627461	0.079763
745.824459	0.079695
746.021440	0.079300
746.218402	0.079125
746.415346	0.079049
746.612272	0.079110
746.809180	0.079312
747.006069	0.079138
747.202940	0.079259
747.399793	0.079322
747.596628	0.079414
747.793444	0.079656
747.990243	0.079697
748.187023	0.079685
748.383784	0.079476
748.580528	0.079310
748.777253	0.079367
748.973960	0.079328
749.170649	0.079180
749.367320	0.079115
749.563973	0.079098
749.760607	0.078959
749.957223	0.078952
750.153821	0.078939
750.350400	0.078928
750.546962	0.078737
750.743505	0.078683
750.940030	0.078717
751.136536	0.078502
751.333025	0.078178
751.529495	0.078370
751.725947	0.078439
751.922381	0.078258
752.118796	0.078212
752.315194	0.078524
752.511573	0.078205
752.707934	0.078112
752.904276	0.078312
753.100601	0.078593
753.296907	0.078458
753.493195	0.078410
753.689465	0.078548
753.885716	0.078494
754.081949	0.078150
754.278164	0.078356
754.474361	0.078165
754.670540	0.078070
754.866700	0.077809
755.062843	0.077607
755.258967	0.077390
755.455072	0.077186
755.651160	0.077124
755.847229	0.077183
756.043280	0.077014
756.239313	0.077148
756.435328	0.077046
756.631324	0.077127
756.827302	0.077231
757.023262	0.076978
757.219204	0.076830
757.415127	0.076568
757.611033	0.076337
757.806920	0.076248
758.002788	0.076115
758.198639	0.075855
758.394471	0.075773
758.590286	0.075652
758.786081	0.075762
758.981859	0.075862
759.177619	0.075940
759.373360	0.076020
759.569083	0.076038
759.764788	0.076006
759.960474	0.075846
760.156143	0.075619
760.351793	0.075441
760.547425	0.075493
760.743038	0.075386
760.938634	0.075303
761.134211	0.075094
761.329770	0.074979
761.525311	0.074874
761.720833	0.075114
761.916338	0.075187
762.111824	0.075209
762.307292	0.075292
762.502741	0.075216
762.698173	0.075181
762.893586	0.075249
763.088981	0.075316
763.284358	0.075116
763.479716	0.075268
763.675057	0.075203
763.870379	0.075254
764.065683	0.075152
764.260968	0.075176
764.456236	0.075196
764.651485	0.075063
764.846716	0.074795
765.041929	0.074857
765.237123	0.074640
765.432299	0.074507
765.627457	0.074458
765.822597	0.074336
766.017719	0.074319
766.212822	0.074098
766.407907	0.074086
766.602974	0.074043
766.798023	0.074023
766.993054	0.073946
767.188066	0.074027
767.383060	0.073794
767.578036	0.073510
767.772993	0.073508
767.967933	0.073618
768.162854	0.073645
768.357757	0.073625
768.552642	0.073622
768.747508	0.073433
768.942356	0.073581
769.137186	0.073723
769.331998	0.074098
769.526792	0.074102
769.721567	0.074171
769.916324	0.074062
770.111063	0.074279
770.305784	0.074482
770.500486	0.074701
770.695171	0.074556
770.889837	0.074378
771.084484	0.074267
771.279114	0.074123
771.473725	0.074043
771.668318	0.074027
771.862893	0.073918
772.057450	0.073699
772.251988	0.073632
772.446509	0.073572
772.641011	0.073569
772.835494	0.073504
773.029960	0.073449
773.224407	0.073328
773.418836	0.073291
773.613247	0.073241
773.807640	0.073232
774.002014	0.073114
774.196370	0.073110
774.390708	0.073086
774.585028	0.072924
774.779330	0.072855
774.973613	0.072694
775.167878	0.072617
775.362125	0.072654
775.556354	0.072592
775.750564	0.072504
775.944756	0.072410
776.138930	0.072471
776.333086	0.072467
776.527223	0.072568
776.721343	0.072874
776.915444	0.072854
777.109526	0.072745
777.303591	0.072919
777.497637	0.073121
777.691666	0.073138
777.885676	0.072967
778.079667	0.072825
778.273641	0.072741
778.467596	0.072584
778.661533	0.072859
778.855452	0.072955
779.049352	0.073110
779.243235	0.073215
779.437099	0.073394
779.630945	0.073666
779.824773	0.074030
780.018582	0.074271
780.212373	0.074479
780.406146	0.074480
780.599901	0.074488
780.793638	0.074326
780.987356	0.074368
781.181056	0.074399
781.374738	0.074588
781.568402	0.074557
781.762047	0.074391
781.955674	0.074407
782.149283	0.074376
782.342874	0.074394
782.536447	0.074444
782.730001	0.074306
782.923537	0.074254
783.117055	0.074020
783.310555	0.073798
783.504036	0.073893
783.697499	0.073764
783.890944	0.073753
784.084371	0.073621
784.277780	0.073618
784.471170	0.073670
784.664542	0.073598
784.857896	0.073775
785.051231	0.073917
785.244549	0.074015
785.437848	0.074222
785.631129	0.074325
785.824392	0.074208
786.017636	0.074139
786.210863	0.074068
786.404071	0.074000
786.597260	0.073801
786.790432	0.073726
786.983585	0.073480
787.176721	0.073204
787.369838	0.073039
787.562936	0.073031
787.756017	0.073053
787.949079	0.073000
788.142123	0.072972
788.335149	0.073151
788.528156	0.073424
788.721146	0.073736
788.914117	0.073845
789.107070	0.073989
789.300005	0.074509
789.492921	0.074766
789.685819	0.074975
789.878699	0.075216
790.071561	0.075460
790.264405	0.075668
790.457230	0.075805
790.650037	0.076003
790.842826	0.076108
791.035597	0.076004
791.228349	0.076020
791.421084	0.075990
791.613800	0.076184
791.806497	0.076072
791.999177	0.075981
792.191838	0.075912
792.384481	0.075974
792.577106	0.075883
792.769713	0.076141
792.962301	0.076213
793.154871	0.076355
793.347423	0.076418
793.539957	0.076319
793.732473	0.076358
793.924970	0.076528
794.117449	0.076527
794.309910	0.076594
794.502353	0.076707
794.694777	0.076476
794.887183	0.076730
795.079571	0.076828
795.271941	0.076950
795.464293	0.077149
795.656626	0.077177
795.848941	0.077307
796.041238	0.077538
796.233516	0.077569
796.425777	0.078057
796.618019	0.078152
796.810243	0.078192
797.002449	0.078316
797.194636	0.078258
797.386805	0.078428
797.578956	0.078452
797.771089	0.078630
797.963204	0.078525
798.155300	0.078373
798.347378	0.078352
798.539438	0.078269
798.731480	0.078455
798.923503	0.078583
799.115509	0.078573
799.307496	0.078692
799.499465	0.078810
799.691415	0.078909
799.883348	0.079118
800.075262	0.079172
800.267158	0.079230
800.459035	0.079446
800.650895	0.079476
800.842736	0.079495
801.034559	0.079496
801.226364	0.079313
801.418150	0.079289
801.609919	0.079259
801.801669	0.079261
801.993401	0.079385
802.185114	0.078956
802.376810	0.078946
802.568487	0.078915
802.760146	0.078951
802.951787	0.079343
803.143409	0.079410
803.335014	0.079340
803.526600	0.079356
803.718168	0.079412
803.909717	0.079821
804.101249	0.080094
804.292762	0.080201
804.484257	0.080283
804.675734	0.080009
804.867192	0.080170
805.058632	0.080393
805.250054	0.080648
805.441458	0.080965
805.632844	0.080998
805.824211	0.080837
806.015561	0.081031
806.206891	0.081115
806.398204	0.081648
806.589499	0.081698
806.780775	0.081547
806.972033	0.081558
807.163273	0.081573
807.354495	0.081697
807.545698	0.081968
807.736883	0.082162
807.928050	0.082591
808.119199	0.082369
808.310329	0.082646
808.501441	0.082807
808.692535	0.082922
808.883611	0.082965
809.074669	0.083001
809.265708	0.083151
809.456729	0.082950
809.647732	0.082858
809.838717	0.083017
810.029683	0.083053
810.220632	0.083290
810.411562	0.083427
810.602474	0.083521
810.793367	0.083691
810.984242	0.083643
811.175100	0.084002
811.365938	0.084221
811.556759	0.084386
811.747562	0.084270
811.938346	0.084480
812.129112	0.084523
812.319860	0.084602
812.510589	0.084462
812.701300	0.084566
812.891994	0.084642
813.082668	0.084543
813.273325	0.084740
813.463964	0.084984
813.654584	0.085119
813.845186	0.085188
814.035769	0.085244
814.226335	0.085724
814.416882	0.085811
814.607411	0.085986
814.797922	0.085977
814.988415	0.085681
815.178889	0.085773
815.369345	0.085592
815.559783	0.085595
815.750203	0.085602
815.940605	0.085251
816.130988	0.085371
816.321353	0.085414
816.511700	0.085633
816.702028	0.085761
816.892339	0.085641
817.082631	0.085695
817.272905	0.085911
817.463161	0.086024
817.653398	0.086227
817.843617	0.086266
818.033819	0.086450
818.224001	0.086648
818.414166	0.086763
818.604312	0.086884
818.794440	0.086886
818.984550	0.086914
819.174642	0.086805
819.364716	0.087026
819.554771	0.087127
819.744808	0.086807
819.934827	0.086799
820.124827	0.087027
820.314810	0.087252
820.504774	0.087610
820.694720	0.087723
820.884647	0.088104
821.074557	0.088332
821.264448	0.088506
821.454321	0.088963
821.644176	0.089259
821.834012	0.089446
822.023831	0.089772
822.213631	0.090013
822.403413	0.090225
822.593176	0.090493
822.782922	0.090635
822.972649	0.091133
823.162358	0.091282
823.352049	0.091386
823.541721	0.091681
823.731376	0.091932
823.921012	0.092131
824.110629	0.092525
824.300229	0.092474
824.489811	0.092784
824.679374	0.092733
824.868919	0.092937
825.058445	0.093236
825.247954	0.093344
825.437444	0.093406
825.626916	0.093849
825.816370	0.093930
826.005806	0.094335
826.195223	0.094239
826.384622	0.094386
826.574003	0.094609
826.763366	0.094644
826.952711	0.094677
827.142037	0.094665
827.331345	0.094357
827.520635	0.094344
827.709906	0.094336
827.899160	0.094517
828.088395	0.094325
828.277612	0.094064
828.466810	0.094017
828.655991	0.093870
828.845153	0.093924
829.034297	0.093957
829.223423	0.094106
829.412531	0.094140
829.601620	0.094079
829.790691	0.094210
829.979744	0.094433
830.168779	0.094464
830.357795	0.094716
830.546793	0.095131
830.735773	0.095153
830.924735	0.095112
831.113679	0.095080
831.302604	0.095491
831.491511	0.095485
831.680400	0.095652
831.869271	0.096002
832.058123	0.096041
832.246957	0.095889
832.435773	0.096197
832.624571	0.096308
832.813351	0.096632
833.002112	0.096543
833.190855	0.097117
833.379580	0.097089
833.568287	0.097184
833.756975	0.097467
833.945645	0.097608
834.134297	0.097531
834.322931	0.097706
834.511547	0.097783
834.700144	0.097858
834.888723	0.097786
835.077284	0.097896
835.265826	0.097992
835.454351	0.098155
835.642857	0.098450
835.831345	0.098997
836.019815	0.099157
836.208266	0.099598
836.396699	0.100048
836.585114	0.100320
836.773511	0.100808
836.961890	0.101090
837.150250	0.101287
837.338592	0.101438
837.526916	0.101652
837.715222	0.102189
837.903510	0.102320
838.091779	0.102406
838.280030	0.102782
838.468263	0.103229
838.656477	0.103501
838.844674	0.103927
839.032852	0.104309
839.221012	0.104655
839.409153	0.104798
839.597277	0.105152
839.785382	0.105570
839.973469	0.105784
840.161538	0.105574
840.349589	0.105762
840.537621	0.105873
840.725635	0.105984
840.913631	0.105968
841.101609	0.106239
841.289568	0.106442
841.477509	0.106793
841.665432	0.107011
841.853337	0.107193
842.041224	0.107272
842.229092	0.107419
842.416942	0.107469
842.604774	0.107599
842.792588	0.107804
842.980383	0.107660
843.168160	0.107613
843.355919	0.107657
843.543660	0.108147
843.731382	0.108170
843.919087	0.108428
844.106773	0.108665
844.294441	0.108972
844.482090	0.108942
844.669722	0.109158
844.857335	0.109333
845.044930	0.109418
845.232507	0.109515
845.420065	0.109909
845.607605	0.110021
845.795127	0.110001
845.982631	0.110123
846.170117	0.110430
846.357584	0.110620
846.545033	0.110728
846.732464	0.111111
846.919877	0.111283
847.107272	0.111494
847.294648	0.111753
847.482006	0.112156
847.669346	0.112128
847.856667	0.112097
848.043971	0.112487
848.231256	0.112713
848.418523	0.112644
848.605771	0.112756
848.793002	0.112729
848.980214	0.112539
849.167408	0.112604
849.354584	0.113093
849.541742	0.113373
849.728881	0.113423
849.916002	0.113373
850.103105	0.113454
850.290190	0.113400
850.477256	0.113411
850.664304	0.113615
850.851334	0.113680
851.038346	0.113601
851.225340	0.113358
851.412315	0.113657
851.599272	0.113717
851.786211	0.113845
851.973132	0.113926
852.160034	0.114059
852.346918	0.114049
852.533784	0.114398
852.720632	0.114523
852.907462	0.114733
853.094273	0.114499
853.281066	0.114614
853.467841	0.114707
853.654598	0.114969
853.841336	0.115506
854.028056	0.115910
854.214758	0.115973
854.401442	0.116216
854.588107	0.116539
854.774755	0.116797
854.961384	0.117287
855.147995	0.117578
855.334587	0.117799
855.521162	0.117800
855.707718	0.118048
855.894256	0.118302
856.080775	0.118414
856.267277	0.118763
856.453760	0.119014
856.640225	0.119091
856.826672	0.119313
857.013101	0.119708
857.199511	0.119867
857.385903	0.120079
857.572277	0.120061
857.758633	0.120279
857.944970	0.120292
858.131290	0.120406
858.317591	0.120766
858.503873	0.120639
858.690138	0.120771
858.876384	0.120910
859.062612	0.121161
859.248822	0.121395
859.435014	0.121672
859.621188	0.121935
859.807343	0.122101
859.993480	0.121977
860.179599	0.122603
860.365699	0.122863
860.551781	0.123162
860.737846	0.123045
860.923891	0.123332
861.109919	0.123595
861.295929	0.124186
861.481920	0.124518
861.667893	0.125050
861.853848	0.125264
862.039784	0.125185
862.225702	0.125571
862.411603	0.125884
862.597484	0.126105
862.783348	0.125884
862.969193	0.125616
863.155021	0.125876
863.340830	0.125821
863.526620	0.125788
863.712393	0.125761
863.898147	0.125661
864.083883	0.126300
864.269601	0.126080
864.455301	0.126550
864.640982	0.126380
864.826645	0.126306
865.012290	0.126386
865.197917	0.126387
865.383526	0.126599
865.569116	0.126653
865.754688	0.126321
865.940242	0.126598
866.125777	0.126726
866.311295	0.127064
866.496794	0.127179
866.682275	0.127074
866.867737	0.127208
867.053182	0.127384
867.238608	0.127578
867.424016	0.127377
867.609406	0.127782
867.794778	0.127856
867.980131	0.127870
868.165466	0.127876
868.350783	0.128293
868.536082	0.128303
868.721362	0.128383
868.906625	0.128647
869.091869	0.129114
869.277094	0.129215
869.462302	0.129142
869.647491	0.129009
869.832662	0.129138
870.017815	0.129310
870.202950	0.129506
870.388066	0.129713
870.573165	0.129805
870.758245	0.130022
870.943306	0.129991
871.128350	0.129671
871.313375	0.129923
871.498382	0.130137
871.683371	0.129873
871.868342	0.130239
872.053294	0.130228
872.238229	0.130188
872.423144	0.129956
872.608042	0.129898
872.792922	0.130578
872.977783	0.130882
873.162626	0.130791
873.347451	0.131019
873.532258	0.130631
873.717046	0.130489
873.901816	0.130473
874.086568	0.130786
874.271302	0.130972
874.456017	0.130903
874.640715	0.131424
874.825394	0.131849
875.010055	0.131963
875.194697	0.132566
875.379322	0.132974
875.563928	0.133331
875.748516	0.133500
875.933085	0.133605
876.117637	0.133670
876.302170	0.133494
876.486685	0.133289
876.671182	0.133475
876.855661	0.133160
877.040121	0.133408
877.224563	0.133192
877.408987	0.133151
877.593393	0.133170
877.777780	0.133438
877.962150	0.133202
878.146501	0.133521
878.330833	0.133635
878.515148	0.134369
878.699444	0.134285
878.883722	0.134425
879.067982	0.134334
879.252224	0.134599
879.436447	0.134583
879.620653	0.134914
879.804840	0.134913
879.989008	0.134802
880.173159	0.134638
880.357291	0.134514
880.541405	0.134587
880.725501	0.134724
880.909579	0.134736
881.093638	0.134806
881.277680	0.135041
881.461703	0.135013
881.645707	0.135087
881.829694	0.134751
882.013662	0.134782
882.197612	0.134732
882.381544	0.134832
882.565458	0.134654
882.749353	0.134509
882.933230	0.134154
883.117089	0.134311
883.300930	0.134658
883.484753	0.134813
883.668557	0.135111
883.852343	0.135312
884.036111	0.135534
884.219861	0.135370
884.403592	0.135642
884.587305	0.135913
884.771000	0.135407
884.954677	0.135009
885.138335	0.134950
885.321976	0.134768
885.505598	0.134758
885.689201	0.134669
885.872787	0.135418
886.056354	0.135460
886.239904	0.135376
886.423434	0.135962
886.606947	0.136423
886.790442	0.136624
886.973918	0.136709
887.157376	0.136584
887.340816	0.136643
887.524237	0.136193
887.707641	0.135835
887.891026	0.135914
888.074393	0.135735
888.257741	0.135535
888.441072	0.135492
888.624384	0.135752
888.807678	0.135924
888.990954	0.135894
889.174211	0.136168
889.357451	0.136466
889.540672	0.136406
889.723875	0.136044
889.907059	0.136196
890.090226	0.136166
890.273374	0.136004
890.456504	0.135621
890.639616	0.135348
890.822709	0.135154
891.005785	0.134998
891.188842	0.134627
891.371881	0.135111
891.554901	0.134355
891.737904	0.134322
891.920888	0.134198
892.103854	0.134114
892.286802	0.134092
892.469731	0.134257
892.652643	0.134375
892.835536	0.134509
893.018410	0.134419
893.201267	0.134823
893.384106	0.134699
893.566926	0.134771
893.749728	0.135002
893.932511	0.134833
894.115277	0.134552
894.298024	0.134097
894.480753	0.134004
894.663464	0.133365
894.846157	0.133394
895.028831	0.133356
895.211487	0.132959
895.394125	0.132923
895.576745	0.133404
895.759346	0.133270
895.941930	0.133378
896.124495	0.133435
896.307041	0.134132
896.489570	0.133873
896.672080	0.133923
896.854573	0.134017
897.037046	0.134005
897.219502	0.133668
897.401940	0.133673
897.584359	0.133663
897.766760	0.133503
897.949143	0.133433
898.131507	0.133448
898.313854	0.133345
898.496182	0.133325
898.678492	0.133035
898.860783	0.132617
899.043057	0.132243
899.225312	0.131969
899.407549	0.131871
899.589768	0.131328
899.771968	0.131063
899.954151	0.130989
900.136315	0.130530
900.318461	0.130514
900.500588	0.130578
900.682698	0.130431
900.864789	0.130717
901.046862	0.130657
901.228917	0.130601
901.410953	0.130580
901.592971	0.130342
901.774972	0.130559
901.956953	0.130262
902.138917	0.130124
902.320862	0.130107
902.502790	0.129550
902.684699	0.129060
902.866589	0.128905
903.048462	0.128706
903.230316	0.128660
903.412152	0.128443
903.593970	0.128676
903.775770	0.128193
903.957551	0.128053
904.139314	0.128093
904.321059	0.128076
904.502786	0.127900
904.684494	0.127847
904.866185	0.127727
905.047857	0.127910
905.229510	0.127852
905.411146	0.128247
905.592763	0.128255
905.774363	0.128050
905.955943	0.128112
906.137506	0.128492
906.319051	0.128140
906.500577	0.127763
906.682085	0.127584
906.863575	0.127318
907.045046	0.127038
907.226500	0.126948
907.407935	0.126875
907.589352	0.126624
907.770750	0.125889
907.952131	0.125548
908.133493	0.125201
908.314837	0.124777
908.496163	0.124246
908.677470	0.124399
908.858760	0.124326
909.040031	0.123902
909.221284	0.123876
909.402518	0.123821
909.583735	0.124317
909.764933	0.124588
909.946113	0.124693
910.127275	0.124913
910.308418	0.124295
910.489544	0.124099
910.670651	0.123973
910.851740	0.123866
911.032810	0.123421
911.213863	0.122942
911.394897	0.122508
911.575913	0.121853
911.756911	0.121255
911.937890	0.120518
912.118851	0.120007
912.299794	0.119805
912.480719	0.119068
912.661626	0.118708
912.842514	0.118494
913.023384	0.117998
913.204236	0.117592
913.385070	0.117419
913.565886	0.117561
913.746683	0.116945
913.927462	0.117316
914.108223	0.117306
914.288965	0.117394
914.469690	0.117016
914.650396	0.116947
914.831084	0.116951
915.011754	0.116603
915.192405	0.116169
915.373038	0.116121
915.553653	0.115686
915.734250	0.114714
915.914829	0.114066
916.095389	0.113703
916.275931	0.113369
916.456455	0.113517
916.636961	0.113101
916.817448	0.113234
916.997917	0.112820
917.178368	0.112237
917.358801	0.112448
917.539216	0.112226
917.719612	0.111889
917.899990	0.111631
918.080350	0.110743
918.260692	0.110583
918.441015	0.109865
918.621320	0.109413
918.801607	0.108887
918.981876	0.108662
919.162127	0.109184
919.342359	0.108343
919.522573	0.108498
919.702769	0.108716
919.882947	0.107820
920.063106	0.107582
920.243247	0.107437
920.423370	0.107325
920.603475	0.107302
920.783562	0.106476
920.963630	0.106425
921.143680	0.105191
921.323712	0.104646
921.503725	0.105151
921.683721	0.104875
921.863698	0.104765
922.043657	0.104399
922.223598	0.104079
922.403520	0.103210
922.583424	0.103029
922.763311	0.103404
922.943178	0.103139
923.123028	0.102772
923.302859	0.102468
923.482673	0.102125
923.662467	0.101557
923.842244	0.100868
924.022003	0.101179
924.201743	0.101280
924.381465	0.100671
924.561169	0.099970
924.740854	0.098854
924.920522	0.099094
925.100171	0.098116
925.279802	0.097694
925.459414	0.097782
925.639009	0.097068
925.818585	0.096613
925.998143	0.096649
926.177683	0.095991
926.357205	0.095744
926.536708	0.094621
926.716193	0.095048
926.895660	0.094828
927.075109	0.093783
927.254539	0.093024
927.433951	0.092436
927.613345	0.091787
927.792721	0.091419
927.972079	0.091203
928.151418	0.091074
928.330739	0.090550
928.510042	0.089598
928.689327	0.089307
928.868593	0.089537
929.047841	0.089279
929.227071	0.088514
929.406283	0.088520
929.585476	0.088527
929.764652	0.087491
929.943809	0.087193
930.122948	0.087324
930.302068	0.086946
930.481171	0.086522
930.660255	0.085844
930.839321	0.085473
931.018369	0.084689
931.197398	0.084080
931.376409	0.084412
931.555402	0.083762
931.734377	0.083174
931.913334	0.082570
932.092272	0.081383
932.271192	0.079965
932.450094	0.079449
932.628978	0.078820
932.807844	0.078474
932.986691	0.077435
933.165520	0.076383
933.344331	0.075891
933.523123	0.075360
933.701898	0.075569
933.880654	0.075971
934.059392	0.075412
934.238111	0.075317
934.416813	0.074584
934.595496	0.074579
934.774161	0.074431
934.952808	0.074531
935.131437	0.074425
935.310047	0.074408
935.488639	0.074753
935.667213	0.075131
935.845769	0.074534
936.024306	0.074693
936.202825	0.074185
936.381326	0.074535
936.559809	0.073061
936.738274	0.072968
936.916720	0.071669
937.095148	0.071083
937.273558	0.069892
937.451950	0.069816
937.630323	0.069269
937.808678	0.068536
937.987015	0.067700
938.165334	0.067375
938.343635	0.066359
938.521917	0.066875
938.700181	0.065492
938.878427	0.065074
939.056655	0.063836
939.234864	0.062550
939.413055	0.062507
939.591228	0.060950
939.769383	0.060500
939.947519	0.059903
940.125638	0.058661
940.303738	0.057814
940.481820	0.057058
940.659883	0.057477
940.837929	0.057242
941.015956	0.056267
941.193965	0.056790
941.371955	0.056451
941.549928	0.056233
941.727882	0.055977
941.905818	0.055099
942.083736	0.054887
942.261636	0.052814
942.439517	0.052791
942.617380	0.052583
942.795225	0.051579
942.973052	0.051637
943.150860	0.051015
943.328651	0.050697
943.506423	0.051034
943.684176	0.050004
943.861912	0.050541
944.039629	0.048121
944.217328	0.047135
944.395009	0.046119
944.572672	0.045275
944.750317	0.044806
944.927943	0.043534
945.105551	0.043512
945.283141	0.042996
945.460712	0.043255
945.638265	0.043582
945.815801	0.043870
945.993317	0.043285
946.170816	0.042528
946.348297	0.041924
946.525759	0.040609
946.703203	0.040146
946.880629	0.039355
947.058036	0.038280
947.235425	0.038887
947.412797	0.037998
947.590149	0.038311
947.767484	0.037653
947.944800	0.037957
948.122099	0.038732
948.299379	0.038016
948.476640	0.037961
948.653884	0.036603
948.831109	0.035821
949.008316	0.036426
949.185505	0.036526
949.362676	0.036671
949.539828	0.035712
949.716962	0.034667
949.894078	0.035051
950.071176	0.033989
950.248256	0.036337
950.425317	0.034929
950.602360	0.033764
950.779385	0.033667
950.956391	0.032633
951.133380	0.032205
951.310350	0.032566
951.487302	0.031235
951.664235	0.031957
951.841151	0.029192
952.018048	0.028889
952.194927	0.027523
952.371788	0.027320
952.548631	0.029427
952.725455	0.028132
952.902261	0.027030
953.079049	0.027347
953.255819	0.027491
953.432570	0.027263
953.609303	0.028586
953.786018	0.028995
953.962715	0.027462
954.139394	0.026845
954.316054	0.028427
954.492696	0.029420
954.669320	0.028839
954.845926	0.029413
955.022513	0.031152
955.199083	0.030215
955.375634	0.029702
955.552166	0.030844
955.728681	0.029080
955.905177	0.029081
956.081655	0.028621
956.258115	0.028406
956.434557	0.026928
956.610980	0.025331
956.787385	0.024790
956.963772	0.025382
957.140141	0.025990
957.316492	0.025931
957.492824	0.025102
957.669138	0.025463
957.845434	0.025297
958.021712	0.025760
958.197971	0.028124
958.374212	0.029080
958.550435	0.029142
958.726640	0.026869
958.902826	0.027098
959.078995	0.026747
959.255145	0.028463
959.431277	0.029243
959.607390	0.029921
959.783486	0.027640
959.959563	0.027170
960.135622	0.028569
960.311662	0.031095
960.487685	0.030742
960.663689	0.030928
960.839675	0.029761
961.015643	0.029650
961.191593	0.029508
961.367524	0.028920
961.543437	0.030190
961.719332	0.029343
961.895209	0.027205
962.071067	0.028807
962.246907	0.029848
962.422730	0.031313
962.598533	0.032606
962.774319	0.031463
962.950086	0.033277
963.125835	0.033452
963.301566	0.033348
963.477279	0.035002
963.652973	0.033213
963.828650	0.032060
964.004308	0.029451
964.179947	0.028384
964.355569	0.029634
964.531172	0.029012
964.706757	0.027441
964.882324	0.027802
965.057873	0.025828
965.233403	0.026982
965.408916	0.028133
965.584410	0.029327
965.759885	0.028293
965.935343	0.028295
966.110782	0.027961
966.286203	0.027526
966.461606	0.029510
966.636991	0.031036
966.812357	0.031083
966.987705	0.032395
967.163035	0.033419
967.338347	0.035347
967.513641	0.035715
967.688916	0.036322
967.864173	0.037607
968.039412	0.036443
968.214632	0.036199
968.389835	0.036628
968.565019	0.035026
968.740185	0.034770
968.915333	0.033898
969.090462	0.035030
969.265573	0.035162
969.440667	0.036178
969.615741	0.036654
969.790798	0.036963
969.965836	0.037447
970.140856	0.039586
970.315858	0.037422
970.490842	0.038344
970.665808	0.037020
970.840755	0.037003
971.015684	0.037310
971.190595	0.035201
971.365487	0.034948
971.540362	0.033599
971.715218	0.030690
971.890056	0.029737
972.064875	0.028233
972.239677	0.029193
972.414460	0.029540
972.589225	0.028156
972.763972	0.028281
972.938700	0.028900
973.113411	0.028012
973.288103	0.030720
973.462777	0.032118
973.637432	0.034832
973.812070	0.033727
973.986689	0.033015
974.161290	0.034233
974.335873	0.033550
974.510437	0.032929
974.684984	0.032719
974.859512	0.030071
975.034022	0.029904
975.208513	0.029095
975.382987	0.030704
975.557442	0.030685
975.731879	0.029139
975.906298	0.027803
976.080698	0.027319
976.255080	0.028546
976.429445	0.028064
976.603790	0.027569
976.778118	0.028257
976.952427	0.027145
977.126719	0.028444
977.300992	0.026828
977.475246	0.030217
977.649483	0.032232
977.823701	0.032420
977.997901	0.032009
978.172083	0.031644
978.346247	0.030210
978.520392	0.030446
978.694519	0.028675
978.868628	0.031235
979.042719	0.030770
979.216791	0.029008
979.390845	0.030322
979.564882	0.034041
979.738899	0.034575
979.912899	0.034139
980.086880	0.034419
980.260843	0.033837
980.434788	0.034665
980.608715	0.035428
980.782623	0.036898
980.956514	0.036170
981.130386	0.034867
981.304240	0.036290
981.478075	0.038003
981.651892	0.035253
981.825692	0.036138
981.999472	0.034574
982.173235	0.032618
982.346980	0.031537
982.520706	0.031904
982.694414	0.029455
982.868104	0.030164
983.041775	0.028838
983.215428	0.030250
983.389064	0.032531
983.562680	0.035670
983.736279	0.036615
983.909860	0.037654
984.083422	0.036360
984.256966	0.038280
984.430491	0.037320
984.603999	0.036377
984.777488	0.037183
984.950959	0.035873
985.124412	0.033781
985.297847	0.032305
985.471263	0.029589
985.644661	0.031427
985.818041	0.029395
985.991403	0.028356
986.164747	0.027980
986.338072	0.028410
986.511379	0.025875
986.684668	0.024901
986.857938	0.024924
987.031191	0.026812
987.204425	0.026263
987.377641	0.027294
987.550839	0.028089
987.724018	0.029844
987.897179	0.029462
988.070322	0.031152
988.243447	0.031774
988.416554	0.032531
988.589642	0.032370
988.762712	0.031563
988.935764	0.034276
989.108798	0.034601
989.281813	0.034496
989.454811	0.034796
989.627790	0.035654
989.800751	0.034383
989.973693	0.034307
990.146617	0.035045
990.319524	0.032929
990.492412	0.030732
990.665281	0.029290
990.838133	0.027683
991.010966	0.027072
991.183781	0.025671
991.356578	0.026873
991.529356	0.027425
991.702117	0.025627
991.874859	0.028001
992.047583	0.028604
992.220288	0.029362
992.392976	0.029519
992.565645	0.029086
992.738296	0.028739
992.910929	0.027887
993.083543	0.028402
993.256139	0.030106
993.428718	0.028997
993.601277	0.028857
993.773819	0.029105
993.946342	0.030622
994.118848	0.032291
994.291335	0.034430
994.463803	0.034815
994.636254	0.034082
994.808686	0.033467
994.981100	0.035481
995.153496	0.035490
995.325874	0.034701
995.498233	0.033112
995.670574	0.032986
995.842897	0.030047
996.015202	0.030124
996.187488	0.029785
996.359757	0.028741
996.532007	0.027599
996.704239	0.027302
996.876452	0.027867
997.048648	0.027234
997.220825	0.026293
997.392984	0.030263
997.565124	0.030749
997.737247	0.031281
997.909351	0.032234
998.081437	0.031304
998.253505	0.029635
998.425554	0.031136
998.597586	0.031976
998.769599	0.031004
998.941594	0.030193
999.113571	0.028254
999.285529	0.026610
999.457469	0.025583
999.629391	0.026463
999.801295	0.028229
999.973181	0.027080
1000.145048	0.027460
1000.316897	0.028293
1000.488728	0.026023
1000.660541	0.026617
1000.832335	0.028973
1001.004111	0.029942
1001.175869	0.029671
1001.347609	0.030351
1001.519331	0.029819
1001.691034	0.029815
1001.862719	0.028745
1002.034386	0.028227
1002.206035	0.027740
1002.377665	0.025657
1002.549277	0.026220
1002.720871	0.026569
1002.892447	0.025172
1003.064004	0.023273
1003.235544	0.023789
1003.407065	0.024521
1003.578568	0.026630
1003.750052	0.028622
1003.921519	0.029880
1004.092967	0.031038
1004.264397	0.031795
1004.435809	0.032015
1004.607202	0.033422
1004.778577	0.034402
1004.949934	0.034056
1005.121273	0.033244
1005.292594	0.031505
1005.463896	0.032503
1005.635180	0.030998
1005.806446	0.030138
1005.977694	0.030473
1006.148923	0.032729
1006.320135	0.030194
1006.491328	0.028408
1006.662503	0.029085
1006.833659	0.029809
1007.004798	0.028565
1007.175918	0.029361
1007.347020	0.028301
1007.518103	0.026612
1007.689169	0.024981
1007.860216	0.025022
1008.031245	0.026539
1008.202256	0.024611
1008.373248	0.023869
1008.544223	0.022030
1008.715179	0.019591
1008.886117	0.020048
1009.057036	0.021717
1009.227938	0.020860
1009.398821	0.019282
1009.569686	0.019648
1009.740533	0.019631
1009.911361	0.019735
1010.082172	0.021872
1010.252964	0.024083
1010.423738	0.025194
1010.594493	0.025176
1010.765231	0.026586
1010.935950	0.030097
1011.106651	0.028877
1011.277334	0.029681
1011.447998	0.028301
1011.618645	0.027820
1011.789273	0.026051
1011.959882	0.023473
1012.130474	0.023581
1012.301048	0.022331
1012.471603	0.020135
1012.642140	0.020439
1012.812658	0.020360
1012.983159	0.022339
1013.153641	0.023501
1013.324105	0.022425
1013.494551	0.024786
1013.664979	0.024395
1013.835388	0.024827
1014.005779	0.025933
1014.176152	0.025515
1014.346507	0.026319
1014.516843	0.025883
1014.687162	0.025333
1014.857462	0.026446
1015.027744	0.026470
1015.198007	0.025854
1015.368252	0.027022
1015.538480	0.026195
1015.708689	0.026907
1015.878879	0.025083
1016.049052	0.026246
1016.219206	0.025172
1016.389342	0.026131
1016.559460	0.024947
1016.729559	0.024800
1016.899641	0.024563
1017.069704	0.026641
1017.239749	0.026801
1017.409775	0.028234
1017.579784	0.027352
1017.749774	0.027985
1017.919746	0.026861
1018.089700	0.025800
1018.259635	0.026745
1018.429553	0.026012
1018.599452	0.025848
1018.769333	0.026637
1018.939195	0.024635
1019.109040	0.023369
1019.278866	0.022984
1019.448674	0.022719
1019.618464	0.022859
1019.788235	0.022328
1019.957989	0.023289
1020.127724	0.021573
1020.297441	0.021326
1020.467139	0.022478
1020.636820	0.021131
1020.806482	0.022187
1020.976126	0.023448
1021.145752	0.025837
1021.315359	0.025200
1021.484948	0.024720
1021.654519	0.026095
1021.824072	0.026359
1021.993607	0.028416
1022.163123	0.031744
1022.332621	0.030321
1022.502101	0.029729
1022.671563	0.028442
1022.841007	0.028961
1023.010432	0.027876
1023.179839	0.026683
1023.349228	0.024921
1023.518598	0.022484
1023.687951	0.020546
1023.857285	0.019819
1024.026601	0.020867
1024.195899	0.019592
1024.365178	0.020756
1024.534439	0.021786
1024.703682	0.022537
1024.872907	0.024482
1025.042114	0.026205
1025.211302	0.025707
1025.380472	0.025657
1025.549624	0.026218
1025.718758	0.027062
1025.887873	0.027093
1026.056970	0.026207
1026.226049	0.026900
1026.395110	0.026448
1026.564153	0.025177
1026.733177	0.027087
1026.902183	0.026741
1027.071171	0.025892
1027.240141	0.024372
1027.409092	0.023397
1027.578026	0.022724
1027.746940	0.022036
1027.915837	0.022425
1028.084716	0.022827
1028.253576	0.022005
1028.422418	0.024930
1028.591242	0.023351
1028.760048	0.025483
1028.928835	0.026394
1029.097604	0.026189
1029.266355	0.024292
1029.435088	0.022878
1029.603803	0.023102
1029.772499	0.024331
1029.941177	0.022505
1030.109837	0.023996
1030.278478	0.024157
1030.447102	0.022598
1030.615707	0.023431
1030.784294	0.024214
1030.952863	0.022406
1031.121413	0.023241
1031.289945	0.021834
1031.458460	0.022986
1031.626955	0.022285
1031.795433	0.019957
1031.963892	0.019401
1032.132334	0.019208
1032.300756	0.022208
1032.469161	0.025168
1032.637548	0.023755
1032.805916	0.024780
1032.974266	0.023688
1033.142598	0.023182
1033.310911	0.023486
1033.479207	0.025272
1033.647484	0.026156
1033.815743	0.023128
1033.983983	0.022662
1034.152206	0.020929
1034.320410	0.020025
1034.488596	0.020659
1034.656764	0.022116
1034.824914	0.024949
1034.993045	0.023386
1035.161158	0.021657
1035.329253	0.022558
1035.497330	0.021496
1035.665388	0.023356
1035.833428	0.021771
1036.001450	0.022458
1036.169454	0.020294
1036.337440	0.018353
1036.505407	0.017653
1036.673356	0.019824
1036.841287	0.020305
1037.009200	0.021340
1037.177094	0.022016
1037.344970	0.024154
1037.512828	0.021626
1037.680668	0.022488
1037.848489	0.023645
1038.016293	0.024286
1038.184078	0.022511
1038.351845	0.020904
1038.519593	0.020288
1038.687324	0.020709
1038.855036	0.018660
1039.022730	0.019782
1039.190406	0.019980
1039.358063	0.018929
1039.525702	0.019386
1039.693323	0.020708
1039.860926	0.020301
1040.028511	0.021647
1040.196077	0.020804
1040.363625	0.022300
1040.531155	0.022911
1040.698667	0.022930
1040.866161	0.024055
1041.033636	0.022504
1041.201093	0.022198
1041.368532	0.023211
1041.535952	0.021143
1041.703355	0.021739
1041.870739	0.022158
1042.038105	0.020924
1042.205452	0.021487
1042.372782	0.019231
1042.540093	0.021726
1042.707386	0.022408
1042.874661	0.021777
1043.041918	0.023124
1043.209156	0.021352
1043.376376	0.021271
1043.543578	0.019444
1043.710762	0.016735
1043.877927	0.016757
1044.045074	0.015030
1044.212203	0.013015
1044.379314	0.013901
1044.546407	0.012230
1044.713481	0.013279
1044.880537	0.012570
1045.047575	0.013393
1045.214595	0.015344
1045.381596	0.017003
1045.548579	0.018081
1045.715544	0.018081
1045.882491	0.017490
1046.049420	0.019007
1046.216330	0.019870
1046.383222	0.020987
1046.550096	0.022791
1046.716951	0.021598
1046.883789	0.021225
1047.050608	0.022005
1047.217409	0.024684
1047.384192	0.024505
1047.550956	0.022960
1047.717703	0.022170
1047.884431	0.021747
1048.051140	0.020438
1048.217832	0.023266
1048.384505	0.021842
1048.551161	0.021044
1048.717798	0.019122
1048.884416	0.019615
1049.051017	0.022331
1049.217599	0.022039
1049.384163	0.022174
1049.550709	0.024513
1049.717237	0.022524
1049.883746	0.024615
1050.050237	0.025314
1050.216710	0.026057
1050.383165	0.025702
1050.549601	0.023999
1050.716019	0.023409
1050.882420	0.023842
1051.048801	0.024264
1051.215165	0.023958
1051.381510	0.023935
1051.547837	0.022925
1051.714146	0.023070
1051.880437	0.024708
1052.046709	0.024246
1052.212964	0.025185
1052.379200	0.025692
1052.545417	0.023114
1052.711617	0.023519
1052.877798	0.022296
1053.043961	0.023714
1053.210106	0.023192
1053.376233	0.021669
1053.542341	0.021881
1053.708432	0.022206
1053.874504	0.022021
1054.040557	0.024326
1054.206593	0.024407
1054.372610	0.025479
1054.538609	0.024851
1054.704590	0.025081
1054.870553	0.025347
1055.036497	0.026434
1055.202424	0.024376
1055.368331	0.021943
1055.534221	0.021385
1055.700093	0.021598
1055.865946	0.021519
1056.031781	0.021530
1056.197598	0.021231
1056.363397	0.022682
1056.529177	0.021278
1056.694939	0.022982
1056.860683	0.025241
1057.026409	0.023974
1057.192116	0.023880
1057.357806	0.022956
1057.523477	0.022876
1057.689130	0.024532
1057.854764	0.021802
1058.020381	0.020414
1058.185979	0.021415
1058.351559	0.021654
1058.517120	0.020988
1058.682664	0.022858
1058.848189	0.023582
1059.013696	0.022850
1059.179185	0.021654
1059.344656	0.020242
1059.510108	0.022247
1059.675542	0.021446
1059.840958	0.021838
1060.006356	0.023115
1060.171735	0.021125
1060.337096	0.018873
1060.502439	0.019695
1060.667764	0.018236
1060.833071	0.020312
1060.998359	0.022750
1061.163629	0.021831
1061.328881	0.021470
1061.494115	0.021299
1061.659330	0.022071
1061.824527	0.024086
1061.989706	0.023880
1062.154867	0.024028
1062.320010	0.024026
1062.485134	0.020264
1062.650240	0.020302
1062.815328	0.018090
1062.980398	0.017735
1063.145449	0.015905
1063.310482	0.015899
1063.475497	0.015740
1063.640494	0.017836
1063.805473	0.017216
1063.970433	0.018023
1064.135375	0.017269
1064.300299	0.018340
1064.465204	0.019294
1064.630092	0.020394
1064.794961	0.019705
1064.959812	0.018978
1065.124645	0.018039
1065.289459	0.018564
1065.454256	0.019970
1065.619034	0.018983
1065.783793	0.018681
1065.948535	0.018199
1066.113258	0.018553
1066.277964	0.020035
1066.442651	0.020739
1066.607319	0.019822
1066.771970	0.021449
1066.936602	0.021438
1067.101216	0.022749
1067.265812	0.023594
1067.430389	0.022615
1067.594949	0.022186
1067.759490	0.022047
1067.924013	0.023421
1068.088518	0.023651
1068.253004	0.021473
1068.417472	0.023938
1068.581922	0.025625
1068.746354	0.024715
1068.910768	0.025930
1069.075163	0.026936
1069.239540	0.026500
1069.403899	0.026529
1069.568240	0.026692
1069.732562	0.027038
1069.896866	0.023139
1070.061152	0.023853
1070.225420	0.023812
1070.389670	0.025597
1070.553901	0.027146
1070.718114	0.025752
1070.882309	0.024530
1071.046486	0.025332
1071.210644	0.025942
1071.374784	0.028109
1071.538906	0.026749
1071.703010	0.027917
1071.867096	0.026187
1072.031163	0.024438
1072.195212	0.026664
1072.359243	0.026383
1072.523256	0.026796
1072.687250	0.028773
1072.851226	0.028191
1073.015184	0.026988
1073.179124	0.026338
1073.343045	0.026756
1073.506949	0.026424
1073.670834	0.024396
1073.834701	0.025145
1073.998549	0.024165
1074.162380	0.023579
1074.326192	0.021213
1074.489986	0.022370
1074.653761	0.023655
1074.817519	0.022899
1074.981258	0.026721
1075.144979	0.028495
1075.308682	0.026467
1075.472367	0.027143
1075.636033	0.025663
1075.799681	0.027194
1075.963311	0.026222
1076.126923	0.024258
1076.290516	0.023761
1076.454092	0.019087
1076.617649	0.019421
1076.781187	0.021226
1076.944708	0.020799
1077.108210	0.019702
1077.271695	0.021708
1077.435160	0.021914
1077.598608	0.021913
1077.762038	0.023737
1077.925449	0.023675
1078.088842	0.025359
1078.252217	0.024823
1078.415573	0.022987
1078.578912	0.025043
1078.742232	0.021295
1078.905534	0.022318
1079.068817	0.024253
1079.232083	0.024839
1079.395330	0.023227
1079.558559	0.021022
1079.721770	0.021669
1079.884962	0.022074
1080.048136	0.021959
1080.211293	0.022890
1080.374430	0.022807
1080.537550	0.021142
1080.700651	0.020038
1080.863735	0.020360
1081.026800	0.021832
1081.189846	0.022962
1081.352875	0.024420
1081.515885	0.023274
1081.678877	0.024042
1081.841851	0.025141
1082.004807	0.026375
1082.167744	0.025930
1082.330663	0.027023
1082.493564	0.025675
1082.656447	0.021408
1082.819312	0.020372
1082.982158	0.023467
1083.144986	0.023095
1083.307796	0.022187
1083.470587	0.021889
1083.633361	0.022458
1083.796116	0.022957
1083.958853	0.022926
1084.121571	0.025276
1084.284272	0.025867
1084.446954	0.026443
1084.609618	0.028716
1084.772264	0.027792
1084.934892	0.028473
1085.097501	0.028926
1085.260092	0.028863
1085.422665	0.033807
1085.585220	0.033088
1085.747756	0.035171
1085.910274	0.031242
1086.072774	0.032099
1086.235256	0.034066
1086.397720	0.034315
1086.560165	0.033924
1086.722592	0.034048
1086.885001	0.029694
1087.047392	0.030121
1087.209764	0.027673
1087.372119	0.029065
1087.534455	0.024711
1087.696772	0.021714
1087.859072	0.021848
1088.021353	0.020457
1088.183616	0.023441
1088.345861	0.024286
1088.508088	0.024518
1088.670296	0.024192
1088.832486	0.025108
1088.994658	0.026070
1089.156812	0.028240
1089.318948	0.027696
1089.481065	0.028536
1089.643164	0.028031
1089.805245	0.027953
1089.967308	0.026396
1090.129352	0.026576
1090.291378	0.027903
1090.453386	0.030548
1090.615376	0.031751
1090.777347	0.031922
1090.939301	0.030279
1091.101236	0.029453
1091.263153	0.024921
1091.425051	0.027587
1091.586932	0.029058
1091.748794	0.028183
1091.910638	0.028202
1092.072463	0.029639
1092.234271	0.028594
1092.396060	0.030900
1092.557831	0.032193
1092.719584	0.037651
1092.881319	0.037805
1093.043035	0.038095
1093.204733	0.033551
1093.366413	0.031060
1093.528075	0.029895
1093.689718	0.029897
1093.851343	0.029581
1094.012950	0.029784
1094.174539	0.026717
1094.336110	0.026778
1094.497662	0.026599
1094.659196	0.029079
1094.820712	0.031110
1094.982210	0.027750
1095.143689	0.026545
1095.305151	0.028543
1095.466594	0.025852
1095.628018	0.025836
1095.789425	0.026924
1095.950813	0.029411
1096.112183	0.030576
1096.273535	0.026280
1096.434869	0.028468
1096.596184	0.028643
1096.757482	0.025793
1096.918761	0.023711
1097.080021	0.024686
1097.241264	0.026463
1097.402488	0.019906
1097.563694	0.020355
1097.724882	0.023745
1097.886052	0.023000
1098.047203	0.022574
1098.208336	0.021909
1098.369451	0.025495
1098.530548	0.026993
1098.691627	0.022264
1098.852687	0.024980
1099.013729	0.022075
1099.174753	0.021798
1099.335758	0.022834
1099.496746	0.027703
1099.657715	0.027618
1099.818666	0.026734
1099.979599	0.026882
1100.140513	0.027150
1100.301409	0.026740
1100.462287	0.027287
1100.623147	0.026629
1100.783989	0.026897
1100.944812	0.022177
1101.105617	0.022647
1101.266404	0.020520
1101.427173	0.018739
1101.587923	0.021673
1101.748656	0.023331
1101.909370	0.024469
1102.070066	0.021797
1102.230743	0.021199
1102.391403	0.021445
1102.552044	0.021143
1102.712667	0.023217
1102.873271	0.025777
1103.033858	0.025638
1103.194426	0.025686
1103.354976	0.023110
1103.515508	0.028564
1103.676021	0.027839
1103.836517	0.029633
1103.996994	0.032983
1104.157453	0.033246
1104.317893	0.029853
1104.478316	0.026755
1104.638720	0.028112
1104.799106	0.028502
1104.959474	0.024144
1105.119823	0.021968
1105.280155	0.022681
1105.440468	0.019399
1105.600763	0.023359
1105.761039	0.022891
1105.921298	0.021447
1106.081538	0.021263
1106.241760	0.023476
1106.401964	0.026716
1106.562149	0.029671
1106.722316	0.025467
1106.882465	0.021360
1107.042596	0.017625
1107.202709	0.022592
1107.362803	0.023464
1107.522879	0.024375
1107.682937	0.026394
1107.842977	0.025683
1108.002999	0.027112
1108.163002	0.032336
1108.322987	0.039205
1108.482954	0.040200
1108.642902	0.036365
1108.802833	0.040361
1108.962745	0.037485
1109.122639	0.035161
1109.282515	0.033851
1109.442372	0.031579
1109.602211	0.031190
1109.762032	0.029477
1109.921835	0.027369
1110.081620	0.028930
1110.241386	0.025642
1110.401134	0.025109
1110.560864	0.024309
1110.720576	0.026950
1110.880269	0.026800
1111.039945	0.023929
1111.199602	0.021578
1111.359240	0.020713
1111.518861	0.017943
1111.678463	0.017362
1111.838047	0.016424
1111.997613	0.016428
1112.157161	0.014853
1112.316690	0.018112
1112.476202	0.020086
1112.635695	0.023326
1112.795169	0.022274
1112.954626	0.020456
1113.114064	0.022374
1113.273484	0.027738
1113.432886	0.033515
1113.592270	0.035489
1113.751635	0.032445
1113.910983	0.029340
1114.070312	0.030379
1114.229622	0.028788
1114.388915	0.032687
1114.548189	0.035316
1114.707445	0.034134
1114.866683	0.030929
1115.025903	0.027627
1115.185104	0.025217
1115.344287	0.025827
1115.503452	0.023131
1115.662599	0.029998
1115.821727	0.028117
1115.980838	0.026269
1116.139930	0.023106
1116.299004	0.022345
1116.458059	0.023544
1116.617097	0.024508
1116.776116	0.028378
1116.935117	0.026220
1117.094099	0.023479
1117.253064	0.028433
1117.412010	0.029268
1117.570938	0.030901
1117.729848	0.027281
1117.888740	0.024737
1118.047613	0.027063
1118.206468	0.023219
1118.365305	0.026146
1118.524124	0.026653
1118.682924	0.026918
1118.841707	0.027380
1119.000471	0.025290
1119.159216	0.028547
1119.317944	0.030734
1119.476653	0.028277
1119.635344	0.029968
1119.794017	0.025669
1119.952672	0.023664
1120.111308	0.024075
1120.269927	0.022338
1120.428527	0.023551
1120.587108	0.023819
1120.745672	0.024940
1120.904217	0.033640
1121.062744	0.033194
1121.221253	0.038652
1121.379744	0.042150
1121.538216	0.036518
1121.696671	0.036488
1121.855107	0.037061
1122.013524	0.035738
1122.171924	0.032219
1122.330305	0.021748
1122.488668	0.023766
1122.647013	0.022785
1122.805340	0.025128
1122.963648	0.029411
1123.121938	0.034088
1123.280210	0.031139
1123.438464	0.032557
1123.596700	0.039674
1123.754917	0.044156
1123.913116	0.041792
1124.071297	0.042316
1124.229459	0.038114
1124.387604	0.040259
1124.545730	0.036423
1124.703838	0.036884
1124.861928	0.034188
1125.019999	0.032995
1125.178052	0.032382
1125.336088	0.037900
1125.494104	0.041774
1125.652103	0.043310
1125.810083	0.037394
1125.968045	0.040287
1126.125989	0.046471
1126.283915	0.052019
1126.441823	0.049129
1126.599712	0.048697
1126.757583	0.044589
1126.915436	0.037546
1127.073270	0.035331
1127.231087	0.031755
1127.388885	0.026557
1127.546665	0.025084
1127.704426	0.024720
1127.862170	0.019280
1128.019895	0.022517
1128.177602	0.020436
1128.335291	0.025515
1128.492961	0.028777
1128.650614	0.033807
1128.808248	0.033078
1128.965864	0.026776
1129.123461	0.018445
1129.281041	0.023308
1129.438602	0.013096
1129.596145	0.014539
1129.753670	0.014838
1129.911176	0.008557
1130.068665	0.004194
1130.226135	0.003799
1130.383587	0.012868
1130.541020	0.018591
1130.698436	0.021998
1130.855833	0.025844
1131.013212	0.028272
1131.170573	0.022896
1131.327915	0.028524
1131.485239	0.033394
1131.642545	0.037142
1131.799833	0.032115
1131.957103	0.032934
1132.114354	0.029952
1132.271588	0.026313
1132.428803	0.027330
1132.585999	0.036064
1132.743178	0.034854
1132.900338	0.035013
1133.057480	0.037809
1133.214604	0.035356
1133.371710	0.036549
1133.528797	0.033517
1133.685866	0.037545
1133.842917	0.036610
1133.999950	0.030448
1134.156964	0.029508
1134.313960	0.029866
1134.470938	0.024938
1134.627898	0.027446
1134.784840	0.027913
1134.941763	0.035031
1135.098668	0.035924
1135.255555	0.033881
1135.412424	0.041639
1135.569274	0.039353
1135.726107	0.041845
1135.882921	0.040966
1136.039716	0.038008
1136.196494	0.038338
1136.353253	0.039656
1136.509995	0.042247
1136.666717	0.047853
1136.823422	0.041379
1136.980109	0.045662
1137.136777	0.041638
1137.293427	0.041600
1137.450059	0.044620
1137.606672	0.043807
1137.763267	0.034641
1137.919844	0.038406
1138.076403	0.033200
1138.232944	0.033953
1138.389466	0.029974
1138.545971	0.030213
1138.702457	0.032032
1138.858924	0.023330
1139.015374	0.016146
1139.171805	0.026904
1139.328218	0.022650
1139.484613	0.024353
1139.640990	0.020479
1139.797348	0.020057
1139.953688	0.020412
1140.110010	0.014028
1140.266314	0.027164
1140.422600	0.035422
1140.578867	0.028547
1140.735116	0.022210
1140.891347	0.024652
1141.047559	0.025059
1141.203754	0.031516
1141.359930	0.030563
1141.516088	0.038646
1141.672228	0.036169
1141.828349	0.029475
1141.984452	0.029651
1142.140537	0.038589
1142.296604	0.032644
1142.452653	0.041380
1142.608683	0.034894
1142.764695	0.031265
1142.920689	0.022467
1143.076665	0.025319
1143.232622	0.024572
1143.388562	0.028794
1143.544483	0.032036
1143.700385	0.036265
1143.856270	0.028618
1144.012136	0.028212
1144.167985	0.031480
1144.323814	0.039561
1144.479626	0.036306
1144.635420	0.043247
1144.791195	0.033749
1144.946952	0.026863
1145.102691	0.024014
1145.258411	0.024384
1145.414113	0.029410
1145.569798	0.028574
1145.725463	0.025279
1145.881111	0.019687
1146.036741	0.020170
1146.192352	0.021635
1146.347945	0.021723
1146.503519	0.021425
1146.659076	0.021471
1146.814614	0.021556
1146.970134	0.020718
1147.125636	0.025982
1147.281120	0.029142
1147.436585	0.017508
1147.592032	0.017659
1147.747461	0.018718
1147.902872	0.020178
1148.058265	0.018151
1148.213639	0.017326
1148.368995	0.019028
1148.524333	0.020972
1148.679653	0.020977
1148.834954	0.035405
1148.990237	0.037552
1149.145502	0.037919
1149.300749	0.036572
1149.455977	0.036804
1149.611188	0.041472
1149.766380	0.044737
1149.921553	0.035203
1150.076709	0.043027
1150.231846	0.035460
1150.386966	0.030633
1150.542066	0.042562
1150.697149	0.036398
1150.852214	0.037939
1151.007260	0.029082
1151.162288	0.019152
1151.317298	0.013916
1151.472289	0.011320
1151.627263	0.015977
1151.782218	0.019869
1151.937155	0.003958
1152.092073	0.001595
1152.246974	0.001043
1152.401856	-0.001393
1152.556720	-0.000995
1152.711566	0.014925
1152.866393	0.016119
1153.021203	0.006316
1153.175994	0.009317
1153.330767	0.014623
1153.485521	0.014362
1153.640258	0.014658
1153.794976	0.017102
1153.949676	0.030365
1154.104358	0.016940
1154.259021	0.009836
1154.413667	0.011879
1154.568294	0.014336
1154.722903	0.015776
1154.877493	0.026530
1155.032066	0.036367
1155.186620	0.040091
1155.341156	0.044414
1155.495674	0.051937
1155.650173	0.048517
1155.804654	0.047988
1155.959118	0.049878
1156.113562	0.048526
1156.267989	0.045920
1156.422397	0.036930
1156.576788	0.030719
1156.731160	0.014931
1156.885513	0.016091
1157.039849	0.026257
1157.194166	0.047141
1157.348465	0.041991
1157.502746	0.041423
1157.657009	0.045050
1157.811253	0.041922
1157.965479	0.037086
1158.119687	0.046250
1158.273877	0.042721
1158.428048	0.034337
1158.582201	0.011938
1158.736337	0.014375
1158.890453	0.012367
1159.044552	0.016677
1159.198632	0.019594
1159.352694	0.032033
1159.506738	0.025714
1159.660764	0.024262
1159.814771	0.022085
1159.968761	0.031932
1160.122732	0.024612
1160.276685	0.025003
1160.430619	0.021272
1160.584535	0.019546
1160.738434	0.015092
1160.892313	0.016089
1161.046175	0.024181
1161.200019	0.035240
1161.353844	0.033590
1161.507651	0.037112
1161.661440	0.034703
1161.815210	0.025119
1161.968962	0.025899
1162.122697	0.033677
1162.276412	0.035857
1162.430110	0.034608
1162.583789	0.026375
1162.737451	0.020156
1162.891094	0.017009
1163.044718	0.024646
1163.198325	0.030450
1163.351913	0.036022
1163.505483	0.026750
1163.659035	0.019417
1163.812569	0.008036
1163.966084	0.008058
1164.119581	0.013566
1164.273060	0.000936
1164.426521	-0.006368
1164.579964	-0.012421
1164.733388	-0.016501
1164.886794	-0.008947
1165.040182	-0.014969
1165.193551	-0.009579
1165.346903	-0.006486
1165.500236	-0.000659
1165.653551	0.010959
1165.806848	0.013004
1165.960126	0.015032
1166.113386	0.013719
1166.266628	0.008920
1166.419852	0.028823
1166.573058	0.042244
1166.726245	0.048454
1166.879414	0.047088
1167.032565	0.057218
1167.185698	0.058155
1167.338812	0.064691
1167.491909	0.067226
1167.644987	0.070616
1167.798046	0.072035
1167.951088	0.062647
1168.104111	0.046212
1168.257117	0.047725
1168.410103	0.049541
1168.563072	0.049441
1168.716023	0.048633
1168.868955	0.059567
1169.021869	0.061019
1169.174765	0.059457
1169.327642	0.053575
1169.480501	0.046467
1169.633343	0.043267
1169.786165	0.031826
1169.938970	0.015876
1170.091757	0.016841
1170.244525	0.003938
1170.397275	-0.000349
1170.550007	-0.014049
1170.702720	-0.000624
1170.855415	0.041127
1171.008092	0.038052
1171.160751	0.046678
1171.313392	0.068253
1171.466014	0.397831
1171.618619	0.036970
1171.771205	0.036970
1171.923772	0.036970
