sample name	sample
index	238
start time	 02-22-2021  11:23:19 AM
880	-0.040612
Peak Time (s)	91.035
Peak Height 	-0.04061
calc peak height	90,93
Baseline Time (s)	10.536
Baseline Value 	-0.004646
subtract baseline	10,4
Abs	-0.005714
Peak Time (s)	91.535
Peak Height 	-0.005714
calc peak height	90,93
Baseline Time (s)	11.536
Baseline Value 	0.002834
subtract baseline	10,3
PK_550	-0.003479
Peak Time (s)	92.035
Peak Height 	-0.003479
calc peak height	90,93
Baseline Time (s)	9.534
Baseline Value 	-6.1155E-6
subtract baseline	10,2
PK_880	-0.006955
Peak Time (s)	92.535
Peak Height 	-0.006955
calc peak height	90,93
Baseline Time (s)	9.534
Baseline Value 	0.001887
subtract baseline	10,1


Time (s)	A880-A510	A880-A775	A880-A975	A880	I510	I775	I975	I880	
0.034500	-0.001814	-0.000464	-0.002727	0.002306	6885.181330	46724.625146	3991.603069	24644.507839
0.535500	-0.003326	0.000785	-0.000332	0.005786	6839.455537	46500.082614	3988.761695	24470.704770
1.036000	-0.001233	-0.000561	-0.003414	0.003803	6876.750914	46564.062029	3985.889681	24569.574650
1.536000	-0.004045	0.000651	-0.004201	0.008374	6809.444843	46227.638561	3971.997291	24342.355846
2.036000	-0.001601	-0.000695	-0.002762	0.001058	6898.671863	46827.465716	3994.787633	24707.201555
2.536000	0.000373	-0.000089	-0.000860	0.001099	6916.570223	46884.532941	3999.689805	24705.110166
3.036500	0.001973	0.000880	0.002425	-0.000400	6945.456578	47135.334432	4012.394428	24780.628367
3.536500	0.000137	-0.000984	-0.005627	0.000823	6916.948840	46821.931607	3987.894603	24719.018278
4.037500	-0.001083	-0.000304	-0.003539	0.000553	6908.129481	46918.119157	3994.071695	24732.580819
4.534500	0.001502	-0.000098	-0.005322	0.000467	6932.962218	46947.736184	3989.624070	24736.938179
5.037500	0.000082	0.000011	-0.000783	-0.000053	6924.580025	47011.636076	4002.943724	24763.151671
5.535000	-0.000543	0.000288	0.000868	0.000669	6912.064617	46966.341903	4005.404467	24726.743827
6.035500	-0.001825	-0.000234	-0.002300	-0.000049	6906.846739	46986.357287	3998.923379	24762.955879
6.535500	-0.000192	0.000597	0.001247	0.000925	6912.956489	46971.820495	4005.731976	24713.904479
7.035500	0.000642	-0.000071	0.001514	0.000251	6926.961265	46972.416599	4008.230795	24747.795753
7.536500	-0.002001	-0.000129	0.000499	0.000131	6903.546353	46978.726715	4005.855416	24753.872368
8.036000	-0.001727	0.000216	0.001795	0.000131	6906.079969	47013.814406	4009.300390	24753.887017
8.536500	0.000345	-0.000064	0.000508	0.000044	6926.125966	46994.155677	4006.108992	24758.232317
9.037500	0.001072	0.000027	0.001881	0.000179	6931.645384	46989.699169	4009.400316	24751.460594
9.534500	0.000000	0.000000	-0.003401	0.000055	6922.811845	46999.512210	3995.746027	24757.686204
10.035000	-0.000249	-0.000460	-0.001755	-0.000138	6922.292266	46972.443149	4000.596592	24767.440178
10.535500	-0.000537	0.000040	0.001346	0.000000	6918.333265	47009.128191	4008.453645	24760.465354
11.035000	0.000209	0.000123	-0.001108	-0.000071	6925.934854	47024.815663	4002.129134	24764.056500
11.536000	-0.000154	-0.000257	0.000000	-0.000093	6922.755816	46988.479019	4005.123314	24765.146199
12.036000	-0.000296	-0.000675	-0.005944	-0.000370	6924.014002	46974.139542	3990.187116	24779.145872
12.536500	-0.000628	0.000076	-0.003411	-0.000082	6918.255694	47021.145873	3996.080663	24764.613864
13.036500	0.000315	0.000300	-0.000979	-0.001879	6943.782027	47226.964527	4007.267307	24855.380804
13.537500	-0.001397	0.000381	-0.004633	0.000940	6901.639829	46948.333735	3990.186892	24713.112724
14.034500	-0.000705	0.000576	-0.003432	0.001030	6907.218241	46958.996043	3993.100460	24708.604482
14.535000	-0.003733	0.000168	-0.003354	0.004374	6848.619323	46579.967600	3984.559383	24541.071931
15.035000	-0.000103	0.000152	-0.001739	0.001312	6910.177659	46887.386148	3996.811336	24694.403932
15.542500	-0.000781	-0.000293	-0.002400	0.000189	6914.321151	46956.211667	3998.032308	24750.963423
16.036000	-0.001041	-0.000137	-0.004066	0.000027	6913.398052	46988.463162	3994.071472	24759.099814
16.536000	-0.003100	-0.000634	-0.006867	0.004847	6850.075439	46451.869243	3974.218211	24517.461467
17.036000	-0.000554	0.000412	-0.002533	0.000692	6911.758433	46976.664823	3996.354000	24725.620675
17.536500	0.001789	-0.000065	0.001961	-0.003031	6968.402802	47307.378179	4018.195193	24913.786853
18.037000	-0.000248	-0.000276	-0.002120	-0.000535	6925.994293	47031.447003	4000.680354	24787.448307
18.534500	-0.002499	-0.000632	0.000330	0.002617	6876.019027	46676.392054	3998.825553	24628.934738
19.035000	-0.002011	-0.000118	0.000278	0.001810	6887.944547	46809.701703	4000.819648	24669.404885
19.537500	-0.000833	0.000170	0.000368	0.001836	6898.579222	46836.205293	4000.989376	24668.101614
20.035000	-0.000821	0.000406	-0.003247	0.002035	6896.851557	46839.991355	3990.950392	24658.122965
20.535500	-0.003349	-0.000467	-0.003011	0.003438	6860.688869	46610.274849	3987.895343	24587.828567
21.035500	-0.001113	0.000303	0.002720	0.002005	6894.430889	46832.628467	4006.775113	24659.624981
21.536000	-0.000339	0.000688	-0.000329	0.002370	6898.206189	46834.595162	3997.741551	24641.334365
22.037000	-0.001015	0.000295	-0.000297	0.001892	6896.385092	46843.235348	3999.085137	24665.315842
22.536500	-0.001847	-0.000635	-0.004034	0.003334	6875.422074	46603.797794	3985.496966	24593.032606
23.037000	-0.001977	-0.000738	-0.001527	0.001316	6892.813602	46797.047962	3997.361298	24694.238997
23.537000	-0.000284	-0.000057	-0.003733	0.001376	6907.922114	46859.808563	3991.405541	24691.227119
24.042000	-0.000837	0.000217	-0.005529	0.001816	6898.724138	46842.960999	3985.555716	24669.088679
24.535000	-0.001473	-0.000777	-0.002364	0.002565	6885.946815	46667.039911	3991.876475	24631.549137
25.035500	-0.000111	-0.000410	-0.000959	0.000974	6913.248888	46864.799963	3999.760967	24711.435858
25.536000	-0.001758	-0.000610	0.000085	0.001237	6895.566641	46817.935942	4001.827188	24698.210123
26.036000	-0.001316	0.000057	-0.000593	0.001427	6897.884935	46866.112069	3999.529321	24688.626979
26.536500	-0.002597	-0.000015	-0.000933	0.001556	6884.879593	46845.816073	3998.291824	24682.150856
27.036500	-0.000835	0.000175	-0.002579	0.001868	6898.267850	46833.541693	3993.140431	24666.509504
27.536500	-0.002625	-0.000271	-0.001740	0.000999	6889.751217	46876.291341	3997.632760	24710.139799
28.037500	0.000933	-0.000282	0.001457	-0.001761	6948.461403	47155.608967	4013.444709	24849.408505
28.537500	-0.000741	0.000098	-0.002527	0.000073	6915.762395	47007.638067	3998.000377	24756.790462
29.048500	-0.001443	-0.000675	-0.001147	-0.000195	6911.738620	46956.389573	4002.356941	24770.321811
29.535000	-0.001393	-0.000703	0.000043	-0.000365	6913.768962	46970.731082	4005.958716	24778.857521
30.035500	0.001513	0.000751	-0.001785	0.000700	6930.887212	47010.279493	3998.302857	24725.184054
30.536000	-0.004139	-0.000313	-0.004848	0.005914	6830.887370	46377.077135	3976.678507	24464.334175
31.036000	-0.002851	0.000087	-0.000212	0.000973	6887.921523	46915.232679	4001.738295	24711.490872
31.536500	-0.001428	0.000211	0.000075	0.003575	6877.051120	46664.721139	3995.629713	24580.968500
32.036500	-0.001448	-0.000016	-0.002658	0.002724	6884.704835	46727.708975	3990.689379	24623.574190
32.542000	-0.003707	-0.000823	-0.000100	0.004801	6844.968236	46437.604035	3991.950856	24519.788264
33.037500	-0.000646	0.000050	-0.004987	0.001212	6906.076659	46887.190846	3988.549604	24699.433351
33.536500	-0.000951	-0.000108	-0.001956	0.000136	6913.223888	46980.308831	3999.340142	24753.598123
34.035500	-0.000386	-0.000119	0.003008	0.000245	6917.461354	46968.244126	4012.231757	24748.137109
34.535500	0.000513	-0.000249	0.000941	-0.001993	6946.698707	47182.566277	4012.685943	24861.156313
35.035500	-0.000899	-0.000092	-0.001502	0.001903	6897.345889	46803.011182	3995.881861	24664.755774
35.535500	-0.002608	-0.000012	0.001823	0.002358	6877.394360	46765.038919	4003.459965	24641.919614
36.036000	-0.002056	-0.000564	-0.003744	0.001777	6887.830463	46767.980620	3990.323483	24671.044249
36.536500	-0.000604	0.000303	-0.002463	0.002669	6892.989743	46765.447265	3991.342280	24626.304727
37.037000	-0.000626	0.000457	-0.001131	0.002900	6890.658702	46757.588084	3994.231801	24614.734066
37.537000	-0.002335	-0.000672	-0.002306	0.002076	6882.512384	46726.942362	3993.313153	24656.083167
38.037500	-0.002612	-0.000325	-0.009158	0.002242	6878.425614	46745.098315	3975.029497	24647.726169
38.535000	-0.000619	0.000660	-0.000196	0.002465	6894.743348	46822.231370	3997.839669	24636.571339
39.035500	0.000780	-0.000499	-0.003531	0.001938	6912.564680	46758.245419	3990.459627	24662.968744
39.535500	-0.001612	0.000260	-0.001459	0.002475	6885.494481	46780.732818	3994.490937	24636.075068
40.035500	0.000231	-0.000090	-0.002972	0.002509	6902.192265	46741.878144	3990.427472	24634.326930
40.536000	-0.001550	-0.000443	-0.001303	0.003124	6880.089048	46644.292574	3993.193174	24603.556552
41.036500	-0.003323	-0.000231	-0.000928	0.001623	6877.579445	46817.205126	3998.130134	24678.802196
41.536500	-0.000239	0.000342	-0.004950	0.002355	6899.273510	46801.091546	3985.661513	24642.066409
42.036500	-0.001940	0.000276	-0.000125	0.002898	6878.572307	46739.624814	3996.884959	24614.848401
42.534500	-0.001773	-0.000266	-0.001785	0.003474	6874.808223	46626.866356	3991.008918	24586.019159
43.034500	0.000424	0.000782	-0.000943	0.003319	6896.492457	46748.202250	3993.627288	24593.801433
43.535000	-0.003261	-0.000244	-0.003264	0.002283	6872.085818	46749.181450	3990.254818	24645.652980
44.035500	-0.000865	0.000362	-0.002406	0.002894	6888.512250	46748.747377	3990.902675	24615.065226
44.535500	-0.004255	-0.000800	-0.000089	0.003680	6850.187152	46552.377326	3994.922796	24575.728305
45.035000	0.000782	-0.000438	0.004840	-0.002833	6957.087229	47249.082490	4025.412427	24903.759146
45.536500	-0.001339	-0.000047	0.001522	0.000309	6908.021029	46968.964303	4008.098577	24744.886747
46.046000	0.000428	0.000621	0.001181	0.000938	6918.590239	46972.995198	4005.521831	24713.246314
46.536000	-0.001395	0.000387	-0.003166	0.005834	6856.642415	46455.262468	3981.247919	24468.314833
47.037500	-0.002158	-0.000632	-0.002326	0.003925	6867.146553	46544.749336	3988.415113	24563.504199
47.537500	0.000812	0.000202	0.002101	0.000419	6926.975545	46983.070099	4009.345697	24739.332538
48.037000	-0.000909	0.000124	0.001134	0.000278	6912.302667	46989.503666	4007.149340	24746.453706
48.535500	-0.003146	0.000033	0.002808	0.005019	6848.094951	46501.591634	3999.027213	24508.913154
49.036000	-0.001913	0.000415	-0.002387	0.004742	6861.898091	46567.792299	3986.118693	24522.697453
49.535500	-0.000300	-0.000159	-0.000886	0.000334	6917.431215	46955.079939	4001.645737	24743.640805
50.036000	0.000914	0.000629	0.003731	0.000763	6924.727657	46991.496985	4012.777606	24722.031935
50.536500	-0.004283	-0.000855	-0.000941	0.005089	6837.089119	46405.530080	3988.992136	24505.429004
51.036500	-0.003610	-0.000447	-0.000517	0.003508	6857.661712	46605.190926	3994.250288	24584.325139
51.537000	0.001946	0.000646	-0.000860	-0.000762	6948.594608	47148.333237	4004.615801	24798.909384
52.034500	0.000366	0.000320	-0.000983	0.002392	6904.522170	46795.149859	3995.959702	24640.210190
52.535000	-0.004547	0.000625	-0.000938	0.010072	6789.614317	46056.029180	3976.039876	24258.580784
53.034500	0.092670	-0.020494	0.321562	1.404243	3081.030878	4553.426852	2948.083850	3730.068057
53.535000	0.134298	-0.016461	0.346808	1.525001	3048.195503	4162.467830	2929.283126	3520.548603
54.035500	0.090197	-0.021110	0.338858	1.534547	3029.104670	4121.700313	2926.265345	3506.340079
54.535500	0.044822	-0.025990	0.214741	1.375325	3072.623141	4645.347081	2932.446052	3789.497633
55.036000	-0.029776	-0.009876	-0.008364	0.079666	6023.524311	38786.788250	3793.510846	21091.202334
55.536500	-0.025264	-0.006696	-0.005744	0.060524	6199.266123	40679.850794	3841.848437	21912.426305
56.037000	-0.025501	-0.006473	0.000082	0.061495	6190.055894	40614.776858	3852.964900	21869.880837
56.537000	-0.017990	-0.003178	-0.009810	0.037393	6439.696693	43070.973971	3886.228874	22954.297607
57.037500	-0.013227	-0.002307	-0.009246	0.007060	6738.978312	46063.969935	3962.426899	24407.454263
57.535000	-0.002326	-0.001513	-0.004819	-0.035448	7243.444190	50589.982168	4089.057156	26622.394820
58.035000	-0.002133	-0.001235	-0.006868	-0.036848	7259.470908	50774.746453	4087.212202	26699.134232
58.535500	-0.004967	-0.000363	-0.005180	-0.023918	7103.489907	49463.645116	4055.668536	26000.031744
59.036000	-0.005866	-0.004110	-0.005198	-0.018694	7044.417459	48511.567951	4041.238199	25723.435947
59.536500	-0.006025	-0.001502	-0.003804	-0.026438	7117.721419	49611.987410	4066.509493	26134.653952
60.036500	-0.005791	-0.003452	-0.009349	-0.003742	6904.311838	47034.579044	3990.099291	24949.940249
60.536500	-0.007965	-0.003313	-0.009014	0.002194	6829.927760	46449.289690	3975.527250	24650.138332
61.037000	-0.011004	-0.004631	-0.011496	-0.008289	6898.142155	47378.194214	3996.401407	25182.317579
61.537500	-0.008309	-0.004027	-0.015192	-0.007648	6917.184222	47374.442851	3985.039183	25149.441200
62.037500	-0.005541	-0.002960	-0.007150	-0.015428	7016.343329	48289.893293	4027.047305	25552.218460
62.535000	-0.008568	-0.004398	-0.005944	-0.019840	7029.546898	48601.746541	4042.336110	25783.854183
63.035500	-0.010331	-0.004522	-0.009125	-0.030455	7114.905483	49719.288261	4062.870519	26350.857022
63.534500	-0.010894	-0.000287	-0.011302	-0.032961	7133.878428	50451.836138	4063.788341	26486.788159
64.035500	-0.013186	-0.001522	-0.016673	-0.041138	7191.857764	51218.108989	4071.637665	26935.698756
64.536500	-0.012183	-0.000971	-0.014517	-0.041185	7202.282206	51284.612989	4077.832797	26938.290052
65.046000	-0.015595	-0.001227	-0.015745	-0.037734	7134.578348	50873.378497	4064.705783	26747.770185
65.535500	-0.012829	-0.001513	-0.016724	-0.042398	7207.928011	51359.435493	4075.032530	27005.615312
66.040000	-0.011070	-0.000474	-0.011787	-0.039821	7199.796961	51188.159384	4081.693863	26862.847387
66.537500	-0.014223	-0.001554	-0.016236	-0.032016	7092.260009	50210.240708	4047.505612	26435.450937
67.035000	-0.014886	-0.000677	-0.014202	-0.029047	7057.201402	49982.766674	4044.935097	26274.831574
67.535000	-0.009838	-0.000200	-0.008106	-0.031702	7131.887218	50323.651465	4069.199764	26418.401597
68.035500	-0.011048	0.000091	-0.010014	-0.029146	7095.210583	50076.877664	4056.760664	26280.188395
68.535500	-0.011178	-0.000823	-0.011311	-0.028717	7089.794477	49931.282850	4051.987114	26257.083642
69.036000	-0.014780	-0.001621	-0.012807	-0.022333	6994.191939	49159.784077	4030.424819	25915.762068
69.536500	-0.011210	-0.000603	-0.012240	-0.026665	7069.662954	49733.282050	4043.783393	26146.825778
70.036500	-0.011769	-0.000897	-0.013012	-0.026361	7061.356949	49668.802937	4040.837961	26130.542836
70.536500	-0.011463	-0.000425	-0.007694	-0.025317	7054.258832	49607.178166	4052.584122	26074.664881
71.037500	-0.015900	-0.001746	-0.013577	-0.020101	6962.586933	48909.423892	4022.313432	25797.619259
71.537500	-0.011803	-0.001157	-0.003219	-0.025043	7048.368801	49499.134763	4064.247776	26060.020638
72.034500	-0.011533	-0.001096	-0.008563	-0.024952	7050.086041	49495.939952	4049.181441	26055.180785
72.535500	-0.011488	-0.001425	-0.009652	-0.025242	7053.302185	49491.697148	4046.983966	26070.664604
73.035500	-0.016383	-0.002093	-0.011132	-0.020205	6959.032885	48883.662580	4029.197529	25803.109516
73.536000	-0.010509	-0.001599	-0.013979	-0.025670	7066.825279	49518.933843	4036.308382	26093.516290
74.036000	-0.009461	-0.001563	-0.010681	-0.025688	7077.111031	49524.800383	4045.381760	26094.515744
74.536500	-0.011842	-0.001365	-0.010186	-0.025941	7056.617937	49573.224803	4047.437463	26108.059847
75.037000	-0.010084	-0.002001	-0.011428	-0.026694	7080.813305	49585.869224	4046.092138	26148.377279
75.534500	-0.008838	-0.000768	-0.011370	-0.026435	7090.361143	49690.716516	4045.541194	26134.518200
76.037000	-0.011933	-0.001737	-0.007882	-0.027378	7069.564631	49687.824326	4057.769925	26185.057626
76.535000	-0.010873	-0.001507	-0.012390	-0.027687	7082.778922	49745.886261	4046.177191	26201.643332
77.035000	-0.010560	-0.001830	-0.012162	-0.028239	7091.152913	49770.660297	4048.321321	26231.323406
77.535500	-0.009944	-0.001900	-0.010980	-0.028970	7104.214878	49842.039936	4053.599235	26270.688961
78.035500	-0.008923	-0.002040	-0.004779	-0.029605	7120.343872	49895.588819	4072.650299	26304.930794
78.536000	-0.015307	-0.003120	-0.014907	-0.025287	7017.227839	49315.045354	4032.742360	26073.072168
79.036000	-0.012248	-0.002385	-0.008979	-0.030784	7099.464897	49985.949728	4064.193381	26368.668331
79.536500	-0.010997	-0.002899	-0.010882	-0.031530	7118.892498	50011.147840	4060.972890	26409.087916
80.036500	-0.012018	-0.002941	-0.006763	-0.032537	7118.754994	50115.962284	4075.316385	26463.718272
80.534500	-0.015147	-0.002954	-0.016777	-0.027871	7043.425041	49609.955987	4034.685588	26211.574873
81.034500	-0.010471	-0.003662	-0.012189	-0.033969	7147.899212	50193.281302	4064.125318	26541.646864
81.534500	-0.010796	-0.003719	-0.010883	-0.034669	7151.588542	50263.382489	4069.732978	26579.842463
82.035500	-0.011482	-0.002803	-0.010448	-0.034734	7145.489513	50370.477766	4071.133077	26583.395016
82.535500	-0.014855	-0.003768	-0.013805	-0.030295	7069.523326	49783.436445	4049.461992	26342.234020
83.035500	-0.013495	-0.003995	-0.012202	-0.031269	7092.077988	49864.169727	4056.581400	26394.946620
83.536000	-0.010408	-0.004212	-0.009785	-0.037384	7182.192235	50506.392365	4080.463268	26728.546227
84.036500	-0.010116	-0.003481	-0.009996	-0.037565	7186.864150	50606.408074	4080.376183	26738.469344
84.536500	-0.014392	-0.003572	-0.012157	-0.032800	7098.217581	50075.851095	4060.957571	26477.997909
85.037000	-0.012518	-0.003883	-0.015119	-0.033914	7127.311946	50163.147034	4055.825871	26538.628968
85.537500	-0.011070	-0.004386	-0.008213	-0.040046	7202.031211	50779.883661	4092.491992	26875.269032
86.038000	-0.008443	-0.003894	-0.010511	-0.040090	7228.665282	50839.002671	4086.073338	26877.686038
86.535000	-0.011694	-0.002992	-0.014307	-0.034601	7142.104194	50335.369621	4059.988367	26576.136707
87.035500	-0.014189	-0.004428	-0.014059	-0.036477	7136.040245	50383.469906	4065.905204	26678.787153
87.535500	-0.008014	-0.003232	-0.007807	-0.041003	7242.119401	51013.284001	4096.386865	26928.228083
88.036000	-0.007590	-0.003987	-0.010696	-0.041988	7256.271217	51038.664469	4090.947865	26982.853810
88.536500	-0.009066	-0.003864	-0.010897	-0.043020	7251.802766	51166.882120	4093.318305	27040.205384
89.036500	-0.011230	-0.004748	-0.009441	-0.040146	7201.433566	50751.062635	4089.276546	26880.803566
89.537000	-0.007947	-0.003773	-0.004187	-0.043100	7263.885751	51185.867272	4112.863885	27044.667395
90.037000	-0.007643	-0.003974	-0.008298	-0.043966	7275.707563	51259.949036	4103.487183	27092.961151
90.537500	-0.008957	-0.004045	-0.010996	-0.044238	7265.172150	51282.358981	4096.519549	27108.114419
91.035000	-0.011707	-0.004440	-0.013509	-0.040612	7201.327091	50836.360202	4079.064150	26906.579268
91.535000	-0.006959	-0.004024	-0.005714	-0.044855	7291.633241	51353.410144	4113.527304	27142.583358
92.035000	-0.006999	-0.003479	-0.011510	-0.044839	7291.060449	51412.471311	4096.768013	27141.669538
92.535500	-0.006955	-0.003561	-0.009081	-0.045326	7296.458174	51457.813091	4105.148450	27168.944820
93.036000	-0.006098	-0.004057	-0.010454	-0.045320	7305.113992	51401.670885	4101.178301	27168.589265
93.536500	-0.006009	-0.004506	-0.012586	-0.046122	7314.187014	51441.062593	4097.358324	27213.484810
94.037000	-0.006451	-0.003626	-0.003619	-0.045759	7305.990695	51498.929958	4122.261778	27193.180027
94.536000	-0.006919	-0.004214	-0.009299	-0.046178	7305.488952	51480.050110	4106.975227	27216.625319
95.037000	-0.009759	-0.004396	-0.005810	-0.043359	7248.247235	51145.493728	4108.914616	27059.106667
95.554000	-0.005518	-0.004012	-0.010278	-0.045340	7311.223445	51408.989444	4101.741484	27169.702848
96.047500	-0.005759	-0.004067	-0.009715	-0.045528	7310.683658	51423.810711	4103.900728	27180.209533
96.535500	-0.009372	-0.003735	-0.008072	-0.039730	7215.792898	50816.852097	4091.991536	26857.813003
97.035000	-0.007829	-0.004445	-0.011929	-0.042438	7258.396423	51037.797129	4088.715756	27007.846601
97.536000	-0.007584	-0.004294	-0.001956	-0.045742	7294.296159	51422.442024	4127.084009	27192.232487
98.036000	-0.006693	-0.004170	-0.005068	-0.045460	7300.481504	51404.625679	4117.162370	27176.412545
98.536500	-0.010322	-0.004853	-0.009183	-0.040975	7218.735468	50830.923706	4092.375386	26926.692315
