sample name	sample
index	1324
start time	 05-03-2021  11:05:28 AM


Wavelength (nm)	Absorbance
494.344910	-0.186976
494.563924	-0.186976
494.782919	-0.186976
495.001897	NaN
495.220856	-0.014225
495.439797	-0.036188
495.658719	-0.000728
495.877624	0.014966
496.096510	-0.057925
496.315378	-0.052630
496.534227	-0.060461
496.753059	-0.047148
496.971872	-0.018024
497.190667	0.018838
497.409444	0.025423
497.628203	0.023969
497.846943	0.025744
498.065665	0.026333
498.284369	0.028128
498.503055	0.027870
498.721723	0.028030
498.940372	0.027624
499.159003	0.026961
499.377616	0.028223
499.596210	0.027867
499.814787	0.028568
500.033345	0.028853
500.251885	0.027518
500.470406	0.027494
500.688910	0.027776
500.907395	0.027130
501.125862	0.027323
501.344311	0.026970
501.562742	0.027226
501.781154	0.026742
501.999548	0.025089
502.217924	0.024689
502.436282	0.024042
502.654621	0.022831
502.872942	0.023236
503.091245	0.023326
503.309530	0.022752
503.527797	0.024343
503.746045	0.023764
503.964275	0.024509
504.182487	0.023982
504.400681	0.023897
504.618856	0.023931
504.837013	0.025069
505.055152	0.024894
505.273273	0.024857
505.491376	0.022655
505.709460	0.022790
505.927526	0.022744
506.145574	0.023380
506.363604	0.024060
506.581615	0.024745
506.799608	0.023616
507.017583	0.022920
507.235540	0.022760
507.453478	0.022855
507.671399	0.022507
507.889301	0.022238
508.107185	0.021446
508.325050	0.020704
508.542898	0.020004
508.760727	0.020678
508.978538	0.021455
509.196330	0.020307
509.414105	0.021026
509.631861	0.021225
509.849599	0.021597
510.067319	0.022055
510.285021	0.022453
510.502704	0.022127
510.720369	0.021564
510.938016	0.021673
511.155645	0.022871
511.373255	0.023291
511.590848	0.022842
511.808422	0.023357
512.025977	0.023045
512.243515	0.023115
512.461034	0.023882
512.678536	0.023476
512.896018	0.023047
513.113483	0.023071
513.330930	0.022888
513.548358	0.023275
513.765768	0.023065
513.983160	0.023385
514.200533	0.023347
514.417889	0.023079
514.635226	0.023708
514.852545	0.023666
515.069845	0.023228
515.287128	0.022769
515.504392	0.023689
515.721638	0.023977
515.938866	0.024294
516.156075	0.023892
516.373267	0.023953
516.590440	0.023463
516.807594	0.023858
517.024731	0.023976
517.241850	0.023693
517.458950	0.022601
517.676032	0.021689
517.893095	0.021797
518.110141	0.022010
518.327168	0.022561
518.544177	0.022624
518.761168	0.022645
518.978141	0.023005
519.195095	0.023311
519.412031	0.023105
519.628949	0.023392
519.845849	0.023298
520.062731	0.023780
520.279594	0.023632
520.496439	0.023843
520.713266	0.023929
520.930074	0.023736
521.146865	0.023868
521.363637	0.024610
521.580391	0.024862
521.797127	0.024594
522.013844	0.024570
522.230543	0.023752
522.447224	0.023434
522.663887	0.022915
522.880532	0.023098
523.097158	0.022743
523.313766	0.022465
523.530356	0.021724
523.746928	0.021690
523.963481	0.021494
524.180017	0.022200
524.396534	0.022729
524.613032	0.022306
524.829513	0.022059
525.045975	0.022554
525.262420	0.022406
525.478845	0.023248
525.695253	0.023438
525.911643	0.023571
526.128014	0.023761
526.344367	0.024276
526.560702	0.025029
526.777018	0.025278
526.993316	0.024980
527.209597	0.025131
527.425858	0.024786
527.642102	0.024814
527.858328	0.024738
528.074535	0.024132
528.290724	0.023197
528.506894	0.023163
528.723047	0.022686
528.939181	0.022851
529.155297	0.022213
529.371395	0.022729
529.587475	0.022808
529.803536	0.022381
530.019579	0.022426
530.235604	0.022828
530.451611	0.022503
530.667600	0.022495
530.883570	0.022949
531.099522	0.023946
531.315456	0.024043
531.531372	0.023954
531.747269	0.024185
531.963148	0.024720
532.179009	0.024469
532.394852	0.024465
532.610676	0.024958
532.826482	0.024176
533.042271	0.023634
533.258040	0.022571
533.473792	0.022844
533.689525	0.023138
533.905240	0.023252
534.120937	0.023315
534.336616	0.023736
534.552277	0.023932
534.767919	0.024086
534.983543	0.024683
535.199149	0.025672
535.414736	0.025376
535.630306	0.025519
535.845857	0.025100
536.061390	0.025606
536.276904	0.025131
536.492401	0.025021
536.707879	0.025383
536.923339	0.025498
537.138781	0.025614
537.354204	0.025903
537.569610	0.025831
537.784997	0.026011
538.000366	0.026206
538.215716	0.026374
538.431049	0.026377
538.646363	0.026053
538.861659	0.025154
539.076937	0.024902
539.292196	0.024618
539.507438	0.024039
539.722661	0.023757
539.937866	0.023130
540.153052	0.022938
540.368221	0.022857
540.583371	0.023223
540.798503	0.023939
541.013617	0.024218
541.228712	0.024590
541.443789	0.025185
541.658848	0.025576
541.873889	0.026047
542.088912	0.026470
542.303916	0.026849
542.518902	0.027160
542.733870	0.027569
542.948820	0.027347
543.163752	0.027321
543.378665	0.027470
543.593560	0.027691
543.808437	0.027183
544.023295	0.027128
544.238136	0.026754
544.452958	0.026598
544.667762	0.026474
544.882548	0.026144
545.097315	0.026035
545.312064	0.025851
545.526795	0.025923
545.741508	0.026093
545.956203	0.026318
546.170879	0.026541
546.385537	0.026264
546.600177	0.025829
546.814799	0.026017
547.029402	0.026145
547.243988	0.026509
547.458555	0.025855
547.673103	0.025985
547.887634	0.026157
548.102146	0.026179
548.316640	0.026046
548.531116	0.025813
548.745574	0.025790
548.960013	0.025855
549.174435	0.025253
549.388838	0.025633
549.603222	0.025379
549.817589	0.025124
550.031937	0.024769
550.246267	0.025011
550.460579	0.025059
550.674873	0.025241
550.889148	0.025133
551.103405	0.025361
551.317644	0.025016
551.531865	0.025257
551.746068	0.025127
551.960252	0.025636
552.174418	0.025726
552.388566	0.025973
552.602696	0.025602
552.816807	0.025727
553.030900	0.025963
553.244975	0.026107
553.459032	0.026021
553.673070	0.026076
553.887091	0.025890
554.101093	0.025952
554.315077	0.026068
554.529042	0.026474
554.742990	0.026160
554.956919	0.026214
555.170830	0.026345
555.384722	0.026389
555.598597	0.026294
555.812453	0.026260
556.026291	0.026242
556.240111	0.026130
556.453913	0.026236
556.667696	0.026272
556.881461	0.025951
557.095208	0.026051
557.308937	0.026294
557.522647	0.026432
557.736339	0.026429
557.950013	0.026389
558.163669	0.026080
558.377307	0.025834
558.590926	0.025874
558.804527	0.025932
559.018110	0.026009
559.231675	0.026107
559.445221	0.026441
559.658749	0.026900
559.872259	0.026532
560.085751	0.026712
560.299225	0.026619
560.512680	0.026963
560.726117	0.027452
560.939536	0.027453
561.152937	0.027183
561.366319	0.027361
561.579683	0.027145
561.793029	0.027684
562.006357	0.028019
562.219667	0.028201
562.432958	0.028145
562.646231	0.027758
562.859486	0.027662
563.072723	0.027762
563.285941	0.027362
563.499141	0.027260
563.712323	0.026991
563.925487	0.026878
564.138632	0.027089
564.351760	0.027116
564.564869	0.027270
564.777960	0.027310
564.991032	0.027250
565.204087	0.027425
565.417123	0.027633
565.630141	0.027775
565.843140	0.028050
566.056122	0.027781
566.269085	0.027777
566.482030	0.027978
566.694957	0.027981
566.907866	0.027953
567.120756	0.027862
567.333628	0.027868
567.546482	0.027905
567.759318	0.027812
567.972135	0.028103
568.184935	0.028131
568.397716	0.028115
568.610478	0.028289
568.823223	0.028498
569.035949	0.028928
569.248657	0.028924
569.461347	0.028696
569.674019	0.028471
569.886672	0.028122
570.099308	0.028079
570.311925	0.027873
570.524523	0.027544
570.737104	0.027521
570.949666	0.027015
571.162210	0.026844
571.374736	0.027015
571.587244	0.027029
571.799733	0.027338
572.012205	0.027664
572.224658	0.027949
572.437092	0.028318
572.649509	0.028503
572.861907	0.028755
573.074287	0.028956
573.286649	0.029072
573.498993	0.029334
573.711318	0.029363
573.923625	0.029039
574.135914	0.028693
574.348185	0.028624
574.560438	0.028182
574.772672	0.027879
574.984888	0.027467
575.197086	0.027412
575.409266	0.027267
575.621427	0.027252
575.833570	0.027246
576.045695	0.027417
576.257802	0.027357
576.469890	0.027504
576.681961	0.027582
576.894013	0.027985
577.106046	0.027866
577.318062	0.028044
577.530059	0.028275
577.742039	0.028357
577.954000	0.028148
578.165942	0.028410
578.377867	0.028662
578.589773	0.028957
578.801661	0.028607
579.013531	0.028560
579.225382	0.027929
579.437216	0.027583
579.649031	0.027608
579.860828	0.027737
580.072606	0.027545
580.284367	0.027068
580.496109	0.027084
580.707833	0.027047
580.919539	0.027215
581.131227	0.027702
581.342896	0.027763
581.554547	0.027904
581.766180	0.027931
581.977795	0.027883
582.189391	0.028103
582.400969	0.027907
582.612529	0.028349
582.824071	0.028375
583.035595	0.028461
583.247100	0.028467
583.458587	0.028324
583.670056	0.028246
583.881506	0.028198
584.092939	0.028207
584.304353	0.028166
584.515749	0.027803
584.727127	0.027587
584.938486	0.027493
585.149828	0.027685
585.361151	0.027705
585.572456	0.027967
585.783742	0.028100
585.995011	0.028155
586.206261	0.028139
586.417493	0.028278
586.628706	0.028751
586.839902	0.028767
587.051079	0.028770
587.262238	0.028749
587.473379	0.028671
587.684502	0.028294
587.895606	0.028384
588.106692	0.028547
588.317760	0.028647
588.528810	0.028473
588.739841	0.028571
588.950855	0.028362
589.161850	0.028527
589.372827	0.028249
589.583785	0.028426
589.794726	0.028430
590.005648	0.028440
590.216552	0.028419
590.427437	0.028396
590.638305	0.028386
590.849154	0.028561
591.059985	0.028297
591.270798	0.028332
591.481592	0.028426
591.692369	0.028578
591.903127	0.028643
592.113867	0.028593
592.324588	0.028586
592.535292	0.028402
592.745977	0.028545
592.956644	0.028377
593.167293	0.028458
593.377923	0.028303
593.588536	0.028165
593.799130	0.027865
594.009706	0.027609
594.220263	0.027629
594.430803	0.027842
594.641324	0.027610
594.851827	0.028084
595.062312	0.028398
595.272778	0.028608
595.483227	0.028677
595.693657	0.028840
595.904069	0.029136
596.114462	0.028900
596.324838	0.028786
596.535195	0.028703
596.745534	0.028534
596.955855	0.028252
597.166157	0.028057
597.376441	0.027917
597.586707	0.028140
597.796955	0.028292
598.007185	0.028213
598.217396	0.028246
598.427589	0.028319
598.637764	0.028322
598.847921	0.028360
599.058060	0.028467
599.268180	0.028536
599.478282	0.028441
599.688366	0.028374
599.898431	0.029008
600.108479	0.028971
600.318508	0.029093
600.528519	0.029068
600.738511	0.029026
600.948486	0.029303
601.158442	0.029441
601.368380	0.029465
601.578300	0.029485
601.788202	0.029284
601.998085	0.029247
602.207950	0.029235
602.417797	0.029377
602.627626	0.029719
602.837436	0.029554
603.047228	0.029586
603.257002	0.029533
603.466758	0.029768
603.676496	0.029676
603.886215	0.030087
604.095916	0.030146
604.305599	0.029816
604.515264	0.029822
604.724910	0.030044
604.934538	0.029817
605.144148	0.029810
605.353740	0.029594
605.563314	0.029771
605.772869	0.029656
605.982406	0.029503
606.191925	0.029567
606.401425	0.029542
606.610908	0.029480
606.820372	0.029613
607.029818	0.029586
607.239246	0.029422
607.448655	0.029169
607.658047	0.028807
607.867420	0.029018
608.076775	0.029096
608.286111	0.028994
608.495430	0.028730
608.704730	0.028807
608.914012	0.028990
609.123275	0.029133
609.332521	0.029382
609.541748	0.029441
609.750957	0.029477
609.960148	0.029526
610.169321	0.029454
610.378475	0.029382
610.587611	0.029271
610.796729	0.028825
611.005829	0.029005
611.214910	0.028789
611.423974	0.029122
611.633019	0.029132
611.842045	0.029161
612.051054	0.029283
612.260044	0.029644
612.469017	0.029688
612.677970	0.029835
612.886906	0.029545
613.095824	0.029521
613.304723	0.029315
613.513604	0.029323
613.722467	0.029186
613.931311	0.029175
614.140138	0.028971
614.348946	0.028743
614.557736	0.028900
614.766507	0.028980
614.975261	0.029081
615.183996	0.028840
615.392713	0.028682
615.601412	0.028876
615.810092	0.028429
616.018754	0.028553
616.227399	0.028521
616.436024	0.028429
616.644632	0.028154
616.853222	0.027829
617.061793	0.028212
617.270346	0.027979
617.478880	0.027862
617.687397	0.028327
617.895895	0.028336
618.104375	0.028490
618.312837	0.028626
618.521281	0.028948
618.729706	0.029326
618.938113	0.029191
619.146502	0.029311
619.354873	0.029713
619.563226	0.029661
619.771560	0.029594
619.979876	0.029743
620.188174	0.029850
620.396453	0.029882
620.604715	0.029688
620.812958	0.029662
621.021183	0.029975
621.229390	0.029602
621.437578	0.029542
621.645748	0.029688
621.853900	0.029572
622.062034	0.029428
622.270150	0.029194
622.478247	0.029483
622.686326	0.029556
622.894387	0.029456
623.102430	0.029538
623.310454	0.029519
623.518461	0.029559
623.726449	0.029772
623.934418	0.029825
624.142370	0.030025
624.350303	0.030067
624.558218	0.030252
624.766115	0.030278
624.973994	0.030351
625.181855	0.030457
625.389697	0.030279
625.597521	0.030134
625.805327	0.030303
626.013114	0.030357
626.220883	0.030341
626.428634	0.030186
626.636367	0.030216
626.844082	0.030191
627.051778	0.030286
627.259457	0.030585
627.467117	0.030492
627.674758	0.030353
627.882382	0.030446
628.089987	0.030578
628.297574	0.030770
628.505143	0.030940
628.712694	0.031093
628.920226	0.031165
629.127740	0.031141
629.335236	0.031675
629.542714	0.031824
629.750174	0.032033
629.957615	0.032105
630.165038	0.032170
630.372443	0.032067
630.579829	0.031940
630.787198	0.031918
630.994548	0.031918
631.201880	0.031923
631.409194	0.031994
631.616489	0.032022
631.823766	0.032108
632.031025	0.032180
632.238266	0.032175
632.445489	0.032409
632.652693	0.032285
632.859879	0.032270
633.067047	0.031868
633.274197	0.031777
633.481329	0.031684
633.688442	0.031417
633.895537	0.031121
634.102614	0.031073
634.309672	0.030889
634.516713	0.030947
634.723735	0.030916
634.930739	0.031104
635.137724	0.031071
635.344692	0.031113
635.551641	0.031318
635.758572	0.031349
635.965485	0.031274
636.172379	0.031260
636.379256	0.031125
636.586114	0.031236
636.792954	0.031003
636.999775	0.030992
637.206579	0.031003
637.413364	0.030761
637.620131	0.030956
637.826880	0.031039
638.033610	0.031182
638.240323	0.031135
638.447017	0.031156
638.653692	0.031462
638.860350	0.031497
639.066990	0.031201
639.273611	0.031367
639.480214	0.031302
639.686798	0.031494
639.893365	0.031616
640.099913	0.031955
640.306443	0.031874
640.512955	0.031790
640.719449	0.031869
640.925924	0.032224
641.132381	0.032461
641.338820	0.032656
641.545241	0.032673
641.751644	0.032693
641.958028	0.032607
642.164394	0.032675
642.370742	0.032725
642.577071	0.032882
642.783383	0.032906
642.989676	0.032797
643.195951	0.032641
643.402207	0.032641
643.608446	0.032775
643.814666	0.032914
644.020868	0.033028
644.227052	0.033030
644.433218	0.033017
644.639365	0.033081
644.845494	0.033057
645.051605	0.033341
645.257698	0.033425
645.463772	0.033317
645.669828	0.033306
645.875866	0.033327
646.081886	0.033435
646.287888	0.033535
646.493871	0.033568
646.699836	0.033690
646.905783	0.033497
647.111712	0.033632
647.317622	0.033559
647.523514	0.033714
647.729388	0.033702
647.935244	0.033791
648.141082	0.033772
648.346901	0.033695
648.552702	0.033598
648.758485	0.033695
648.964250	0.033580
649.169996	0.033630
649.375724	0.033752
649.581434	0.033885
649.787126	0.033874
649.992800	0.033855
650.198455	0.033915
650.404092	0.034065
650.609711	0.034176
650.815311	0.034272
651.020894	0.034265
651.226458	0.034206
651.432004	0.034147
651.637532	0.034242
651.843041	0.034348
652.048532	0.034311
652.254006	0.034434
652.459460	0.034423
652.664897	0.034404
652.870315	0.034563
653.075716	0.034480
653.281097	0.034580
653.486461	0.034391
653.691807	0.034460
653.897134	0.034610
654.102443	0.034364
654.307734	0.034384
654.513006	0.034450
654.718261	0.034609
654.923497	0.034708
655.128715	0.034747
655.333915	0.035155
655.539096	0.035227
655.744259	0.035350
655.949404	0.035451
656.154531	0.035525
656.359640	0.035551
656.564730	0.035382
656.769802	0.035520
656.974856	0.035563
657.179892	0.035256
657.384909	0.035193
657.589908	0.035035
657.794889	0.035256
657.999852	0.035258
658.204797	0.035366
658.409723	0.035483
658.614631	0.035363
658.819521	0.035356
659.024393	0.035553
659.229246	0.035474
659.434081	0.035705
659.638898	0.035657
659.843697	0.035689
660.048478	0.035478
660.253240	0.035356
660.457984	0.035327
660.662710	0.035232
660.867417	0.035096
661.072107	0.035270
661.276778	0.035131
661.481431	0.035182
661.686066	0.035316
661.890682	0.035381
662.095281	0.035507
662.299861	0.035574
662.504422	0.035683
662.708966	0.035930
662.913491	0.036042
663.117999	0.036033
663.322488	0.036033
663.526958	0.036015
663.731411	0.036220
663.935845	0.036230
664.140261	0.036334
664.344659	0.036408
664.549038	0.036129
664.753400	0.036045
664.957743	0.036237
665.162068	0.036410
665.366375	0.036492
665.570663	0.036531
665.774933	0.036649
665.979185	0.036674
666.183419	0.036814
666.387635	0.037127
666.591832	0.037160
666.796011	0.037083
667.000172	0.036940
667.204315	0.036949
667.408439	0.036906
667.612545	0.036864
667.816634	0.036767
668.020703	0.036779
668.224755	0.036802
668.428788	0.036753
668.632803	0.036731
668.836800	0.036763
669.040779	0.036847
669.244739	0.036877
669.448681	0.036966
669.652605	0.037059
669.856511	0.036975
670.060399	0.037174
670.264268	0.037196
670.468119	0.037378
670.671952	0.037450
670.875767	0.037397
671.079563	0.037633
671.283341	0.037668
671.487101	0.037760
671.690843	0.037784
671.894567	0.037734
672.098272	0.037835
672.301959	0.037817
672.505628	0.037774
672.709278	0.037781
672.912911	0.037700
673.116525	0.037907
673.320121	0.037972
673.523699	0.038202
673.727258	0.038169
673.930799	0.038226
674.134322	0.038296
674.337827	0.038473
674.541314	0.038629
674.744782	0.038789
674.948232	0.038769
675.151664	0.038810
675.355078	0.038823
675.558474	0.039005
675.761851	0.039151
675.965210	0.039215
676.168551	0.039180
676.371873	0.039062
676.575178	0.038811
676.778464	0.038710
676.981732	0.038692
677.184981	0.038569
677.388213	0.038403
677.591426	0.038267
677.794621	0.038346
677.997798	0.038360
678.200956	0.038534
678.404097	0.038632
678.607219	0.038617
678.810323	0.038762
679.013408	0.038932
679.216476	0.039061
679.419525	0.039256
679.622556	0.039177
679.825569	0.039157
680.028563	0.039127
680.231540	0.039316
680.434498	0.039507
680.637438	0.039459
680.840359	0.039320
681.043263	0.039194
681.246148	0.039015
681.449015	0.039130
681.651864	0.039286
681.854694	0.039509
682.057506	0.039472
682.260301	0.039579
682.463076	0.039513
682.665834	0.039580
682.868573	0.039725
683.071295	0.039957
683.273998	0.039867
683.476682	0.039803
683.679349	0.039671
683.881997	0.039621
684.084627	0.039563
684.287239	0.039838
684.489833	0.039833
684.692408	0.039862
684.894965	0.039870
685.097504	0.040098
685.300025	0.040246
685.502527	0.040196
685.705012	0.040278
685.907478	0.040306
686.109925	0.040157
686.312355	0.040435
686.514766	0.040521
686.717159	0.040537
686.919534	0.040517
687.121891	0.040527
687.324230	0.040617
687.526550	0.040605
687.728852	0.040574
687.931136	0.040655
688.133401	0.040553
688.335649	0.040506
688.537878	0.040590
688.740089	0.040634
688.942281	0.040702
689.144456	0.040688
689.346612	0.040773
689.548750	0.040779
689.750870	0.040908
689.952971	0.040740
690.155055	0.040894
690.357120	0.040752
690.559167	0.040792
690.761195	0.040808
690.963206	0.040948
691.165198	0.041078
691.367172	0.041215
691.569128	0.041342
691.771065	0.041617
691.972984	0.041749
692.174885	0.042076
692.376768	0.042104
692.578633	0.042377
692.780479	0.042341
692.982308	0.042380
693.184118	0.042558
693.385909	0.042440
693.587683	0.042512
693.789438	0.042468
693.991175	0.042265
694.192894	0.042147
694.394595	0.041863
694.596277	0.042031
694.797941	0.041983
694.999587	0.041763
695.201215	0.041911
695.402824	0.041913
695.604416	0.041907
695.805989	0.042111
696.007543	0.042259
696.209080	0.042435
696.410598	0.042524
696.612099	0.042506
696.813580	0.042674
697.015044	0.042794
697.216490	0.042849
697.417917	0.042982
697.619326	0.042995
697.820717	0.043008
698.022089	0.043085
698.223444	0.043095
698.424780	0.043371
698.626098	0.043472
698.827397	0.043440
699.028679	0.043357
699.229942	0.043311
699.431187	0.043337
699.632414	0.043433
699.833622	0.043376
700.034813	0.043376
700.235985	0.043273
700.437139	0.043248
700.638274	0.043195
700.839392	0.043305
701.040491	0.043415
701.241572	0.043517
701.442635	0.043427
701.643679	0.043486
701.844706	0.043345
702.045714	0.043211
702.246704	0.043103
702.447675	0.043060
702.648629	0.042893
702.849564	0.042767
703.050481	0.042648
703.251380	0.042527
703.452260	0.042446
703.653122	0.042502
703.853966	0.042577
704.054792	0.042546
704.255600	0.042488
704.456389	0.042616
704.657160	0.042447
704.857913	0.042383
705.058648	0.042573
705.259365	0.042611
705.460063	0.042433
705.660743	0.042296
705.861405	0.042270
706.062048	0.042275
706.262674	0.042214
706.463281	0.042356
706.663870	0.042277
706.864441	0.042259
707.064993	0.042100
707.265527	0.042323
707.466043	0.042340
707.666541	0.042451
707.867021	0.042563
708.067482	0.042633
708.267925	0.042659
708.468350	0.042761
708.668757	0.042637
708.869145	0.042825
709.069516	0.042789
709.269868	0.042750
709.470201	0.042728
709.670517	0.042682
709.870814	0.042530
710.071093	0.042682
710.271354	0.042700
710.471597	0.042942
710.671821	0.042784
710.872028	0.042634
711.072216	0.042651
711.272385	0.042717
711.472537	0.042656
711.672670	0.042724
711.872785	0.042423
712.072882	0.042267
712.272961	0.042204
712.473021	0.042286
712.673063	0.042276
712.873087	0.042330
713.073093	0.042234
713.273081	0.042253
713.473050	0.042403
713.673001	0.042576
713.872934	0.042773
714.072849	0.042631
714.272745	0.042760
714.472623	0.043011
714.672483	0.043254
714.872325	0.043203
715.072148	0.043263
715.271954	0.043068
715.471741	0.042996
715.671509	0.042820
715.871260	0.042892
716.070992	0.042611
716.270707	0.042270
716.470403	0.042024
716.670080	0.042041
716.869740	0.041908
717.069381	0.042078
717.269004	0.041963
717.468609	0.041957
717.668195	0.041829
717.867764	0.041693
718.067314	0.041570
718.266846	0.041487
718.466360	0.041417
718.665855	0.041324
718.865332	0.041097
719.064791	0.041095
719.264232	0.041091
719.463655	0.041129
719.663059	0.041226
719.862445	0.041387
720.061813	0.041552
720.261163	0.041546
720.460494	0.041532
720.659807	0.041537
720.859102	0.041277
721.058379	0.041116
721.257638	0.041043
721.456878	0.041054
721.656100	0.041087
721.855304	0.040914
722.054490	0.040851
722.253657	0.040799
722.452806	0.040702
722.651937	0.040715
722.851050	0.040503
723.050145	0.040386
723.249221	0.040261
723.448279	0.039993
723.647319	0.039928
723.846340	0.039684
724.045344	0.039546
724.244329	0.039437
724.443296	0.039591
724.642245	0.039900
724.841175	0.039793
725.040088	0.039843
725.238982	0.039853
725.437857	0.039790
725.636715	0.039914
725.835554	0.039968
726.034376	0.039901
726.233179	0.039759
726.431963	0.039510
726.630730	0.039332
726.829478	0.039214
727.028208	0.039284
727.226920	0.039157
727.425614	0.038966
727.624289	0.038985
727.822946	0.038917
728.021585	0.038980
728.220206	0.039042
728.418808	0.039219
728.617392	0.039261
728.815958	0.039039
729.014506	0.039007
729.213036	0.038985
729.411547	0.038833
729.610040	0.038878
729.808515	0.038728
730.006972	0.038601
730.205410	0.038539
730.403831	0.038378
730.602233	0.038414
730.800616	0.038415
730.998982	0.038411
731.197329	0.038286
731.395658	0.038201
731.593969	0.038091
731.792262	0.037969
731.990536	0.037788
732.188793	0.037888
732.387031	0.037782
732.585250	0.037628
732.783452	0.037725
732.981635	0.037763
733.179800	0.037848
733.377947	0.037875
733.576076	0.037944
733.774186	0.038016
733.972278	0.037810
734.170352	0.037739
734.368408	0.037813
734.566446	0.037711
734.764465	0.037695
734.962466	0.037577
735.160449	0.037578
735.358413	0.037490
735.556360	0.037271
735.754288	0.037151
735.952198	0.037066
736.150090	0.037033
736.347963	0.036983
736.545818	0.036952
736.743655	0.037044
736.941474	0.036980
737.139275	0.037060
737.337057	0.037140
737.534821	0.037277
737.732567	0.037583
737.930295	0.037577
738.128005	0.037473
738.325696	0.037446
738.523369	0.037360
738.721024	0.037651
738.918660	0.037808
739.116279	0.038066
739.313879	0.038208
739.511461	0.038164
739.709024	0.038191
739.906570	0.038501
740.104097	0.038657
740.301606	0.038785
740.499097	0.038678
740.696569	0.038558
740.894024	0.038526
741.091460	0.038495
741.288878	0.038445
741.486277	0.038589
741.683659	0.038652
741.881022	0.038622
742.078367	0.038712
742.275694	0.038843
742.473002	0.038856
742.670293	0.038698
742.867565	0.038605
743.064819	0.038652
743.262054	0.038612
743.459272	0.038494
743.656471	0.038596
743.853652	0.038392
744.050815	0.038259
744.247959	0.038359
744.445085	0.038531
744.642194	0.038624
744.839283	0.038512
745.036355	0.038457
745.233408	0.038380
745.430444	0.038278
745.627461	0.038399
745.824459	0.038464
746.021440	0.038446
746.218402	0.038296
746.415346	0.038512
746.612272	0.038547
746.809180	0.038660
747.006069	0.038623
747.202940	0.038599
747.399793	0.038513
747.596628	0.038435
747.793444	0.038318
747.990243	0.038363
748.187023	0.038043
748.383784	0.038117
748.580528	0.038035
748.777253	0.037979
748.973960	0.038006
749.170649	0.037949
749.367320	0.037936
749.563973	0.038062
749.760607	0.038113
749.957223	0.037995
750.153821	0.037872
750.350400	0.037878
750.546962	0.037922
750.743505	0.037968
750.940030	0.038068
751.136536	0.038029
751.333025	0.037969
751.529495	0.037814
751.725947	0.037940
751.922381	0.038166
752.118796	0.038271
752.315194	0.038579
752.511573	0.038639
752.707934	0.038668
752.904276	0.038773
753.100601	0.038827
753.296907	0.039137
753.493195	0.039410
753.689465	0.039275
753.885716	0.039202
754.081949	0.038942
754.278164	0.038799
754.474361	0.038883
754.670540	0.038938
754.866700	0.038923
755.062843	0.038776
755.258967	0.038610
755.455072	0.038792
755.651160	0.038830
755.847229	0.038896
756.043280	0.038939
756.239313	0.038760
756.435328	0.038474
756.631324	0.038464
756.827302	0.038636
757.023262	0.038438
757.219204	0.038289
757.415127	0.038364
757.611033	0.038258
757.806920	0.038201
758.002788	0.038382
758.198639	0.038280
758.394471	0.038514
758.590286	0.038377
758.786081	0.038403
758.981859	0.038324
759.177619	0.037951
759.373360	0.038041
759.569083	0.038010
759.764788	0.037734
759.960474	0.037929
760.156143	0.037580
760.351793	0.037472
760.547425	0.037535
760.743038	0.037572
760.938634	0.037837
761.134211	0.037738
761.329770	0.037669
761.525311	0.037804
761.720833	0.037788
761.916338	0.037941
762.111824	0.037957
762.307292	0.037957
762.502741	0.037874
762.698173	0.037756
762.893586	0.037876
763.088981	0.038160
763.284358	0.038213
763.479716	0.038208
763.675057	0.037921
763.870379	0.037940
764.065683	0.037965
764.260968	0.037996
764.456236	0.038161
764.651485	0.038207
764.846716	0.037970
765.041929	0.037990
765.237123	0.037937
765.432299	0.038026
765.627457	0.038073
765.822597	0.037995
766.017719	0.037934
766.212822	0.037832
766.407907	0.037514
766.602974	0.037384
766.798023	0.037063
766.993054	0.037022
767.188066	0.037020
767.383060	0.036957
767.578036	0.037155
767.772993	0.037185
767.967933	0.037069
768.162854	0.037138
768.357757	0.037216
768.552642	0.037445
768.747508	0.037300
768.942356	0.037517
769.137186	0.037455
769.331998	0.037221
769.526792	0.037280
769.721567	0.037187
769.916324	0.037133
770.111063	0.037249
770.305784	0.037042
770.500486	0.037209
770.695171	0.036856
770.889837	0.036817
771.084484	0.036768
771.279114	0.036610
771.473725	0.036570
771.668318	0.036705
771.862893	0.036469
772.057450	0.036372
772.251988	0.036263
772.446509	0.036404
772.641011	0.036202
772.835494	0.036182
773.029960	0.036331
773.224407	0.036308
773.418836	0.036171
773.613247	0.036398
773.807640	0.036470
774.002014	0.036552
774.196370	0.036348
774.390708	0.036656
774.585028	0.036487
774.779330	0.036607
774.973613	0.036743
775.167878	0.036777
775.362125	0.036730
775.556354	0.036825
775.750564	0.036723
775.944756	0.037027
776.138930	0.036994
776.333086	0.037129
776.527223	0.037130
776.721343	0.037210
776.915444	0.037316
777.109526	0.037434
777.303591	0.037556
777.497637	0.037894
777.691666	0.037842
777.885676	0.037718
778.079667	0.037989
778.273641	0.037911
778.467596	0.037894
778.661533	0.037854
778.855452	0.037754
779.049352	0.037754
779.243235	0.037555
779.437099	0.037583
779.630945	0.037750
779.824773	0.037916
780.018582	0.038059
780.212373	0.037964
780.406146	0.038130
780.599901	0.038286
780.793638	0.038443
780.987356	0.038352
781.181056	0.038360
781.374738	0.038305
781.568402	0.038297
781.762047	0.038291
781.955674	0.038470
782.149283	0.038479
782.342874	0.038371
782.536447	0.038347
782.730001	0.038633
782.923537	0.038537
783.117055	0.038663
783.310555	0.038498
783.504036	0.038417
783.697499	0.038227
783.890944	0.037900
784.084371	0.037821
784.277780	0.037575
784.471170	0.037389
784.664542	0.037390
784.857896	0.037218
785.051231	0.037055
785.244549	0.036937
785.437848	0.037014
785.631129	0.037085
785.824392	0.037045
786.017636	0.037121
786.210863	0.037045
786.404071	0.037124
786.597260	0.036980
786.790432	0.037164
786.983585	0.037454
787.176721	0.037419
787.369838	0.037503
787.562936	0.037482
787.756017	0.037657
787.949079	0.037901
788.142123	0.037791
788.335149	0.038327
788.528156	0.038279
788.721146	0.038239
788.914117	0.038419
789.107070	0.038729
789.300005	0.039054
789.492921	0.039139
789.685819	0.039272
789.878699	0.039426
790.071561	0.039161
790.264405	0.039333
790.457230	0.039202
790.650037	0.039334
790.842826	0.039370
791.035597	0.039289
791.228349	0.039289
791.421084	0.039055
791.613800	0.039145
791.806497	0.039035
791.999177	0.038871
792.191838	0.038942
792.384481	0.038808
792.577106	0.038791
792.769713	0.038765
792.962301	0.038766
793.154871	0.038963
793.347423	0.038997
793.539957	0.039242
793.732473	0.039473
793.924970	0.039402
794.117449	0.039413
794.309910	0.039407
794.502353	0.039693
794.694777	0.039704
794.887183	0.039689
795.079571	0.039834
795.271941	0.040010
795.464293	0.040045
795.656626	0.040347
795.848941	0.040639
796.041238	0.040520
796.233516	0.040431
796.425777	0.040560
796.618019	0.040799
796.810243	0.040708
797.002449	0.040679
797.194636	0.040624
797.386805	0.040580
797.578956	0.040642
797.771089	0.040705
797.963204	0.040794
798.155300	0.040743
798.347378	0.040507
798.539438	0.040685
798.731480	0.040721
798.923503	0.040728
799.115509	0.040784
799.307496	0.040474
799.499465	0.040634
799.691415	0.040698
799.883348	0.040752
800.075262	0.040945
800.267158	0.041064
800.459035	0.041034
800.650895	0.040849
800.842736	0.040725
801.034559	0.040886
801.226364	0.040893
801.418150	0.040745
801.609919	0.040620
801.801669	0.040501
801.993401	0.040268
802.185114	0.040309
802.376810	0.040619
802.568487	0.040751
802.760146	0.040835
802.951787	0.040960
803.143409	0.041234
803.335014	0.041499
803.526600	0.041663
803.718168	0.041708
803.909717	0.041607
804.101249	0.041747
804.292762	0.041931
804.484257	0.042040
804.675734	0.041854
804.867192	0.041494
805.058632	0.041483
805.250054	0.041377
805.441458	0.041527
805.632844	0.041686
805.824211	0.041633
806.015561	0.041330
806.206891	0.041249
806.398204	0.041490
806.589499	0.041575
806.780775	0.041522
806.972033	0.041646
807.163273	0.041647
807.354495	0.041756
807.545698	0.041905
807.736883	0.042229
807.928050	0.042514
808.119199	0.042438
808.310329	0.042663
808.501441	0.042749
808.692535	0.042952
808.883611	0.042996
809.074669	0.043164
809.265708	0.043192
809.456729	0.043200
809.647732	0.043141
809.838717	0.043152
810.029683	0.043204
810.220632	0.043498
810.411562	0.043467
810.602474	0.043640
810.793367	0.043445
810.984242	0.043475
811.175100	0.043514
811.365938	0.043597
811.556759	0.043705
811.747562	0.043679
811.938346	0.043645
812.129112	0.043490
812.319860	0.043449
812.510589	0.043696
812.701300	0.043806
812.891994	0.043937
813.082668	0.043905
813.273325	0.044023
813.463964	0.043985
813.654584	0.043786
813.845186	0.044056
814.035769	0.044138
814.226335	0.043947
814.416882	0.044020
814.607411	0.044099
814.797922	0.044143
814.988415	0.044203
815.178889	0.044387
815.369345	0.044499
815.559783	0.044492
815.750203	0.044411
815.940605	0.044723
816.130988	0.044610
816.321353	0.044572
816.511700	0.044368
816.702028	0.044237
816.892339	0.044405
817.082631	0.044368
817.272905	0.044471
817.463161	0.044620
817.653398	0.044371
817.843617	0.044460
818.033819	0.044405
818.224001	0.044572
818.414166	0.044607
818.604312	0.044685
818.794440	0.045015
818.984550	0.045089
819.174642	0.045097
819.364716	0.045305
819.554771	0.045362
819.744808	0.045323
819.934827	0.045625
820.124827	0.046086
820.314810	0.045965
820.504774	0.045667
820.694720	0.045663
820.884647	0.045695
821.074557	0.045886
821.264448	0.045833
821.454321	0.045867
821.644176	0.045917
821.834012	0.045775
822.023831	0.045833
822.213631	0.045969
822.403413	0.045960
822.593176	0.046085
822.782922	0.045814
822.972649	0.046040
823.162358	0.046029
823.352049	0.045771
823.541721	0.045513
823.731376	0.045344
823.921012	0.045529
824.110629	0.045667
824.300229	0.045700
824.489811	0.045928
824.679374	0.045910
824.868919	0.046217
825.058445	0.046466
825.247954	0.046864
825.437444	0.047122
825.626916	0.047053
825.816370	0.047269
826.005806	0.047431
826.195223	0.047495
826.384622	0.047574
826.574003	0.047682
826.763366	0.047696
826.952711	0.047764
827.142037	0.047925
827.331345	0.047971
827.520635	0.047769
827.709906	0.047633
827.899160	0.047675
828.088395	0.047554
828.277612	0.047571
828.466810	0.047600
828.655991	0.047554
828.845153	0.047304
829.034297	0.047341
829.223423	0.047390
829.412531	0.047273
829.601620	0.047310
829.790691	0.047084
829.979744	0.046691
830.168779	0.046618
830.357795	0.046483
830.546793	0.046638
830.735773	0.046796
830.924735	0.046635
831.113679	0.046874
831.302604	0.046757
831.491511	0.047106
831.680400	0.047471
831.869271	0.047647
832.058123	0.047832
832.246957	0.048096
832.435773	0.048179
832.624571	0.048366
832.813351	0.048360
833.002112	0.048474
833.190855	0.048409
833.379580	0.048449
833.568287	0.048533
833.756975	0.048374
833.945645	0.048414
834.134297	0.048565
834.322931	0.048745
834.511547	0.048782
834.700144	0.048768
834.888723	0.048793
835.077284	0.048837
835.265826	0.048767
835.454351	0.048999
835.642857	0.048747
835.831345	0.048503
836.019815	0.048351
836.208266	0.048658
836.396699	0.048787
836.585114	0.049264
836.773511	0.049356
836.961890	0.049438
837.150250	0.049615
837.338592	0.050016
837.526916	0.050227
837.715222	0.050557
837.903510	0.050768
838.091779	0.051153
838.280030	0.051060
838.468263	0.051406
838.656477	0.051735
838.844674	0.051703
839.032852	0.051882
839.221012	0.052141
839.409153	0.052467
839.597277	0.052452
839.785382	0.052431
839.973469	0.052780
840.161538	0.052772
840.349589	0.052969
840.537621	0.053365
840.725635	0.053324
840.913631	0.053320
841.101609	0.053099
841.289568	0.053185
841.477509	0.053357
841.665432	0.053308
841.853337	0.053482
842.041224	0.053409
842.229092	0.053492
842.416942	0.053401
842.604774	0.053543
842.792588	0.053706
842.980383	0.053514
843.168160	0.053468
843.355919	0.053475
843.543660	0.053406
843.731382	0.053438
843.919087	0.053172
844.106773	0.053362
844.294441	0.053162
844.482090	0.053176
844.669722	0.053563
844.857335	0.053850
845.044930	0.053895
845.232507	0.054416
845.420065	0.054503
845.607605	0.054973
845.795127	0.055204
845.982631	0.055456
846.170117	0.055590
846.357584	0.055508
846.545033	0.055341
846.732464	0.055411
846.919877	0.055085
847.107272	0.055180
847.294648	0.055051
847.482006	0.055086
847.669346	0.055195
847.856667	0.055208
848.043971	0.055410
848.231256	0.055682
848.418523	0.055923
848.605771	0.056214
848.793002	0.056096
848.980214	0.056287
849.167408	0.056366
849.354584	0.056250
849.541742	0.056477
849.728881	0.056445
849.916002	0.056636
850.103105	0.056817
850.290190	0.056591
850.477256	0.056811
850.664304	0.056731
850.851334	0.056762
851.038346	0.057091
851.225340	0.057118
851.412315	0.057133
851.599272	0.057015
851.786211	0.056955
851.973132	0.056700
852.160034	0.056813
852.346918	0.056807
852.533784	0.056886
852.720632	0.056948
852.907462	0.056960
853.094273	0.057309
853.281066	0.057598
853.467841	0.057652
853.654598	0.058079
853.841336	0.058272
854.028056	0.058420
854.214758	0.058719
854.401442	0.058895
854.588107	0.059005
854.774755	0.058960
854.961384	0.059029
855.147995	0.059269
855.334587	0.059474
855.521162	0.059596
855.707718	0.059811
855.894256	0.059777
856.080775	0.059949
856.267277	0.060081
856.453760	0.060311
856.640225	0.060322
856.826672	0.059933
857.013101	0.060279
857.199511	0.060215
857.385903	0.060347
857.572277	0.060479
857.758633	0.060528
857.944970	0.060666
858.131290	0.060473
858.317591	0.060650
858.503873	0.061046
858.690138	0.060971
858.876384	0.061252
859.062612	0.061307
859.248822	0.061238
859.435014	0.061484
859.621188	0.061487
859.807343	0.061798
859.993480	0.061893
860.179599	0.061985
860.365699	0.061799
860.551781	0.061763
860.737846	0.061796
860.923891	0.061977
861.109919	0.061689
861.295929	0.061835
861.481920	0.061850
861.667893	0.061898
861.853848	0.061555
862.039784	0.061884
862.225702	0.062082
862.411603	0.062038
862.597484	0.061954
862.783348	0.062223
862.969193	0.062253
863.155021	0.062311
863.340830	0.062023
863.526620	0.062387
863.712393	0.062367
863.898147	0.062250
864.083883	0.062305
864.269601	0.062268
864.455301	0.062079
864.640982	0.062219
864.826645	0.062282
865.012290	0.062365
865.197917	0.062295
865.383526	0.062059
865.569116	0.062184
865.754688	0.062320
865.940242	0.062538
866.125777	0.062560
866.311295	0.062512
866.496794	0.062530
866.682275	0.062788
866.867737	0.062854
867.053182	0.063202
867.238608	0.063158
867.424016	0.062884
867.609406	0.063024
867.794778	0.063121
867.980131	0.063210
868.165466	0.062998
868.350783	0.063143
868.536082	0.063409
868.721362	0.063518
868.906625	0.063853
869.091869	0.064342
869.277094	0.064287
869.462302	0.064518
869.647491	0.064429
869.832662	0.064511
870.017815	0.064182
870.202950	0.064020
870.388066	0.063987
870.573165	0.063698
870.758245	0.063365
870.943306	0.063412
871.128350	0.063332
871.313375	0.063304
871.498382	0.063744
871.683371	0.063927
871.868342	0.064087
872.053294	0.063977
872.238229	0.063759
872.423144	0.063740
872.608042	0.063314
872.792922	0.063339
872.977783	0.063819
873.162626	0.063053
873.347451	0.063103
873.532258	0.062913
873.717046	0.063018
873.901816	0.063379
874.086568	0.063695
874.271302	0.064158
874.456017	0.064244
874.640715	0.063763
874.825394	0.064285
875.010055	0.064473
875.194697	0.064660
875.379322	0.064674
875.563928	0.064874
875.748516	0.065102
875.933085	0.065166
876.117637	0.065253
876.302170	0.065572
876.486685	0.065618
876.671182	0.065229
876.855661	0.065600
877.040121	0.065821
877.224563	0.065761
877.408987	0.065657
877.593393	0.065972
877.777780	0.066202
877.962150	0.066401
878.146501	0.066498
878.330833	0.066657
878.515148	0.066534
878.699444	0.066511
878.883722	0.066545
879.067982	0.066394
879.252224	0.065905
879.436447	0.065569
879.620653	0.065556
879.804840	0.065583
879.989008	0.065711
880.173159	0.065516
880.357291	0.065210
880.541405	0.064954
880.725501	0.064800
880.909579	0.065199
881.093638	0.064976
881.277680	0.064814
881.461703	0.064717
881.645707	0.064723
881.829694	0.064581
882.013662	0.064915
882.197612	0.065086
882.381544	0.065697
882.565458	0.065326
882.749353	0.065653
882.933230	0.065486
883.117089	0.065449
883.300930	0.065353
883.484753	0.065474
883.668557	0.065094
883.852343	0.065100
884.036111	0.064947
884.219861	0.065470
884.403592	0.065212
884.587305	0.065333
884.771000	0.065395
884.954677	0.065236
885.138335	0.065742
885.321976	0.066076
885.505598	0.066049
885.689201	0.065767
885.872787	0.065531
886.056354	0.065776
886.239904	0.065699
886.423434	0.065814
886.606947	0.066188
886.790442	0.065749
886.973918	0.065957
887.157376	0.066064
887.340816	0.066402
887.524237	0.066280
887.707641	0.065994
887.891026	0.066163
888.074393	0.066324
888.257741	0.066131
888.441072	0.066164
888.624384	0.065871
888.807678	0.065745
888.990954	0.065739
889.174211	0.065889
889.357451	0.066455
889.540672	0.066392
889.723875	0.065893
889.907059	0.066365
890.090226	0.066364
890.273374	0.066427
890.456504	0.066474
890.639616	0.066339
890.822709	0.066281
891.005785	0.066194
891.188842	0.066366
891.371881	0.066891
891.554901	0.066556
891.737904	0.066611
891.920888	0.066670
892.103854	0.066665
892.286802	0.066486
892.469731	0.066946
892.652643	0.066643
892.835536	0.066384
893.018410	0.066408
893.201267	0.066619
893.384106	0.066628
893.566926	0.066503
893.749728	0.066471
893.932511	0.067040
894.115277	0.066352
894.298024	0.066392
894.480753	0.066337
894.663464	0.066001
894.846157	0.065808
895.028831	0.065690
895.211487	0.065833
895.394125	0.065736
895.576745	0.065315
895.759346	0.065812
895.941930	0.066106
896.124495	0.066492
896.307041	0.066450
896.489570	0.066470
896.672080	0.066546
896.854573	0.066515
897.037046	0.066542
897.219502	0.066780
897.401940	0.066684
897.584359	0.066999
897.766760	0.066926
897.949143	0.066874
898.131507	0.066466
898.313854	0.066662
898.496182	0.066847
898.678492	0.066859
898.860783	0.066653
899.043057	0.066347
899.225312	0.066078
899.407549	0.066008
899.589768	0.066278
899.771968	0.066769
899.954151	0.066544
900.136315	0.065925
900.318461	0.066054
900.500588	0.066108
900.682698	0.066037
900.864789	0.065275
901.046862	0.065023
901.228917	0.064633
901.410953	0.064244
901.592971	0.064019
901.774972	0.063899
901.956953	0.063597
902.138917	0.063174
902.320862	0.063127
902.502790	0.063339
902.684699	0.063300
902.866589	0.063204
903.048462	0.063302
903.230316	0.063230
903.412152	0.063691
903.593970	0.063673
903.775770	0.063691
903.957551	0.063665
904.139314	0.063605
904.321059	0.063654
904.502786	0.063817
904.684494	0.063724
904.866185	0.064018
905.047857	0.063795
905.229510	0.063739
905.411146	0.063798
905.592763	0.063759
905.774363	0.064182
905.955943	0.063951
906.137506	0.063764
906.319051	0.063752
906.500577	0.063450
906.682085	0.063366
906.863575	0.063182
907.045046	0.063447
907.226500	0.063466
907.407935	0.062892
907.589352	0.062979
907.770750	0.062818
907.952131	0.062767
908.133493	0.062941
908.314837	0.062777
908.496163	0.062921
908.677470	0.062411
908.858760	0.062207
909.040031	0.062241
909.221284	0.061987
909.402518	0.061716
909.583735	0.061643
909.764933	0.061390
909.946113	0.061395
910.127275	0.061082
910.308418	0.061037
910.489544	0.060780
910.670651	0.061002
910.851740	0.061048
911.032810	0.061523
911.213863	0.060993
911.394897	0.060626
911.575913	0.060454
911.756911	0.060528
911.937890	0.060281
912.118851	0.060449
912.299794	0.060273
912.480719	0.060400
912.661626	0.060175
912.842514	0.060633
913.023384	0.060478
913.204236	0.060334
913.385070	0.060183
913.565886	0.060314
913.746683	0.060371
913.927462	0.059809
914.108223	0.059379
914.288965	0.058962
914.469690	0.058613
914.650396	0.058651
914.831084	0.058376
915.011754	0.058286
915.192405	0.057771
915.373038	0.057296
915.553653	0.056943
915.734250	0.056716
915.914829	0.056362
916.095389	0.055909
916.275931	0.055838
916.456455	0.055385
916.636961	0.054739
916.817448	0.054866
916.997917	0.054373
917.178368	0.054390
917.358801	0.053790
917.539216	0.053708
917.719612	0.053566
917.899990	0.052982
918.080350	0.053156
918.260692	0.053195
918.441015	0.052694
918.621320	0.053095
918.801607	0.052643
918.981876	0.052734
919.162127	0.052472
919.342359	0.052322
919.522573	0.052377
919.702769	0.051991
919.882947	0.051978
920.063106	0.052000
920.243247	0.051401
920.423370	0.051565
920.603475	0.051325
920.783562	0.051522
920.963630	0.051232
921.143680	0.051037
921.323712	0.050726
921.503725	0.050432
921.683721	0.050107
921.863698	0.049470
922.043657	0.049057
922.223598	0.048851
922.403520	0.048647
922.583424	0.048488
922.763311	0.048168
922.943178	0.048188
923.123028	0.047469
923.302859	0.047348
923.482673	0.047541
923.662467	0.047504
923.842244	0.047171
924.022003	0.046844
924.201743	0.046255
924.381465	0.046294
924.561169	0.046123
924.740854	0.046014
924.920522	0.045673
925.100171	0.046212
925.279802	0.045840
925.459414	0.045867
925.639009	0.045596
925.818585	0.046155
925.998143	0.045704
926.177683	0.045398
926.357205	0.045359
926.536708	0.045015
926.716193	0.043924
926.895660	0.044090
927.075109	0.043583
927.254539	0.043347
927.433951	0.042677
927.613345	0.042416
927.792721	0.042279
927.972079	0.042285
928.151418	0.042143
928.330739	0.042157
928.510042	0.041563
928.689327	0.041645
928.868593	0.041659
929.047841	0.041388
929.227071	0.041339
929.406283	0.041435
929.585476	0.041004
929.764652	0.040695
929.943809	0.040149
930.122948	0.040077
930.302068	0.038892
930.481171	0.038068
930.660255	0.038136
930.839321	0.037726
931.018369	0.037397
931.197398	0.037270
931.376409	0.037033
931.555402	0.037417
931.734377	0.036996
931.913334	0.037315
932.092272	0.037476
932.271192	0.036576
932.450094	0.036072
932.628978	0.035673
932.807844	0.035005
932.986691	0.035167
933.165520	0.034506
933.344331	0.034155
933.523123	0.034249
933.701898	0.033674
933.880654	0.033825
934.059392	0.033786
934.238111	0.033056
934.416813	0.033191
934.595496	0.032516
934.774161	0.032405
934.952808	0.031623
935.131437	0.030598
935.310047	0.030511
935.488639	0.030294
935.667213	0.030069
935.845769	0.029417
936.024306	0.028534
936.202825	0.027431
936.381326	0.026312
936.559809	0.026636
936.738274	0.026975
936.916720	0.026213
937.095148	0.025615
937.273558	0.024731
937.451950	0.025188
937.630323	0.025951
937.808678	0.026666
937.987015	0.026870
938.165334	0.026129
938.343635	0.025460
938.521917	0.025719
938.700181	0.026011
938.878427	0.025763
939.056655	0.025251
939.234864	0.024413
939.413055	0.023489
939.591228	0.023762
939.769383	0.023865
939.947519	0.023664
940.125638	0.022896
940.303738	0.022415
940.481820	0.022834
940.659883	0.022125
940.837929	0.021261
941.015956	0.021538
941.193965	0.020435
941.371955	0.019168
941.549928	0.018843
941.727882	0.018511
941.905818	0.017175
942.083736	0.016339
942.261636	0.016088
942.439517	0.015916
942.617380	0.015399
942.795225	0.015105
942.973052	0.015786
943.150860	0.015279
943.328651	0.014678
943.506423	0.015131
943.684176	0.014789
943.861912	0.014771
944.039629	0.014940
944.217328	0.014303
944.395009	0.013877
944.572672	0.013643
944.750317	0.013659
944.927943	0.013409
945.105551	0.012464
945.283141	0.012052
945.460712	0.011611
945.638265	0.011547
945.815801	0.011613
945.993317	0.012538
946.170816	0.012139
946.348297	0.012450
946.525759	0.012371
946.703203	0.012933
946.880629	0.013189
947.058036	0.012896
947.235425	0.011713
947.412797	0.011906
947.590149	0.010494
947.767484	0.009698
947.944800	0.009571
948.122099	0.010524
948.299379	0.008905
948.476640	0.008188
948.653884	0.009077
948.831109	0.008932
949.008316	0.008481
949.185505	0.009078
949.362676	0.010486
949.539828	0.010053
949.716962	0.009060
949.894078	0.009594
950.071176	0.010102
950.248256	0.010057
950.425317	0.010800
950.602360	0.009359
950.779385	0.008118
950.956391	0.006382
951.133380	0.006055
951.310350	0.005627
951.487302	0.006587
951.664235	0.007263
951.841151	0.006141
952.018048	0.005677
952.194927	0.005246
952.371788	0.005561
952.548631	0.006331
952.725455	0.006494
952.902261	0.006869
953.079049	0.007059
953.255819	0.006826
953.432570	0.007155
953.609303	0.008149
953.786018	0.008924
953.962715	0.010439
954.139394	0.009863
954.316054	0.010071
954.492696	0.010416
954.669320	0.009548
954.845926	0.008091
955.022513	0.008327
955.199083	0.007231
955.375634	0.007562
955.552166	0.006395
955.728681	0.006658
955.905177	0.005969
956.081655	0.007211
956.258115	0.007398
956.434557	0.008436
956.610980	0.009777
956.787385	0.009085
956.963772	0.009924
957.140141	0.009699
957.316492	0.009887
957.492824	0.010236
957.669138	0.008793
957.845434	0.009189
958.021712	0.008607
958.197971	0.006159
958.374212	0.006740
958.550435	0.006945
958.726640	0.007336
958.902826	0.007260
959.078995	0.006637
959.255145	0.005773
959.431277	0.006188
959.607390	0.008313
959.783486	0.011458
959.959563	0.013489
960.135622	0.014260
960.311662	0.014975
960.487685	0.015473
960.663689	0.016615
960.839675	0.017844
961.015643	0.016685
961.191593	0.014847
961.367524	0.014157
961.543437	0.011967
961.719332	0.011341
961.895209	0.010281
962.071067	0.010567
962.246907	0.010236
962.422730	0.011611
962.598533	0.013326
962.774319	0.015224
962.950086	0.011832
963.125835	0.015460
963.301566	0.015743
963.477279	0.015745
963.652973	0.016435
963.828650	0.016261
964.004308	0.014165
964.179947	0.014119
964.355569	0.013211
964.531172	0.015941
964.706757	0.014695
964.882324	0.014766
965.057873	0.016288
965.233403	0.016673
965.408916	0.016626
965.584410	0.017996
965.759885	0.017434
965.935343	0.017758
966.110782	0.018178
966.286203	0.018622
966.461606	0.019723
966.636991	0.019375
966.812357	0.018651
966.987705	0.019570
967.163035	0.019910
967.338347	0.019936
967.513641	0.019984
967.688916	0.018950
967.864173	0.017653
968.039412	0.016265
968.214632	0.015919
968.389835	0.015398
968.565019	0.015893
968.740185	0.014557
968.915333	0.015336
969.090462	0.015914
969.265573	0.017197
969.440667	0.018328
969.615741	0.018839
969.790798	0.018527
969.965836	0.019366
970.140856	0.017781
970.315858	0.017962
970.490842	0.017867
970.665808	0.017585
970.840755	0.016670
971.015684	0.016377
971.190595	0.016107
971.365487	0.016045
971.540362	0.015882
971.715218	0.017254
971.890056	0.019089
972.064875	0.018721
972.239677	0.018779
972.414460	0.019748
972.589225	0.018114
972.763972	0.019060
972.938700	0.020319
973.113411	0.020310
973.288103	0.018686
973.462777	0.018797
973.637432	0.017775
973.812070	0.019760
973.986689	0.018274
974.161290	0.019846
974.335873	0.019210
974.510437	0.018909
974.684984	0.018692
974.859512	0.020846
975.034022	0.019510
975.208513	0.020099
975.382987	0.016554
975.557442	0.019331
975.731879	0.019661
975.906298	0.019222
976.080698	0.018996
976.255080	0.020989
976.429445	0.020384
976.603790	0.020744
976.778118	0.021764
976.952427	0.024326
977.126719	0.020659
977.300992	0.019665
977.475246	0.019371
977.649483	0.018900
977.823701	0.015423
977.997901	0.016046
978.172083	0.015381
978.346247	0.014199
978.520392	0.014075
978.694519	0.017302
978.868628	0.017283
979.042719	0.017923
979.216791	0.019283
979.390845	0.022613
979.564882	0.022837
979.738899	0.022819
979.912899	0.024214
980.086880	0.023162
980.260843	0.020108
980.434788	0.020863
980.608715	0.019528
980.782623	0.018219
980.956514	0.017963
981.130386	0.016894
981.304240	0.017574
981.478075	0.016995
981.651892	0.016637
981.825692	0.017275
981.999472	0.017562
982.173235	0.019652
982.346980	0.019309
982.520706	0.017577
982.694414	0.018485
982.868104	0.018198
983.041775	0.018325
983.215428	0.019972
983.389064	0.021036
983.562680	0.020375
983.736279	0.021131
983.909860	0.022042
984.083422	0.022080
984.256966	0.021210
984.430491	0.021625
984.603999	0.021506
984.777488	0.020819
984.950959	0.019158
985.124412	0.018682
985.297847	0.016851
985.471263	0.016347
985.644661	0.019953
985.818041	0.019921
985.991403	0.018918
986.164747	0.019445
986.338072	0.019298
986.511379	0.021461
986.684668	0.021584
986.857938	0.020472
987.031191	0.021177
987.204425	0.018840
987.377641	0.019904
987.550839	0.020291
987.724018	0.019995
987.897179	0.020439
988.070322	0.020011
988.243447	0.020552
988.416554	0.022726
988.589642	0.022177
988.762712	0.021954
988.935764	0.019965
989.108798	0.021146
989.281813	0.021831
989.454811	0.021676
989.627790	0.021430
989.800751	0.022898
989.973693	0.022407
990.146617	0.020650
990.319524	0.019676
990.492412	0.019420
990.665281	0.018296
990.838133	0.016990
991.010966	0.015964
991.183781	0.017008
991.356578	0.015910
991.529356	0.017565
991.702117	0.018643
991.874859	0.017402
992.047583	0.017476
992.220288	0.017134
992.392976	0.016974
992.565645	0.017523
992.738296	0.016687
992.910929	0.014476
993.083543	0.012822
993.256139	0.014593
993.428718	0.017424
993.601277	0.018709
993.773819	0.019798
993.946342	0.018396
994.118848	0.019535
994.291335	0.018886
994.463803	0.020164
994.636254	0.019801
994.808686	0.019323
994.981100	0.018789
995.153496	0.018941
995.325874	0.017450
995.498233	0.019002
995.670574	0.017937
995.842897	0.018553
996.015202	0.018799
996.187488	0.019477
996.359757	0.018675
996.532007	0.016742
996.704239	0.017089
996.876452	0.017903
997.048648	0.017694
997.220825	0.016993
997.392984	0.016697
997.565124	0.016777
997.737247	0.019071
997.909351	0.020341
998.081437	0.022225
998.253505	0.021089
998.425554	0.021153
998.597586	0.023034
998.769599	0.022911
998.941594	0.023679
999.113571	0.025924
999.285529	0.024011
999.457469	0.023961
999.629391	0.023280
999.801295	0.025197
999.973181	0.025124
1000.145048	0.023255
1000.316897	0.021724
1000.488728	0.020372
1000.660541	0.019347
1000.832335	0.018336
1001.004111	0.018149
1001.175869	0.017594
1001.347609	0.016080
1001.519331	0.014915
1001.691034	0.014544
1001.862719	0.016348
1002.034386	0.016160
1002.206035	0.015024
1002.377665	0.015409
1002.549277	0.013456
1002.720871	0.013763
1002.892447	0.014083
1003.064004	0.013515
1003.235544	0.014352
1003.407065	0.013849
1003.578568	0.014111
1003.750052	0.015596
1003.921519	0.015533
1004.092967	0.017111
1004.264397	0.017029
1004.435809	0.016797
1004.607202	0.017550
1004.778577	0.016222
1004.949934	0.016968
1005.121273	0.017529
1005.292594	0.015959
1005.463896	0.014682
1005.635180	0.013133
1005.806446	0.013700
1005.977694	0.013737
1006.148923	0.016098
1006.320135	0.017566
1006.491328	0.015318
1006.662503	0.016213
1006.833659	0.016689
1007.004798	0.019183
1007.175918	0.021261
1007.347020	0.020361
1007.518103	0.020464
1007.689169	0.019595
1007.860216	0.019162
1008.031245	0.020466
1008.202256	0.019400
1008.373248	0.019825
1008.544223	0.019255
1008.715179	0.019562
1008.886117	0.019916
1009.057036	0.020302
1009.227938	0.017563
1009.398821	0.017995
1009.569686	0.018194
1009.740533	0.018359
1009.911361	0.018801
1010.082172	0.017719
1010.252964	0.016965
1010.423738	0.018061
1010.594493	0.018396
1010.765231	0.020405
1010.935950	0.020357
1011.106651	0.021138
1011.277334	0.021704
1011.447998	0.019699
1011.618645	0.019015
1011.789273	0.018056
1011.959882	0.017168
1012.130474	0.017130
1012.301048	0.017325
1012.471603	0.016509
1012.642140	0.015033
1012.812658	0.015071
1012.983159	0.016688
1013.153641	0.018819
1013.324105	0.018655
1013.494551	0.017757
1013.664979	0.015587
1013.835388	0.016366
1014.005779	0.016882
1014.176152	0.019446
1014.346507	0.018173
1014.516843	0.017907
1014.687162	0.016412
1014.857462	0.017260
1015.027744	0.018067
1015.198007	0.019667
1015.368252	0.020663
1015.538480	0.020258
1015.708689	0.020722
1015.878879	0.022748
1016.049052	0.023173
1016.219206	0.022321
1016.389342	0.023264
1016.559460	0.024265
1016.729559	0.025188
1016.899641	0.022938
1017.069704	0.023902
1017.239749	0.022807
1017.409775	0.022455
1017.579784	0.021467
1017.749774	0.022496
1017.919746	0.020823
1018.089700	0.019998
1018.259635	0.018515
1018.429553	0.019728
1018.599452	0.018011
1018.769333	0.017282
1018.939195	0.016550
1019.109040	0.016490
1019.278866	0.016543
1019.448674	0.016777
1019.618464	0.016352
1019.788235	0.015611
1019.957989	0.015806
1020.127724	0.016839
1020.297441	0.018186
1020.467139	0.018125
1020.636820	0.018085
1020.806482	0.017791
1020.976126	0.018445
1021.145752	0.019658
1021.315359	0.020173
1021.484948	0.019740
1021.654519	0.018657
1021.824072	0.017447
1021.993607	0.015976
1022.163123	0.016351
1022.332621	0.017827
1022.502101	0.017772
1022.671563	0.017237
1022.841007	0.019504
1023.010432	0.019762
1023.179839	0.021795
1023.349228	0.021681
1023.518598	0.023332
1023.687951	0.023490
1023.857285	0.022787
1024.026601	0.022008
1024.195899	0.020520
1024.365178	0.017652
1024.534439	0.016717
1024.703682	0.015451
1024.872907	0.014847
1025.042114	0.014644
1025.211302	0.015192
1025.380472	0.014860
1025.549624	0.014774
1025.718758	0.016411
1025.887873	0.016954
1026.056970	0.017833
1026.226049	0.018535
1026.395110	0.020827
1026.564153	0.020283
1026.733177	0.019983
1026.902183	0.020418
1027.071171	0.021644
1027.240141	0.022362
1027.409092	0.022356
1027.578026	0.021476
1027.746940	0.021797
1027.915837	0.020643
1028.084716	0.021083
1028.253576	0.020695
1028.422418	0.020553
1028.591242	0.020636
1028.760048	0.017664
1028.928835	0.017753
1029.097604	0.018580
1029.266355	0.018658
1029.435088	0.018784
1029.603803	0.018982
1029.772499	0.018416
1029.941177	0.017171
1030.109837	0.016258
1030.278478	0.018983
1030.447102	0.018195
1030.615707	0.019144
1030.784294	0.019548
1030.952863	0.018356
1031.121413	0.018283
1031.289945	0.019759
1031.458460	0.021825
1031.626955	0.022237
1031.795433	0.021894
1031.963892	0.023986
1032.132334	0.022391
1032.300756	0.019323
1032.469161	0.019958
1032.637548	0.019454
1032.805916	0.018920
1032.974266	0.018451
1033.142598	0.018340
1033.310911	0.018814
1033.479207	0.017857
1033.647484	0.018032
1033.815743	0.021467
1033.983983	0.021737
1034.152206	0.021113
1034.320410	0.020577
1034.488596	0.020892
1034.656764	0.020273
1034.824914	0.019549
1034.993045	0.018317
1035.161158	0.017415
1035.329253	0.015575
1035.497330	0.016198
1035.665388	0.017003
1035.833428	0.016117
1036.001450	0.014612
1036.169454	0.014290
1036.337440	0.014971
1036.505407	0.016797
1036.673356	0.017163
1036.841287	0.018275
1037.009200	0.016597
1037.177094	0.016712
1037.344970	0.017507
1037.512828	0.017186
1037.680668	0.017398
1037.848489	0.017060
1038.016293	0.016422
1038.184078	0.016325
1038.351845	0.016530
1038.519593	0.018805
1038.687324	0.020662
1038.855036	0.021834
1039.022730	0.024021
1039.190406	0.026357
1039.358063	0.027499
1039.525702	0.026792
1039.693323	0.027252
1039.860926	0.025708
1040.028511	0.024220
1040.196077	0.024839
1040.363625	0.023964
1040.531155	0.022177
1040.698667	0.020718
1040.866161	0.019436
1041.033636	0.020651
1041.201093	0.020225
1041.368532	0.020498
1041.535952	0.020123
1041.703355	0.017707
1041.870739	0.018066
1042.038105	0.019992
1042.205452	0.021363
1042.372782	0.021441
1042.540093	0.022467
1042.707386	0.024500
1042.874661	0.026632
1043.041918	0.028146
1043.209156	0.028904
1043.376376	0.027644
1043.543578	0.027299
1043.710762	0.025609
1043.877927	0.025145
1044.045074	0.023573
1044.212203	0.022608
1044.379314	0.020580
1044.546407	0.018705
1044.713481	0.017939
1044.880537	0.018883
1045.047575	0.017642
1045.214595	0.018425
1045.381596	0.017462
1045.548579	0.018002
1045.715544	0.017925
1045.882491	0.018887
1046.049420	0.019867
1046.216330	0.020200
1046.383222	0.018632
1046.550096	0.018582
1046.716951	0.018695
1046.883789	0.018526
1047.050608	0.019074
1047.217409	0.016525
1047.384192	0.015852
1047.550956	0.015961
1047.717703	0.014616
1047.884431	0.017295
1048.051140	0.016597
1048.217832	0.017584
1048.384505	0.018364
1048.551161	0.015275
1048.717798	0.019415
1048.884416	0.018002
1049.051017	0.018041
1049.217599	0.019927
1049.384163	0.018131
1049.550709	0.020475
1049.717237	0.019956
1049.883746	0.019939
1050.050237	0.023519
1050.216710	0.021241
1050.383165	0.022948
1050.549601	0.023276
1050.716019	0.023609
1050.882420	0.023358
1051.048801	0.022208
1051.215165	0.020415
1051.381510	0.020649
1051.547837	0.020499
1051.714146	0.020734
1051.880437	0.020265
1052.046709	0.019215
1052.212964	0.021061
1052.379200	0.022220
1052.545417	0.022624
1052.711617	0.023933
1052.877798	0.024942
1053.043961	0.024595
1053.210106	0.023046
1053.376233	0.022425
1053.542341	0.023188
1053.708432	0.018633
1053.874504	0.018065
1054.040557	0.017115
1054.206593	0.016389
1054.372610	0.015870
1054.538609	0.014856
1054.704590	0.015382
1054.870553	0.016985
1055.036497	0.016433
1055.202424	0.018507
1055.368331	0.019274
1055.534221	0.020588
1055.700093	0.020927
1055.865946	0.020324
1056.031781	0.020554
1056.197598	0.022704
1056.363397	0.021164
1056.529177	0.021405
1056.694939	0.022160
1056.860683	0.021736
1057.026409	0.020506
1057.192116	0.021303
1057.357806	0.022681
1057.523477	0.022920
1057.689130	0.020535
1057.854764	0.021136
1058.020381	0.021610
1058.185979	0.020127
1058.351559	0.020047
1058.517120	0.018121
1058.682664	0.016995
1058.848189	0.016595
1059.013696	0.015545
1059.179185	0.015539
1059.344656	0.014772
1059.510108	0.013812
1059.675542	0.012273
1059.840958	0.012898
1060.006356	0.014498
1060.171735	0.013633
1060.337096	0.014728
1060.502439	0.014672
1060.667764	0.015657
1060.833071	0.017484
1060.998359	0.017652
1061.163629	0.018505
1061.328881	0.017197
1061.494115	0.017739
1061.659330	0.018302
1061.824527	0.015761
1061.989706	0.016832
1062.154867	0.017144
1062.320010	0.016806
1062.485134	0.017674
1062.650240	0.018372
1062.815328	0.018205
1062.980398	0.017910
1063.145449	0.018691
1063.310482	0.018583
1063.475497	0.019069
1063.640494	0.019582
1063.805473	0.018067
1063.970433	0.018174
1064.135375	0.016855
1064.300299	0.018950
1064.465204	0.019944
1064.630092	0.019959
1064.794961	0.020028
1064.959812	0.020274
1065.124645	0.018784
1065.289459	0.019518
1065.454256	0.019475
1065.619034	0.022250
1065.783793	0.020349
1065.948535	0.020127
1066.113258	0.020217
1066.277964	0.021541
1066.442651	0.020521
1066.607319	0.020053
1066.771970	0.020764
1066.936602	0.018885
1067.101216	0.018043
1067.265812	0.020645
1067.430389	0.019414
1067.594949	0.017597
1067.759490	0.016344
1067.924013	0.016992
1068.088518	0.019854
1068.253004	0.020656
1068.417472	0.022307
1068.581922	0.020716
1068.746354	0.018927
1068.910768	0.018929
1069.075163	0.018812
1069.239540	0.021439
1069.403899	0.020059
1069.568240	0.017871
1069.732562	0.014749
1069.896866	0.014061
1070.061152	0.014641
1070.225420	0.013538
1070.389670	0.014992
1070.553901	0.017189
1070.718114	0.013188
1070.882309	0.013301
1071.046486	0.014201
1071.210644	0.016080
1071.374784	0.016912
1071.538906	0.015632
1071.703010	0.017244
1071.867096	0.015433
1072.031163	0.015835
1072.195212	0.018594
1072.359243	0.019013
1072.523256	0.017454
1072.687250	0.015027
1072.851226	0.014181
1073.015184	0.016650
1073.179124	0.014061
1073.343045	0.013923
1073.506949	0.012138
1073.670834	0.010634
1073.834701	0.009447
1073.998549	0.010599
1074.162380	0.012220
1074.326192	0.013522
1074.489986	0.012824
1074.653761	0.014745
1074.817519	0.014643
1074.981258	0.014066
1075.144979	0.014855
1075.308682	0.016612
1075.472367	0.016760
1075.636033	0.017979
1075.799681	0.018113
1075.963311	0.016456
1076.126923	0.014323
1076.290516	0.015340
1076.454092	0.016908
1076.617649	0.015615
1076.781187	0.015107
1076.944708	0.013005
1077.108210	0.010346
1077.271695	0.008956
1077.435160	0.010101
1077.598608	0.011544
1077.762038	0.010731
1077.925449	0.010316
1078.088842	0.012158
1078.252217	0.012107
1078.415573	0.013673
1078.578912	0.014960
1078.742232	0.016646
1078.905534	0.015884
1079.068817	0.014977
1079.232083	0.014313
1079.395330	0.012621
1079.558559	0.011223
1079.721770	0.009481
1079.884962	0.010291
1080.048136	0.010910
1080.211293	0.009133
1080.374430	0.009928
1080.537550	0.010555
1080.700651	0.011498
1080.863735	0.012262
1081.026800	0.010763
1081.189846	0.010712
1081.352875	0.007672
1081.515885	0.005465
1081.678877	0.005380
1081.841851	0.004870
1082.004807	0.007936
1082.167744	0.009477
1082.330663	0.007674
1082.493564	0.010100
1082.656447	0.012999
1082.819312	0.015708
1082.982158	0.018012
1083.144986	0.018672
1083.307796	0.019600
1083.470587	0.016705
1083.633361	0.015494
1083.796116	0.018591
1083.958853	0.019623
1084.121571	0.019577
1084.284272	0.019718
1084.446954	0.019213
1084.609618	0.017775
1084.772264	0.018608
1084.934892	0.017565
1085.097501	0.016952
1085.260092	0.014871
1085.422665	0.014112
1085.585220	0.011740
1085.747756	0.010847
1085.910274	0.010279
1086.072774	0.010482
1086.235256	0.009856
1086.397720	0.009956
1086.560165	0.009391
1086.722592	0.009788
1086.885001	0.006886
1087.047392	0.008408
1087.209764	0.009395
1087.372119	0.009876
1087.534455	0.009657
1087.696772	0.008375
1087.859072	0.008603
1088.021353	0.007965
1088.183616	0.010263
1088.345861	0.013301
1088.508088	0.014590
1088.670296	0.014024
1088.832486	0.012259
1088.994658	0.013437
1089.156812	0.014541
1089.318948	0.015027
1089.481065	0.017290
1089.643164	0.015500
1089.805245	0.012980
1089.967308	0.012690
1090.129352	0.010855
1090.291378	0.011317
1090.453386	0.010033
1090.615376	0.009042
1090.777347	0.009735
1090.939301	0.009280
1091.101236	0.007397
1091.263153	0.006785
1091.425051	0.002639
1091.586932	0.005224
1091.748794	0.007423
1091.910638	0.008827
1092.072463	0.010391
1092.234271	0.008687
1092.396060	0.009810
1092.557831	0.013337
1092.719584	0.014682
1092.881319	0.016341
1093.043035	0.016591
1093.204733	0.017879
1093.366413	0.016730
1093.528075	0.014577
1093.689718	0.016514
1093.851343	0.013454
1094.012950	0.010542
1094.174539	0.011436
1094.336110	0.013048
1094.497662	0.009604
1094.659196	0.006817
1094.820712	0.005089
1094.982210	0.004069
1095.143689	0.003435
1095.305151	0.004880
1095.466594	0.005613
1095.628018	0.003817
1095.789425	0.000473
1095.950813	0.003230
1096.112183	0.005046
1096.273535	0.005540
1096.434869	0.007138
1096.596184	0.005373
1096.757482	0.005614
1096.918761	0.004013
1097.080021	0.006300
1097.241264	0.009537
1097.402488	0.005393
1097.563694	0.003205
1097.724882	0.005162
1097.886052	0.004264
1098.047203	0.004634
1098.208336	0.005306
1098.369451	0.006186
1098.530548	0.006219
1098.691627	0.004481
1098.852687	0.008859
1099.013729	0.010719
1099.174753	0.008812
1099.335758	0.008807
1099.496746	0.011508
1099.657715	0.010399
1099.818666	0.010196
1099.979599	0.010092
1100.140513	0.008355
1100.301409	0.010093
1100.462287	0.008149
1100.623147	0.010187
1100.783989	0.010658
1100.944812	0.007184
1101.105617	0.007160
1101.266404	0.004895
1101.427173	0.001315
1101.587923	0.003587
1101.748656	-0.000188
1101.909370	0.001069
1102.070066	0.002642
1102.230743	0.003152
1102.391403	0.000727
1102.552044	-0.001690
1102.712667	0.000570
1102.873271	0.001432
1103.033858	0.003827
1103.194426	0.000733
1103.354976	0.001802
1103.515508	-0.002563
1103.676021	-0.002941
1103.836517	0.001621
1103.996994	0.003320
1104.157453	0.005984
1104.317893	0.006988
1104.478316	0.004609
1104.638720	0.005954
1104.799106	0.002168
1104.959474	0.004123
1105.119823	0.003327
1105.280155	0.003082
1105.440468	0.001981
1105.600763	0.001613
1105.761039	0.001898
1105.921298	0.000874
1106.081538	0.002207
1106.241760	0.005621
1106.401964	0.005497
1106.562149	0.005830
1106.722316	0.005928
1106.882465	0.005910
1107.042596	0.003652
1107.202709	0.004332
1107.362803	0.006906
1107.522879	0.010209
1107.682937	0.005657
1107.842977	0.004319
1108.002999	0.004242
1108.163002	0.004829
1108.322987	0.005980
1108.482954	0.004938
1108.642902	0.004831
1108.802833	0.004097
1108.962745	0.002214
1109.122639	0.006533
1109.282515	0.007277
1109.442372	0.008535
1109.602211	0.009826
1109.762032	0.007366
1109.921835	0.008441
1110.081620	0.010990
1110.241386	0.009462
1110.401134	0.009919
1110.560864	0.007527
1110.720576	0.007079
1110.880269	0.004522
1111.039945	0.003540
1111.199602	0.008499
1111.359240	0.010781
1111.518861	0.004340
1111.678463	0.008147
1111.838047	0.007887
1111.997613	0.010771
1112.157161	0.010188
1112.316690	0.007761
1112.476202	0.009613
1112.635695	0.007371
1112.795169	0.003615
1112.954626	0.009022
1113.114064	0.005223
1113.273484	0.004061
1113.432886	0.003394
1113.592270	0.006186
1113.751635	0.011546
1113.910983	0.007721
1114.070312	0.005961
1114.229622	0.008326
1114.388915	0.006260
1114.548189	0.005340
1114.707445	0.004244
1114.866683	0.003700
1115.025903	0.003755
1115.185104	0.001042
1115.344287	0.002664
1115.503452	0.008128
1115.662599	0.013293
1115.821727	0.011953
1115.980838	0.015215
1116.139930	0.015513
1116.299004	0.013514
1116.458059	0.009527
1116.617097	0.011363
1116.776116	0.008779
1116.935117	0.004767
1117.094099	0.004994
1117.253064	0.005717
1117.412010	0.004429
1117.570938	0.006708
1117.729848	0.008258
1117.888740	0.014290
1118.047613	0.015984
1118.206468	0.018653
1118.365305	0.020196
1118.524124	0.018103
1118.682924	0.016675
1118.841707	0.015815
1119.000471	0.014499
1119.159216	0.013747
1119.317944	0.007751
1119.476653	0.002027
1119.635344	-0.004318
1119.794017	-0.004582
1119.952672	-0.007545
1120.111308	-0.006388
1120.269927	-0.004493
1120.428527	-0.005975
1120.587108	-0.006587
1120.745672	-0.006908
1120.904217	-0.001546
1121.062744	0.001929
1121.221253	0.000154
1121.379744	-0.004297
1121.538216	-0.003469
1121.696671	-0.004489
1121.855107	-0.007212
1122.013524	-0.001535
1122.171924	0.001929
1122.330305	0.001913
1122.488668	0.003115
1122.647013	0.003156
1122.805340	0.007306
1122.963648	0.006982
1123.121938	0.003672
1123.280210	0.005692
1123.438464	0.002425
1123.596700	0.002561
1123.754917	0.000181
1123.913116	-0.002570
1124.071297	-0.000606
1124.229459	-0.002359
1124.387604	-0.004988
1124.545730	-0.004165
1124.703838	-0.003270
1124.861928	-0.003354
1125.019999	-0.005991
1125.178052	-0.007599
1125.336088	-0.004176
1125.494104	-0.000766
1125.652103	0.002540
1125.810083	0.004595
1125.968045	0.008672
1126.125989	0.009485
1126.283915	0.009826
1126.441823	0.011574
1126.599712	0.013471
1126.757583	0.013498
1126.915436	0.010607
1127.073270	0.011009
1127.231087	0.013819
1127.388885	0.009401
1127.546665	0.009436
1127.704426	0.006899
1127.862170	0.008207
1128.019895	0.010974
1128.177602	0.013427
1128.335291	0.010544
1128.492961	0.012942
1128.650614	0.009501
1128.808248	0.011207
1128.965864	0.012556
1129.123461	0.015251
1129.281041	0.011502
1129.438602	0.008605
1129.596145	0.006515
1129.753670	0.010799
1129.911176	0.008468
1130.068665	0.010551
1130.226135	0.010993
1130.383587	0.008737
1130.541020	0.005417
1130.698436	0.004203
1130.855833	0.009243
1131.013212	0.004107
1131.170573	0.001825
1131.327915	-0.002819
1131.485239	-0.000330
1131.642545	-0.003413
1131.799833	0.000459
1131.957103	0.000808
1132.114354	0.005460
1132.271588	-0.000319
1132.428803	0.009566
1132.585999	0.010107
1132.743178	0.009821
1132.900338	0.004282
1133.057480	0.011593
1133.214604	0.003935
1133.371710	0.008502
1133.528797	0.008148
1133.685866	0.008616
1133.842917	0.001010
1133.999950	-0.004600
1134.156964	-0.000043
1134.313960	0.002451
1134.470938	-0.004976
1134.627898	0.000325
1134.784840	-0.000324
1134.941763	0.002142
1135.098668	0.005259
1135.255555	0.002212
1135.412424	0.004974
1135.569274	-0.000682
1135.726107	0.001830
1135.882921	0.012888
1136.039716	0.010377
1136.196494	0.009683
1136.353253	0.007462
1136.509995	0.003947
1136.666717	0.005899
1136.823422	0.010433
1136.980109	0.013045
1137.136777	0.007532
1137.293427	-0.001346
1137.450059	-0.001577
1137.606672	-0.004983
1137.763267	-0.005800
1137.919844	-0.005167
1138.076403	-0.005254
1138.232944	-0.011497
1138.389466	-0.009063
1138.545971	-0.006622
1138.702457	0.000237
1138.858924	0.006469
1139.015374	0.009576
1139.171805	0.007220
1139.328218	0.008277
1139.484613	0.010474
1139.640990	0.010940
1139.797348	0.016611
1139.953688	0.019625
1140.110010	0.014749
1140.266314	0.010973
1140.422600	0.002786
1140.578867	-0.001931
1140.735116	-0.002625
1140.891347	-0.000595
1141.047559	0.006027
1141.203754	0.002328
1141.359930	0.001758
1141.516088	0.004220
1141.672228	0.003423
1141.828349	0.006893
1141.984452	0.021377
1142.140537	0.020219
1142.296604	0.020827
1142.452653	0.017976
1142.608683	0.014229
1142.764695	0.014280
1142.920689	0.010814
1143.076665	0.008292
1143.232622	0.009079
1143.388562	-0.009077
1143.544483	-0.006355
1143.700385	-0.008349
1143.856270	-0.008488
1144.012136	-0.009067
1144.167985	-0.009735
1144.323814	-0.013321
1144.479626	-0.008339
1144.635420	-0.004389
1144.791195	0.010713
1144.946952	0.006816
1145.102691	0.000595
1145.258411	0.002482
1145.414113	0.007308
1145.569798	0.002536
1145.725463	0.007444
1145.881111	0.006506
1146.036741	0.001503
1146.192352	0.000248
1146.347945	0.005342
1146.503519	0.012867
1146.659076	0.017028
1146.814614	0.013045
1146.970134	0.019126
1147.125636	0.020368
1147.281120	0.019812
1147.436585	0.024234
1147.592032	0.023553
1147.747461	0.026996
1147.902872	0.025406
1148.058265	0.015890
1148.213639	0.018130
1148.368995	0.022769
1148.524333	0.026081
1148.679653	0.022215
1148.834954	0.012170
1148.990237	0.005753
1149.145502	0.001085
1149.300749	-0.000860
1149.455977	0.002361
1149.611188	-0.005103
1149.766380	-0.008403
1149.921553	-0.011392
1150.076709	-0.006095
1150.231846	0.002303
1150.386966	0.006238
1150.542066	0.003220
1150.697149	0.006036
1150.852214	0.004741
1151.007260	0.000801
1151.162288	-0.002723
1151.317298	-0.005991
1151.472289	-0.005411
1151.627263	-0.007467
1151.782218	-0.009666
1151.937155	-0.012058
1152.092073	-0.013847
1152.246974	-0.009764
1152.401856	0.000293
1152.556720	0.006280
1152.711566	0.008225
1152.866393	0.007581
1153.021203	0.007843
1153.175994	0.009086
1153.330767	0.015262
1153.485521	0.019355
1153.640258	0.010094
1153.794976	0.015098
1153.949676	0.013683
1154.104358	0.015521
1154.259021	0.012558
1154.413667	0.009464
1154.568294	0.012904
1154.722903	0.011609
1154.877493	0.010084
1155.032066	0.016064
1155.186620	0.013881
1155.341156	0.004966
1155.495674	-0.001730
1155.650173	-0.003330
1155.804654	0.002547
1155.959118	0.005363
1156.113562	0.006799
1156.267989	0.001913
1156.422397	-0.002149
1156.576788	-0.003057
1156.731160	-0.000147
1156.885513	0.001385
1157.039849	0.009498
1157.194166	-0.002286
1157.348465	-0.009582
1157.502746	-0.011189
1157.657009	-0.004949
1157.811253	-0.002198
1157.965479	0.003424
1158.119687	0.003980
1158.273877	0.006152
1158.428048	-0.000918
1158.582201	0.013655
1158.736337	0.025629
1158.890453	0.031713
1159.044552	0.029867
1159.198632	0.031129
1159.352694	0.025301
1159.506738	0.036185
1159.660764	0.036596
1159.814771	0.040094
1159.968761	0.027542
1160.122732	0.018000
1160.276685	0.010855
1160.430619	0.012999
1160.584535	0.014190
1160.738434	0.017426
1160.892313	0.002728
1161.046175	0.008596
1161.200019	0.010147
1161.353844	0.016701
1161.507651	0.016825
1161.661440	0.009683
1161.815210	0.008776
1161.968962	0.001595
1162.122697	-0.013627
1162.276412	-0.016676
1162.430110	-0.030072
1162.583789	-0.036211
1162.737451	-0.034516
1162.891094	-0.029876
1163.044718	-0.023298
1163.198325	-0.015585
1163.351913	-0.008520
1163.505483	0.001587
1163.659035	0.004198
1163.812569	0.012441
1163.966084	0.008341
1164.119581	0.009440
1164.273060	0.007618
1164.426521	0.016579
1164.579964	0.014417
1164.733388	0.006742
1164.886794	-0.003600
1165.040182	-0.003062
1165.193551	-0.000240
1165.346903	0.010238
1165.500236	0.008903
1165.653551	0.000738
1165.806848	-0.005429
1165.960126	-0.017900
1166.113386	-0.010465
1166.266628	-0.000159
1166.419852	0.003503
1166.573058	-0.003852
1166.726245	-0.012148
1166.879414	-0.014026
1167.032565	-0.007350
1167.185698	-0.012951
1167.338812	-0.010348
1167.491909	-0.016008
1167.644987	-0.016778
1167.798046	-0.023135
1167.951088	-0.009376
1168.104111	-0.004121
1168.257117	-0.003373
1168.410103	-0.001881
1168.563072	-0.002109
1168.716023	-0.010554
1168.868955	-0.011508
1169.021869	-0.023280
1169.174765	-0.023235
1169.327642	-0.029114
1169.480501	-0.034551
1169.633343	-0.038337
1169.786165	-0.032416
1169.938970	-0.027217
1170.091757	-0.013682
1170.244525	-0.006009
1170.397275	-0.000258
1170.550007	0.006221
1170.702720	-0.006308
1170.855415	-0.007874
1171.008092	-0.010555
1171.160751	-0.031289
1171.313392	-0.041896
1171.466014	-0.056694
1171.618619	-0.082251
1171.771205	-0.082251
1171.923772	-0.082251
