sample name	sample
index	793
start time	 03-31-2021  02:26:02 PM
880	0.001298
Peak Time (s)	92.539
Peak Height 	0.001298
calc peak height	90,93
Baseline Time (s)	9.034
Baseline Value 	-0.001643
subtract baseline	10,4
Abs	0.021703
Peak Time (s)	92.539
Peak Height 	0.0217
calc peak height	90,93
Baseline Time (s)	10.036
Baseline Value 	0.002872
subtract baseline	10,3
PK_550	0.014053
Peak Time (s)	91.035
Peak Height 	0.01405
calc peak height	90,93
Baseline Time (s)	10.538
Baseline Value 	3.6516E-4
subtract baseline	10,2
PK_880	0.015301
Peak Time (s)	91.535
Peak Height 	0.0153
calc peak height	90,93
Baseline Time (s)	10.538
Baseline Value 	9.7434E-4
subtract baseline	10,1


Time (s)	A880-A510	A880-A775	A880-A975	A880	I510	I775	I975	I880	
0.037500	-0.002289	-0.000177	-0.004169	0.001681	6762.253497	40610.406777	4077.840010	22224.798404
0.535500	-0.001956	0.000420	-0.000004	0.003952	6746.146786	40466.359764	4082.037897	22125.236006
1.035500	-0.001921	-0.000362	-0.003325	0.003309	6751.771197	40454.444658	4076.105498	22153.381008
1.536000	-0.001707	-0.000595	-0.003685	0.000984	6772.924141	40634.469663	4080.456055	22255.452820
2.036000	-0.001800	0.000087	-0.002230	0.001184	6770.479411	40676.131364	4083.244823	22246.673576
2.536500	-0.003259	-0.000643	0.000495	0.001299	6757.358997	40603.165508	4089.068724	22241.597529
3.037000	0.000808	-0.001004	-0.000901	-0.002491	6823.326148	40899.885346	4094.441003	22409.049709
3.534000	-0.000524	0.000749	0.001211	0.000065	6790.535142	40830.193915	4093.441968	22295.955060
4.037000	0.000337	-0.000280	-0.006186	-0.000570	6803.110729	40795.987334	4078.357077	22323.989241
4.534000	-0.001545	-0.000317	-0.004870	-0.000243	6784.554693	40764.472257	4080.548390	22309.557431
5.038000	-0.000921	-0.000218	-0.002980	-0.000424	6791.307544	40788.815627	4085.154691	22317.567030
5.535000	-0.000637	-0.000288	0.002465	-0.000182	6791.659925	40761.720071	4096.821582	22306.852792
6.035500	-0.001223	0.000235	-0.003478	-0.000072	6785.821279	40797.494357	4083.262106	22302.007433
6.536000	-0.001704	-0.000629	-0.001983	-0.000443	6784.897390	40754.891103	4087.423173	22318.409286
7.039000	-0.000139	-0.000242	-0.002308	-0.000081	6794.998010	40756.977037	4085.888601	22302.422546
7.539500	-0.000940	0.000048	-0.003400	-0.000280	6789.934928	40799.310245	4083.898414	22311.199499
8.037000	-0.000348	-0.000224	-0.001794	-0.000286	6794.965005	40776.348856	4087.495075	22311.475401
8.534000	-0.000519	0.000015	-0.004291	0.000047	6790.729119	40768.170886	4081.190326	22296.779536
9.034500	0.000436	-0.000056	0.000439	0.000000	6799.146343	40766.070944	4091.853516	22298.832332
9.538000	0.000387	0.000573	-0.001746	0.000401	6795.362842	40785.757780	4086.067331	22281.136320
10.035500	-0.001764	-0.000051	0.000000	-0.000147	6781.911638	40779.253937	4091.199341	22305.323823
10.538000	0.000000	0.000000	0.000526	-0.000002	6795.495355	40771.054287	4092.052163	22298.902690
11.036000	0.001164	0.000057	0.001566	0.000319	6802.597623	40748.285929	4093.670894	22284.777730
11.536500	-0.001320	-0.000323	-0.003283	-0.000189	6785.988280	40759.381632	4083.957904	22307.190689
12.036500	0.000700	0.000444	0.003471	0.000882	6793.954898	40733.019016	4096.692582	22259.972404
12.537000	0.001281	-0.000033	-0.005181	0.000065	6805.720978	40762.456874	4079.175867	22295.967005
13.037000	0.000870	-0.000088	-0.004188	0.000685	6797.039962	40704.038943	4080.004056	22268.632768
13.535000	-0.001810	0.000082	-0.002658	0.001538	6767.444744	40645.071766	4081.507162	22231.099183
14.035000	-0.003455	-0.000796	-0.005493	0.002660	6744.430485	40472.890927	4072.757816	22181.816256
14.545500	-0.003215	-0.000500	-0.003631	0.002400	6748.580745	40520.741527	4077.439927	22193.236303
15.035500	-0.000523	-0.001248	-0.003968	0.000355	6788.103307	40632.395869	4081.222326	22283.156085
15.535500	-0.002438	-0.000811	0.001086	0.000346	6772.153419	40670.963157	4092.530533	22283.591079
16.035500	-0.000883	0.000183	-0.003347	0.001191	6778.086485	40683.765855	4080.746744	22246.353642
16.539000	-0.001956	-0.000527	-0.005530	0.000914	6771.432204	40646.398082	4076.526995	22258.543602
17.036000	0.001183	-0.000689	-0.002137	-0.002903	6829.991496	40963.020382	4092.588389	22427.337858
17.537000	-0.002284	-0.000913	-0.004023	0.001326	6765.259606	40577.639396	4078.950178	22240.429712
18.037000	-0.001964	0.000120	-0.006224	0.001920	6762.974119	40615.439522	4072.778180	22214.306643
18.535000	-0.001261	-0.000585	0.000868	0.001755	6770.208060	40568.842507	4088.880818	22221.538053
19.035000	-0.002492	-0.000595	-0.000178	0.001792	6759.635886	40564.834318	4086.460425	22219.916980
19.535000	0.000303	0.000877	0.001963	0.003150	6771.618523	40574.622089	4088.209808	22160.336309
20.035000	-0.001562	-0.000314	0.000973	0.001903	6766.463492	40579.412621	4088.785626	22215.031523
20.536000	-0.004624	-0.000546	-0.000678	0.001524	6744.153303	40592.072935	4085.942686	22231.686716
21.039000	-0.001394	0.000096	0.000108	0.002004	6767.022549	40606.050465	4086.627295	22210.594510
21.536500	-0.002457	-0.000116	-0.000387	0.001581	6761.689154	40624.281235	4086.466208	22229.189905
22.036500	-0.002705	0.000007	-0.003061	0.001851	6757.378661	40611.615538	4079.917574	22217.335369
22.537000	-0.002149	0.000136	-0.001504	0.001843	6762.073057	40623.404135	4083.393361	22217.681811
23.037500	-0.001512	-0.000502	-0.003028	0.001470	6770.491467	40600.581889	4080.834345	22234.069375
23.537500	-0.002807	-0.000546	-0.003335	0.001804	6756.920200	40568.104751	4079.415465	22219.413546
24.035000	-0.001831	-0.000006	-0.000090	0.001960	6763.744841	40601.095211	4086.282882	22212.531551
24.535000	-0.001605	-0.000023	-0.005281	0.001736	6767.506159	40619.004611	4075.261766	22222.408979
25.036000	-0.001572	0.000201	-0.003234	0.002003	6765.546076	40615.219738	4079.196902	22210.652716
25.536000	-0.003592	-0.000792	0.000059	0.001123	6756.055849	40605.532181	4088.488103	22249.366940
26.036500	-0.003026	0.000013	-0.001409	0.001931	6754.042652	40605.205519	4083.408010	22213.803873
26.539500	0.000901	-0.001066	0.002247	0.001166	6793.253002	40578.146804	4093.296512	22247.439791
27.037000	0.001081	-0.000009	-0.000965	-0.000892	6812.105983	40847.399507	4090.704961	22338.224511
27.537500	-0.000974	-0.000406	-0.003031	0.000321	6784.613984	40708.079195	4083.382620	22284.676210
28.040000	-0.001632	-0.000302	-0.001587	0.000961	6773.747830	40661.721702	4085.172353	22256.474116
28.535000	0.000866	-0.000299	0.003817	0.000910	6795.111698	40666.370674	4097.408520	22258.710491
29.035500	-0.003726	-0.001044	-0.003824	-0.000222	6766.142238	40699.826078	4082.826942	22308.632391
29.535500	-0.001429	0.000070	-0.000656	0.001353	6772.166216	40659.993119	4086.375905	22239.235362
30.036000	-0.000799	-0.000092	-0.003695	0.000956	6780.754986	40680.330808	4080.495802	22256.703062
30.536000	-0.001610	-0.000408	-0.000635	0.002350	6762.339962	40532.898041	4084.198328	22195.425905
31.036500	-0.002342	-0.000477	-0.001270	0.002253	6757.053455	40535.345153	4083.000491	22199.679187
31.538000	-0.002559	0.000508	0.000385	0.005379	6729.347665	40351.648985	4079.735676	22062.970371
32.036500	-0.001488	0.000127	0.000826	0.001464	6770.744240	40655.351857	4089.440248	22234.350386
32.537000	-0.001082	-0.000363	0.000445	0.000902	6778.834973	40661.560751	4089.844393	22259.058072
33.037500	-0.002455	-0.000459	-0.002195	0.001234	6764.593975	40624.577557	4083.210637	22244.448183
33.535000	-0.002491	-0.000486	-0.005078	-0.001073	6783.576950	40821.790686	4081.929554	22346.238862
34.035500	-0.002205	0.000031	-0.001037	0.001875	6761.338650	40611.597666	4084.360465	22216.278695
34.536000	-0.001107	-0.000336	-0.006065	0.002516	6765.152390	40524.890653	4071.817084	22188.159447
35.038500	-0.001221	-0.000718	-0.001675	0.001821	6769.988143	40551.751741	4083.059913	22218.633919
35.536500	-0.002991	-0.000678	-0.002892	0.003646	6740.101267	40398.440917	4076.316849	22138.611928
36.036500	-0.001875	-0.000036	-0.002828	0.002394	6759.767214	40561.160225	4079.230262	22193.502757
36.537000	-0.002739	-0.000459	-0.002973	0.002081	6755.184481	40551.684907	4079.602768	22207.231469
37.037000	-0.000681	-0.000547	-0.005106	0.001891	6773.914040	40560.457571	4075.305333	22215.559772
37.537500	-0.000208	-0.000193	-0.002196	0.002331	6774.196705	40553.021660	4080.770929	22196.236877
38.037500	-0.002159	-0.000213	0.000453	0.002385	6757.484247	40546.717165	4086.547957	22193.906711
38.535000	-0.002595	-0.000662	-0.001753	0.002001	6757.047427	40541.114061	4082.487779	22210.751142
39.035000	-0.002445	-0.000324	-0.000555	0.002018	6758.145431	40568.716475	4085.115031	22209.981108
39.536000	-0.002417	-0.000708	0.004846	0.001652	6761.430006	40567.127291	4098.058563	22226.068046
40.036000	-0.003432	-0.001185	-0.005280	0.001575	6753.630190	40532.794403	4075.618641	22229.467037
40.536000	-0.001531	-0.000562	-0.004116	0.001789	6767.678001	40567.952755	4077.719048	22220.079417
41.036000	-0.001649	-0.000093	0.000107	0.002282	6762.576381	40565.887475	4086.003089	22198.390108
41.537000	-0.002601	0.001097	-0.000564	0.002586	6752.129359	40642.224986	4083.830712	22185.050014
42.037500	-0.001843	0.000108	-0.000505	0.002459	6759.485141	40567.887312	4084.245356	22190.630121
42.534500	-0.003844	-0.000688	0.000535	0.001869	6747.765111	40550.239535	4087.884640	22216.564915
43.035500	-0.002170	-0.000709	-0.000209	0.001868	6761.691871	40548.567954	4086.224734	22216.605975
43.546500	0.001238	-0.000634	-0.000747	-0.000635	6811.263074	40770.957771	4090.617361	22326.850694
44.035000	0.001779	0.000691	0.003179	-0.001381	6822.150128	40950.753545	4101.150414	22359.880909
44.536000	0.000408	-0.000439	-0.002785	0.000275	6796.596422	40709.161539	4084.030632	22286.693598
45.036000	0.000596	0.000029	-0.001884	0.000930	6792.675862	40693.006247	4084.579631	22257.836257
45.536500	0.000125	0.000242	-0.003694	0.000861	6789.297757	40717.383949	4080.709700	22260.890164
46.037000	-0.001507	0.000355	-0.001615	0.001450	6770.705109	40676.238628	4084.021991	22234.973296
46.539500	-0.000210	-0.001349	0.001905	0.000735	6787.547561	40590.913192	4093.495916	22266.422170
47.037500	-0.000869	-0.000697	-0.001142	0.001701	6773.933655	40563.880057	4084.513444	22223.909942
47.534500	-0.003175	-0.000820	-0.002260	0.005457	6723.626265	40231.421931	4073.716968	22059.556518
48.035000	-0.001142	0.000541	-0.002300	0.001481	6773.491844	40689.635892	4082.426928	22233.594161
48.535500	-0.001028	-0.000610	0.000145	0.000577	6782.015741	40668.299355	4089.902249	22273.396817
49.035500	-0.003468	-0.000229	0.005624	0.000772	6760.010057	40684.372524	4101.810907	22264.820467
49.536000	-0.004291	-0.001108	-0.009908	0.004260	6724.294515	40309.065397	4059.611196	22111.792132
50.036500	0.000790	0.000438	-0.001455	0.001372	6790.599472	40690.222969	4084.551004	22238.410849
50.536500	-0.000378	0.001099	0.004763	0.013021	6684.549812	39752.936823	4072.526859	21732.826755
51.036500	-0.041402	-0.003344	-0.013348	0.218237	5152.337093	25746.638424	3688.370982	14729.852262
51.537000	-0.055434	-0.006916	-0.029201	-0.020129	6510.391492	41932.297554	4070.736834	23207.891347
52.034500	-0.063841	-0.073916	-0.024687	-0.289081	9277.465749	64877.594221	4907.161287	40421.210377
52.537500	-0.044189	-0.170313	-0.013193	-0.390081	11241.599943	65535.000000	5436.453461	50183.402383
53.035500	-0.049294	-0.136051	-0.012724	-0.355818	10539.876946	65535.000000	5262.815619	46614.395090
53.535500	-0.050434	-0.137446	-0.019207	-0.357213	10544.211352	65535.000000	5237.826149	46754.271064
54.035500	-0.035761	-0.098513	-0.008206	-0.318281	10142.179966	65535.000000	5105.717231	43014.265508
54.538500	-0.031925	-0.069120	-0.015037	-0.283880	9666.605927	64820.135734	4925.596494	39977.406934
55.036000	-0.020738	-0.091765	-0.015622	-0.311532	10276.794924	65535.000000	5041.904651	42399.388060
55.537000	-0.016929	-0.072404	-0.009718	-0.289838	9989.021126	65200.859196	4973.173890	40486.268758
56.037000	-0.014590	-0.042443	-0.007858	-0.245997	9365.187491	63249.790053	4802.145328	36899.939025
56.537500	-0.011919	-0.022635	-0.006248	-0.205530	8846.656805	60459.109708	4657.924665	33896.042049
57.034500	-0.008952	-0.015463	-0.008941	-0.176375	8512.957308	57631.687376	4548.968079	31898.852725
57.537500	-0.015681	-0.012585	-0.008182	-0.160879	8245.112954	56072.175574	4501.191794	30890.667275
58.035000	-0.011965	-0.012795	-0.008170	-0.149492	8155.805299	54678.437376	4465.407500	30172.414287
58.535500	-0.012369	-0.006707	-0.006590	-0.123710	7862.547015	52394.978314	4392.321535	28614.114102
59.035500	-0.012762	-0.006323	-0.007206	-0.111263	7725.084055	51046.785200	4354.532560	27894.288587
59.536500	-0.009837	-0.005316	-0.005662	-0.090168	7537.379271	48882.940279	4300.059414	26720.486363
60.036500	-0.010937	-0.004353	-0.004976	-0.085276	7477.176505	48471.245310	4288.655567	26456.288811
60.536500	-0.011448	-0.003806	-0.005099	-0.081318	7432.821352	48116.887577	4277.697625	26244.728718
61.037000	-0.009367	-0.002813	-0.000054	-0.080228	7442.619739	48106.892895	4288.316713	26186.840081
61.537500	-0.005215	0.002950	-0.013853	-0.070784	7390.561808	47727.657266	4227.276152	25690.978951
62.035000	0.003239	0.004035	-0.003825	-0.077079	7537.245621	48491.170789	4269.799689	26020.269598
62.535000	0.000572	0.003938	-0.008546	-0.074248	7481.983255	48186.742796	4249.928251	25871.610804
63.035000	0.001211	0.005227	-0.002860	-0.072394	7469.862176	48128.225237	4259.967012	25774.754305
63.535500	0.000385	0.003796	-0.002314	-0.070955	7447.361271	47832.145156	4257.620775	25699.871087
64.036000	0.000457	0.004708	-0.009475	-0.066347	7402.650327	47453.690954	4227.127236	25461.739269
64.539000	0.003765	0.005318	-0.004560	-0.060780	7380.555708	46951.211936	4225.460943	25177.366338
65.039500	0.002969	0.005969	-0.004558	-0.054989	7316.784811	46436.112593	4210.782676	24885.403587
65.540000	0.001472	0.006954	-0.001613	-0.051734	7271.379482	46210.626824	4210.003254	24723.041378
66.037500	0.003292	0.006185	0.002503	-0.048725	7260.099927	45837.885828	4212.792693	24573.997824
66.535000	0.001643	0.007121	0.004742	-0.044503	7204.825803	45516.301463	4207.800958	24366.572463
67.035000	0.002258	0.007571	0.000016	-0.041748	7184.858315	45292.139025	4189.169962	24232.312363
67.540500	0.005516	0.008535	-0.004133	-0.039610	7195.295060	45178.471460	4173.763053	24128.727613
68.036000	0.004107	0.008186	0.002385	-0.037690	7164.366753	44959.645834	4185.010168	24036.148438
68.536000	0.004509	0.009386	0.008932	-0.033714	7131.416355	44693.311999	4191.350309	23845.660756
69.036000	0.005237	0.009012	0.006908	-0.032216	7124.348871	44514.743022	4182.673778	23774.347919
69.539000	0.005716	0.009024	0.008734	-0.031081	7118.343126	44408.022017	4184.370418	23720.498213
70.036500	0.008647	0.009039	0.008985	-0.029497	7130.682195	44259.276300	4181.098167	23645.528295
70.537000	0.008334	0.009331	0.006026	-0.028232	7116.234323	44167.378375	4170.800804	23585.913270
71.034000	0.008138	0.009750	0.007237	-0.026667	7100.154590	44059.286302	4169.940752	23512.320202
71.535000	0.007819	0.009027	0.007610	-0.026621	7096.834045	43987.055802	4170.735133	23510.196153
72.035000	0.008514	0.009733	0.012537	-0.025018	7088.572507	43902.773965	4178.830821	23435.111204
72.535000	0.011109	0.010128	0.013388	-0.023761	7100.753124	43822.051687	4177.838688	23376.462462
73.036000	0.010951	0.010851	0.011609	-0.022452	7087.406715	43767.306311	4170.322881	23315.556769
73.538500	0.007448	0.009877	0.009010	-0.022605	7057.111280	43690.573399	4164.407696	23322.658086
74.039000	0.009281	0.010549	0.009988	-0.021638	7064.915642	43663.091030	4164.433689	23277.738354
74.536500	0.011274	0.011067	0.010930	-0.020189	7069.832475	43576.413625	4163.212182	23210.673774
75.036500	0.010042	0.011015	0.008305	-0.020356	7060.221543	43587.113470	4157.306241	23218.395443
75.536500	0.007706	0.010135	0.008284	-0.013946	6982.140971	42914.403516	4142.014199	22924.154891
76.037500	0.012225	0.010991	0.010202	-0.016406	7044.315529	43218.978874	4152.400162	23036.576213
76.535000	0.010833	0.011117	0.007589	-0.016083	7028.943225	43200.825466	4145.423869	23021.770801
77.035500	0.010365	0.012120	0.012068	-0.014443	7010.133131	43142.245247	4152.170392	22946.840827
77.539500	0.011287	0.012728	0.012925	-0.012434	7000.473038	43013.436143	4149.429186	22855.405197
78.039000	0.013000	0.011589	0.014813	-0.012230	7013.895041	42890.495538	4153.439237	22846.139642
78.535500	0.011774	0.012066	0.015725	-0.010999	6992.060755	42821.497240	4152.676116	22790.334963
79.036500	0.011150	0.012116	0.013911	-0.010565	6982.695432	42786.464572	4147.328624	22770.694387
79.536500	0.010409	0.012091	0.010810	-0.005621	6932.771749	42335.813489	4128.419866	22548.443367
80.037500	0.012509	0.012507	0.014815	-0.009458	6984.925334	42721.271654	4146.847327	22720.718910
80.534500	0.014804	0.013265	0.018660	-0.007928	6991.692217	42650.961505	4152.352290	22651.832532
81.037500	0.012786	0.012863	0.016829	-0.007723	6972.046626	42595.876979	4147.510074	22642.626146
81.535500	0.012713	0.012603	0.014005	-0.007256	6967.293731	42529.986607	4139.731223	22621.688165
82.035500	0.012599	0.012697	0.017621	-0.006373	6958.524225	42458.524515	4146.187437	22582.104130
82.536000	0.015017	0.013305	0.014841	-0.005609	6973.079757	42444.375158	4137.821579	22547.908205
83.036000	0.013765	0.012474	0.015480	-0.005182	6958.316314	42330.898574	4138.323911	22528.869994
83.536000	0.012844	0.012828	0.015318	-0.004848	6947.303219	42332.648946	4137.155682	22513.943564
84.036500	0.013239	0.013200	0.017422	-0.003804	6941.617146	42272.097181	4139.648425	22467.400713
84.537000	0.011479	0.013066	0.011721	-0.003769	6925.957928	42256.864418	4126.231101	22465.850717
85.036500	0.013537	0.013028	0.017978	-0.002737	6934.906194	42160.730591	4138.446078	22419.968979
85.537000	0.013126	0.013605	0.012962	-0.002601	6930.127112	42200.342008	4126.399400	22413.932065
86.035000	0.013639	0.013029	0.013004	-0.002345	6932.368724	42125.585404	4125.903075	22402.559570
86.535500	0.013570	0.012401	0.018392	-0.002416	6932.389970	42075.663263	4138.664038	22405.723427
87.035000	0.014530	0.013203	0.021270	-0.001511	6932.867008	42066.420362	4143.315199	22365.603085
87.536000	0.013397	0.012797	0.011190	-0.001804	6925.546850	42056.335939	4120.446947	22378.596804
88.039000	0.017678	0.013571	0.020060	-0.000974	6955.719010	42051.400625	4139.197631	22341.863063
88.536500	0.013253	0.012960	0.013940	-0.001245	6919.431121	42020.932114	4125.522754	22353.828171
89.036000	0.013763	0.013672	0.018690	-0.000278	6915.464857	41998.084598	4134.346774	22311.103723
89.537000	0.014398	0.013578	0.021794	-0.000453	6922.503388	42005.425716	4142.057406	22318.842812
90.037500	0.014851	0.014015	0.018212	0.000143	6921.257998	41991.157028	4132.241254	22292.516995
90.534500	0.011901	0.013544	0.019254	0.000314	6894.212355	41933.815216	4134.278332	22284.961193
91.035000	0.015201	0.014053	0.017817	0.000946	6917.320540	41922.793799	4129.444894	22257.135108
91.535500	0.015301	0.013317	0.018449	0.000926	6918.360884	41859.036236	4130.964905	22258.008379
92.035500	0.012777	0.012902	0.014556	0.000755	6897.968929	41837.288424	4122.313539	22265.531996
92.539000	0.014843	0.013318	0.021703	0.001298	6911.160146	41825.988519	4137.717299	22241.657393
93.036500	0.013291	0.012866	0.018660	0.000857	6901.536812	41825.010235	4131.621937	22261.065624
93.536000	0.012388	0.012840	0.022265	0.000452	6897.223949	41858.730521	4141.031621	22278.887855
94.037000	0.013219	0.013071	0.012137	0.001561	6894.825366	41780.614494	4114.875263	22230.084623
94.537500	0.013352	0.013601	0.019924	0.002233	6890.172770	41767.997392	4131.356725	22200.537925
95.034500	0.013182	0.013724	0.019830	0.002339	6887.799929	41769.582108	4130.892934	22195.926384
95.537500	0.015771	0.013824	0.019228	0.002942	6904.952320	41724.849524	4128.081839	22169.456300
96.035000	0.012382	0.013851	0.020831	0.003275	6872.859603	41697.730970	4131.044466	22154.881276
