sample name	sample
index	1233
start time	 04-29-2021  11:18:33 AM


Wavelength (nm)	Absorbance
494.344910	-0.244918
494.563924	-0.244918
494.782919	-0.244918
495.001897	0.041054
495.220856	-0.077491
495.439797	-0.048122
495.658719	-0.011896
495.877624	0.036738
496.096510	0.020990
496.315378	0.063921
496.534227	0.005888
496.753059	-0.019746
496.971872	-0.034062
497.190667	-0.006109
497.409444	0.002232
497.628203	-0.000002
497.846943	-0.000838
498.065665	-0.000991
498.284369	-0.002269
498.503055	-0.000972
498.721723	-0.000614
498.940372	-0.001165
499.159003	-0.001031
499.377616	-0.001653
499.596210	-0.001440
499.814787	-0.001156
500.033345	-0.001634
500.251885	-0.001730
500.470406	-0.002479
500.688910	-0.002677
500.907395	-0.002112
501.125862	-0.001741
501.344311	-0.001485
501.562742	-0.001754
501.781154	-0.000834
501.999548	-0.000134
502.217924	0.000078
502.436282	-0.000153
502.654621	0.000394
502.872942	0.001657
503.091245	0.000629
503.309530	0.000858
503.527797	0.001302
503.746045	-0.000496
503.964275	-0.000741
504.182487	-0.000073
504.400681	0.000710
504.618856	-0.000258
504.837013	-0.001697
505.055152	-0.000784
505.273273	-0.001244
505.491376	-0.001402
505.709460	-0.001487
505.927526	-0.001265
506.145574	-0.001361
506.363604	-0.001317
506.581615	-0.000854
506.799608	-0.001192
507.017583	-0.002905
507.235540	-0.003224
507.453478	-0.002346
507.671399	-0.001387
507.889301	-0.001842
508.107185	-0.002273
508.325050	-0.003057
508.542898	-0.003481
508.760727	-0.003196
508.978538	-0.002648
509.196330	-0.002629
509.414105	-0.003237
509.631861	-0.003311
509.849599	-0.003922
510.067319	-0.004056
510.285021	-0.002880
510.502704	-0.002837
510.720369	-0.002991
510.938016	-0.003871
511.155645	-0.004350
511.373255	-0.004562
511.590848	-0.003993
511.808422	-0.003000
512.025977	-0.002441
512.243515	-0.002466
512.461034	-0.001583
512.678536	-0.001440
512.896018	0.000482
513.113483	0.000776
513.330930	0.000794
513.548358	0.000039
513.765768	-0.000309
513.983160	-0.001220
514.200533	-0.002387
514.417889	-0.002775
514.635226	-0.002779
514.852545	-0.003832
515.069845	-0.003786
515.287128	-0.004192
515.504392	-0.004035
515.721638	-0.003677
515.938866	-0.002860
516.156075	-0.003025
516.373267	-0.002927
516.590440	-0.003057
516.807594	-0.002437
517.024731	-0.003065
517.241850	-0.002567
517.458950	-0.002773
517.676032	-0.002861
517.893095	-0.002525
518.110141	-0.002589
518.327168	-0.003221
518.544177	-0.002932
518.761168	-0.003224
518.978141	-0.002260
519.195095	-0.002154
519.412031	-0.001597
519.628949	-0.001774
519.845849	-0.001460
520.062731	-0.000881
520.279594	-0.000614
520.496439	-0.000830
520.713266	-0.000482
520.930074	-0.000277
521.146865	-0.000540
521.363637	-0.000976
521.580391	-0.000557
521.797127	-0.001387
522.013844	-0.001245
522.230543	-0.001008
522.447224	-0.000772
522.663887	-0.001303
522.880532	-0.002240
523.097158	-0.002085
523.313766	-0.001905
523.530356	-0.002084
523.746928	-0.002379
523.963481	-0.002504
524.180017	-0.002581
524.396534	-0.002617
524.613032	-0.002847
524.829513	-0.002697
525.045975	-0.002773
525.262420	-0.002733
525.478845	-0.002702
525.695253	-0.002976
525.911643	-0.003125
526.128014	-0.003469
526.344367	-0.003286
526.560702	-0.003012
526.777018	-0.001972
526.993316	-0.001827
527.209597	-0.002171
527.425858	-0.002782
527.642102	-0.002173
527.858328	-0.001771
528.074535	-0.002136
528.290724	-0.001968
528.506894	-0.001875
528.723047	-0.002813
528.939181	-0.003031
529.155297	-0.002649
529.371395	-0.002118
529.587475	-0.001791
529.803536	-0.002232
530.019579	-0.000875
530.235604	-0.001199
530.451611	-0.001403
530.667600	-0.001002
530.883570	-0.000476
531.099522	-0.000641
531.315456	-0.000626
531.531372	-0.000408
531.747269	0.000447
531.963148	0.000262
532.179009	0.000389
532.394852	0.000805
532.610676	0.001402
532.826482	0.001510
533.042271	0.001819
533.258040	0.002323
533.473792	0.002018
533.689525	0.001663
533.905240	0.001559
534.120937	0.001885
534.336616	0.001687
534.552277	0.001241
534.767919	0.000931
534.983543	0.001302
535.199149	0.001513
535.414736	0.001613
535.630306	0.001725
535.845857	0.001700
536.061390	0.001347
536.276904	0.002052
536.492401	0.002290
536.707879	0.002420
536.923339	0.002357
537.138781	0.002366
537.354204	0.002772
537.569610	0.002631
537.784997	0.002276
538.000366	0.002397
538.215716	0.002434
538.431049	0.002166
538.646363	0.001951
538.861659	0.001764
539.076937	0.002069
539.292196	0.001689
539.507438	0.001612
539.722661	0.001924
539.937866	0.002455
540.153052	0.002102
540.368221	0.002530
540.583371	0.002875
540.798503	0.003157
541.013617	0.002739
541.228712	0.003096
541.443789	0.003230
541.658848	0.003435
541.873889	0.002824
542.088912	0.002368
542.303916	0.001924
542.518902	0.001577
542.733870	0.001600
542.948820	0.001376
543.163752	0.001021
543.378665	0.001105
543.593560	0.000802
543.808437	0.001041
544.023295	0.001426
544.238136	0.001563
544.452958	0.002208
544.667762	0.002008
544.882548	0.002109
545.097315	0.002530
545.312064	0.002662
545.526795	0.002667
545.741508	0.002596
545.956203	0.002812
546.170879	0.002733
546.385537	0.002143
546.600177	0.002352
546.814799	0.002202
547.029402	0.001792
547.243988	0.001806
547.458555	0.002375
547.673103	0.002642
547.887634	0.002950
548.102146	0.002870
548.316640	0.003379
548.531116	0.003273
548.745574	0.003658
548.960013	0.004019
549.174435	0.003958
549.388838	0.003839
549.603222	0.003811
549.817589	0.003343
550.031937	0.003914
550.246267	0.003511
550.460579	0.003277
550.674873	0.003005
550.889148	0.002571
551.103405	0.002723
551.317644	0.002362
551.531865	0.002205
551.746068	0.002399
551.960252	0.002246
552.174418	0.002308
552.388566	0.002520
552.602696	0.002778
552.816807	0.003147
553.030900	0.003155
553.244975	0.003155
553.459032	0.003208
553.673070	0.003442
553.887091	0.003275
554.101093	0.003515
554.315077	0.003466
554.529042	0.003357
554.742990	0.003607
554.956919	0.003642
555.170830	0.003927
555.384722	0.004108
555.598597	0.003905
555.812453	0.004046
556.026291	0.003853
556.240111	0.003754
556.453913	0.003509
556.667696	0.002670
556.881461	0.002447
557.095208	0.002334
557.308937	0.002194
557.522647	0.001820
557.736339	0.001625
557.950013	0.001883
558.163669	0.001941
558.377307	0.002280
558.590926	0.002890
558.804527	0.002853
559.018110	0.002855
559.231675	0.002724
559.445221	0.003176
559.658749	0.003556
559.872259	0.003397
560.085751	0.003467
560.299225	0.003268
560.512680	0.003161
560.726117	0.003189
560.939536	0.003202
561.152937	0.002952
561.366319	0.002634
561.579683	0.002068
561.793029	0.002271
562.006357	0.002297
562.219667	0.002285
562.432958	0.001974
562.646231	0.001920
562.859486	0.001772
563.072723	0.002134
563.285941	0.002316
563.499141	0.002400
563.712323	0.002097
563.925487	0.001814
564.138632	0.001801
564.351760	0.002136
564.564869	0.002004
564.777960	0.001990
564.991032	0.002081
565.204087	0.001919
565.417123	0.001823
565.630141	0.001898
565.843140	0.002053
566.056122	0.002161
566.269085	0.002007
566.482030	0.001721
566.694957	0.001883
566.907866	0.001647
567.120756	0.001654
567.333628	0.001835
567.546482	0.001765
567.759318	0.001557
567.972135	0.001264
568.184935	0.001143
568.397716	0.001722
568.610478	0.001513
568.823223	0.001740
569.035949	0.001866
569.248657	0.001685
569.461347	0.001626
569.674019	0.001663
569.886672	0.001771
570.099308	0.001767
570.311925	0.001458
570.524523	0.001480
570.737104	0.001355
570.949666	0.001437
571.162210	0.001832
571.374736	0.001907
571.587244	0.002001
571.799733	0.001979
572.012205	0.001682
572.224658	0.001840
572.437092	0.001637
572.649509	0.001600
572.861907	0.000959
573.074287	0.000643
573.286649	0.000625
573.498993	0.000536
573.711318	0.000428
573.923625	0.000705
574.135914	0.000548
574.348185	0.000623
574.560438	0.000410
574.772672	0.001007
574.984888	0.001088
575.197086	0.000859
575.409266	0.000784
575.621427	0.000658
575.833570	0.000715
576.045695	0.000684
576.257802	0.000454
576.469890	0.000574
576.681961	0.000247
576.894013	0.000215
577.106046	-0.000021
577.318062	0.000047
577.530059	0.000501
577.742039	0.000528
577.954000	0.000305
578.165942	0.000528
578.377867	0.000338
578.589773	0.000371
578.801661	0.000032
579.013531	0.000426
579.225382	0.000496
579.437216	0.000200
579.649031	0.000104
579.860828	0.000627
580.072606	0.000595
580.284367	0.000637
580.496109	0.000455
580.707833	0.000740
580.919539	0.000649
581.131227	0.000373
581.342896	0.000177
581.554547	0.000284
581.766180	0.000239
581.977795	0.000523
582.189391	0.000726
582.400969	0.000846
582.612529	0.000688
582.824071	0.000585
583.035595	0.000777
583.247100	0.001023
583.458587	0.000828
583.670056	0.000500
583.881506	0.000366
584.092939	0.000286
584.304353	0.000495
584.515749	0.000532
584.727127	0.000712
584.938486	0.000650
585.149828	0.000901
585.361151	0.000999
585.572456	0.000787
585.783742	0.000857
585.995011	0.000590
586.206261	0.000645
586.417493	0.000671
586.628706	0.000655
586.839902	0.000572
587.051079	0.000331
587.262238	0.000114
587.473379	0.000137
587.684502	0.000011
587.895606	0.000234
588.106692	0.000120
588.317760	0.000249
588.528810	0.000173
588.739841	0.000425
588.950855	0.000680
589.161850	0.000820
589.372827	0.001270
589.583785	0.001408
589.794726	0.001404
590.005648	0.001164
590.216552	0.001129
590.427437	0.001135
590.638305	0.000920
590.849154	0.000789
591.059985	0.000536
591.270798	0.000586
591.481592	0.000664
591.692369	0.000618
591.903127	0.000811
592.113867	0.000900
592.324588	0.000935
592.535292	0.001145
592.745977	0.000978
592.956644	0.001283
593.167293	0.001270
593.377923	0.001011
593.588536	0.001180
593.799130	0.001243
594.009706	0.001315
594.220263	0.001179
594.430803	0.000978
594.641324	0.001037
594.851827	0.000997
595.062312	0.001038
595.272778	0.000966
595.483227	0.001004
595.693657	0.001107
595.904069	0.000992
596.114462	0.001169
596.324838	0.001486
596.535195	0.001520
596.745534	0.001351
596.955855	0.001236
597.166157	0.001612
597.376441	0.001884
597.586707	0.001932
597.796955	0.001925
598.007185	0.001984
598.217396	0.001824
598.427589	0.002000
598.637764	0.002466
598.847921	0.002609
599.058060	0.002570
599.268180	0.002172
599.478282	0.002310
599.688366	0.002399
599.898431	0.002411
600.108479	0.002608
600.318508	0.002571
600.528519	0.002466
600.738511	0.002506
600.948486	0.002463
601.158442	0.002749
601.368380	0.002397
601.578300	0.002472
601.788202	0.002679
601.998085	0.002843
602.207950	0.002870
602.417797	0.002934
602.627626	0.002733
602.837436	0.002826
603.047228	0.002628
603.257002	0.002653
603.466758	0.002507
603.676496	0.002308
603.886215	0.001943
604.095916	0.001877
604.305599	0.001769
604.515264	0.002016
604.724910	0.001945
604.934538	0.002047
605.144148	0.002294
605.353740	0.002561
605.563314	0.002636
605.772869	0.002967
605.982406	0.002887
606.191925	0.003168
606.401425	0.003015
606.610908	0.003033
606.820372	0.003166
607.029818	0.003147
607.239246	0.003044
607.448655	0.003010
607.658047	0.002896
607.867420	0.003044
608.076775	0.002897
608.286111	0.003107
608.495430	0.003310
608.704730	0.003321
608.914012	0.003616
609.123275	0.003506
609.332521	0.003572
609.541748	0.003537
609.750957	0.003935
609.960148	0.004026
610.169321	0.004142
610.378475	0.003909
610.587611	0.003946
610.796729	0.003851
611.005829	0.004169
611.214910	0.004379
611.423974	0.004756
611.633019	0.004175
611.842045	0.004248
612.051054	0.004167
612.260044	0.004503
612.469017	0.004363
612.677970	0.004228
612.886906	0.003954
613.095824	0.003774
613.304723	0.003441
613.513604	0.003779
613.722467	0.003714
613.931311	0.003597
614.140138	0.003570
614.348946	0.003675
614.557736	0.003581
614.766507	0.003730
614.975261	0.003656
615.183996	0.003608
615.392713	0.003536
615.601412	0.003531
615.810092	0.003564
616.018754	0.003423
616.227399	0.003374
616.436024	0.003462
616.644632	0.003328
616.853222	0.003522
617.061793	0.003511
617.270346	0.003472
617.478880	0.003420
617.687397	0.003503
617.895895	0.003442
618.104375	0.003522
618.312837	0.003569
618.521281	0.003599
618.729706	0.003675
618.938113	0.003803
619.146502	0.003895
619.354873	0.004204
619.563226	0.004212
619.771560	0.004293
619.979876	0.004326
620.188174	0.004331
620.396453	0.004607
620.604715	0.004414
620.812958	0.004472
621.021183	0.004597
621.229390	0.004622
621.437578	0.004692
621.645748	0.004554
621.853900	0.004428
622.062034	0.004405
622.270150	0.004311
622.478247	0.004448
622.686326	0.004361
622.894387	0.004308
623.102430	0.004122
623.310454	0.004168
623.518461	0.004276
623.726449	0.004439
623.934418	0.004630
624.142370	0.004664
624.350303	0.004761
624.558218	0.004895
624.766115	0.004734
624.973994	0.004814
625.181855	0.004477
625.389697	0.004409
625.597521	0.004276
625.805327	0.004336
626.013114	0.004475
626.220883	0.004275
626.428634	0.004268
626.636367	0.004574
626.844082	0.004562
627.051778	0.004808
627.259457	0.004821
627.467117	0.005058
627.674758	0.005017
627.882382	0.004986
628.089987	0.005519
628.297574	0.005568
628.505143	0.005487
628.712694	0.005534
628.920226	0.005778
629.127740	0.005999
629.335236	0.005901
629.542714	0.005830
629.750174	0.005754
629.957615	0.005380
630.165038	0.005295
630.372443	0.005454
630.579829	0.005393
630.787198	0.005171
630.994548	0.005269
631.201880	0.005223
631.409194	0.005224
631.616489	0.005161
631.823766	0.005254
632.031025	0.005283
632.238266	0.005032
632.445489	0.004941
632.652693	0.004999
632.859879	0.004553
633.067047	0.004580
633.274197	0.004461
633.481329	0.004621
633.688442	0.004546
633.895537	0.004438
634.102614	0.004334
634.309672	0.004429
634.516713	0.004440
634.723735	0.004755
634.930739	0.004769
635.137724	0.004943
635.344692	0.004991
635.551641	0.004970
635.758572	0.005108
635.965485	0.005287
636.172379	0.005307
636.379256	0.005397
636.586114	0.005430
636.792954	0.005634
636.999775	0.005777
637.206579	0.005797
637.413364	0.005721
637.620131	0.005814
637.826880	0.005779
638.033610	0.005664
638.240323	0.005537
638.447017	0.005616
638.653692	0.005496
638.860350	0.005505
639.066990	0.005334
639.273611	0.005480
639.480214	0.005500
639.686798	0.005623
639.893365	0.005699
640.099913	0.005791
640.306443	0.005717
640.512955	0.005822
640.719449	0.005784
640.925924	0.005881
641.132381	0.005990
641.338820	0.005951
641.545241	0.006036
641.751644	0.006123
641.958028	0.006184
642.164394	0.006273
642.370742	0.006183
642.577071	0.006259
642.783383	0.006413
642.989676	0.006627
643.195951	0.006790
643.402207	0.006770
643.608446	0.006982
643.814666	0.007113
644.020868	0.007249
644.227052	0.007283
644.433218	0.007321
644.639365	0.007299
644.845494	0.007195
645.051605	0.007168
645.257698	0.007243
645.463772	0.007056
645.669828	0.006915
645.875866	0.006762
646.081886	0.006647
646.287888	0.006538
646.493871	0.006505
646.699836	0.006430
646.905783	0.006333
647.111712	0.006078
647.317622	0.006050
647.523514	0.006198
647.729388	0.006453
647.935244	0.006574
648.141082	0.006433
648.346901	0.006193
648.552702	0.006193
648.758485	0.006191
648.964250	0.006291
649.169996	0.006346
649.375724	0.006187
649.581434	0.006148
649.787126	0.006091
649.992800	0.006146
650.198455	0.006424
650.404092	0.006166
650.609711	0.006009
650.815311	0.005969
651.020894	0.005889
651.226458	0.005881
651.432004	0.005652
651.637532	0.005702
651.843041	0.005607
652.048532	0.005407
652.254006	0.005716
652.459460	0.005761
652.664897	0.005716
652.870315	0.005780
653.075716	0.005715
653.281097	0.005808
653.486461	0.005887
653.691807	0.006073
653.897134	0.006301
654.102443	0.006181
654.307734	0.006505
654.513006	0.006740
654.718261	0.006809
654.923497	0.006959
655.128715	0.007116
655.333915	0.007151
655.539096	0.007229
655.744259	0.007286
655.949404	0.007409
656.154531	0.007338
656.359640	0.007391
656.564730	0.007613
656.769802	0.007657
656.974856	0.007616
657.179892	0.007523
657.384909	0.007468
657.589908	0.007577
657.794889	0.007659
657.999852	0.007713
658.204797	0.007794
658.409723	0.007632
658.614631	0.007511
658.819521	0.007483
659.024393	0.007659
659.229246	0.007716
659.434081	0.007585
659.638898	0.007661
659.843697	0.007824
660.048478	0.007841
660.253240	0.007895
660.457984	0.008092
660.662710	0.008218
660.867417	0.008411
661.072107	0.008516
661.276778	0.008496
661.481431	0.008395
661.686066	0.008194
661.890682	0.007960
662.095281	0.008134
662.299861	0.008065
662.504422	0.007865
662.708966	0.007529
662.913491	0.007393
663.117999	0.007489
663.322488	0.007598
663.526958	0.007750
663.731411	0.007951
663.935845	0.007875
664.140261	0.008044
664.344659	0.008156
664.549038	0.008325
664.753400	0.008479
664.957743	0.008400
665.162068	0.008356
665.366375	0.008364
665.570663	0.008460
665.774933	0.008419
665.979185	0.008360
666.183419	0.008496
666.387635	0.008676
666.591832	0.008710
666.796011	0.008846
667.000172	0.008955
667.204315	0.009017
667.408439	0.009205
667.612545	0.009393
667.816634	0.009718
668.020703	0.009834
668.224755	0.009958
668.428788	0.010077
668.632803	0.010404
668.836800	0.010583
669.040779	0.010788
669.244739	0.010761
669.448681	0.010911
669.652605	0.010790
669.856511	0.010740
670.060399	0.010615
670.264268	0.010710
670.468119	0.010451
670.671952	0.010527
670.875767	0.010405
671.079563	0.010571
671.283341	0.010531
671.487101	0.010551
671.690843	0.010606
671.894567	0.010697
672.098272	0.010789
672.301959	0.011067
672.505628	0.011036
672.709278	0.011170
672.912911	0.011083
673.116525	0.011042
673.320121	0.011106
673.523699	0.010903
673.727258	0.010905
673.930799	0.010747
674.134322	0.010604
674.337827	0.010522
674.541314	0.010430
674.744782	0.010457
674.948232	0.010373
675.151664	0.010223
675.355078	0.010407
675.558474	0.010412
675.761851	0.010501
675.965210	0.010698
676.168551	0.010616
676.371873	0.010481
676.575178	0.010412
676.778464	0.010448
676.981732	0.010515
677.184981	0.010471
677.388213	0.010408
677.591426	0.010385
677.794621	0.010227
677.997798	0.010354
678.200956	0.010476
678.404097	0.010418
678.607219	0.010498
678.810323	0.010400
679.013408	0.010581
679.216476	0.010762
679.419525	0.010789
679.622556	0.010641
679.825569	0.010627
680.028563	0.010627
680.231540	0.010780
680.434498	0.010853
680.637438	0.011009
680.840359	0.010927
681.043263	0.010842
681.246148	0.010817
681.449015	0.010955
681.651864	0.011035
681.854694	0.011043
682.057506	0.011004
682.260301	0.010853
682.463076	0.010693
682.665834	0.010929
682.868573	0.010930
683.071295	0.011061
683.273998	0.010992
683.476682	0.010990
683.679349	0.010956
683.881997	0.011007
684.084627	0.011268
684.287239	0.011452
684.489833	0.011302
684.692408	0.011291
684.894965	0.011135
685.097504	0.011399
685.300025	0.011394
685.502527	0.011672
685.705012	0.011657
685.907478	0.011705
686.109925	0.011841
686.312355	0.011887
686.514766	0.011878
686.717159	0.011955
686.919534	0.011931
687.121891	0.011937
687.324230	0.011838
687.526550	0.011804
687.728852	0.011710
687.931136	0.011595
688.133401	0.011591
688.335649	0.011601
688.537878	0.011682
688.740089	0.011637
688.942281	0.011614
689.144456	0.011522
689.346612	0.011400
689.548750	0.011454
689.750870	0.011516
689.952971	0.011625
690.155055	0.011744
690.357120	0.011755
690.559167	0.011713
690.761195	0.011709
690.963206	0.011810
691.165198	0.011858
691.367172	0.011681
691.569128	0.011748
691.771065	0.011610
691.972984	0.011548
692.174885	0.011482
692.376768	0.011455
692.578633	0.011458
692.780479	0.011397
692.982308	0.011496
693.184118	0.011640
693.385909	0.011534
693.587683	0.011527
693.789438	0.011563
693.991175	0.011452
694.192894	0.011533
694.394595	0.011786
694.596277	0.011659
694.797941	0.011801
694.999587	0.011805
695.201215	0.011855
695.402824	0.012070
695.604416	0.012157
695.805989	0.012490
696.007543	0.012509
696.209080	0.012461
696.410598	0.012649
696.612099	0.012540
696.813580	0.012577
697.015044	0.012554
697.216490	0.012365
697.417917	0.012289
697.619326	0.012239
697.820717	0.011952
698.022089	0.011810
698.223444	0.011916
698.424780	0.011842
698.626098	0.011856
698.827397	0.011977
699.028679	0.011992
699.229942	0.011895
699.431187	0.011885
699.632414	0.012014
699.833622	0.011872
700.034813	0.011784
700.235985	0.011779
700.437139	0.011504
700.638274	0.011487
700.839392	0.011656
701.040491	0.011779
701.241572	0.011709
701.442635	0.011864
701.643679	0.012036
701.844706	0.012026
702.045714	0.012165
702.246704	0.012386
702.447675	0.012352
702.648629	0.012278
702.849564	0.012339
703.050481	0.012368
703.251380	0.012472
703.452260	0.012584
703.653122	0.012726
703.853966	0.012608
704.054792	0.012561
704.255600	0.012636
704.456389	0.012634
704.657160	0.012691
704.857913	0.012833
705.058648	0.012785
705.259365	0.012702
705.460063	0.012631
705.660743	0.012767
705.861405	0.012780
706.062048	0.012547
706.262674	0.012496
706.463281	0.012571
706.663870	0.012532
706.864441	0.012423
707.064993	0.012382
707.265527	0.012532
707.466043	0.012521
707.666541	0.012610
707.867021	0.012984
708.067482	0.013115
708.267925	0.013097
708.468350	0.013142
708.668757	0.013336
708.869145	0.013476
709.069516	0.013343
709.269868	0.013577
709.470201	0.013706
709.670517	0.013601
709.870814	0.013564
710.071093	0.013440
710.271354	0.013466
710.471597	0.013301
710.671821	0.013331
710.872028	0.013376
711.072216	0.013307
711.272385	0.013297
711.472537	0.013235
711.672670	0.013223
711.872785	0.013253
712.072882	0.012920
712.272961	0.012982
712.473021	0.012951
712.673063	0.012869
712.873087	0.012805
713.073093	0.012655
713.273081	0.012538
713.473050	0.012480
713.673001	0.012390
713.872934	0.012490
714.072849	0.012439
714.272745	0.012243
714.472623	0.012122
714.672483	0.011894
714.872325	0.011927
715.072148	0.012032
715.271954	0.012077
715.471741	0.012217
715.671509	0.012143
715.871260	0.012130
716.070992	0.012284
716.270707	0.012509
716.470403	0.012691
716.670080	0.012716
716.869740	0.012753
717.069381	0.012669
717.269004	0.012541
717.468609	0.012549
717.668195	0.012501
717.867764	0.012272
718.067314	0.012111
718.266846	0.012169
718.466360	0.011964
718.665855	0.011838
718.865332	0.011863
719.064791	0.011787
719.264232	0.011828
719.463655	0.011846
719.663059	0.011856
719.862445	0.011653
720.061813	0.011243
720.261163	0.011170
720.460494	0.011125
720.659807	0.011056
720.859102	0.011014
721.058379	0.011070
721.257638	0.011021
721.456878	0.010981
721.656100	0.011155
721.855304	0.011377
722.054490	0.011469
722.253657	0.011501
722.452806	0.011544
722.651937	0.011839
722.851050	0.011716
723.050145	0.011685
723.249221	0.011925
723.448279	0.011858
723.647319	0.011838
723.846340	0.011805
724.045344	0.011772
724.244329	0.011533
724.443296	0.011254
724.642245	0.011154
724.841175	0.011144
725.040088	0.010979
725.238982	0.010854
725.437857	0.010621
725.636715	0.010511
725.835554	0.010412
726.034376	0.010462
726.233179	0.010155
726.431963	0.010212
726.630730	0.010063
726.829478	0.009834
727.028208	0.009789
727.226920	0.009737
727.425614	0.009707
727.624289	0.009601
727.822946	0.009482
728.021585	0.009633
728.220206	0.009468
728.418808	0.009459
728.617392	0.009416
728.815958	0.009247
729.014506	0.009339
729.213036	0.009329
729.411547	0.009263
729.610040	0.009092
729.808515	0.009054
730.006972	0.009017
730.205410	0.008988
730.403831	0.009046
730.602233	0.009270
730.800616	0.009235
730.998982	0.009199
731.197329	0.009166
731.395658	0.009440
731.593969	0.009363
731.792262	0.009441
731.990536	0.009547
732.188793	0.009649
732.387031	0.009582
732.585250	0.009622
732.783452	0.009536
732.981635	0.009547
733.179800	0.009387
733.377947	0.009510
733.576076	0.009418
733.774186	0.009519
733.972278	0.009540
734.170352	0.009479
734.368408	0.009490
734.566446	0.009397
734.764465	0.009380
734.962466	0.009350
735.160449	0.009357
735.358413	0.009466
735.556360	0.009197
735.754288	0.009228
735.952198	0.009439
736.150090	0.009352
736.347963	0.009690
736.545818	0.010022
736.743655	0.010223
736.941474	0.010165
737.139275	0.010231
737.337057	0.010324
737.534821	0.010185
737.732567	0.010137
737.930295	0.010307
738.128005	0.010235
738.325696	0.010159
738.523369	0.010112
738.721024	0.010285
738.918660	0.010302
739.116279	0.010412
739.313879	0.010504
739.511461	0.010507
739.709024	0.010516
739.906570	0.010657
740.104097	0.010690
740.301606	0.010838
740.499097	0.010650
740.696569	0.010618
740.894024	0.010496
741.091460	0.010486
741.288878	0.010447
741.486277	0.010355
741.683659	0.010233
741.881022	0.010182
742.078367	0.009938
742.275694	0.009968
742.473002	0.010003
742.670293	0.010142
742.867565	0.010292
743.064819	0.010289
743.262054	0.010349
743.459272	0.010347
743.656471	0.010220
743.853652	0.010504
744.050815	0.010763
744.247959	0.010752
744.445085	0.010730
744.642194	0.010443
744.839283	0.010461
745.036355	0.010327
745.233408	0.010287
745.430444	0.010577
745.627461	0.010457
745.824459	0.010280
746.021440	0.010211
746.218402	0.010185
746.415346	0.010242
746.612272	0.010108
746.809180	0.010160
747.006069	0.010117
747.202940	0.009790
747.399793	0.009802
747.596628	0.009841
747.793444	0.009758
747.990243	0.009699
748.187023	0.009709
748.383784	0.009808
748.580528	0.009712
748.777253	0.009728
748.973960	0.009675
749.170649	0.009472
749.367320	0.009450
749.563973	0.009370
749.760607	0.009358
749.957223	0.009392
750.153821	0.009474
750.350400	0.009547
750.546962	0.009518
750.743505	0.009713
750.940030	0.009833
751.136536	0.009876
751.333025	0.010153
751.529495	0.010215
751.725947	0.010251
751.922381	0.010260
752.118796	0.010346
752.315194	0.010448
752.511573	0.010493
752.707934	0.010429
752.904276	0.010438
753.100601	0.010559
753.296907	0.010552
753.493195	0.010704
753.689465	0.010830
753.885716	0.010932
754.081949	0.011205
754.278164	0.011104
754.474361	0.011271
754.670540	0.011377
754.866700	0.011071
755.062843	0.011066
755.258967	0.010986
755.455072	0.010863
755.651160	0.010710
755.847229	0.010434
756.043280	0.010529
756.239313	0.010395
756.435328	0.010221
756.631324	0.010195
756.827302	0.010232
757.023262	0.010180
757.219204	0.010169
757.415127	0.010143
757.611033	0.010107
757.806920	0.009900
758.002788	0.010077
758.198639	0.010125
758.394471	0.010282
758.590286	0.010384
758.786081	0.010295
758.981859	0.010245
759.177619	0.010160
759.373360	0.010203
759.569083	0.010123
759.764788	0.009948
759.960474	0.009911
760.156143	0.010020
760.351793	0.009705
760.547425	0.010057
760.743038	0.010107
760.938634	0.010100
761.134211	0.010035
761.329770	0.010195
761.525311	0.010253
761.720833	0.010251
761.916338	0.010205
762.111824	0.010581
762.307292	0.010371
762.502741	0.010319
762.698173	0.010508
762.893586	0.010633
763.088981	0.010665
763.284358	0.010793
763.479716	0.010799
763.675057	0.010605
763.870379	0.010678
764.065683	0.010710
764.260968	0.010877
764.456236	0.010914
764.651485	0.010803
764.846716	0.010714
765.041929	0.010607
765.237123	0.010658
765.432299	0.010826
765.627457	0.010678
765.822597	0.010814
766.017719	0.010776
766.212822	0.010806
766.407907	0.010941
766.602974	0.011261
766.798023	0.011404
766.993054	0.011452
767.188066	0.011558
767.383060	0.011570
767.578036	0.011282
767.772993	0.011117
767.967933	0.010979
768.162854	0.010895
768.357757	0.010835
768.552642	0.010907
768.747508	0.011031
768.942356	0.010963
769.137186	0.011009
769.331998	0.011321
769.526792	0.011570
769.721567	0.011564
769.916324	0.011623
770.111063	0.011573
770.305784	0.011368
770.500486	0.011065
770.695171	0.011065
770.889837	0.010939
771.084484	0.010749
771.279114	0.010611
771.473725	0.010863
771.668318	0.010923
771.862893	0.010964
772.057450	0.011051
772.251988	0.011171
772.446509	0.011209
772.641011	0.011392
772.835494	0.011425
773.029960	0.011745
773.224407	0.011713
773.418836	0.011647
773.613247	0.011623
773.807640	0.011668
774.002014	0.011979
774.196370	0.011881
774.390708	0.011649
774.585028	0.011646
774.779330	0.011462
774.973613	0.011493
775.167878	0.011628
775.362125	0.011736
775.556354	0.011749
775.750564	0.011473
775.944756	0.011573
776.138930	0.011771
776.333086	0.011742
776.527223	0.011585
776.721343	0.011461
776.915444	0.011327
777.109526	0.011097
777.303591	0.010976
777.497637	0.010975
777.691666	0.011028
777.885676	0.010965
778.079667	0.010972
778.273641	0.011072
778.467596	0.011039
778.661533	0.011138
778.855452	0.011018
779.049352	0.010912
779.243235	0.010777
779.437099	0.010514
779.630945	0.010267
779.824773	0.010248
780.018582	0.010146
780.212373	0.010185
780.406146	0.009922
780.599901	0.009891
780.793638	0.010045
780.987356	0.010071
781.181056	0.010084
781.374738	0.010199
781.568402	0.010231
781.762047	0.010275
781.955674	0.010199
782.149283	0.010330
782.342874	0.010499
782.536447	0.010379
782.730001	0.010379
782.923537	0.010460
783.117055	0.010431
783.310555	0.010302
783.504036	0.009972
783.697499	0.010013
783.890944	0.009965
784.084371	0.009938
784.277780	0.009957
784.471170	0.009980
784.664542	0.009974
784.857896	0.010072
785.051231	0.010102
785.244549	0.010403
785.437848	0.010468
785.631129	0.010736
785.824392	0.010801
786.017636	0.010912
786.210863	0.011015
786.404071	0.011254
786.597260	0.011258
786.790432	0.011409
786.983585	0.011489
787.176721	0.011628
787.369838	0.011604
787.562936	0.011743
787.756017	0.011742
787.949079	0.011841
788.142123	0.011784
788.335149	0.011896
788.528156	0.012069
788.721146	0.012026
788.914117	0.012053
789.107070	0.011984
789.300005	0.012166
789.492921	0.012284
789.685819	0.012228
789.878699	0.012248
790.071561	0.012382
790.264405	0.012305
790.457230	0.012529
790.650037	0.012376
790.842826	0.012410
791.035597	0.012317
791.228349	0.012362
791.421084	0.012487
791.613800	0.012412
791.806497	0.012345
791.999177	0.012345
792.191838	0.012298
792.384481	0.012330
792.577106	0.012400
792.769713	0.012355
792.962301	0.012269
793.154871	0.012071
793.347423	0.012161
793.539957	0.012238
793.732473	0.012161
793.924970	0.012023
794.117449	0.012032
794.309910	0.012113
794.502353	0.012182
794.694777	0.012284
794.887183	0.012413
795.079571	0.012418
795.271941	0.012326
795.464293	0.012359
795.656626	0.012443
795.848941	0.012543
796.041238	0.012584
796.233516	0.012489
796.425777	0.012448
796.618019	0.012495
796.810243	0.012366
797.002449	0.012401
797.194636	0.012380
797.386805	0.012465
797.578956	0.012567
797.771089	0.012371
797.963204	0.012437
798.155300	0.012500
798.347378	0.012658
798.539438	0.012788
798.731480	0.012678
798.923503	0.012699
799.115509	0.012782
799.307496	0.012696
799.499465	0.012613
799.691415	0.012694
799.883348	0.012553
800.075262	0.012306
800.267158	0.012315
800.459035	0.012435
800.650895	0.012648
800.842736	0.012524
801.034559	0.012621
801.226364	0.012882
801.418150	0.012750
801.609919	0.012756
801.801669	0.012943
801.993401	0.012874
802.185114	0.012835
802.376810	0.012618
802.568487	0.012587
802.760146	0.012285
802.951787	0.011896
803.143409	0.011860
803.335014	0.011979
803.526600	0.011712
803.718168	0.011715
803.909717	0.011554
804.101249	0.011450
804.292762	0.011334
804.484257	0.011375
804.675734	0.011459
804.867192	0.011437
805.058632	0.011281
805.250054	0.011319
805.441458	0.011189
805.632844	0.011362
805.824211	0.011366
806.015561	0.011497
806.206891	0.011569
806.398204	0.011750
806.589499	0.012009
806.780775	0.012174
806.972033	0.012314
807.163273	0.012544
807.354495	0.012717
807.545698	0.012742
807.736883	0.012825
807.928050	0.012830
808.119199	0.012910
808.310329	0.012816
808.501441	0.012678
808.692535	0.012803
808.883611	0.013030
809.074669	0.012859
809.265708	0.012883
809.456729	0.012857
809.647732	0.012875
809.838717	0.012801
810.029683	0.012760
810.220632	0.013127
810.411562	0.013067
810.602474	0.013068
810.793367	0.013109
810.984242	0.013294
811.175100	0.013548
811.365938	0.013700
811.556759	0.013777
811.747562	0.013813
811.938346	0.013667
812.129112	0.013787
812.319860	0.013558
812.510589	0.013566
812.701300	0.013749
812.891994	0.013587
813.082668	0.013581
813.273325	0.013618
813.463964	0.013768
813.654584	0.013769
813.845186	0.013580
814.035769	0.013630
814.226335	0.013784
814.416882	0.013625
814.607411	0.013645
814.797922	0.013617
814.988415	0.013498
815.178889	0.013287
815.369345	0.013102
815.559783	0.013218
815.750203	0.013428
815.940605	0.013294
816.130988	0.013135
816.321353	0.013094
816.511700	0.012980
816.702028	0.013095
816.892339	0.013104
817.082631	0.013455
817.272905	0.013568
817.463161	0.013618
817.653398	0.013786
817.843617	0.013978
818.033819	0.014081
818.224001	0.014344
818.414166	0.014548
818.604312	0.014711
818.794440	0.014625
818.984550	0.014534
819.174642	0.014321
819.364716	0.014316
819.554771	0.014396
819.744808	0.014314
819.934827	0.014211
820.124827	0.013951
820.314810	0.014065
820.504774	0.014152
820.694720	0.014228
820.884647	0.014254
821.074557	0.014185
821.264448	0.014052
821.454321	0.014132
821.644176	0.014188
821.834012	0.014237
822.023831	0.014043
822.213631	0.013940
822.403413	0.013857
822.593176	0.013750
822.782922	0.013832
822.972649	0.013918
823.162358	0.013877
823.352049	0.013725
823.541721	0.013877
823.731376	0.013938
823.921012	0.013929
824.110629	0.013957
824.300229	0.014212
824.489811	0.014274
824.679374	0.014433
824.868919	0.014446
825.058445	0.014588
825.247954	0.014578
825.437444	0.014523
825.626916	0.014628
825.816370	0.014786
826.005806	0.014756
826.195223	0.014660
826.384622	0.014789
826.574003	0.014849
826.763366	0.014850
826.952711	0.014778
827.142037	0.014963
827.331345	0.015010
827.520635	0.015028
827.709906	0.015003
827.899160	0.015067
828.088395	0.014696
828.277612	0.014617
828.466810	0.014783
828.655991	0.014885
828.845153	0.014796
829.034297	0.014722
829.223423	0.014510
829.412531	0.014526
829.601620	0.014418
829.790691	0.014570
829.979744	0.014509
830.168779	0.014248
830.357795	0.014219
830.546793	0.014150
830.735773	0.014106
830.924735	0.014123
831.113679	0.014114
831.302604	0.014172
831.491511	0.014024
831.680400	0.014013
831.869271	0.014024
832.058123	0.014159
832.246957	0.014108
832.435773	0.014193
832.624571	0.014206
832.813351	0.014077
833.002112	0.014004
833.190855	0.014105
833.379580	0.014308
833.568287	0.014203
833.756975	0.013888
833.945645	0.013866
834.134297	0.013675
834.322931	0.013851
834.511547	0.014105
834.700144	0.014121
834.888723	0.014000
835.077284	0.014209
835.265826	0.014496
835.454351	0.014682
835.642857	0.014983
835.831345	0.015237
836.019815	0.015292
836.208266	0.015121
836.396699	0.015276
836.585114	0.015411
836.773511	0.015105
836.961890	0.015148
837.150250	0.015324
837.338592	0.015332
837.526916	0.015393
837.715222	0.015465
837.903510	0.015607
838.091779	0.015658
838.280030	0.016124
838.468263	0.016393
838.656477	0.016405
838.844674	0.016476
839.032852	0.016804
839.221012	0.016935
839.409153	0.017075
839.597277	0.017302
839.785382	0.017486
839.973469	0.017346
840.161538	0.017381
840.349589	0.017627
840.537621	0.017830
840.725635	0.017661
840.913631	0.017772
841.101609	0.017626
841.289568	0.017566
841.477509	0.017598
841.665432	0.017684
841.853337	0.017612
842.041224	0.017678
842.229092	0.017523
842.416942	0.017485
842.604774	0.017583
842.792588	0.017708
842.980383	0.017766
843.168160	0.017736
843.355919	0.017783
843.543660	0.017990
843.731382	0.018208
843.919087	0.018393
844.106773	0.018402
844.294441	0.018155
844.482090	0.018099
844.669722	0.018130
844.857335	0.018408
845.044930	0.018449
845.232507	0.018485
845.420065	0.018255
845.607605	0.018307
845.795127	0.018446
845.982631	0.018676
846.170117	0.018845
846.357584	0.018862
846.545033	0.018907
846.732464	0.018821
846.919877	0.018937
847.107272	0.019207
847.294648	0.019372
847.482006	0.019496
847.669346	0.019682
847.856667	0.019915
848.043971	0.020242
848.231256	0.020111
848.418523	0.020191
848.605771	0.019863
848.793002	0.019561
848.980214	0.019209
849.167408	0.019080
849.354584	0.018725
849.541742	0.018563
849.728881	0.018172
849.916002	0.018087
850.103105	0.018239
850.290190	0.018538
850.477256	0.018698
850.664304	0.018920
850.851334	0.019204
851.038346	0.019371
851.225340	0.019360
851.412315	0.019571
851.599272	0.019619
851.786211	0.019619
851.973132	0.019826
852.160034	0.020221
852.346918	0.020330
852.533784	0.020287
852.720632	0.020464
852.907462	0.020703
853.094273	0.020939
853.281066	0.021164
853.467841	0.021152
853.654598	0.021143
853.841336	0.020888
854.028056	0.020976
854.214758	0.021026
854.401442	0.021239
854.588107	0.021319
854.774755	0.021354
854.961384	0.021517
855.147995	0.021885
855.334587	0.021905
855.521162	0.021931
855.707718	0.021817
855.894256	0.021829
856.080775	0.021965
856.267277	0.022017
856.453760	0.022018
856.640225	0.021989
856.826672	0.021830
857.013101	0.021865
857.199511	0.022242
857.385903	0.022302
857.572277	0.022411
857.758633	0.022487
857.944970	0.022604
858.131290	0.022725
858.317591	0.022714
858.503873	0.022981
858.690138	0.023274
858.876384	0.023084
859.062612	0.023429
859.248822	0.023609
859.435014	0.023384
859.621188	0.023494
859.807343	0.023749
859.993480	0.024012
860.179599	0.023874
860.365699	0.023799
860.551781	0.023956
860.737846	0.024136
860.923891	0.024092
861.109919	0.024484
861.295929	0.024729
861.481920	0.024665
861.667893	0.024878
861.853848	0.025170
862.039784	0.025190
862.225702	0.025347
862.411603	0.025068
862.597484	0.025344
862.783348	0.025325
862.969193	0.025250
863.155021	0.025132
863.340830	0.025045
863.526620	0.024916
863.712393	0.025023
863.898147	0.024697
864.083883	0.024840
864.269601	0.024859
864.455301	0.024896
864.640982	0.024835
864.826645	0.024746
865.012290	0.024665
865.197917	0.024688
865.383526	0.024827
865.569116	0.025149
865.754688	0.024992
865.940242	0.024649
866.125777	0.024580
866.311295	0.024286
866.496794	0.024455
866.682275	0.024273
866.867737	0.024074
867.053182	0.023945
867.238608	0.023838
867.424016	0.024019
867.609406	0.024231
867.794778	0.024284
867.980131	0.024376
868.165466	0.024540
868.350783	0.024644
868.536082	0.024777
868.721362	0.024701
868.906625	0.024428
869.091869	0.024313
869.277094	0.024196
869.462302	0.023802
869.647491	0.023682
869.832662	0.023305
870.017815	0.023344
870.202950	0.023096
870.388066	0.023132
870.573165	0.023447
870.758245	0.023418
870.943306	0.023631
871.128350	0.023860
871.313375	0.023955
871.498382	0.024183
871.683371	0.024129
871.868342	0.024147
872.053294	0.023847
872.238229	0.023624
872.423144	0.023655
872.608042	0.023480
872.792922	0.023205
872.977783	0.023489
873.162626	0.023300
873.347451	0.023156
873.532258	0.023170
873.717046	0.023381
873.901816	0.023426
874.086568	0.023344
874.271302	0.023255
874.456017	0.023102
874.640715	0.022933
874.825394	0.023161
875.010055	0.023122
875.194697	0.023206
875.379322	0.023237
875.563928	0.023462
875.748516	0.023423
875.933085	0.023402
876.117637	0.023713
876.302170	0.023451
876.486685	0.023152
876.671182	0.023271
876.855661	0.023528
877.040121	0.023310
877.224563	0.023362
877.408987	0.023402
877.593393	0.023419
877.777780	0.023542
877.962150	0.023507
878.146501	0.023729
878.330833	0.023659
878.515148	0.023680
878.699444	0.024035
878.883722	0.023874
879.067982	0.023981
879.252224	0.024101
879.436447	0.023866
879.620653	0.024041
879.804840	0.023893
879.989008	0.024308
880.173159	0.024108
880.357291	0.023925
880.541405	0.023835
880.725501	0.023896
880.909579	0.023946
881.093638	0.024004
881.277680	0.024109
881.461703	0.024466
881.645707	0.024071
881.829694	0.024029
882.013662	0.024191
882.197612	0.024182
882.381544	0.024165
882.565458	0.024084
882.749353	0.024299
882.933230	0.024476
883.117089	0.024157
883.300930	0.024421
883.484753	0.024365
883.668557	0.024131
883.852343	0.024307
884.036111	0.024341
884.219861	0.024325
884.403592	0.024183
884.587305	0.024099
884.771000	0.024230
884.954677	0.024126
885.138335	0.024140
885.321976	0.024494
885.505598	0.024494
885.689201	0.024510
885.872787	0.024617
886.056354	0.024490
886.239904	0.024233
886.423434	0.023975
886.606947	0.023922
886.790442	0.023854
886.973918	0.023204
887.157376	0.022968
887.340816	0.022891
887.524237	0.023107
887.707641	0.023243
887.891026	0.023363
888.074393	0.023561
888.257741	0.023926
888.441072	0.024058
888.624384	0.024646
888.807678	0.024774
888.990954	0.024873
889.174211	0.024577
889.357451	0.024632
889.540672	0.024485
889.723875	0.024799
889.907059	0.024564
890.090226	0.024607
890.273374	0.024317
890.456504	0.024128
890.639616	0.024078
890.822709	0.024083
891.005785	0.024245
891.188842	0.024640
891.371881	0.024653
891.554901	0.024875
891.737904	0.025112
891.920888	0.025393
892.103854	0.025545
892.286802	0.025512
892.469731	0.025663
892.652643	0.025675
892.835536	0.025484
893.018410	0.025223
893.201267	0.025002
893.384106	0.024925
893.566926	0.024586
893.749728	0.024750
893.932511	0.024771
894.115277	0.024877
894.298024	0.024651
894.480753	0.024584
894.663464	0.024161
894.846157	0.023784
895.028831	0.023613
895.211487	0.023835
895.394125	0.023660
895.576745	0.023607
895.759346	0.023151
895.941930	0.023049
896.124495	0.022893
896.307041	0.023319
896.489570	0.023573
896.672080	0.023389
896.854573	0.023051
897.037046	0.022525
897.219502	0.022327
897.401940	0.022657
897.584359	0.022637
897.766760	0.022661
897.949143	0.022126
898.131507	0.021843
898.313854	0.022044
898.496182	0.022151
898.678492	0.022332
898.860783	0.022418
899.043057	0.022236
899.225312	0.022178
899.407549	0.022194
899.589768	0.022476
899.771968	0.022538
899.954151	0.022575
900.136315	0.022430
900.318461	0.022435
900.500588	0.022373
900.682698	0.022442
900.864789	0.022275
901.046862	0.021971
901.228917	0.022057
901.410953	0.021838
901.592971	0.021407
901.774972	0.021368
901.956953	0.021490
902.138917	0.021388
902.320862	0.021128
902.502790	0.021252
902.684699	0.021411
902.866589	0.021476
903.048462	0.021953
903.230316	0.022165
903.412152	0.021884
903.593970	0.021764
903.775770	0.021977
903.957551	0.021737
904.139314	0.021810
904.321059	0.021838
904.502786	0.021524
904.684494	0.021333
904.866185	0.021184
905.047857	0.021225
905.229510	0.020805
905.411146	0.020616
905.592763	0.020411
905.774363	0.020168
905.955943	0.019667
906.137506	0.019442
906.319051	0.019042
906.500577	0.018806
906.682085	0.019466
906.863575	0.019787
907.045046	0.019417
907.226500	0.019556
907.407935	0.019455
907.589352	0.019682
907.770750	0.019513
907.952131	0.019176
908.133493	0.018757
908.314837	0.018203
908.496163	0.017955
908.677470	0.017640
908.858760	0.017273
909.040031	0.017024
909.221284	0.016879
909.402518	0.017096
909.583735	0.017192
909.764933	0.017110
909.946113	0.016845
910.127275	0.016932
910.308418	0.016988
910.489544	0.017036
910.670651	0.016772
910.851740	0.016581
911.032810	0.016470
911.213863	0.016646
911.394897	0.016760
911.575913	0.016256
911.756911	0.015906
911.937890	0.015549
912.118851	0.015541
912.299794	0.015583
912.480719	0.015622
912.661626	0.015691
912.842514	0.015095
913.023384	0.015343
913.204236	0.015787
913.385070	0.015679
913.565886	0.015867
913.746683	0.015516
913.927462	0.015484
914.108223	0.015083
914.288965	0.014702
914.469690	0.014858
914.650396	0.014633
914.831084	0.014340
915.011754	0.014312
915.192405	0.014606
915.373038	0.014800
915.553653	0.014442
915.734250	0.014503
915.914829	0.014682
916.095389	0.014354
916.275931	0.014335
916.456455	0.014181
916.636961	0.013968
916.817448	0.013690
916.997917	0.013463
917.178368	0.013694
917.358801	0.013362
917.539216	0.012692
917.719612	0.012641
917.899990	0.012246
918.080350	0.012102
918.260692	0.012184
918.441015	0.011874
918.621320	0.011451
918.801607	0.010805
918.981876	0.010667
919.162127	0.010567
919.342359	0.010651
919.522573	0.010240
919.702769	0.010178
919.882947	0.009746
920.063106	0.009013
920.243247	0.009277
920.423370	0.009361
920.603475	0.009386
920.783562	0.008928
920.963630	0.008064
921.143680	0.007905
921.323712	0.007685
921.503725	0.007438
921.683721	0.007672
921.863698	0.007148
922.043657	0.006598
922.223598	0.006315
922.403520	0.006346
922.583424	0.006433
922.763311	0.006229
922.943178	0.005815
923.123028	0.005928
923.302859	0.005702
923.482673	0.005529
923.662467	0.005368
923.842244	0.005045
924.022003	0.004722
924.201743	0.005140
924.381465	0.005065
924.561169	0.004532
924.740854	0.004507
924.920522	0.004093
925.100171	0.003334
925.279802	0.003294
925.459414	0.002987
925.639009	0.002916
925.818585	0.001718
925.998143	0.001847
926.177683	0.002198
926.357205	0.001604
926.536708	0.001670
926.716193	0.001548
926.895660	0.001147
927.075109	0.000665
927.254539	-0.000044
927.433951	0.000062
927.613345	-0.000535
927.792721	-0.000598
927.972079	-0.001320
928.151418	-0.001607
928.330739	-0.001353
928.510042	-0.001266
928.689327	-0.001564
928.868593	-0.001305
929.047841	-0.001455
929.227071	-0.001566
929.406283	-0.002467
929.585476	-0.001672
929.764652	-0.001903
929.943809	-0.002005
930.122948	-0.002299
930.302068	-0.002015
930.481171	-0.002543
930.660255	-0.002685
930.839321	-0.002979
931.018369	-0.003143
931.197398	-0.003665
931.376409	-0.004099
931.555402	-0.004396
931.734377	-0.004676
931.913334	-0.005060
932.092272	-0.005337
932.271192	-0.005923
932.450094	-0.006720
932.628978	-0.006986
932.807844	-0.007911
932.986691	-0.008519
933.165520	-0.009326
933.344331	-0.009823
933.523123	-0.010449
933.701898	-0.010627
933.880654	-0.011200
934.059392	-0.011765
934.238111	-0.011699
934.416813	-0.011541
934.595496	-0.011986
934.774161	-0.012345
934.952808	-0.013001
935.131437	-0.013364
935.310047	-0.013702
935.488639	-0.013637
935.667213	-0.013498
935.845769	-0.013934
936.024306	-0.015008
936.202825	-0.014764
936.381326	-0.014661
936.559809	-0.014619
936.738274	-0.014371
936.916720	-0.014702
937.095148	-0.015248
937.273558	-0.015556
937.451950	-0.016045
937.630323	-0.016113
937.808678	-0.017238
937.987015	-0.016588
938.165334	-0.015998
938.343635	-0.016769
938.521917	-0.017289
938.700181	-0.017279
938.878427	-0.017345
939.056655	-0.017346
939.234864	-0.017163
939.413055	-0.016508
939.591228	-0.017734
939.769383	-0.018411
939.947519	-0.018398
940.125638	-0.017918
940.303738	-0.017595
940.481820	-0.018515
940.659883	-0.018545
940.837929	-0.018773
941.015956	-0.019049
941.193965	-0.019114
941.371955	-0.020136
941.549928	-0.020467
941.727882	-0.021031
941.905818	-0.021025
942.083736	-0.020002
942.261636	-0.020810
942.439517	-0.021457
942.617380	-0.022375
942.795225	-0.023710
942.973052	-0.023013
943.150860	-0.022911
943.328651	-0.022759
943.506423	-0.024531
943.684176	-0.024615
943.861912	-0.024599
944.039629	-0.023965
944.217328	-0.023059
944.395009	-0.021962
944.572672	-0.022318
944.750317	-0.022453
944.927943	-0.022779
945.105551	-0.021159
945.283141	-0.023292
945.460712	-0.023682
945.638265	-0.024590
945.815801	-0.025159
945.993317	-0.025088
946.170816	-0.025496
946.348297	-0.026235
946.525759	-0.026897
946.703203	-0.026539
946.880629	-0.025464
947.058036	-0.025232
947.235425	-0.024743
947.412797	-0.025995
947.590149	-0.027270
947.767484	-0.027403
947.944800	-0.026742
948.122099	-0.026926
948.299379	-0.029095
948.476640	-0.029102
948.653884	-0.029248
948.831109	-0.029312
949.008316	-0.028502
949.185505	-0.028537
949.362676	-0.028551
949.539828	-0.028413
949.716962	-0.028302
949.894078	-0.027438
950.071176	-0.027569
950.248256	-0.026652
950.425317	-0.026942
950.602360	-0.026198
950.779385	-0.024906
950.956391	-0.026197
951.133380	-0.026358
951.310350	-0.026540
951.487302	-0.026305
951.664235	-0.025391
951.841151	-0.025816
952.018048	-0.025470
952.194927	-0.026104
952.371788	-0.026694
952.548631	-0.026153
952.725455	-0.027411
952.902261	-0.026343
953.079049	-0.027349
953.255819	-0.028483
953.432570	-0.028931
953.609303	-0.029319
953.786018	-0.029135
953.962715	-0.028452
954.139394	-0.027432
954.316054	-0.026236
954.492696	-0.026242
954.669320	-0.026054
954.845926	-0.024760
955.022513	-0.025244
955.199083	-0.026283
955.375634	-0.025877
955.552166	-0.025868
955.728681	-0.023930
955.905177	-0.024393
956.081655	-0.025934
956.258115	-0.024585
956.434557	-0.024654
956.610980	-0.022727
956.787385	-0.022198
956.963772	-0.022133
957.140141	-0.021678
957.316492	-0.022976
957.492824	-0.021763
957.669138	-0.019236
957.845434	-0.019842
958.021712	-0.020193
958.197971	-0.021883
958.374212	-0.019753
958.550435	-0.018842
958.726640	-0.018888
958.902826	-0.019842
959.078995	-0.020157
959.255145	-0.021558
959.431277	-0.020002
959.607390	-0.019740
959.783486	-0.018695
959.959563	-0.019773
960.135622	-0.019879
960.311662	-0.021308
960.487685	-0.019026
960.663689	-0.017715
960.839675	-0.017125
961.015643	-0.017891
961.191593	-0.017999
961.367524	-0.017510
961.543437	-0.015945
961.719332	-0.014409
961.895209	-0.012705
962.071067	-0.012558
962.246907	-0.013307
962.422730	-0.011030
962.598533	-0.010173
962.774319	-0.007982
962.950086	-0.008621
963.125835	-0.008905
963.301566	-0.009694
963.477279	-0.008815
963.652973	-0.009817
963.828650	-0.010551
964.004308	-0.011016
964.179947	-0.010913
964.355569	-0.012345
964.531172	-0.010246
964.706757	-0.009011
964.882324	-0.010693
965.057873	-0.010806
965.233403	-0.008397
965.408916	-0.006280
965.584410	-0.005944
965.759885	-0.006822
965.935343	-0.005727
966.110782	-0.007029
966.286203	-0.009408
966.461606	-0.006521
966.636991	-0.005957
966.812357	-0.007372
966.987705	-0.008153
967.163035	-0.009783
967.338347	-0.009334
967.513641	-0.009120
967.688916	-0.008403
967.864173	-0.008631
968.039412	-0.010185
968.214632	-0.010095
968.389835	-0.010162
968.565019	-0.008250
968.740185	-0.008016
968.915333	-0.007514
969.090462	-0.005500
969.265573	-0.005453
969.440667	-0.004060
969.615741	-0.002952
969.790798	-0.003671
969.965836	-0.003450
970.140856	-0.003462
970.315858	-0.002843
970.490842	-0.003071
970.665808	-0.006312
970.840755	-0.006558
971.015684	-0.005756
971.190595	-0.005957
971.365487	-0.005991
971.540362	-0.005857
971.715218	-0.007151
971.890056	-0.006645
972.064875	-0.005686
972.239677	-0.004841
972.414460	-0.003928
972.589225	-0.004557
972.763972	-0.002850
972.938700	-0.003986
973.113411	-0.003682
973.288103	-0.002496
973.462777	-0.004274
973.637432	-0.004603
973.812070	-0.005087
973.986689	-0.005313
974.161290	-0.003932
974.335873	-0.005925
974.510437	-0.005026
974.684984	-0.004390
974.859512	-0.005296
975.034022	-0.004773
975.208513	-0.005614
975.382987	-0.004895
975.557442	-0.004190
975.731879	-0.005220
975.906298	-0.004266
976.080698	-0.004012
976.255080	-0.005506
976.429445	-0.005595
976.603790	-0.005995
976.778118	-0.004515
976.952427	-0.004191
977.126719	-0.004499
977.300992	-0.003952
977.475246	-0.004177
977.649483	-0.002411
977.823701	-0.003605
977.997901	-0.003835
978.172083	-0.003894
978.346247	-0.004157
978.520392	-0.004193
978.694519	-0.005508
978.868628	-0.006770
979.042719	-0.007101
979.216791	-0.008377
979.390845	-0.006606
979.564882	-0.005904
979.738899	-0.003423
979.912899	-0.003657
980.086880	-0.003431
980.260843	-0.003718
980.434788	-0.002985
980.608715	-0.002308
980.782623	-0.001218
980.956514	-0.001104
981.130386	0.000485
981.304240	-0.000998
981.478075	0.000919
981.651892	0.002328
981.825692	0.004556
981.999472	0.005271
982.173235	0.005331
982.346980	0.003382
982.520706	0.004201
982.694414	-0.000136
982.868104	0.001282
983.041775	-0.000662
983.215428	-0.003325
983.389064	-0.003383
983.562680	-0.003086
983.736279	-0.002722
983.909860	-0.002367
984.083422	-0.002014
984.256966	-0.000526
984.430491	0.000149
984.603999	0.000291
984.777488	0.001141
984.950959	-0.000751
985.124412	-0.001906
985.297847	-0.002996
985.471263	-0.001667
985.644661	-0.003034
985.818041	-0.003716
985.991403	-0.004592
986.164747	-0.005492
986.338072	-0.007575
986.511379	-0.006956
986.684668	-0.004836
986.857938	-0.004580
987.031191	-0.005922
987.204425	-0.007092
987.377641	-0.006398
987.550839	-0.006740
987.724018	-0.006987
987.897179	-0.006092
988.070322	-0.006886
988.243447	-0.007915
988.416554	-0.007027
988.589642	-0.007241
988.762712	-0.004597
988.935764	-0.002332
989.108798	-0.003511
989.281813	-0.002544
989.454811	-0.002491
989.627790	-0.000579
989.800751	-0.000438
989.973693	-0.002142
990.146617	-0.001341
990.319524	-0.001785
990.492412	-0.003096
990.665281	-0.002783
990.838133	-0.003342
991.010966	-0.000143
991.183781	-0.001764
991.356578	-0.004109
991.529356	-0.002686
991.702117	-0.002542
991.874859	-0.004091
992.047583	-0.005269
992.220288	-0.004765
992.392976	-0.003971
992.565645	-0.006492
992.738296	-0.006440
992.910929	-0.005173
993.083543	-0.006166
993.256139	-0.006427
993.428718	-0.005874
993.601277	-0.005227
993.773819	-0.005860
993.946342	-0.006046
994.118848	-0.007429
994.291335	-0.007334
994.463803	-0.006755
994.636254	-0.006319
994.808686	-0.005367
994.981100	-0.004929
995.153496	-0.005895
995.325874	-0.004896
995.498233	-0.005077
995.670574	-0.004673
995.842897	-0.005273
996.015202	-0.006255
996.187488	-0.006679
996.359757	-0.006899
996.532007	-0.007109
996.704239	-0.007107
996.876452	-0.007477
997.048648	-0.008289
997.220825	-0.008129
997.392984	-0.008069
997.565124	-0.006395
997.737247	-0.006001
997.909351	-0.006793
998.081437	-0.007140
998.253505	-0.006735
998.425554	-0.006411
998.597586	-0.006851
998.769599	-0.006554
998.941594	-0.005345
999.113571	-0.008345
999.285529	-0.008374
999.457469	-0.008705
999.629391	-0.008917
999.801295	-0.008760
999.973181	-0.009192
1000.145048	-0.007706
1000.316897	-0.006999
1000.488728	-0.006854
1000.660541	-0.005031
1000.832335	-0.004620
1001.004111	-0.005334
1001.175869	-0.006489
1001.347609	-0.006355
1001.519331	-0.007350
1001.691034	-0.008848
1001.862719	-0.009119
1002.034386	-0.010606
1002.206035	-0.011488
1002.377665	-0.013397
1002.549277	-0.013018
1002.720871	-0.011156
1002.892447	-0.010810
1003.064004	-0.011313
1003.235544	-0.011359
1003.407065	-0.012499
1003.578568	-0.012522
1003.750052	-0.011033
1003.921519	-0.010594
1004.092967	-0.009273
1004.264397	-0.008923
1004.435809	-0.010063
1004.607202	-0.008270
1004.778577	-0.007306
1004.949934	-0.006543
1005.121273	-0.004084
1005.292594	-0.005278
1005.463896	-0.003127
1005.635180	-0.005086
1005.806446	-0.006309
1005.977694	-0.004481
1006.148923	-0.004262
1006.320135	-0.005057
1006.491328	-0.005588
1006.662503	-0.007349
1006.833659	-0.006722
1007.004798	-0.006942
1007.175918	-0.005717
1007.347020	-0.005116
1007.518103	-0.005090
1007.689169	-0.004501
1007.860216	-0.004209
1008.031245	-0.005358
1008.202256	-0.004637
1008.373248	-0.004156
1008.544223	-0.005360
1008.715179	-0.005622
1008.886117	-0.006433
1009.057036	-0.006993
1009.227938	-0.007482
1009.398821	-0.006607
1009.569686	-0.004750
1009.740533	-0.005542
1009.911361	-0.006442
1010.082172	-0.005816
1010.252964	-0.005744
1010.423738	-0.006385
1010.594493	-0.006873
1010.765231	-0.007537
1010.935950	-0.007412
1011.106651	-0.006197
1011.277334	-0.006953
1011.447998	-0.005848
1011.618645	-0.005865
1011.789273	-0.005829
1011.959882	-0.005946
1012.130474	-0.005047
1012.301048	-0.005531
1012.471603	-0.004528
1012.642140	-0.005497
1012.812658	-0.005570
1012.983159	-0.005821
1013.153641	-0.005763
1013.324105	-0.005818
1013.494551	-0.006566
1013.664979	-0.007546
1013.835388	-0.007115
1014.005779	-0.007462
1014.176152	-0.008711
1014.346507	-0.008878
1014.516843	-0.009839
1014.687162	-0.009603
1014.857462	-0.010651
1015.027744	-0.008317
1015.198007	-0.007532
1015.368252	-0.007175
1015.538480	-0.008725
1015.708689	-0.008556
1015.878879	-0.007262
1016.049052	-0.007008
1016.219206	-0.007559
1016.389342	-0.006590
1016.559460	-0.008283
1016.729559	-0.008352
1016.899641	-0.007599
1017.069704	-0.008315
1017.239749	-0.005893
1017.409775	-0.006076
1017.579784	-0.005853
1017.749774	-0.005443
1017.919746	-0.004812
1018.089700	-0.002680
1018.259635	-0.003753
1018.429553	-0.005276
1018.599452	-0.004882
1018.769333	-0.005280
1018.939195	-0.005950
1019.109040	-0.007736
1019.278866	-0.009061
1019.448674	-0.010012
1019.618464	-0.011002
1019.788235	-0.011260
1019.957989	-0.010625
1020.127724	-0.010061
1020.297441	-0.011537
1020.467139	-0.012039
1020.636820	-0.010335
1020.806482	-0.009348
1020.976126	-0.010081
1021.145752	-0.009409
1021.315359	-0.009152
1021.484948	-0.009470
1021.654519	-0.008730
1021.824072	-0.008134
1021.993607	-0.008228
1022.163123	-0.008132
1022.332621	-0.009287
1022.502101	-0.007678
1022.671563	-0.007688
1022.841007	-0.008314
1023.010432	-0.007836
1023.179839	-0.009725
1023.349228	-0.010430
1023.518598	-0.008685
1023.687951	-0.010137
1023.857285	-0.011007
1024.026601	-0.012104
1024.195899	-0.013088
1024.365178	-0.011553
1024.534439	-0.012016
1024.703682	-0.010991
1024.872907	-0.011029
1025.042114	-0.012375
1025.211302	-0.011424
1025.380472	-0.009659
1025.549624	-0.010203
1025.718758	-0.009970
1025.887873	-0.009545
1026.056970	-0.009470
1026.226049	-0.009478
1026.395110	-0.008936
1026.564153	-0.007415
1026.733177	-0.007078
1026.902183	-0.007351
1027.071171	-0.006796
1027.240141	-0.007389
1027.409092	-0.008957
1027.578026	-0.010597
1027.746940	-0.011811
1027.915837	-0.010870
1028.084716	-0.012504
1028.253576	-0.011936
1028.422418	-0.011589
1028.591242	-0.009992
1028.760048	-0.010514
1028.928835	-0.009412
1029.097604	-0.008382
1029.266355	-0.007557
1029.435088	-0.007850
1029.603803	-0.007147
1029.772499	-0.009005
1029.941177	-0.008516
1030.109837	-0.010043
1030.278478	-0.009112
1030.447102	-0.009349
1030.615707	-0.007932
1030.784294	-0.008272
1030.952863	-0.009137
1031.121413	-0.008578
1031.289945	-0.007657
1031.458460	-0.008853
1031.626955	-0.008215
1031.795433	-0.009289
1031.963892	-0.008566
1032.132334	-0.009291
1032.300756	-0.009087
1032.469161	-0.008635
1032.637548	-0.010613
1032.805916	-0.010888
1032.974266	-0.011654
1033.142598	-0.012462
1033.310911	-0.012258
1033.479207	-0.014423
1033.647484	-0.014556
1033.815743	-0.014765
1033.983983	-0.015149
1034.152206	-0.013530
1034.320410	-0.012890
1034.488596	-0.012081
1034.656764	-0.011028
1034.824914	-0.010254
1034.993045	-0.009845
1035.161158	-0.009704
1035.329253	-0.007687
1035.497330	-0.006731
1035.665388	-0.006377
1035.833428	-0.007016
1036.001450	-0.005768
1036.169454	-0.008029
1036.337440	-0.006971
1036.505407	-0.005892
1036.673356	-0.005088
1036.841287	-0.006345
1037.009200	-0.006973
1037.177094	-0.007850
1037.344970	-0.006455
1037.512828	-0.008537
1037.680668	-0.007325
1037.848489	-0.007734
1038.016293	-0.007661
1038.184078	-0.008941
1038.351845	-0.010684
1038.519593	-0.010455
1038.687324	-0.009583
1038.855036	-0.009873
1039.022730	-0.009770
1039.190406	-0.008917
1039.358063	-0.008942
1039.525702	-0.007917
1039.693323	-0.010402
1039.860926	-0.006659
1040.028511	-0.008482
1040.196077	-0.007832
1040.363625	-0.008561
1040.531155	-0.008747
1040.698667	-0.008679
1040.866161	-0.008516
1041.033636	-0.010606
1041.201093	-0.005973
1041.368532	-0.008983
1041.535952	-0.007771
1041.703355	-0.008864
1041.870739	-0.008833
1042.038105	-0.007593
1042.205452	-0.008554
1042.372782	-0.008587
1042.540093	-0.006480
1042.707386	-0.008320
1042.874661	-0.006901
1043.041918	-0.006455
1043.209156	-0.007728
1043.376376	-0.008536
1043.543578	-0.008042
1043.710762	-0.009046
1043.877927	-0.008025
1044.045074	-0.010688
1044.212203	-0.011909
1044.379314	-0.013052
1044.546407	-0.013642
1044.713481	-0.012274
1044.880537	-0.013070
1045.047575	-0.012976
1045.214595	-0.012218
1045.381596	-0.015200
1045.548579	-0.014017
1045.715544	-0.012460
1045.882491	-0.012820
1046.049420	-0.012004
1046.216330	-0.012074
1046.383222	-0.010625
1046.550096	-0.010866
1046.716951	-0.010754
1046.883789	-0.008704
1047.050608	-0.008681
1047.217409	-0.008633
1047.384192	-0.007483
1047.550956	-0.007934
1047.717703	-0.008025
1047.884431	-0.007545
1048.051140	-0.009317
1048.217832	-0.009299
1048.384505	-0.008905
1048.551161	-0.010447
1048.717798	-0.010808
1048.884416	-0.010752
1049.051017	-0.010052
1049.217599	-0.011639
1049.384163	-0.012962
1049.550709	-0.011766
1049.717237	-0.012741
1049.883746	-0.013723
1050.050237	-0.014281
1050.216710	-0.013287
1050.383165	-0.013342
1050.549601	-0.015566
1050.716019	-0.015210
1050.882420	-0.015091
1051.048801	-0.015175
1051.215165	-0.013229
1051.381510	-0.014281
1051.547837	-0.011166
1051.714146	-0.012378
1051.880437	-0.012366
1052.046709	-0.010599
1052.212964	-0.009833
1052.379200	-0.009090
1052.545417	-0.012485
1052.711617	-0.013184
1052.877798	-0.013002
1053.043961	-0.013788
1053.210106	-0.012544
1053.376233	-0.012968
1053.542341	-0.013599
1053.708432	-0.011997
1053.874504	-0.012046
1054.040557	-0.007840
1054.206593	-0.006504
1054.372610	-0.005504
1054.538609	-0.004877
1054.704590	-0.006561
1054.870553	-0.008610
1055.036497	-0.009228
1055.202424	-0.011675
1055.368331	-0.009972
1055.534221	-0.010799
1055.700093	-0.012970
1055.865946	-0.013755
1056.031781	-0.015846
1056.197598	-0.016663
1056.363397	-0.012680
1056.529177	-0.013185
1056.694939	-0.012428
1056.860683	-0.015745
1057.026409	-0.015499
1057.192116	-0.014205
1057.357806	-0.013624
1057.523477	-0.012454
1057.689130	-0.011284
1057.854764	-0.013707
1058.020381	-0.013059
1058.185979	-0.012584
1058.351559	-0.011845
1058.517120	-0.011092
1058.682664	-0.011759
1058.848189	-0.012145
1059.013696	-0.012980
1059.179185	-0.012465
1059.344656	-0.010986
1059.510108	-0.008380
1059.675542	-0.009633
1059.840958	-0.008998
1060.006356	-0.011376
1060.171735	-0.011591
1060.337096	-0.012469
1060.502439	-0.011926
1060.667764	-0.012338
1060.833071	-0.013883
1060.998359	-0.017358
1061.163629	-0.016279
1061.328881	-0.015846
1061.494115	-0.015936
1061.659330	-0.016826
1061.824527	-0.014533
1061.989706	-0.012466
1062.154867	-0.013381
1062.320010	-0.013441
1062.485134	-0.012178
1062.650240	-0.012486
1062.815328	-0.014257
1062.980398	-0.011984
1063.145449	-0.010828
1063.310482	-0.012505
1063.475497	-0.013614
1063.640494	-0.012384
1063.805473	-0.010400
1063.970433	-0.009463
1064.135375	-0.008754
1064.300299	-0.007717
1064.465204	-0.008786
1064.630092	-0.009505
1064.794961	-0.009943
1064.959812	-0.010485
1065.124645	-0.010754
1065.289459	-0.011641
1065.454256	-0.012740
1065.619034	-0.014204
1065.783793	-0.013866
1065.948535	-0.012298
1066.113258	-0.012579
1066.277964	-0.009687
1066.442651	-0.009104
1066.607319	-0.010726
1066.771970	-0.009829
1066.936602	-0.009884
1067.101216	-0.008428
1067.265812	-0.007798
1067.430389	-0.009442
1067.594949	-0.007698
1067.759490	-0.010360
1067.924013	-0.012496
1068.088518	-0.011537
1068.253004	-0.011074
1068.417472	-0.011259
1068.581922	-0.011524
1068.746354	-0.012463
1068.910768	-0.011908
1069.075163	-0.012783
1069.239540	-0.012120
1069.403899	-0.012306
1069.568240	-0.011499
1069.732562	-0.012574
1069.896866	-0.012032
1070.061152	-0.012859
1070.225420	-0.013823
1070.389670	-0.013966
1070.553901	-0.014232
1070.718114	-0.014684
1070.882309	-0.011271
1071.046486	-0.012230
1071.210644	-0.013203
1071.374784	-0.012364
1071.538906	-0.011362
1071.703010	-0.009671
1071.867096	-0.008820
1072.031163	-0.008923
1072.195212	-0.007657
1072.359243	-0.008593
1072.523256	-0.007764
1072.687250	-0.007469
1072.851226	-0.007576
1073.015184	-0.007917
1073.179124	-0.008428
1073.343045	-0.010236
1073.506949	-0.008358
1073.670834	-0.009624
1073.834701	-0.012276
1073.998549	-0.015230
1074.162380	-0.015899
1074.326192	-0.016621
1074.489986	-0.015909
1074.653761	-0.016840
1074.817519	-0.012974
1074.981258	-0.014599
1075.144979	-0.012785
1075.308682	-0.011935
1075.472367	-0.008138
1075.636033	-0.007781
1075.799681	-0.007540
1075.963311	-0.007879
1076.126923	-0.007368
1076.290516	-0.010929
1076.454092	-0.008910
1076.617649	-0.009717
1076.781187	-0.010059
1076.944708	-0.011359
1077.108210	-0.009708
1077.271695	-0.010069
1077.435160	-0.011466
1077.598608	-0.010947
1077.762038	-0.010269
1077.925449	-0.012423
1078.088842	-0.014758
1078.252217	-0.011417
1078.415573	-0.011734
1078.578912	-0.014532
1078.742232	-0.015208
1078.905534	-0.013735
1079.068817	-0.013491
1079.232083	-0.013150
1079.395330	-0.011941
1079.558559	-0.010885
1079.721770	-0.013889
1079.884962	-0.012914
1080.048136	-0.011706
1080.211293	-0.012026
1080.374430	-0.011077
1080.537550	-0.011317
1080.700651	-0.012903
1080.863735	-0.012326
1081.026800	-0.010366
1081.189846	-0.008616
1081.352875	-0.008026
1081.515885	-0.007080
1081.678877	-0.004837
1081.841851	-0.006455
1082.004807	-0.005535
1082.167744	-0.006022
1082.330663	-0.005387
1082.493564	-0.005202
1082.656447	-0.006151
1082.819312	-0.005598
1082.982158	-0.005726
1083.144986	-0.004843
1083.307796	-0.003782
1083.470587	-0.004097
1083.633361	-0.001028
1083.796116	-0.001911
1083.958853	-0.003118
1084.121571	-0.004838
1084.284272	-0.006342
1084.446954	-0.005839
1084.609618	-0.009186
1084.772264	-0.009682
1084.934892	-0.009883
1085.097501	-0.010976
1085.260092	-0.013425
1085.422665	-0.016240
1085.585220	-0.014933
1085.747756	-0.016322
1085.910274	-0.018296
1086.072774	-0.015076
1086.235256	-0.016588
1086.397720	-0.018923
1086.560165	-0.019865
1086.722592	-0.018974
1086.885001	-0.016674
1087.047392	-0.015394
1087.209764	-0.013764
1087.372119	-0.013552
1087.534455	-0.014303
1087.696772	-0.012019
1087.859072	-0.010581
1088.021353	-0.009849
1088.183616	-0.009668
1088.345861	-0.009507
1088.508088	-0.008531
1088.670296	-0.008662
1088.832486	-0.009272
1088.994658	-0.012535
1089.156812	-0.014865
1089.318948	-0.013311
1089.481065	-0.013166
1089.643164	-0.012084
1089.805245	-0.012267
1089.967308	-0.015653
1090.129352	-0.015182
1090.291378	-0.014440
1090.453386	-0.012587
1090.615376	-0.012425
1090.777347	-0.011667
1090.939301	-0.010675
1091.101236	-0.012299
1091.263153	-0.011089
1091.425051	-0.010512
1091.586932	-0.011303
1091.748794	-0.010728
1091.910638	-0.011085
1092.072463	-0.010546
1092.234271	-0.012742
1092.396060	-0.014289
1092.557831	-0.014753
1092.719584	-0.016397
1092.881319	-0.013310
1093.043035	-0.012213
1093.204733	-0.013673
1093.366413	-0.011896
1093.528075	-0.012199
1093.689718	-0.013420
1093.851343	-0.013174
1094.012950	-0.011071
1094.174539	-0.009659
1094.336110	-0.011571
1094.497662	-0.011496
1094.659196	-0.009897
1094.820712	-0.013272
1094.982210	-0.013571
1095.143689	-0.012061
1095.305151	-0.011047
1095.466594	-0.011821
1095.628018	-0.015188
1095.789425	-0.014920
1095.950813	-0.015107
1096.112183	-0.016221
1096.273535	-0.015053
1096.434869	-0.017671
1096.596184	-0.018493
1096.757482	-0.016856
1096.918761	-0.017949
1097.080021	-0.016203
1097.241264	-0.017271
1097.402488	-0.017900
1097.563694	-0.016716
1097.724882	-0.014624
1097.886052	-0.014610
1098.047203	-0.016367
1098.208336	-0.019810
1098.369451	-0.021033
1098.530548	-0.017403
1098.691627	-0.018010
1098.852687	-0.018050
1099.013729	-0.019318
1099.174753	-0.019721
1099.335758	-0.016977
1099.496746	-0.012344
1099.657715	-0.012458
1099.818666	-0.011516
1099.979599	-0.015849
1100.140513	-0.015417
1100.301409	-0.016876
1100.462287	-0.018359
1100.623147	-0.018983
1100.783989	-0.019939
1100.944812	-0.021250
1101.105617	-0.021171
1101.266404	-0.018254
1101.427173	-0.015821
1101.587923	-0.016159
1101.748656	-0.014146
1101.909370	-0.010153
1102.070066	-0.011685
1102.230743	-0.008190
1102.391403	-0.003648
1102.552044	-0.003440
1102.712667	-0.005246
1102.873271	-0.007405
1103.033858	-0.009052
1103.194426	-0.013891
1103.354976	-0.014351
1103.515508	-0.014934
1103.676021	-0.017519
1103.836517	-0.020961
1103.996994	-0.021587
1104.157453	-0.021409
1104.317893	-0.020072
1104.478316	-0.018628
1104.638720	-0.014202
1104.799106	-0.013574
1104.959474	-0.014343
1105.119823	-0.013823
1105.280155	-0.014116
1105.440468	-0.015481
1105.600763	-0.016691
1105.761039	-0.014717
1105.921298	-0.014242
1106.081538	-0.014525
1106.241760	-0.018643
1106.401964	-0.017016
1106.562149	-0.017885
1106.722316	-0.018885
1106.882465	-0.017794
1107.042596	-0.015638
1107.202709	-0.017291
1107.362803	-0.016758
1107.522879	-0.017958
1107.682937	-0.014763
1107.842977	-0.015121
1108.002999	-0.015548
1108.163002	-0.017689
1108.322987	-0.016872
1108.482954	-0.023040
1108.642902	-0.022789
1108.802833	-0.023542
1108.962745	-0.020958
1109.122639	-0.023315
1109.282515	-0.022585
1109.442372	-0.021096
1109.602211	-0.018636
1109.762032	-0.016441
1109.921835	-0.011579
1110.081620	-0.012272
1110.241386	-0.010488
1110.401134	-0.012281
1110.560864	-0.012946
1110.720576	-0.012780
1110.880269	-0.014615
1111.039945	-0.018359
1111.199602	-0.019133
1111.359240	-0.019600
1111.518861	-0.019564
1111.678463	-0.022533
1111.838047	-0.024712
1111.997613	-0.023664
1112.157161	-0.021687
1112.316690	-0.020294
1112.476202	-0.019195
1112.635695	-0.022652
1112.795169	-0.022806
1112.954626	-0.021602
1113.114064	-0.018807
1113.273484	-0.017201
1113.432886	-0.013728
1113.592270	-0.014069
1113.751635	-0.011939
1113.910983	-0.008718
1114.070312	-0.002651
1114.229622	-0.003426
1114.388915	-0.001667
1114.548189	-0.001993
1114.707445	-0.002223
1114.866683	-0.003854
1115.025903	-0.006604
1115.185104	-0.011769
1115.344287	-0.012335
1115.503452	-0.014998
1115.662599	-0.016800
1115.821727	-0.024340
1115.980838	-0.021619
1116.139930	-0.023566
1116.299004	-0.022675
1116.458059	-0.022573
1116.617097	-0.023690
1116.776116	-0.023754
1116.935117	-0.024182
1117.094099	-0.023044
1117.253064	-0.023333
1117.412010	-0.027316
1117.570938	-0.023539
1117.729848	-0.026502
1117.888740	-0.025019
1118.047613	-0.018648
1118.206468	-0.021741
1118.365305	-0.024871
1118.524124	-0.022665
1118.682924	-0.020221
1118.841707	-0.020621
1119.000471	-0.018499
1119.159216	-0.019771
1119.317944	-0.017241
1119.476653	-0.019165
1119.635344	-0.021233
1119.794017	-0.017152
1119.952672	-0.015373
1120.111308	-0.012701
1120.269927	-0.016901
1120.428527	-0.022459
1120.587108	-0.020323
1120.745672	-0.021949
1120.904217	-0.019330
1121.062744	-0.017345
1121.221253	-0.016813
1121.379744	-0.018312
1121.538216	-0.018753
1121.696671	-0.011883
1121.855107	-0.009812
1122.013524	-0.007920
1122.171924	-0.011329
1122.330305	-0.011989
1122.488668	-0.008009
1122.647013	-0.008810
1122.805340	-0.011212
1122.963648	-0.013116
1123.121938	-0.016726
1123.280210	-0.017856
1123.438464	-0.017346
1123.596700	-0.016047
1123.754917	-0.018358
1123.913116	-0.020713
1124.071297	-0.020890
1124.229459	-0.019401
1124.387604	-0.017033
1124.545730	-0.015380
1124.703838	-0.018191
1124.861928	-0.022847
1125.019999	-0.025451
1125.178052	-0.023189
1125.336088	-0.019668
1125.494104	-0.023297
1125.652103	-0.023724
1125.810083	-0.022650
1125.968045	-0.025712
1126.125989	-0.023052
1126.283915	-0.021589
1126.441823	-0.019643
1126.599712	-0.018790
1126.757583	-0.021090
1126.915436	-0.019182
1127.073270	-0.020573
1127.231087	-0.026249
1127.388885	-0.020252
1127.546665	-0.021024
1127.704426	-0.016118
1127.862170	-0.016241
1128.019895	-0.020741
1128.177602	-0.026570
1128.335291	-0.026900
1128.492961	-0.026347
1128.650614	-0.023929
1128.808248	-0.024879
1128.965864	-0.022305
1129.123461	-0.028326
1129.281041	-0.028300
1129.438602	-0.024518
1129.596145	-0.019252
1129.753670	-0.016418
1129.911176	-0.014394
1130.068665	-0.010186
1130.226135	-0.014837
1130.383587	-0.016582
1130.541020	-0.016744
1130.698436	-0.012741
1130.855833	-0.015535
1131.013212	-0.021027
1131.170573	-0.024492
1131.327915	-0.020513
1131.485239	-0.022791
1131.642545	-0.021766
1131.799833	-0.021959
1131.957103	-0.022285
1132.114354	-0.021866
1132.271588	-0.020712
1132.428803	-0.018989
1132.585999	-0.019867
1132.743178	-0.023978
1132.900338	-0.025070
1133.057480	-0.021133
1133.214604	-0.024270
1133.371710	-0.017524
1133.528797	-0.020595
1133.685866	-0.023224
1133.842917	-0.022728
1133.999950	-0.019009
1134.156964	-0.019344
1134.313960	-0.021568
1134.470938	-0.018185
1134.627898	-0.014208
1134.784840	-0.018767
1134.941763	-0.019296
1135.098668	-0.014888
1135.255555	-0.010980
1135.412424	-0.010334
1135.569274	-0.010242
1135.726107	-0.006055
1135.882921	-0.010952
1136.039716	-0.007080
1136.196494	-0.011228
1136.353253	-0.008762
1136.509995	-0.013717
1136.666717	-0.019919
1136.823422	-0.023463
1136.980109	-0.022217
1137.136777	-0.022754
1137.293427	-0.024366
1137.450059	-0.024813
1137.606672	-0.022801
1137.763267	-0.027964
1137.919844	-0.021959
1138.076403	-0.020629
1138.232944	-0.021056
1138.389466	-0.025877
1138.545971	-0.028168
1138.702457	-0.030310
1138.858924	-0.033252
1139.015374	-0.029461
1139.171805	-0.030680
1139.328218	-0.034428
1139.484613	-0.031556
1139.640990	-0.033299
1139.797348	-0.030520
1139.953688	-0.029249
1140.110010	-0.026148
1140.266314	-0.025530
1140.422600	-0.018686
1140.578867	-0.012904
1140.735116	-0.011720
1140.891347	-0.010280
1141.047559	-0.008218
1141.203754	-0.003186
1141.359930	0.002394
1141.516088	0.000590
1141.672228	0.004910
1141.828349	-0.003723
1141.984452	-0.004581
1142.140537	-0.003323
1142.296604	-0.001914
1142.452653	-0.001883
1142.608683	-0.003954
1142.764695	-0.006286
1142.920689	-0.002360
1143.076665	-0.009279
1143.232622	-0.008088
1143.388562	-0.009267
1143.544483	-0.015834
1143.700385	-0.016724
1143.856270	-0.016233
1144.012136	-0.016542
1144.167985	-0.018745
1144.323814	-0.018757
1144.479626	-0.014334
1144.635420	-0.018865
1144.791195	-0.021656
1144.946952	-0.014275
1145.102691	-0.012206
1145.258411	-0.011021
1145.414113	-0.012300
1145.569798	-0.014209
1145.725463	-0.019047
1145.881111	-0.014424
1146.036741	-0.011559
1146.192352	-0.004993
1146.347945	-0.015639
1146.503519	-0.017691
1146.659076	-0.016718
1146.814614	-0.015035
1146.970134	-0.010343
1147.125636	-0.012711
1147.281120	-0.021990
1147.436585	-0.022675
1147.592032	-0.027348
1147.747461	-0.025046
1147.902872	-0.030599
1148.058265	-0.029995
1148.213639	-0.024726
1148.368995	-0.029173
1148.524333	-0.025946
1148.679653	-0.028753
1148.834954	-0.033004
1148.990237	-0.030221
1149.145502	-0.025476
1149.300749	-0.018731
1149.455977	-0.025790
1149.611188	-0.034204
1149.766380	-0.030207
1149.921553	-0.032570
1150.076709	-0.030094
1150.231846	-0.020763
1150.386966	-0.016358
1150.542066	-0.016730
1150.697149	-0.012527
1150.852214	-0.009694
1151.007260	-0.006690
1151.162288	-0.003402
1151.317298	-0.003049
1151.472289	0.001325
1151.627263	0.003530
1151.782218	-0.002882
1151.937155	-0.003149
1152.092073	0.001172
1152.246974	0.001212
1152.401856	-0.013133
1152.556720	-0.018772
1152.711566	-0.015528
1152.866393	-0.012779
1153.021203	-0.028386
1153.175994	-0.032711
1153.330767	-0.035122
1153.485521	-0.040658
1153.640258	-0.038457
1153.794976	-0.034116
1153.949676	-0.033039
1154.104358	-0.032476
1154.259021	-0.034699
1154.413667	-0.026008
1154.568294	-0.016132
1154.722903	-0.009112
1154.877493	-0.015787
1155.032066	-0.018750
1155.186620	-0.008839
1155.341156	-0.012852
1155.495674	-0.018334
1155.650173	-0.024506
1155.804654	-0.025795
1155.959118	-0.026276
1156.113562	-0.029711
1156.267989	-0.030915
1156.422397	-0.025267
1156.576788	-0.028661
1156.731160	-0.027473
1156.885513	-0.021685
1157.039849	-0.020414
1157.194166	-0.018329
1157.348465	-0.014142
1157.502746	-0.018146
1157.657009	-0.016562
1157.811253	-0.024832
1157.965479	-0.023707
1158.119687	-0.021312
1158.273877	-0.031043
1158.428048	-0.021886
1158.582201	-0.019982
1158.736337	-0.024841
1158.890453	-0.021474
1159.044552	-0.025463
1159.198632	-0.024983
1159.352694	-0.026473
1159.506738	-0.014546
1159.660764	-0.003362
1159.814771	-0.019046
1159.968761	-0.025335
1160.122732	-0.032391
1160.276685	-0.035233
1160.430619	-0.032588
1160.584535	-0.027217
1160.738434	-0.027946
1160.892313	-0.035492
1161.046175	-0.036510
1161.200019	-0.023962
1161.353844	-0.013193
1161.507651	-0.005708
1161.661440	-0.006022
1161.815210	0.005876
1161.968962	0.001461
1162.122697	0.012472
1162.276412	0.007064
1162.430110	0.013042
1162.583789	0.011477
1162.737451	0.007390
1162.891094	0.009815
1163.044718	0.019657
1163.198325	0.002992
1163.351913	0.007688
1163.505483	-0.003951
1163.659035	-0.013663
1163.812569	-0.017812
1163.966084	-0.020041
1164.119581	-0.021321
1164.273060	-0.021279
1164.426521	-0.020064
1164.579964	-0.011607
1164.733388	-0.009922
1164.886794	-0.002449
1165.040182	0.006703
1165.193551	0.006334
1165.346903	0.009031
1165.500236	-0.011006
1165.653551	-0.015174
1165.806848	-0.017899
1165.960126	-0.012097
1166.113386	-0.010431
1166.266628	-0.015198
1166.419852	-0.023033
1166.573058	-0.016642
1166.726245	-0.024300
1166.879414	-0.002934
1167.032565	-0.006176
1167.185698	-0.009803
1167.338812	-0.015276
1167.491909	-0.030179
1167.644987	-0.027520
1167.798046	-0.035118
1167.951088	-0.042194
1168.104111	-0.029807
1168.257117	-0.030628
1168.410103	-0.030598
1168.563072	-0.038173
1168.716023	-0.028534
1168.868955	-0.012239
1169.021869	-0.023091
1169.174765	-0.014915
1169.327642	-0.010014
1169.480501	-0.017313
1169.633343	-0.015899
1169.786165	-0.006088
1169.938970	0.003445
1170.091757	-0.008139
1170.244525	-0.024994
1170.397275	-0.011187
1170.550007	0.004846
1170.702720	0.003844
1170.855415	0.002738
1171.008092	-0.001033
1171.160751	-0.010420
1171.313392	-0.011834
1171.466014	-0.017958
1171.618619	-0.009077
1171.771205	-0.009077
1171.923772	-0.009077
