sample name	sample
index	1357
start time	 05-03-2021  01:41:31 PM
880	0.105452
Peak Time (s)	90.537
Peak Height 	0.1055
calc peak height	90,93
Baseline Time (s)	10.535
Baseline Value 	-0.005436
subtract baseline	10,4
Abs	0.090489
Peak Time (s)	92.046
Peak Height 	0.09049
calc peak height	90,93
Baseline Time (s)	10.535
Baseline Value 	0.004018
subtract baseline	10,3
PK_550	0.052627
Peak Time (s)	91.538
Peak Height 	0.05263
calc peak height	90,93
Baseline Time (s)	10.034
Baseline Value 	6.9681E-4
subtract baseline	10,2
PK_880	0.094079
Peak Time (s)	91.538
Peak Height 	0.09408
calc peak height	90,93
Baseline Time (s)	9.537
Baseline Value 	0.003441
subtract baseline	10,1


Time (s)	A880-A510	A880-A775	A880-A975	A880	I510	I775	I975	I880	
0.040500	0.001053	0.000055	-0.008132	0.003497	6136.536115	42440.204993	3893.221538	22040.489284
0.537500	-0.001445	0.000724	-0.005584	0.004997	6107.325690	42364.721015	3895.561544	21974.629646
1.034500	-0.002587	-0.000014	-0.003245	0.006406	6088.833885	42170.512851	3897.641363	21912.985715
1.536000	-0.001312	-0.000343	-0.002822	0.002474	6126.705958	42496.941765	3907.441885	22085.524527
2.038500	-0.001495	0.000723	-0.004335	0.002550	6124.810600	42587.160583	3903.855052	22082.172310
2.536000	-0.001984	0.000330	-0.003152	0.002469	6121.822970	42558.750980	3906.708509	22085.739183
3.036000	-0.000707	-0.000854	-0.006987	0.001677	6136.974319	42522.985116	3899.854245	22120.678645
3.536500	0.000020	0.000087	0.003132	0.000983	6147.431568	42672.226539	3924.428381	22151.370271
4.036500	0.002873	0.000173	-0.000872	0.001425	6165.233927	42639.625712	3914.249414	22131.825021
4.534500	-0.000835	0.000546	-0.001791	0.000988	6141.102592	42713.729834	3913.153913	22151.151163
5.037500	-0.001216	-0.000042	-0.002116	0.001630	6133.588357	42601.270060	3910.955680	22122.759984
5.537500	-0.000689	0.000082	-0.002844	0.000753	6143.908449	42692.798513	3911.295807	22161.566518
6.035000	-0.001324	0.000211	-0.001687	0.001493	6133.804371	42636.907803	3912.242254	22128.823997
6.538000	-0.000565	-0.000145	0.002110	0.000679	6145.356808	42678.767498	3922.776668	22164.805240
7.036000	-0.000543	0.000393	-0.002604	0.000836	6144.370418	42713.679351	3911.651185	22157.891327
7.535500	0.000148	0.001090	-0.003334	0.001173	6146.966981	42746.587687	3909.229965	22142.959093
8.036500	-0.000317	0.000168	-0.004855	0.000053	6151.801103	42764.645128	3908.320854	22192.544272
8.536500	-0.000872	-0.000432	0.002579	-0.000546	6152.120233	42764.617351	3926.675673	22219.109468
9.036500	0.000646	0.000398	-0.001094	0.000261	6157.370770	42766.739779	3916.398967	22183.341162
9.537500	0.000000	-0.000128	-0.003450	-0.000141	6155.572105	42755.422681	3911.949689	22201.166792
10.034500	0.000111	0.000000	0.002407	-0.000116	6156.206608	42764.798865	3925.289397	22200.047673
10.535000	-0.001141	0.000322	0.000000	0.000000	6146.116068	42783.631306	3919.495999	22194.902292
11.041000	-0.000767	-0.000200	-0.000905	0.000185	6147.512647	42718.969526	3917.004753	22186.707785
11.536000	0.000174	0.000676	0.000392	0.000751	6150.272011	42747.308212	3918.674507	22161.638319
12.036000	-0.002936	-0.000679	-0.006429	-0.000597	6137.312668	42746.700975	3906.233978	22221.409099
12.536500	0.001171	0.000564	-0.004021	0.000768	6157.508718	42735.488449	3908.590732	22160.885852
13.036500	0.000600	0.000583	0.000782	0.001493	6147.941760	42670.825185	3917.867284	22128.807210
13.536500	-0.002665	-0.000177	-0.002405	0.000481	6131.386075	42693.881205	3912.909804	22173.571668
14.037000	-0.000697	0.000510	0.000083	0.002317	6132.365795	42589.088698	3914.395026	22092.473811
14.537000	-0.001089	-0.000645	-0.002806	0.002117	6130.949452	42501.999193	3908.287649	22101.269208
15.034500	-0.002989	0.000178	0.002577	0.000526	6128.690448	42722.338855	3924.203655	22171.611761
15.538000	-0.002163	-0.000251	-0.004715	0.000225	6136.950553	42710.537678	3908.247902	22184.914170
16.035000	0.000305	0.000345	-0.004119	0.000598	6152.361988	42730.944087	3908.753626	22168.398250
16.536000	0.001764	0.000641	-0.005328	0.001015	6160.063185	42719.948982	3905.078434	22149.952835
17.036000	0.000031	0.000251	0.006409	-0.002484	6173.147037	43005.427547	3940.067900	22305.332911
17.535500	-0.001546	-0.000251	-0.003804	0.000831	6137.027087	42655.195099	3908.938295	22158.083422
18.036500	-0.000504	0.000197	0.001109	0.001655	6138.633109	42620.866532	3918.247295	22121.690403
18.537000	-0.000438	0.000410	-0.000090	0.001330	6141.507544	42669.984890	3916.250050	22136.020456
19.037000	-0.001493	0.000535	-0.005248	0.002048	6128.498645	42615.802787	3902.929502	22104.320946
19.537500	0.002055	0.000777	0.000243	0.001995	6154.971891	42642.830795	3915.492713	22106.680592
20.038000	-0.000770	0.000132	0.001665	0.001243	6139.710410	42652.562206	3920.463550	22139.888825
20.535500	-0.000345	0.000535	-0.003345	0.001440	6141.383677	42671.405158	3908.600957	22131.169834
21.035500	-0.001179	0.000510	-0.000654	0.001702	6133.328914	42645.155922	3914.114338	22119.580942
21.535500	-0.001656	-0.000502	0.000293	0.001028	6134.775840	42614.206938	3917.814386	22149.363109
22.036500	0.000605	0.000614	-0.000499	0.001691	6146.520822	42655.695896	3914.494504	22120.086477
22.536500	0.000057	0.000714	0.000015	0.001990	6140.293183	42637.512935	3914.985492	22106.886885
23.037000	0.000870	0.000783	0.002297	0.001979	6146.359158	42644.833105	3920.224417	22107.379093
23.536500	-0.001556	0.000191	-0.005620	0.001603	6131.295756	42625.100327	3903.094565	22123.983541
24.037500	-0.002426	-0.000212	-0.003129	0.001398	6126.429962	42607.031332	3909.185330	22133.028666
24.537500	-0.000939	0.000376	0.003101	0.001521	6136.422080	42649.425954	3923.120548	22127.585906
25.035000	0.000331	0.000435	-0.001235	0.001759	6144.002572	42633.125824	3912.664646	22117.077510
25.535500	0.000736	0.001176	0.000230	0.001984	6145.327460	42680.181246	3915.486103	22107.128944
26.036000	-0.002118	0.000041	0.001699	0.001240	6129.836823	42644.487600	3920.548759	22140.010019
26.536000	-0.002007	0.000362	0.000704	0.001620	6127.868044	42639.081611	3917.399500	22123.200302
27.036500	0.001617	0.001355	0.001473	0.000248	6164.650413	42855.707904	3922.304460	22183.918590
27.539000	-0.000736	0.000439	-0.002915	0.000640	6144.390033	42735.765747	3911.389725	22166.537914
28.036000	0.000524	0.000331	0.000144	0.000579	6154.127303	42731.493682	3918.500716	22169.269207
28.537500	0.000299	0.000370	0.000489	0.000973	6149.556527	42699.009824	3918.389067	22151.811070
29.038000	-0.001295	0.000361	0.003573	0.000986	6137.738667	42696.915779	3925.437779	22151.236864
29.534500	0.000715	0.000918	0.004512	0.001445	6149.142879	42705.909526	3926.543437	22130.946938
30.035000	-0.001064	0.001320	0.004149	0.001344	6136.805095	42751.985894	3925.938700	22135.403290
30.535500	-0.000662	0.001045	0.003371	0.002986	6127.720264	42576.856615	3920.379789	22062.999608
31.036000	-0.002077	-0.000138	-0.003051	0.002050	6124.210831	42554.347847	3907.886069	22104.246319
31.536000	-0.000019	0.001274	0.004341	0.001412	6143.979745	42741.537071	3926.225171	22132.392941
32.039500	0.000690	0.000430	-0.000764	0.000541	6155.631592	42744.018442	3916.511958	22170.936998
32.537000	0.001740	0.000068	-0.000106	0.000660	6162.509842	42699.950993	3917.742037	22165.653514
33.037000	-0.001591	-0.000182	0.003263	0.000903	6136.171036	42654.969457	3924.914033	22154.918700
33.540000	0.001760	0.001084	0.002390	-0.000813	6173.581535	42928.360519	3926.857037	22231.000551
34.035000	-0.001211	0.000255	-0.004955	0.001888	6131.739691	42604.877410	3903.951001	22111.390827
34.535000	-0.000130	0.000559	-0.001752	0.002294	6136.685477	42595.551470	3910.274531	22093.471285
35.035000	-0.000814	0.001021	0.000458	0.002356	6131.214479	42632.026415	3915.159575	22090.719873
35.535500	-0.001843	-0.000194	0.000777	0.001528	6129.742008	42596.796047	3917.777118	22127.282272
36.036000	-0.001565	-0.000369	0.001872	0.001528	6131.778872	42580.808572	3920.281963	22127.261910
36.536000	-0.000999	-0.000041	0.001080	0.001954	6132.806469	42571.843224	3917.496121	22108.471831
37.036500	0.000497	0.000937	-0.004873	0.002754	6137.913129	42588.157819	3902.185230	22073.206448
37.537000	-0.001595	0.000107	0.000943	0.001887	6128.932451	42591.489374	3917.337065	22111.422294
38.040000	0.000468	0.000972	0.002802	0.002138	6142.226783	42647.528601	3921.017283	22100.362728
38.537000	-0.002244	0.000556	0.001420	0.001873	6124.286426	42633.753496	3918.458267	22112.044119
39.035000	-0.000886	0.000466	-0.003098	0.002275	6131.286072	42588.821930	3907.270349	22094.323354
39.535500	0.000226	0.000497	0.001677	0.001709	6143.598806	42643.260437	3919.422221	22119.275804
40.035500	0.000119	0.000746	0.000841	0.001703	6142.862472	42666.643448	3917.523405	22119.554623
40.535000	-0.001015	0.000499	0.002682	0.001272	6137.697560	42683.511867	3922.729554	22138.609858
41.036000	-0.002007	0.000130	-0.000583	0.001666	6127.530733	42613.711653	3914.360615	22121.183516
41.536500	0.000199	0.000143	0.002497	0.001317	6146.290628	42646.857350	3922.201900	22136.625586
42.036500	-0.001002	0.000381	-0.001189	0.001988	6132.536995	42607.226542	3912.248038	22106.959229
42.540000	-0.001713	-0.000397	0.001137	0.001074	6134.020237	42619.637776	3919.639734	22147.341359
43.037000	0.001244	0.001118	-0.003838	0.002663	6144.074560	42612.963827	3904.723211	22077.215265
43.535000	-0.003791	-0.000069	0.005947	0.000815	6120.713701	42673.290517	3931.315490	22158.806110
44.034500	0.003463	0.001525	0.003477	-0.002436	6198.371237	43118.617660	3933.128582	22303.204463
44.538500	-0.000666	0.000104	-0.000737	0.000135	6148.622015	42751.352180	3917.500183	22188.907102
45.035500	0.000249	-0.000015	0.000491	0.000516	6152.563179	42705.597842	3919.440106	22172.051780
45.536000	-0.000747	-0.000573	-0.003507	-0.000449	6152.327353	42742.820594	3912.517227	22214.804777
46.036500	0.001182	0.000327	-0.001481	-0.000014	6163.363966	42785.348591	3916.141104	22195.507093
46.536500	0.002655	0.000618	0.000518	0.000426	6171.020398	42771.691224	3919.705697	22176.015054
47.039500	0.000985	0.000533	0.001075	0.000847	6155.551155	42725.496001	3920.018850	22157.409194
47.537000	-0.001902	0.000032	-0.002262	0.001663	6128.325369	42605.040118	3910.549366	22121.312501
48.037000	0.000881	0.000353	-0.000036	-0.000234	6162.776895	42808.005254	3919.950253	22205.300714
48.535000	-0.001185	-0.000060	-0.002948	0.001283	6136.368472	42631.354230	3909.856116	22138.127000
49.035000	-0.001733	0.000446	0.000458	0.000390	6138.898086	42759.278690	3919.653178	22177.631108
49.535500	0.001497	0.000730	0.002345	-0.002432	6183.661057	43044.852543	3930.495409	22303.035320
50.035500	-0.000543	0.000803	-0.000641	-0.001416	6160.979711	42957.999868	3921.272288	22257.795082
50.535000	0.002594	0.003244	0.003912	0.011629	6088.527355	41993.554280	3901.981092	21686.179137
51.036000	0.022181	-0.000995	0.011396	0.142302	5379.957780	31575.307512	3660.718818	16815.599531
51.539500	0.015943	-0.015957	-0.010867	0.133063	5396.812979	31200.922163	3638.986571	17113.916243
52.037000	-0.003285	-0.031720	-0.044614	-0.136708	7307.372156	53631.762193	4154.388989	29317.953175
52.537500	0.007621	-0.101744	-0.028509	-0.298396	9434.154032	65535.000000	4776.275305	41215.586818
53.037500	0.011526	-0.085095	-0.018915	-0.277823	9189.961256	64972.347203	4730.062754	39444.776686
53.535000	0.010089	-0.072114	-0.017313	-0.261690	8942.511179	64523.966370	4670.667811	38113.636082
54.035500	0.004403	-0.038269	-0.018161	-0.207277	8167.934827	61677.113917	4462.106330	33971.756468
54.535500	-0.004637	-0.034470	-0.024417	-0.201950	7998.121584	61471.014085	4421.656828	33593.505478
55.036000	-0.003970	-0.032478	-0.022822	-0.201077	7995.720926	61621.959517	4424.147092	33531.935456
55.536000	0.000113	-0.043280	-0.019626	-0.223101	8308.403649	63157.034913	4513.775680	35123.272623
56.039500	0.007578	-0.026343	-0.010082	-0.190547	8007.559685	61031.357850	4431.794396	32799.119145
56.536500	0.007986	-0.014492	-0.008998	-0.138196	7437.321029	55862.420381	4264.031303	29408.493071
57.037000	0.010833	-0.007604	-0.004501	-0.097009	7058.064172	51846.445449	4155.558579	27013.753805
57.537000	0.017089	-0.002097	0.000809	-0.080237	6959.754396	50595.074203	4123.509501	26101.816885
58.040500	0.025044	0.005412	0.007588	-0.052766	6783.512224	48455.926377	4067.750606	24682.193573
58.535000	0.025625	0.010361	0.014994	-0.029177	6585.660031	46545.394219	4025.956227	23532.849782
59.035500	0.031189	0.015265	0.019073	-0.019525	6551.581391	46071.664852	4011.919741	23080.247842
59.536000	0.034888	0.020305	0.027847	0.004923	6383.511229	44188.220303	3973.395135	21977.875166
60.035500	0.043723	0.022276	0.029184	0.022738	6313.223309	42711.845958	3934.366321	21212.800172
60.539000	0.046707	0.024136	0.030878	0.023616	6329.575283	42801.818333	3936.263640	21175.893141
61.036500	0.052372	0.029242	0.042430	0.057576	6116.341201	40241.892600	3885.413682	19804.338847
61.537000	0.053445	0.030764	0.043602	0.055272	6141.071218	40571.711919	3893.132353	19894.068276
62.037000	0.052619	0.033764	0.038710	0.060777	6094.873574	40355.431733	3870.230070	19680.512455
62.537500	0.049311	0.036302	0.039296	0.059574	6079.658637	40678.820013	3874.131554	19726.939588
63.035000	0.050134	0.037423	0.045994	0.057852	6098.064916	40926.447310	3892.713646	19793.660979
63.535000	0.054082	0.039127	0.040361	0.055084	6147.144505	41319.205741	3886.349009	19901.395530
64.038500	0.052363	0.040410	0.046508	0.053814	6143.832163	41545.224753	3902.907554	19951.046852
64.535500	0.056916	0.040973	0.045787	0.052839	6184.760642	41682.055326	3903.478104	19989.278699
65.039000	0.055470	0.041792	0.049170	0.053346	6170.247848	41709.921011	3909.979556	19969.410567
65.536000	0.055630	0.041774	0.044766	0.054665	6161.661400	41590.857857	3897.086511	19917.757194
66.036500	0.055475	0.043377	0.049066	0.059120	6127.741213	41338.117504	3896.739998	19744.519730
66.537000	0.057419	0.043991	0.048223	0.061888	6121.714271	41148.336514	3888.693680	19637.752363
67.037500	0.057726	0.043948	0.054346	0.064100	6107.824567	40950.651683	3897.412884	19552.941836
67.537500	0.062312	0.044422	0.056383	0.062314	6154.513726	41148.770257	3906.006773	19621.373522
68.034500	0.061838	0.045581	0.058117	0.061712	6155.463703	41303.875766	3911.299112	19644.529921
68.535000	0.061946	0.047365	0.055250	0.063241	6144.978439	41326.373785	3901.365459	19585.806154
69.035500	0.064578	0.047887	0.056625	0.063665	6161.270431	41334.985389	3903.506283	19569.561171
69.538500	0.067287	0.049186	0.061502	0.065264	6169.496889	41308.489343	3910.918567	19508.460320
70.035500	0.068148	0.048757	0.056925	0.065973	6170.619202	41208.204650	3898.992472	19481.435132
70.538500	0.062950	0.049478	0.057599	0.072837	6082.380203	40671.287603	3885.211506	19222.103508
71.036500	0.068473	0.049361	0.063651	0.068003	6158.002704	41082.929123	3909.581281	19404.310355
71.537000	0.066309	0.049698	0.062179	0.067875	6142.990539	41123.696713	3906.537508	19409.156738
72.034500	0.068140	0.050666	0.062138	0.068934	6148.675920	41115.765406	3904.057537	19369.065365
72.535000	0.064437	0.049942	0.059942	0.073021	6091.794390	40695.580985	3889.996090	19215.204519
73.035000	0.068651	0.050706	0.058513	0.067919	6159.933043	41208.428498	3898.190051	19407.482929
73.535500	0.067951	0.051562	0.057847	0.069151	6145.680088	41175.356099	3893.946651	19360.837412
74.037500	0.067971	0.052078	0.063061	0.070024	6139.408723	41143.995199	3903.680142	19327.879571
74.536000	0.066165	0.052503	0.062680	0.076691	6077.769752	40599.350826	3887.926273	19078.244684
75.036500	0.069193	0.052005	0.058637	0.072288	6131.768990	40939.211977	3888.725301	19242.687987
75.536500	0.066408	0.052295	0.062911	0.073625	6101.699352	40847.757701	3895.263934	19192.563011
76.037000	0.069089	0.053130	0.067804	0.075310	6108.938530	40773.707760	3902.457431	19129.635240
76.537000	0.067362	0.053648	0.064369	0.082137	6047.312751	40228.662329	3879.635467	18877.166272
77.034500	0.071428	0.052992	0.064277	0.078203	6104.911050	40510.895564	3888.115452	19022.164073
77.535000	0.069565	0.052581	0.063701	0.079761	6080.145310	40341.081783	3883.395918	18964.575014
78.035500	0.068755	0.053244	0.067926	0.081441	6062.247444	40253.673013	3889.027937	18902.719375
78.538000	0.069360	0.053120	0.070628	0.088177	6018.604267	39669.558947	3880.115335	18657.074501
79.035500	0.071839	0.052993	0.066239	0.085041	6058.554064	39924.679304	3877.365711	18770.970016
79.536000	0.074122	0.053511	0.070484	0.085395	6072.392086	39938.531882	3885.933831	18758.051924
80.036500	0.076184	0.053109	0.067121	0.086669	6078.066104	39796.248865	3875.729405	18711.727876
80.536500	0.071765	0.051677	0.071245	0.092804	6002.936896	39160.265921	3871.337449	18490.513916
81.037000	0.076013	0.052496	0.069719	0.090266	6051.031824	39441.071857	3873.546268	18581.652771
81.537500	0.079556	0.052570	0.070384	0.090421	6075.326701	39434.156920	3874.658312	18576.054256
82.034500	0.078686	0.053709	0.070965	0.092295	6055.642275	39372.612277	3871.838284	18508.757156
82.535500	0.080830	0.051362	0.076933	0.092287	6071.069027	39177.024183	3884.952817	18509.022044
83.038500	0.078405	0.051063	0.077209	0.094360	6038.897850	38979.886036	3880.990862	18434.904249
83.535000	0.081343	0.053087	0.076873	0.096135	6047.191157	39000.622275	3876.356606	18371.723229
84.035500	0.082816	0.052600	0.076416	0.096475	6055.281297	38932.066326	3874.611577	18359.632139
84.536500	0.086213	0.052237	0.081244	0.097327	6073.537720	38831.601529	3883.345362	18329.418553
85.037000	0.083594	0.051112	0.079380	0.099127	6041.904008	38590.950399	3875.294825	18265.771584
85.537000	0.087606	0.051376	0.080744	0.098740	6073.389445	38644.329506	3879.132601	18279.433489
86.037000	0.086465	0.051616	0.076907	0.099377	6060.622449	38611.734300	3869.355077	18256.940579
86.537500	0.088286	0.052134	0.079821	0.100360	6066.634223	38573.601745	3873.563172	18222.328902
87.035000	0.087416	0.050934	0.082110	0.101728	6050.615855	38363.754266	3875.575823	18174.275342
87.540500	0.087941	0.051151	0.086267	0.100959	6059.866500	38444.207322	3886.418811	18201.251046
88.035000	0.087010	0.051288	0.089332	0.100917	6053.508719	38458.844329	3893.320793	18202.744340
88.535500	0.090464	0.051670	0.087895	0.101522	6073.933136	38440.586111	3888.777597	18181.479080
89.036500	0.091175	0.051831	0.085593	0.101277	6080.819884	38473.765463	3884.225088	18190.081658
89.536500	0.090533	0.052079	0.086860	0.101477	6074.762506	38477.757319	3886.584632	18183.081386
90.037000	0.090014	0.051796	0.084930	0.101463	6071.130491	38455.707801	3882.352489	18183.574739
90.537000	0.089012	0.050696	0.084220	0.105452	6035.456205	38042.421763	3872.050684	18044.213205
91.037500	0.090865	0.051786	0.090095	0.101334	6078.184783	38465.466917	3894.092021	18188.099738
91.537500	0.094079	0.052627	0.087151	0.102181	6095.280305	38464.952551	3885.670184	18158.391327
92.046000	0.093212	0.052100	0.090489	0.101481	6094.075084	38479.071842	3894.645151	18182.941029
92.535500	0.088428	0.050866	0.084678	0.104393	6038.831741	38141.841624	3875.364783	18081.094642
93.036000	0.092077	0.052758	0.091719	0.101107	6088.568611	38563.521863	3898.230401	18196.066651
93.535500	0.093587	0.051934	0.081740	0.100611	6103.098451	38536.693606	3877.212371	18213.488571
94.115500	0.092280	0.053056	0.093513	0.101475	6087.375743	38557.854580	3901.432403	18183.156166
94.536500	0.090036	0.051737	0.085933	0.105841	6039.972187	38095.113505	3874.941634	18030.692053
95.036500	0.089210	0.052104	0.086897	0.103009	6054.275884	38354.732521	3883.279622	18129.393660
95.539500	0.093109	0.052456	0.091257	0.100979	6096.957820	38549.283937	3897.483358	18200.553325
96.037500	0.091920	0.050745	0.089224	0.099782	6097.020964	38507.287426	3895.614442	18242.689789
96.540500	0.092339	0.052475	0.085735	0.106169	6054.050286	38128.272368	3873.790377	18019.277627
