sample name	sample
index	1234
start time	 04-29-2021  11:19:24 AM
880	0.042779
Peak Time (s)	91.537
Peak Height 	0.04278
calc peak height	90,93
Baseline Time (s)	11.037
Baseline Value 	-0.002149
subtract baseline	10,4
Abs	0.024801
Peak Time (s)	92.037
Peak Height 	0.0248
calc peak height	90,93
Baseline Time (s)	8.536
Baseline Value 	0.001018
subtract baseline	10,3
PK_550	0.013026
Peak Time (s)	90.535
Peak Height 	0.01303
calc peak height	90,93
Baseline Time (s)	10.536
Baseline Value 	2.4812E-4
subtract baseline	10,2
PK_880	0.022260
Peak Time (s)	91.036
Peak Height 	0.02226
calc peak height	90,93
Baseline Time (s)	11.037
Baseline Value 	-1.343E-4
subtract baseline	10,1


Time (s)	A880-A510	A880-A775	A880-A975	A880	I510	I775	I975	I880	
0.035500	-0.003030	-0.000023	-0.002720	0.007198	6137.336087	43640.376084	3862.530557	22512.785066
0.539000	-0.000671	-0.000292	-0.005501	0.004954	6172.060001	43826.092854	3861.285313	22614.514413
1.036500	-0.001864	-0.000600	0.002668	0.003350	6175.186717	43948.472731	3884.160623	22687.590398
1.536500	-0.000244	0.000216	0.003133	0.000672	6207.972090	44280.022592	3891.625873	22810.148500
2.037500	-0.001363	-0.000042	0.000780	0.006226	6157.199421	43729.874048	3872.945886	22556.774588
2.537000	0.000542	0.000804	-0.002234	0.000767	6213.280139	44327.144574	3878.687367	22805.820681
3.034500	0.002390	0.000166	0.000428	-0.001148	6242.299304	44449.028085	3889.519080	22893.883915
3.535000	-0.000248	-0.000370	-0.004685	0.001118	6204.526295	44181.796111	3872.109882	22789.686757
4.038000	-0.002074	0.000611	0.000019	0.005027	6160.891221	43904.479513	3873.973704	22611.231385
4.535500	0.001720	0.001071	0.004782	0.001546	6216.339115	44278.224282	3893.475630	22770.057760
5.035500	0.000317	0.000446	0.003552	0.001147	6208.637820	44256.708155	3891.493637	22788.379843
5.536500	-0.003929	-0.000371	0.000414	0.000513	6181.053822	44239.362541	3885.542458	22817.486400
6.036500	-0.000102	-0.000682	-0.002417	0.000554	6209.972540	44205.825599	3878.756188	22815.581934
6.536500	0.001190	-0.000009	0.003670	0.000297	6221.878692	44294.397500	3893.805240	22827.397542
7.037500	-0.001818	-0.000030	-0.001734	-0.000017	6201.192954	44322.346205	3881.713479	22841.824151
7.534500	-0.001934	0.000718	0.000720	0.000278	6198.053393	44365.492426	3886.824901	22828.259746
8.034500	0.001519	-0.000074	-0.004680	-0.000115	6227.587740	44327.483358	3875.010454	22846.335914
8.535500	0.000713	-0.000116	0.000000	0.000061	6220.026764	44306.757483	3885.632848	22838.259806
9.035500	-0.000684	-0.000128	-0.001736	-0.000222	6211.454991	44332.448244	3882.193347	22851.241435
9.535500	-0.003006	-0.000011	-0.002263	-0.000457	6195.475853	44366.071648	3881.503712	22862.053404
10.036500	0.002094	0.000505	-0.000562	0.000108	6230.302141	44361.444265	3884.190076	22836.076497
10.536000	-0.000955	0.000000	0.002333	-0.000721	6213.213339	44392.436315	3893.043324	22874.247701
11.036500	0.000000	0.001002	0.001102	0.000000	6215.006668	44419.289584	3888.392989	22841.046089
11.537000	0.001554	0.001333	0.000184	0.000079	6226.356086	44443.394804	3886.024668	22837.410211
12.037000	-0.000722	-0.000472	-0.001388	-0.001183	6218.546882	44391.418736	3885.290018	22895.513442
12.534500	0.002595	0.000760	-0.000921	-0.000094	6235.732180	44405.102434	3883.815538	22845.346321
13.035000	0.000274	0.001074	-0.001561	-0.001277	6226.945924	44548.377486	3885.102337	22899.842254
13.538000	0.001632	-0.000181	0.004171	-0.001896	6242.226031	44487.480601	3900.258527	22928.411420
14.035500	0.000281	0.000474	-0.000040	0.002147	6200.697684	44164.252724	3880.605429	22742.560818
14.536000	0.000881	0.000027	-0.002806	0.000851	6215.238443	44245.047750	3877.143016	22801.967985
15.035500	0.000213	0.000767	0.001119	-0.001294	6226.605697	44520.630876	3891.512193	22900.638668
15.536500	-0.001107	-0.000554	0.001083	-0.002003	6221.900580	44462.026707	3893.118531	22933.363415
16.036500	-0.003181	-0.000426	-0.003907	0.000782	6184.698980	44208.486287	3874.721865	22805.136678
16.540000	0.002191	-0.000054	-0.001106	-0.001568	6244.017532	44468.203741	3886.872394	22913.283004
17.037500	-0.000077	-0.000178	0.002825	-0.003850	6244.120154	44675.325731	3901.721061	23018.850873
17.540000	-0.000119	0.000449	-0.000264	0.000319	6211.645411	44335.941536	3884.396314	22826.392491
18.035500	-0.003098	-0.000148	-0.001080	0.000046	6190.939959	44305.054297	3883.111099	22838.948628
18.535500	-0.000741	-0.000448	-0.002457	-0.000243	6211.189717	44304.005424	3880.543510	22852.246249
19.035500	0.000384	0.000517	0.002216	0.000609	6213.278706	44314.758352	3889.593237	22813.057476
19.536000	0.001445	0.000439	-0.002178	0.000831	6219.729375	44286.209422	3878.669103	22802.885654
20.036000	0.001255	0.000365	0.004294	0.000503	6220.792892	44310.425185	3894.803157	22817.940825
20.536500	-0.000848	0.000568	0.004572	0.000216	6206.842811	44357.159547	3896.155384	22831.121468
21.037000	-0.000835	-0.000092	-0.001395	-0.000229	6210.356937	44336.622950	3883.017783	22851.598823
21.537000	-0.002017	0.000254	0.003066	0.000208	6197.954527	44327.949493	3892.573371	22831.469408
22.035000	0.001300	0.000328	0.001712	0.000824	6218.666056	44276.317005	3887.884718	22803.212209
22.535000	0.000207	0.000374	0.002920	-0.000068	6217.122288	44365.683022	3892.883064	22844.163764
23.038000	0.000149	-0.000337	0.002711	-0.000161	6217.386278	44306.756494	3892.608607	22848.447544
23.535500	-0.001973	0.000099	0.001485	-0.000254	6201.822517	44357.245150	3889.905856	22852.714665
24.036000	-0.001985	0.000204	0.005619	0.000257	6197.822804	44318.525957	3898.567291	22829.224518
24.536000	-0.001179	0.000310	-0.001254	-0.000275	6208.064089	44379.392886	3883.457836	22853.681575
25.036500	-0.000192	0.000638	0.002577	0.000540	6209.386209	44332.923955	3890.615115	22816.215552
25.536500	-0.002205	-0.000474	0.005187	-0.000825	6204.421352	44357.094197	3900.128098	22879.030943
26.037500	-0.000407	-0.000096	-0.000690	-0.000269	6213.951946	44340.107142	3884.779871	22853.436689
26.537000	-0.000362	0.000220	0.001396	-0.000225	6213.953181	44366.059453	3889.627268	22851.399328
27.037500	0.000932	0.000725	0.004722	-0.002277	6239.755510	44610.950055	3902.504614	22946.035904
27.538000	-0.000938	0.000514	0.003199	-0.002258	6225.159611	44588.790966	3898.793893	22945.126324
28.035500	-0.000933	-0.000256	0.002469	0.001162	6198.948427	44188.531493	3888.879623	22787.685162
28.536000	-0.001186	-0.000544	0.004812	-0.002459	6224.799028	44506.588600	3903.157670	22954.426409
29.036000	0.002068	0.000496	0.001937	-0.001418	6241.905568	44506.635054	3893.762119	22906.380968
29.536000	0.000579	0.001124	0.002231	-0.001600	6231.795413	44584.257480	3894.898796	22914.768921
30.036500	-0.000929	-0.000400	0.005960	-0.000878	6214.614365	44369.114846	3902.115652	22881.445513
30.536500	-0.000769	-0.000622	0.000155	0.000560	6204.804020	44210.908900	3884.815779	22815.289788
31.037500	-0.002701	-0.000145	-0.002780	0.000591	6189.808703	44253.417506	3877.815076	22813.890650
31.535000	0.001346	-0.000077	0.001048	-0.002095	6241.551952	44516.484130	3893.255346	22937.611069
32.035000	0.000919	0.000618	0.002337	-0.000008	6222.135962	44383.339002	3891.351330	22841.410932
32.535000	0.000955	-0.000100	0.000249	-0.001898	6237.001977	44495.468433	3890.880861	22928.530750
33.035500	0.000422	-0.000576	-0.001953	-0.002245	6235.557768	44483.083658	3886.467492	22944.526334
33.535500	0.001062	-0.000775	0.005082	-0.004016	6254.253926	44633.906116	3907.573811	23026.581417
34.036000	-0.001136	-0.000586	-0.001005	0.001135	6197.601849	44159.748883	3880.715493	22788.938681
34.536500	-0.000992	0.000535	0.002583	0.001152	6198.574010	44264.784208	3889.176027	22788.160583
35.036500	-0.001544	0.000196	0.004056	0.000443	6199.776364	44300.033198	3894.378131	22820.703189
35.537000	0.000769	-0.000163	0.006445	0.000681	6215.684651	44243.168433	3899.533724	22809.770689
36.037500	-0.000326	-0.000403	0.002983	0.000641	6207.583295	44224.037180	3891.342552	22811.590264
36.537500	-0.000529	-0.001147	-0.002435	-0.000172	6212.263313	44230.586104	3880.423531	22848.936267
37.037500	-0.001991	-0.000464	-0.003340	-0.000144	6200.841215	44292.979228	3878.227553	22847.656636
37.535500	-0.000957	0.000128	0.001164	0.000562	6203.355809	44282.173145	3887.204172	22815.201985
38.035500	0.000620	0.000143	0.001934	0.001019	6211.948532	44240.131772	3887.948513	22794.264998
38.536000	-0.000503	0.000127	-0.000372	0.000717	6205.641790	44267.305863	3883.197203	22808.091976
39.036500	0.000650	-0.000076	0.000263	0.000804	6213.821705	44239.654303	3884.495568	22804.106866
39.536500	0.000940	0.000267	-0.000299	0.001102	6213.757524	44243.937811	3882.459696	22790.422558
40.036500	0.000306	0.000595	0.001233	0.001238	6207.849903	44262.293241	3885.763587	22784.190901
40.537000	-0.001196	0.000078	-0.002779	0.000921	6198.780735	44243.234920	3877.043022	22798.732180
41.035000	-0.000943	-0.000182	0.000920	0.000527	6203.729090	44255.991877	3886.709948	22816.837561
41.535000	-0.001858	0.000079	0.004906	0.000713	6195.314238	44263.143809	3895.764614	22808.303142
42.035500	-0.000448	0.000077	0.002949	0.000883	6204.795917	44246.707887	3890.686259	22800.472857
42.535500	-0.001916	-0.000300	0.003976	0.000532	6196.254925	44244.346487	3893.975570	22816.616284
43.035500	-0.002377	-0.000014	0.002978	0.000764	6190.962391	44249.385751	3891.038867	22805.957517
43.536500	-0.001223	-0.000302	0.001157	0.000031	6205.383977	44291.718355	3888.448143	22839.601195
44.036500	-0.000015	0.000588	0.003109	0.000533	6210.793560	44328.795025	3891.900329	22816.533896
44.537000	-0.000581	0.000470	0.002088	-0.001635	6223.117263	44524.854161	3894.639970	22916.364369
45.037000	0.002787	0.000669	0.001025	-0.001124	6245.191675	44495.027731	3890.884545	22892.810156
45.537000	0.000502	0.000395	0.006490	-0.001091	6227.265597	44465.593957	3903.905316	22891.274778
46.034500	-0.002352	-0.000109	0.001438	0.002909	6174.828901	44036.609827	3882.295907	22707.723723
46.537000	-0.000008	0.000747	0.002092	-0.001735	6228.302631	44561.000740	3894.888950	22920.972992
47.035500	0.001551	-0.000097	-0.000345	-0.002118	6243.317365	44516.797535	3889.989412	22938.691565
47.535500	0.000509	0.000562	-0.001015	0.001714	6205.762495	44213.746817	3879.325843	22762.378534
48.035500	-0.002402	0.000076	-0.000912	0.003265	6171.744084	44020.408300	3875.921510	22691.465893
48.536000	0.001729	-0.000302	0.007752	-0.002439	6247.181749	44527.918397	3910.221254	22953.497008
49.036000	0.001009	0.000535	0.004544	-0.001858	6237.112108	44552.466993	3901.065302	22926.666984
49.537000	0.002615	0.000271	0.007725	-0.003466	6262.058189	44681.605708	3912.650444	23001.060018
50.037000	0.001906	0.000466	0.003369	0.002558	6209.998924	44124.417714	3887.700273	22723.746680
50.537500	0.001888	0.000286	0.000534	0.002380	6211.233246	44124.262824	3881.410396	22731.912187
51.037500	0.025597	-0.022032	-0.007331	0.421799	4218.149800	17803.349926	3239.495619	10431.567159
51.535000	0.002821	-0.036949	-0.016797	-0.078371	6900.987638	48469.644554	4042.601702	26790.522426
52.035000	0.003140	-0.107815	-0.019351	-0.286941	9385.863496	65474.630206	4762.742872	41536.831708
52.536000	0.000743	-0.106527	-0.013794	-0.286071	9337.105951	65535.000000	4783.437094	41459.520106
53.036000	-0.000033	-0.078280	-0.005359	-0.250561	8819.353892	64496.004462	4666.951015	38429.767508
53.536500	0.001583	-0.057584	-0.005702	-0.222449	8467.718040	63453.021866	4552.117562	36200.945189
54.036500	-0.004882	-0.035801	-0.009783	-0.183932	7917.733539	61163.869465	4393.669941	33372.161083
54.537000	-0.011884	-0.037798	-0.018794	-0.193543	7948.101900	62194.634335	4395.796049	34054.711586
55.037000	-0.010717	-0.043422	-0.014268	-0.204493	8091.549014	62926.300992	4451.647191	34850.964785
55.534500	-0.005274	-0.033437	-0.013529	-0.183932	7913.182674	61482.045719	4380.464415	33372.159761
56.040500	-0.001231	-0.021965	-0.006041	-0.138549	7455.997325	57081.253844	4253.104174	30345.687274
56.535500	-0.002336	-0.013476	-0.005058	-0.087388	6936.911288	52010.103583	4100.679343	27292.350769
57.035500	-0.004740	-0.009128	-0.008968	-0.073093	6783.798299	50897.888878	4049.591060	26501.562319
57.535500	-0.000426	-0.006102	-0.000037	-0.060924	6713.791859	49897.918231	4040.728947	25848.636815
58.036000	-0.001911	-0.004584	-0.005745	-0.033396	6465.910297	47165.324466	3953.459679	24437.320987
58.536500	-0.000304	-0.001211	-0.005244	-0.032855	6474.734894	47455.095310	3953.359684	24410.504802
59.036500	0.001554	0.000652	-0.006271	-0.024812	6423.868448	46825.294948	3930.682867	24015.211298
59.537000	0.003176	0.003518	0.002036	-0.005994	6286.219515	45241.030442	3904.990007	23118.605969
60.037000	0.001430	0.001095	0.003015	-0.000180	6227.402508	44445.393159	3893.380438	22849.345996
60.540500	0.003413	0.004357	-0.002831	0.008374	6177.108656	43942.123064	3859.553952	22459.668336
61.035000	0.003809	0.003690	0.001561	0.019260	6098.371149	42864.531619	3844.661477	21974.740431
61.535500	0.004215	0.003154	0.000913	0.025208	6057.536101	42272.187233	3829.763441	21714.874790
62.038500	0.000247	0.005943	-0.000442	0.023378	6041.925353	42693.262029	3830.827166	21794.443282
62.536000	-0.000826	0.006239	-0.000751	0.019710	6060.885451	43058.151497	3838.394821	21954.945301
63.036500	0.003116	0.007016	-0.001937	0.016883	6110.878701	43392.845595	3842.112152	22079.569672
63.536000	0.004171	0.007489	0.005492	0.010934	6163.440203	43996.199295	3872.954683	22344.524839
64.036500	0.005706	0.009448	0.005895	0.011585	6170.132380	44120.123384	3872.375026	22315.338324
64.537000	0.005895	0.008860	0.002014	0.008402	6195.802344	44367.347609	3870.744348	22458.420561
65.038000	0.005185	0.008998	0.006469	0.008624	6188.686835	44359.279888	3880.680257	22448.408015
65.537500	0.006052	0.009597	-0.000123	0.008669	6194.959287	44412.157044	3865.142248	22446.363436
66.035500	0.004819	0.007962	0.002451	0.008817	6184.423380	44242.055968	3870.793407	22439.680210
66.535500	0.007538	0.008470	0.003530	0.005213	6232.925829	44635.443206	3881.795227	22602.784354
67.036000	0.007461	0.007855	0.004800	0.003522	6245.411938	44738.928550	3888.810131	22679.734750
67.536000	0.004683	0.006843	0.004554	0.002943	6228.403276	44697.288017	3889.600673	22706.152310
68.036000	0.004805	0.007271	0.001103	0.006302	6203.520488	44416.107389	3873.523580	22553.329664
68.537000	0.005253	0.007279	0.005503	0.004195	6223.143252	44618.741871	3888.881654	22649.054588
69.037000	0.005124	0.007312	0.006876	0.003530	6227.273947	44685.903059	3893.737400	22679.362835
69.534000	0.004315	0.007498	0.001395	0.005113	6208.877895	44551.702065	3876.998989	22607.302373
70.037500	0.007593	0.008319	0.004623	0.007275	6217.449669	44423.214166	3879.508791	22509.278452
70.535000	0.006222	0.008767	0.006550	0.009607	6189.102261	44243.536753	3878.555131	22404.136611
71.035500	0.006500	0.008251	0.005462	0.011617	6175.919197	44003.671443	3871.286806	22313.923873
71.536000	0.007210	0.008129	0.008531	0.014882	6156.572922	43684.323598	3870.829470	22168.285206
72.036000	0.004508	0.008990	0.007314	0.018259	6110.999258	43448.616241	3860.151787	22018.802022
72.535000	0.008140	0.008848	0.009612	0.016887	6148.470727	43563.725259	3868.674220	22079.417645
73.036500	0.010047	0.009827	0.011501	0.019172	6145.621687	43441.594389	3867.751063	21978.608739
73.537000	0.006006	0.009545	0.006989	0.021863	6095.364596	43164.944940	3851.111459	21860.583724
74.037000	0.008665	0.009449	0.007550	0.021689	6116.420501	43172.213346	3852.798340	21868.192891
74.536500	0.008793	0.009720	0.014354	0.022777	6109.267887	43096.529617	3866.002282	21820.665319
75.040000	0.009398	0.009853	0.011746	0.024099	6103.940223	42986.632185	3856.905080	21763.060856
75.535000	0.007994	0.009222	0.009659	0.026840	6073.298731	42676.555311	3845.841808	21644.207364
76.036000	0.009752	0.009549	0.011917	0.027778	6079.333924	42620.509474	3848.853649	21603.676032
76.536000	0.011022	0.010742	0.015992	0.027502	6090.754293	42755.189073	3858.848911	21615.605677
77.036000	0.012307	0.010659	0.008981	0.028356	6093.936444	42669.170908	3840.852483	21578.755828
77.536500	0.010461	0.010751	0.010663	0.032681	6048.565453	42283.375551	3834.878392	21393.362508
78.036000	0.009915	0.010336	0.011526	0.032693	6044.494987	42244.657183	3836.799380	21392.856462
78.537000	0.012849	0.011911	0.012346	0.032198	6069.596161	42432.725941	3839.772749	21413.999924
79.037000	0.014125	0.011220	0.015459	0.032701	6075.287768	42324.167953	3845.703564	21392.546603
79.540500	0.008612	0.011606	0.011865	0.037199	6002.422653	41952.581244	3827.434401	21201.669798
80.035000	0.012718	0.012683	0.014633	0.037456	6030.239216	42026.369543	3833.066711	21190.829401
80.535500	0.015044	0.012052	0.017625	0.034792	6066.668265	42210.028504	3845.873894	21303.565188
81.035500	0.015320	0.013525	0.019618	0.036079	6059.250772	42226.878814	3847.482624	21249.003740
81.536000	0.013446	0.012713	0.019640	0.036237	6044.404026	42139.136222	3847.173465	21242.339647
82.036000	0.016744	0.013485	0.018659	0.036691	6065.206022	42167.928519	3843.904587	21223.156542
82.536500	0.014156	0.013459	0.018463	0.036918	6044.612777	42145.039109	3842.943491	21213.559017
83.036000	0.015913	0.013445	0.017470	0.037722	6051.566720	42071.061221	3838.865824	21179.600005
83.536500	0.015877	0.012885	0.012867	0.037660	6051.757882	42026.236498	3828.646216	21182.233170
84.038000	0.015069	0.013314	0.014998	0.039256	6034.241004	41921.280110	3829.846084	21115.077596
84.535000	0.017512	0.013414	0.020778	0.037818	6062.571168	42059.644733	3846.162552	21175.577050
85.035000	0.018271	0.013156	0.023546	0.037701	6069.002765	42047.011977	3852.762345	21180.524106
85.535500	0.017964	0.014215	0.019402	0.037599	6067.494177	42151.746548	3843.527124	21184.799590
86.035500	0.017289	0.013551	0.018316	0.039079	6051.710746	41958.455255	3837.712244	21122.511302
86.535500	0.017494	0.013199	0.018723	0.036882	6069.312655	42124.767155	3843.614277	21215.065395
87.036000	0.016473	0.013739	0.024692	0.037314	6058.649274	42134.530885	3856.285229	21196.838850
87.536500	0.016030	0.012877	0.013045	0.041342	6026.075368	41695.093792	3820.833247	21027.637905
88.036500	0.017275	0.012950	0.021925	0.038345	6056.972005	41970.374005	3847.576921	21153.372583
88.537000	0.017522	0.013399	0.018415	0.036757	6070.436055	42154.116445	3843.200217	21220.363826
89.040500	0.019609	0.012487	0.023307	0.036806	6085.450147	42067.349006	3854.265968	21218.277462
89.535000	0.016909	0.012160	0.021268	0.041081	6034.354446	41654.476442	3839.862536	21038.570618
90.035000	0.015602	0.011756	0.022941	0.036391	6059.029225	42038.875187	3854.378753	21235.820308
90.535500	0.019188	0.013026	0.019924	0.037583	6076.614384	42045.923205	3844.752916	21185.489429
91.036000	0.022260	0.012039	0.020970	0.036890	6104.464348	42019.379002	3848.717729	21214.726384
91.536500	0.017872	0.012065	0.018566	0.042779	6029.012157	41494.709913	3829.946681	20967.663660
92.036500	0.016169	0.011741	0.024801	0.039493	6040.513160	41758.848864	3851.529048	21105.089657
92.537000	0.021448	0.012380	0.021796	0.037870	6091.180144	41961.801678	3848.365811	21173.374036
93.034500	0.020648	0.012478	0.023078	0.037857	6085.365264	41971.835014	3851.328662	21173.926405
93.568000	0.019989	0.010895	0.018234	0.043150	6041.705979	41358.027638	3828.371983	20952.211393
94.037500	0.019109	0.012461	0.021018	0.038472	6069.493441	41914.994384	3845.220391	21148.033694
94.535000	0.020818	0.011974	0.021117	0.038184	6084.204659	41897.196715	3846.101615	21160.161872
95.035500	0.020389	0.011038	0.020516	0.037765	6084.134845	41850.791853	3845.687331	21177.828494
95.536000	0.018277	0.012572	0.015092	0.044869	6016.804910	41354.241777	3817.550030	20880.756726
96.036000	0.020390	0.011785	0.023147	0.040281	6065.617941	41692.419847	3845.949617	21072.072136
