sample name	sample
index	1366
start time	 05-03-2021  02:11:36 PM
880	0.034075
Peak Time (s)	91.54
Peak Height 	0.03408
calc peak height	90,93
Baseline Time (s)	8.536
Baseline Value 	-0.003671
subtract baseline	10,4
Abs	0.038151
Peak Time (s)	92.038
Peak Height 	0.03815
calc peak height	90,93
Baseline Time (s)	11.535
Baseline Value 	-1.1226E-4
subtract baseline	10,3
PK_550	0.027076
Peak Time (s)	91.037
Peak Height 	0.02708
calc peak height	90,93
Baseline Time (s)	10.036
Baseline Value 	7.5961E-4
subtract baseline	10,2
PK_880	0.035615
Peak Time (s)	92.038
Peak Height 	0.03562
calc peak height	90,93
Baseline Time (s)	11.535
Baseline Value 	0.001854
subtract baseline	10,1


Time (s)	A880-A510	A880-A775	A880-A975	A880	I510	I775	I975	I880	
0.036500	-0.002629	-0.001136	-0.005570	0.001964	6135.623492	42496.164165	3909.231239	22121.901331
0.536500	-0.003907	-0.000707	-0.004084	0.003827	6112.923618	42366.045994	3908.412518	22040.000353
1.037000	-0.004385	-0.000367	-0.004101	0.004319	6105.944724	42352.251443	3907.308220	22018.416451
1.539000	-0.005546	-0.000604	0.001198	0.007939	6071.779125	42004.507325	3910.956506	21860.431789
2.034500	-0.001920	-0.000973	-0.000946	0.001106	6147.005124	42589.067183	3921.218272	22159.731630
2.535000	-0.003672	-0.000190	0.006854	0.001907	6128.476263	42587.416493	3936.746365	22124.409904
3.035500	0.000516	-0.000178	-0.002449	-0.001124	6181.159803	42865.671239	3922.819944	22258.446382
3.536000	0.000595	-0.000515	0.002344	0.000155	6172.344298	42717.701420	3930.599018	22201.797133
4.036000	0.000309	-0.000901	0.003020	-0.000078	6171.954070	42703.654712	3932.618813	22212.083412
4.536500	0.000092	-0.000646	0.006232	0.000788	6164.014132	42647.817599	3937.856378	22173.771431
5.036500	-0.000904	0.000412	0.001319	0.000939	6155.633470	42730.657946	3926.584612	22167.100089
5.537000	0.000090	-0.000419	0.001211	0.001043	6162.141946	42645.379001	3926.117430	22162.532587
6.040000	0.000365	-0.000537	0.001037	0.000478	6168.287123	42686.189182	3926.982440	22187.500983
6.535000	-0.000412	-0.000600	0.005526	0.000237	6164.359793	42702.377964	3937.512120	22198.148110
7.035000	0.001183	-0.000744	-0.000817	0.000349	6175.237657	42678.939160	3923.170209	22193.175423
7.535000	-0.000899	-0.000151	0.001205	0.000639	6157.856109	42706.644553	3926.997312	22180.351480
8.036000	0.000057	-0.000566	0.000263	-0.000402	6172.481752	42763.910211	3927.217976	22226.442099
8.535500	0.000091	0.000056	0.005114	0.000000	6169.784495	42784.108482	3937.119474	22208.635060
9.036000	0.000864	0.000479	0.000843	0.000818	6169.451285	42747.875513	3925.800904	22172.445806
9.536500	0.000055	-0.000602	-0.001505	-0.000163	6170.717129	42738.832492	3922.782228	22215.857900
10.036000	-0.000510	0.000000	-0.000135	0.000120	6164.505548	42767.988732	3925.181655	22203.336116
10.540000	-0.000082	0.000281	-0.000292	0.000584	6164.236964	42751.232318	3923.810046	22182.812737
11.034500	-0.000731	-0.001487	0.003329	-0.000940	6170.652552	42728.896239	3935.232517	22250.302085
11.535000	0.000000	-0.000471	0.000000	-0.000338	6171.599317	42766.856381	3926.493999	22223.622072
12.034500	0.001014	0.000081	-0.000245	-0.000099	6177.289442	42795.454951	3925.423217	22213.021511
12.535500	0.000260	-0.000619	0.006439	-0.000159	6172.186141	42736.801032	3940.444916	22215.653020
13.036000	0.000015	-0.000938	-0.000572	-0.002465	6187.353202	42919.027805	3929.941160	22318.068777
13.536500	0.000188	-0.000486	0.005882	0.000024	6170.321763	42732.292467	3938.785612	22207.572405
14.036500	0.000431	-0.000196	0.004074	0.000566	6168.130696	42709.290483	3933.533019	22183.602141
14.536500	-0.002078	-0.000104	0.001480	0.002786	6133.658666	42515.212160	3922.862995	22085.715056
15.040000	0.000590	-0.000618	0.001048	0.000479	6169.930151	42678.593839	3927.004078	22187.435078
15.565500	-0.005310	0.000533	-0.005621	0.006952	6080.483264	42195.646693	3898.345733	21903.380187
16.037500	-0.001214	-0.001078	-0.004965	0.002077	6145.081653	42491.162549	3910.301126	22116.936703
16.535500	-0.000326	-0.000208	0.005166	0.000334	6164.285631	42729.411758	3936.488658	22193.862314
17.034500	-0.000886	-0.001256	-0.002214	-0.000309	6164.895282	42692.356310	3921.543663	22222.328723
17.535000	-0.002264	0.000185	-0.001779	0.003864	6124.505651	42443.505529	3913.348205	22038.345438
18.036000	0.000306	-0.000574	-0.001510	0.000830	6165.279828	42650.612889	3920.585803	22171.943043
18.536500	-0.001786	-0.000372	0.004386	0.001245	6146.972020	42631.186925	3932.716777	22153.615003
19.036500	-0.002296	-0.000659	0.003520	0.001218	6143.462241	42607.486132	3930.849892	22154.813988
19.539000	-0.002947	-0.000988	-0.002335	0.002398	6130.168848	42470.175472	3915.336739	22102.774745
20.036500	-0.004015	-0.001200	-0.000576	0.000333	6137.404073	42638.878783	3923.739194	22193.913119
20.535000	-0.002322	-0.000865	0.000097	0.000570	6147.980051	42647.765065	3924.698930	22183.408420
21.035000	-0.001931	-0.000247	0.006482	0.001160	6146.536979	42650.288295	3937.584401	22157.343076
21.535000	-0.001564	-0.000941	-0.005326	0.002304	6140.885343	42483.019277	3909.023125	22106.935796
22.035500	-0.003236	-0.001212	-0.001343	0.000386	6142.671953	42632.903350	3921.930749	22191.555069
22.536000	-0.003033	0.000187	-0.001817	0.001588	6135.422152	42650.923987	3918.246400	22138.479186
23.039000	-0.001865	-0.000610	0.008712	0.000542	6151.517697	42673.616942	3943.980504	22184.667238
23.536500	-0.004061	-0.000614	-0.004716	0.002885	6118.596746	42459.820161	3909.083596	22081.339349
24.039500	-0.003313	-0.000873	0.000008	0.000604	6140.535482	42644.025457	3924.428605	22181.939046
24.537000	-0.003729	-0.000760	0.000593	0.001065	6134.167474	42612.256064	3924.702992	22161.559720
25.034000	-0.003555	-0.000873	0.001962	0.000611	6138.724465	42643.339923	3928.738278	22181.625154
25.540500	-0.000714	-0.000250	0.002005	0.001392	6153.715236	42628.923322	3927.101817	22147.140421
26.035000	-0.002382	-0.001396	0.002853	0.000267	6149.753271	42627.007879	3931.481224	22196.821376
26.535500	-0.002258	-0.000101	0.000186	0.001326	6142.946318	42648.481892	3923.228134	22150.016249
27.035500	-0.000201	0.000786	0.003036	0.001639	6155.660249	42700.924828	3928.838893	22136.237457
27.538000	-0.005077	-0.001928	-0.002605	0.002809	6111.825812	42347.627008	3913.848505	22084.706216
28.036000	0.000146	-0.000553	0.000432	-0.002611	6189.395599	42967.871302	3932.497318	22324.562253
28.539000	-0.002039	-0.000687	0.000329	-0.000314	6156.495301	42744.749478	3927.168245	22222.527408
29.061500	-0.001434	-0.001440	0.005926	-0.000637	6163.275574	42705.523042	3940.366249	22236.847739
29.536000	-0.005418	-0.000867	-0.002557	0.005599	6089.362901	42191.322553	3907.880888	21962.388485
30.037500	-0.006610	-0.000913	0.003120	0.003988	6092.359178	42332.780655	3923.826571	22032.913600
30.535000	-0.001073	-0.001515	-0.003666	-0.000833	6167.359183	42716.565480	3919.502472	22245.545016
31.062500	-0.001327	-0.000861	0.005943	-0.000049	6159.768760	42704.696718	3939.087800	22210.825983
31.535000	-0.002588	-0.000594	-0.003324	0.002054	6135.268591	42537.334810	3913.928309	22117.954722
32.035500	-0.004547	-0.001525	0.000639	0.004938	6100.338100	42191.607705	3916.288058	21991.306913
32.536000	-0.002118	-0.000641	-0.000025	0.000426	6150.520288	42681.366955	3924.748523	22189.788736
33.038500	-0.000587	-0.000301	0.005519	0.000335	6162.364383	42720.755861	3937.276205	22193.824591
33.536500	-0.004650	-0.000980	-0.000637	0.005091	6098.501341	42227.061518	3913.164654	21984.620174
34.037000	-0.005124	-0.001164	0.000705	0.004308	6100.715926	42281.117973	3917.810857	22018.883393
34.537000	0.000656	-0.000492	0.000172	0.000049	6173.567305	42729.399856	3926.017660	22206.455478
35.037500	-0.003593	-0.000435	-0.000955	0.001725	6130.366482	42581.712442	3919.837176	22132.431144
35.535000	-0.001219	-0.000800	0.004321	0.003728	6133.058205	42366.588173	3927.057715	22044.350825
36.035500	-0.001367	-0.000756	0.000196	0.003668	6132.416883	42375.993344	3918.098378	22046.947986
36.535500	-0.001255	0.000023	-0.002670	0.002580	6141.121368	42545.482622	3914.206294	22094.766741
37.036000	-0.000064	-0.001514	0.004733	0.001528	6157.464695	42501.377179	3932.855778	22141.098695
37.539000	-0.003871	-0.000753	-0.002268	0.002557	6122.334594	42476.994991	3915.134185	22095.770289
38.036000	-0.004033	-0.000034	0.002498	0.003801	6112.194300	42429.404201	3922.867953	22041.108283
38.536500	-0.001914	-0.000794	0.001868	0.001428	6144.710348	42576.027526	3926.720154	22145.545966
39.037000	-0.002821	0.000567	-0.002527	0.002763	6128.447754	42578.467808	3914.121619	22086.744204
39.537000	-0.003897	-0.001063	-0.001714	0.002788	6120.485434	42427.954654	3915.841482	22085.621655
40.035000	-0.002524	-0.000403	0.002416	0.002411	6133.145312	42522.181753	3925.757629	22102.228059
40.535000	-0.000356	-0.000292	0.005152	0.001637	6154.543668	42602.765218	3933.549476	22136.317621
41.038000	-0.001851	-0.000314	0.001358	0.001975	6141.191231	42569.895976	3924.382248	22121.398294
41.536000	-0.003513	-0.000521	-0.004310	0.002224	6127.337842	42528.449682	3911.407008	22110.446838
42.038500	-0.002116	-0.000663	-0.000176	0.001399	6143.450828	42590.653858	3922.269671	22146.816120
42.536500	-0.001729	-0.001412	0.001811	0.001042	6148.865302	42554.893048	3927.446833	22162.574341
43.036500	-0.001003	-0.001086	0.001123	0.001102	6153.728033	42579.164768	3925.793089	22159.939458
43.536500	-0.000912	-0.000200	0.001333	0.003727	6135.292900	42421.095346	3920.466563	22044.388272
44.037000	-0.002822	0.000699	0.006378	0.002476	6130.517523	42616.649528	3934.412746	22099.367690
44.534500	-0.001736	-0.000770	0.001571	0.001501	6145.475833	42571.564701	3925.900606	22142.314675
45.034500	0.002825	-0.000505	0.000864	-0.002022	6204.849575	42918.081656	3932.147655	22298.334770
45.535500	-0.004345	-0.000905	-0.002295	0.005387	6098.566659	42207.030332	3908.909755	21971.666856
46.035500	-0.000540	-0.000114	0.001734	0.000353	6162.578816	42736.165011	3928.803949	22193.012176
46.538500	-0.001563	-0.000280	-0.002473	-0.000041	6157.978494	42757.058355	3920.383541	22210.437793
47.036000	-0.001303	-0.001088	0.008865	-0.000161	6160.757324	42694.202704	3945.911630	22215.768081
47.536500	-0.003560	-0.000496	-0.003466	0.005539	6103.103639	42230.255926	3906.038704	21965.016090
48.039500	-0.004722	-0.001011	0.001108	0.004988	6098.720269	42233.487211	3917.202953	21989.094726
48.545500	-0.001986	-0.000339	0.002873	0.000192	6153.186171	42730.384275	3931.690543	22200.128769
49.037000	-0.002867	-0.000600	-0.001410	0.002017	6133.515134	42540.119205	3918.198770	22119.566049
49.535000	-0.005652	-0.000831	-0.002411	0.004905	6092.652763	42257.266246	3909.704944	21992.734722
50.046000	-0.004379	-0.000053	0.002914	0.004073	6107.753666	42402.992915	3923.185908	22029.193348
50.535500	-0.000898	-0.000120	0.000946	0.000188	6161.168501	42750.728848	3927.422940	22200.321856
51.038500	-0.001937	0.000581	0.005540	0.000326	6152.568713	42802.297193	3937.343218	22194.193199
51.535500	-0.004726	-0.000093	-0.005234	0.003927	6106.304170	42412.550906	3905.701366	22035.580638
52.036500	-0.003006	-0.001374	0.002131	0.013445	6050.764129	41445.133037	3901.050877	21622.619429
52.536500	0.025034	-0.018947	0.059882	0.506425	4036.144874	14878.678354	3308.931111	8975.184658
53.037000	0.011950	-0.020167	-0.019301	0.054283	5873.408439	36515.212837	3776.082937	19949.999534
53.537000	0.010509	-0.062340	-0.023098	-0.239207	8643.368743	62765.529372	4544.897022	36330.437512
54.037000	0.012756	-0.080714	-0.015756	-0.270211	9093.581819	64528.565115	4690.691110	38797.945188
54.534500	0.014524	-0.082397	-0.007478	-0.273156	9160.248545	64707.683485	4735.856754	39041.678736
55.035500	0.013730	-0.048844	-0.001285	-0.223550	8483.647473	62468.995754	4567.445046	35149.775458
55.538500	0.008588	-0.030596	-0.005000	-0.172813	7819.807123	58183.918247	4378.673030	31603.324935
56.036000	0.003462	-0.028701	-0.007022	-0.176228	7800.792379	58862.455684	4383.209977	31829.212071
56.536000	0.001947	-0.027604	-0.006591	-0.183409	7864.036877	59937.236568	4408.279922	32310.147252
57.036000	0.007061	-0.026632	-0.005985	-0.175367	7831.258421	59018.060031	4383.786260	31772.104992
57.536500	0.007689	-0.019801	-0.004516	-0.136024	7417.954596	54978.904860	4265.339894	29278.935957
58.037000	0.003308	-0.012703	-0.004912	-0.096868	6995.137370	51281.655485	4152.193769	27012.084211
58.537000	0.008106	-0.007381	0.003629	-0.061288	6720.759390	48033.537625	4080.562144	25122.154607
59.034500	0.006256	-0.004462	0.005499	-0.036275	6496.695913	45800.701272	4022.696835	23883.205743
59.535000	0.007953	-0.002516	0.003278	-0.016887	6356.532436	44116.567725	3971.381434	22970.805944
60.038000	0.009492	0.000686	0.003491	-0.000842	6245.791494	42919.137229	3935.373843	22245.958983
60.535500	0.012494	0.002426	0.008488	0.011244	6178.296089	41979.763703	3919.671511	21717.325065
61.036000	0.014944	0.002456	0.002804	0.020057	6131.846413	41199.744531	3888.344223	21341.025680
61.535500	0.013701	0.006623	0.013783	0.088784	5663.623808	35925.707979	3773.444806	18654.485344
62.036500	0.014691	0.005524	0.011331	0.050043	5920.214795	38905.140016	3843.854702	20116.438956
62.536500	0.014812	0.007854	0.013817	0.032385	6042.857295	40595.383158	3885.555007	20827.328931
63.037000	0.015808	0.008830	0.012621	0.008038	6226.588454	42851.472864	3935.931104	21856.109866
63.534500	0.017666	0.010365	0.011986	0.026096	6107.907771	41364.539904	3895.048315	21087.556350
64.061000	0.020769	0.014753	0.018653	0.048552	5971.815006	39801.963407	3861.862026	20175.362668
64.535000	0.018821	0.017620	0.016617	0.043355	5994.237747	40491.293030	3868.409611	20382.292209
65.035500	0.017066	0.017838	0.017284	0.033704	6049.444430	41352.646642	3890.117362	20773.221341
65.535500	0.017119	0.017359	0.005772	0.025855	6105.712998	42008.689686	3882.351955	21097.625361
66.036000	0.018171	0.018834	0.012790	0.022189	6139.799395	42472.979294	3905.187225	21251.158598
66.536500	0.016273	0.019656	0.020022	0.019132	6148.222054	42826.929103	3927.714008	21380.167643
67.037000	0.020500	0.019009	0.014965	0.017057	6194.458632	42958.038284	3921.130205	21468.286318
67.537000	0.017290	0.020186	0.018719	0.022225	6133.148079	42592.775040	3918.025203	21249.655741
68.034500	0.020781	0.022298	0.017401	0.018572	6185.347219	43121.487200	3923.157816	21403.896116
68.535000	0.021499	0.021603	0.018637	0.014667	6219.593601	43418.993518	3934.563539	21570.254563
69.037500	0.023330	0.023243	0.015185	0.014163	6237.037946	43619.006003	3928.008071	21591.845172
69.535500	0.018905	0.022901	0.022396	0.018585	6171.462061	43176.035883	3934.208316	21403.349368
70.034500	0.025846	0.023728	0.019490	0.012406	6269.190150	43829.161339	3941.536527	21667.282392
70.535000	0.024642	0.024284	0.019251	0.013565	6251.369115	43772.494550	3938.400557	21617.503437
71.036000	0.023321	0.023726	0.022559	0.012995	6245.727411	43773.673685	3947.126303	21641.975502
71.536000	0.020007	0.023435	0.016382	0.018195	6182.432219	43261.646746	3921.744565	21419.922503
72.037000	0.022068	0.023864	0.023707	0.017650	6201.671821	43351.923188	3939.230777	21443.045480
72.537000	0.025686	0.024301	0.022762	0.015404	6245.391038	43601.847890	3942.152074	21538.741647
73.037000	0.025319	0.024576	0.021839	0.016206	6236.632698	43552.613314	3938.279596	21504.517198
73.537500	0.021742	0.023751	0.015242	0.016214	6209.905393	43474.978729	3923.598024	21504.195729
74.035000	0.021619	0.024817	0.019935	0.021538	6169.709444	43080.318185	3922.208666	21278.560245
74.535000	0.025464	0.024831	0.024854	0.018293	6222.121287	43382.038193	3940.361894	21415.751523
75.036000	0.026286	0.025220	0.023305	0.018395	6227.498558	43408.765338	3936.663859	21411.428577
75.536000	0.026470	0.025262	0.022184	0.018004	6231.793536	43449.046157	3935.031995	21428.021982
76.036500	0.024205	0.025110	0.026314	0.019060	6207.060949	43336.707380	3941.920825	21383.252864
76.539500	0.025752	0.024616	0.025520	0.015399	6245.930677	43631.783688	3948.385456	21538.982951
77.036500	0.028347	0.025527	0.024970	0.015199	6266.976899	43735.761938	3947.594758	21547.514721
77.537000	0.028988	0.026579	0.024548	0.015056	6272.912336	43847.939855	3946.962066	21553.625178
78.040000	0.026519	0.026575	0.021585	0.017201	6238.170487	43646.495934	3935.486920	21462.159043
78.538000	0.029111	0.027083	0.023805	0.015072	6273.722190	43893.902185	3945.249417	21552.942709
79.035000	0.029480	0.027667	0.024181	0.015273	6274.994754	43930.028018	3945.645299	21544.368077
79.535500	0.028688	0.027845	0.027550	0.015586	6266.633609	43917.241031	3952.566440	21530.985388
80.036000	0.025440	0.028266	0.020521	0.018701	6218.907811	43664.320079	3929.776545	21398.436271
80.538500	0.029415	0.029468	0.030021	0.016307	6266.675606	44002.253757	3956.549654	21500.211039
81.036000	0.029098	0.029031	0.029024	0.017055	6258.637246	43890.617213	3952.576200	21468.359143
81.536500	0.027112	0.028151	0.031929	0.016657	6246.696113	43845.299199	3960.113576	21485.317488
82.037000	0.028522	0.027812	0.029241	0.018716	6241.823007	43620.472047	3949.302003	21397.815949
82.537500	0.029907	0.027835	0.027150	0.017850	6258.751479	43703.713160	3946.530586	21434.582387
83.035000	0.029113	0.027927	0.027874	0.019197	6242.645361	43586.236004	3945.123119	21377.409610
83.535000	0.028311	0.028023	0.035733	0.020182	6229.279090	43503.375240	3960.752654	21335.784668
84.035500	0.028223	0.026815	0.035202	0.021616	6217.922458	43257.798647	3956.260033	21275.278209
84.536000	0.030566	0.027028	0.027196	0.021929	6233.069953	43248.543862	3937.463285	21262.103889
85.035500	0.032378	0.027169	0.029533	0.022802	6240.093908	43180.766044	3940.742215	21225.373724
85.535500	0.028332	0.027021	0.032678	0.028964	6164.484846	42601.402244	3933.991026	20968.413392
86.036000	0.031517	0.026347	0.036177	0.023377	6229.354981	43051.851251	3954.468182	21201.271472
86.537000	0.031515	0.026964	0.031589	0.024206	6223.149774	43032.192504	3942.208656	21166.512555
87.039500	0.031465	0.026720	0.036334	0.023814	6225.704685	43045.974805	3953.831359	21182.961395
87.537500	0.026674	0.025463	0.029533	0.029226	6150.464061	42435.915808	3926.424955	20957.587462
88.034500	0.030181	0.026763	0.028904	0.024996	6207.355275	42941.078659	3934.425898	21133.486105
88.535000	0.031629	0.025755	0.032234	0.024771	6219.793606	42869.140966	3942.388746	21142.882746
89.035500	0.033532	0.026520	0.030945	0.025606	6227.757260	42862.725655	3937.621961	21107.999900
89.535500	0.029991	0.025676	0.032512	0.031684	6156.733500	42232.709007	3927.578312	20856.165665
90.036000	0.032872	0.026257	0.035898	0.026742	6214.372313	42734.516537	3946.203903	21060.652180
90.536000	0.031403	0.025404	0.037554	0.026583	6204.650459	42671.120372	3950.309972	21067.269256
91.036500	0.033248	0.027076	0.037979	0.028148	6206.728430	42680.901424	3947.730679	21002.254098
91.540000	0.031774	0.025877	0.033913	0.034075	6152.292668	42035.461710	3925.388049	20758.034055
92.037500	0.035615	0.026583	0.038151	0.028901	6218.726136	42567.353520	3946.418938	20971.052667
92.534500	0.034997	0.026293	0.032640	0.029139	6212.354126	42519.298078	3933.517613	20961.184656
93.035000	0.033495	0.025234	0.036405	0.028878	6203.149578	42446.791087	3942.532998	20972.003423
93.535000	0.034396	0.025429	0.035754	0.029603	6204.454702	42398.652149	3939.441904	20941.995953
94.036000	0.031351	0.025341	0.035933	0.030305	6176.794221	42327.139281	3938.271110	20913.002708
94.536000	0.033724	0.024900	0.035986	0.030225	6194.868821	42294.376003	3938.567806	20916.278458
95.036500	0.034166	0.025107	0.031101	0.031240	6190.637579	42221.375521	3925.438089	20874.410197
95.602500	0.034403	0.024838	0.037123	0.031699	6189.000183	42155.798756	3937.813103	20855.536195
96.069500	0.032316	0.024594	0.038256	0.031498	6175.118582	42151.814975	3940.804133	20863.794201
96.537000	0.033681	0.023798	0.031159	0.031330	6186.398285	42095.349787	3925.365809	20870.712024
97.034500	0.035871	0.025300	0.041517	0.033117	6189.371933	42069.661681	3944.498174	20797.271916
97.534500	0.033460	0.024939	0.035371	0.032921	6173.074406	42054.898367	3931.179570	20805.340020
98.035000	0.033027	0.024210	0.033866	0.033606	6164.876408	41927.975153	3926.320519	20777.238308
98.535000	0.031965	0.023978	0.036897	0.033541	6157.578088	41912.939541	3933.193116	20779.883662
