sample name	sample
index	998
start time	 04-14-2021  04:32:49 PM
880	0.020285
Peak Time (s)	100.537
Peak Height 	0.02029
calc peak height	100,103
Baseline Time (s)	8.537
Baseline Value 	-0.004824
subtract baseline	10,4
Abs	0.044472
Peak Time (s)	100.045
Peak Height 	0.04447
calc peak height	100,103
Baseline Time (s)	8.537
Baseline Value 	-0.001022
subtract baseline	10,3
PK_550	0.026893
Peak Time (s)	102.035
Peak Height 	0.02689
calc peak height	100,103
Baseline Time (s)	8.537
Baseline Value 	-1.9401E-5
subtract baseline	10,2
PK_880	0.043643
Peak Time (s)	101.538
Peak Height 	0.04364
calc peak height	100,103
Baseline Time (s)	8.537
Baseline Value 	0.001653
subtract baseline	10,1


Time (s)	A880-A510	A880-A775	A880-A975	A880	I510	I775	I975	I880	
0.034000	-0.001609	0.000226	0.000948	0.002925	6327.160692	42180.951073	3966.915700	22187.218315
0.537000	-0.000808	0.000151	-0.000339	0.004350	6322.377657	42045.990698	3960.713510	22124.356028
1.040000	-0.002838	-0.000118	-0.003023	0.004159	6308.325894	42039.000011	3955.042950	22132.777793
1.535000	-0.002540	-0.000626	-0.004021	0.001948	6327.515000	42192.142340	3957.796637	22230.429226
2.035500	-0.001149	-0.000021	-0.000917	0.001691	6340.187527	42270.073082	3965.469623	22241.851564
2.536000	-0.004417	-0.000888	-0.007376	0.004798	6291.448460	41912.652082	3943.788622	22104.636135
3.036000	0.000952	0.000340	-0.001442	0.000074	6368.940726	42449.162851	3967.973796	22313.620872
3.536000	-0.000789	0.000574	0.000803	0.000631	6351.137922	42419.867615	3971.862731	22288.894413
4.036500	-0.000586	0.000020	0.000250	0.000117	6356.681106	42416.271306	3971.771670	22311.730848
4.536500	-0.000099	0.000213	-0.001661	0.003511	6334.257870	42126.978115	3959.611536	22161.328942
5.037000	0.000664	-0.000970	0.008131	0.000394	6364.219551	42301.506090	3989.462536	22299.413494
5.540000	-0.000161	-0.000180	0.005962	0.000759	6355.003837	42339.920538	3983.532324	22283.182977
6.035000	-0.001692	-0.000050	0.001004	0.000518	6345.039140	42373.468759	3972.584005	22293.879350
6.535500	-0.000460	0.000587	-0.000287	0.001134	6349.788972	42375.385374	3968.193341	22266.523422
7.035500	-0.002092	-0.000872	-0.001299	-0.000731	6351.596136	42412.236896	3970.155641	22349.479990
7.535500	-0.000176	-0.000252	0.000934	-0.000063	6361.247583	42407.882342	3973.765988	22319.726640
8.036000	-0.000878	0.000402	-0.001388	0.000285	6353.117373	42435.547177	3967.614131	22304.232436
8.536500	0.000000	0.000000	0.000000	0.000000	6362.128140	42425.016798	3971.464387	22316.930556
9.036500	-0.001478	-0.000856	-0.002091	-0.000450	6354.163300	42388.139787	3967.688065	22336.952341
9.536500	0.000389	0.000197	-0.002640	0.000128	6364.149934	42431.293332	3965.102608	22311.242911
10.036500	0.000630	0.001059	0.001477	0.000390	6363.995533	42485.821287	3973.974326	22299.601556
10.537500	-0.000581	-0.000087	0.004292	-0.000643	6362.607254	42475.448562	3982.906913	22345.545326
11.035000	-0.000365	-0.000169	-0.002019	-0.000752	6365.133311	42477.971554	3968.548633	22350.436283
11.535500	0.000021	0.000647	0.000881	0.000654	6357.226624	42424.381051	3971.988426	22287.866861
12.035500	-0.000608	0.000225	-0.000732	-0.000172	6358.756014	42461.073984	3970.174129	22324.603130
12.536000	0.000121	0.000709	0.004066	0.000548	6358.819454	42439.674605	3979.608824	22292.566900
13.036500	-0.000781	0.000659	-0.002592	0.000688	6350.758218	42422.395423	3963.930987	22286.347912
13.536500	0.000115	0.000675	-0.000795	0.001337	6352.664149	42365.003000	3966.561682	22257.525162
14.037000	-0.001619	-0.000424	-0.000056	0.001728	6336.282925	42230.276818	3967.360934	22240.206992
14.537000	-0.001644	-0.000127	-0.004250	0.002332	6331.441045	42202.531636	3956.404353	22213.435540
15.037000	-0.000722	0.000464	0.000349	0.001104	6348.009082	42367.059380	3969.726640	22267.888847
15.535000	-0.001391	0.000118	0.002851	0.000459	6347.817328	42394.066221	3976.994362	22296.524698
16.035000	-0.002341	0.000093	0.001083	0.000682	6338.772666	42371.610628	3972.387837	22286.596257
16.535500	-0.003417	-0.000324	-0.001612	0.002403	6317.312056	42178.502130	3962.250872	22210.328117
17.035500	0.001295	-0.000315	0.004032	-0.003204	6397.193170	42688.046782	3988.286337	22460.038929
17.536000	-0.004175	-0.000058	0.001620	0.000964	6322.524845	42332.402906	3972.977478	22274.096554
18.036500	-0.002238	-0.000062	0.001732	0.000890	6337.962812	42338.738822	3973.408063	22277.361955
18.536000	-0.001299	0.000186	-0.000788	0.001518	6340.359270	42304.336756	3966.162804	22249.508917
19.037000	-0.002661	0.000335	0.002324	0.001389	6330.882384	42329.600054	3973.623235	22255.245205
19.537500	0.000933	-0.000031	0.005881	0.001329	6359.059233	42301.856520	3982.012537	22257.881197
20.037500	-0.000782	-0.000616	0.001109	0.000993	6348.396198	42279.325248	3971.731700	22272.782331
20.535000	-0.000846	0.000208	0.002741	0.001583	6343.351051	42300.475931	3974.139165	22246.633631
21.035500	-0.000610	-0.000427	0.000482	0.001068	6349.140190	42289.639855	3970.114466	22269.452645
21.535500	-0.001107	0.000486	0.004046	0.001819	6339.524465	42304.278381	3976.611184	22236.158260
22.036000	-0.001130	-0.000525	0.001997	0.001269	6343.586779	42262.617267	3973.145398	22260.554948
22.536000	-0.003534	-0.000181	-0.006087	0.001535	6323.065374	42269.691817	3954.046393	22248.766829
23.036500	-0.002722	-0.000268	0.002093	0.000853	6334.526949	42323.507303	3974.328810	22279.023339
23.539000	-0.001813	-0.000240	-0.001427	0.001242	6338.530466	42290.797328	3965.329055	22261.742921
24.037000	-0.001297	0.000515	-0.000808	0.001427	6341.074804	42342.373602	3966.324631	22253.532894
24.540000	0.000435	0.000435	0.006722	0.001597	6353.133085	42319.760463	3983.350581	22246.012256
25.035000	0.000337	0.000153	0.005038	0.001378	6354.066707	42314.041196	3979.939104	22255.725231
25.537500	-0.002122	0.000892	0.002674	0.001680	6332.781299	42353.605262	3973.759981	22242.332972
26.035500	-0.002796	-0.000809	-0.001453	0.000312	6338.122748	42323.433804	3967.402712	22303.044859
26.538000	-0.002072	-0.000155	0.002478	0.002119	6329.797078	42219.295355	3972.292266	22222.874447
27.036000	0.000419	0.000536	0.003137	-0.000992	6373.085997	42563.914225	3981.029958	22361.139874
27.539000	0.000881	0.000459	0.003844	0.000376	6366.045934	42432.521082	3979.491994	22300.209183
28.036500	-0.001027	-0.000453	-0.002226	-0.000078	6354.783525	42390.981348	3966.524861	22320.404838
28.536500	-0.002924	0.000035	0.000158	0.002805	6318.010741	42174.626968	3965.381575	22192.548182
29.037000	-0.002159	-0.000239	0.001527	0.000498	6341.591419	42358.217593	3973.837822	22294.764139
29.540500	0.000424	-0.000124	-0.001072	0.001004	6357.633454	42322.792931	3966.688650	22272.293821
30.035000	-0.001099	-0.000028	0.003620	0.000798	6347.451162	42350.144251	3977.991298	22281.457192
30.535500	-0.002419	-0.000212	-0.002657	0.003628	6315.577770	42078.152782	3957.078823	22156.170714
31.035500	-0.000593	0.000014	-0.001453	0.002040	6341.779912	42241.646925	3963.443149	22226.371680
31.535500	0.000014	-0.000283	-0.000663	0.000907	6355.216491	42317.278084	3967.851475	22276.625642
32.036000	-0.001901	0.000430	0.004991	0.001004	6339.683412	42373.038898	3980.698025	22272.316413
32.539500	-0.001343	0.000602	-0.005827	0.004102	6320.187726	42108.788506	3948.834150	22135.290246
33.036500	-0.001900	-0.000698	-0.001900	0.000405	6344.310069	42325.091013	3966.165954	22298.931629
33.536000	-0.001104	-0.000226	0.002175	0.000477	6349.897918	42361.333192	3975.386975	22295.730001
34.040000	-0.001117	-0.000205	0.001669	0.001579	6341.292201	42263.554920	3971.671142	22246.805034
34.537000	0.000920	0.000341	0.003417	0.001637	6356.575470	42307.609625	3975.575638	22244.228113
35.034000	-0.001939	0.000175	-0.000215	0.001805	6333.234226	42277.407479	3966.818476	22236.793626
35.538000	-0.000138	0.000618	0.003536	0.001925	6346.175831	42306.642839	3975.185694	22231.462437
36.035000	-0.001532	-0.000545	-0.001489	0.001110	6341.704959	42275.143657	3965.488334	22267.584549
36.535500	-0.000137	-0.000027	0.003657	0.001270	6351.240692	42307.537810	3976.983466	22260.517768
37.035500	-0.001488	-0.000287	0.005149	0.000503	6346.731083	42353.461724	3982.233958	22294.565095
37.536500	-0.001139	0.000442	0.003285	0.001577	6341.140319	42322.186774	3975.408836	22246.890698
38.036500	-0.001032	0.000674	0.004131	0.001468	6342.801728	42353.079745	3977.621787	22251.715604
38.536500	-0.000504	-0.000158	0.003760	0.001428	6347.186283	42281.430189	3976.855137	22253.515297
39.037000	-0.000656	-0.000734	0.000520	0.000709	6351.558586	42294.355312	3971.029137	22285.399921
39.535000	-0.000683	0.000078	-0.002651	0.001196	6347.595336	42323.720037	3962.633603	22263.788463
40.035000	0.000014	-0.000249	-0.000355	0.001345	6351.832061	42280.694356	3967.553797	22257.197346
40.535000	-0.001507	0.000006	-0.002134	0.003607	6322.712548	42099.666236	3958.314978	22157.101169
41.036000	-0.001569	-0.000151	0.002713	0.001070	6341.733666	42314.413104	3975.259249	22269.385625
41.536500	-0.000956	0.000229	-0.000162	0.001097	6346.252217	42346.403012	3968.566208	22268.190495
42.036000	-0.002183	-0.000256	0.001992	0.001063	6337.058934	42305.500857	3973.609033	22269.682522
42.536500	-0.001284	-0.000172	-0.000632	0.003446	6325.655809	42098.156375	3962.107515	22164.203868
43.036500	-0.000587	-0.000244	0.002116	0.001476	6346.173805	42269.311083	3972.941260	22251.387843
43.537000	0.001009	0.000464	0.001372	0.001956	6354.790837	42289.895087	3970.118752	22230.085135
44.037500	-0.000123	0.000797	0.002727	0.001369	6350.586128	42373.215449	3974.600409	22256.121029
44.535500	-0.004577	0.000498	-0.006143	0.006712	6275.740624	41865.348385	3942.262449	22020.575938
45.035500	-0.001184	-0.000363	-0.003593	0.000711	6347.470530	42327.741941	3961.590156	22285.317107
45.536000	-0.000653	-0.000115	0.004367	0.000597	6352.451298	42360.443732	3980.193954	22290.376701
46.036000	-0.001403	0.000089	-0.000606	0.000576	6346.821699	42380.868397	3968.742632	22291.308630
46.536000	-0.003336	0.000153	-0.003775	0.005993	6290.580601	41898.797215	3949.196138	22052.105099
47.036500	0.000183	-0.000077	-0.002902	0.001713	6350.291012	42262.989431	3960.881878	22240.869494
47.537000	-0.000300	0.000478	0.003200	0.001829	6345.662230	42302.640858	3974.630843	22235.727329
48.036000	-0.000623	0.000049	0.002463	0.000393	6354.267799	42393.841513	3976.248972	22299.472991
48.540000	-0.002058	-0.000555	0.000198	0.006468	6296.680519	41793.088716	3957.112630	22031.279980
49.035000	0.000131	0.000305	0.003131	0.000441	6359.724617	42412.720445	3977.685202	22297.327794
49.535500	0.000321	0.000839	0.004018	-0.002243	6382.064500	42705.638107	3986.004187	22416.995328
50.035500	0.000235	0.000709	0.004810	0.000087	6363.279456	42481.465048	3982.412999	22313.066846
50.536000	-0.000373	-0.001664	-0.000812	0.020829	6201.715547	40436.516636	3922.794846	21412.038099
51.036500	0.010816	-0.014546	-0.013879	0.431597	4273.127524	17131.613881	3329.197743	10146.409668
51.536500	0.002854	-0.026042	-0.004885	-0.033315	6654.518763	43090.380122	4039.202481	23857.607067
52.036500	-0.004216	-0.069075	-0.016040	-0.257619	9029.445696	63842.241245	4716.520561	37964.225960
52.537000	-0.006424	-0.091253	-0.016012	-0.289538	9456.687794	65221.647438	4849.818966	40631.227277
53.037000	0.000262	-0.063798	-0.010351	-0.252315	9017.966186	63838.384046	4718.066787	37539.695929
53.537000	-0.001291	-0.058249	-0.008132	-0.246144	8911.801652	63751.355607	4702.233580	37052.290368
54.034500	0.003152	-0.047060	-0.008980	-0.230589	8762.357686	63144.043047	4638.038199	35854.041552
54.537500	-0.002052	-0.040759	-0.016380	-0.221644	8577.493443	62779.094545	4576.431959	35184.101001
55.035500	0.004075	-0.052776	-0.007898	-0.242405	8934.017372	63994.343015	4688.313234	36760.334896
55.535500	0.005050	-0.035092	-0.004673	-0.211557	8539.268594	62174.155049	4582.436192	34445.079596
56.036000	0.005139	-0.020658	-0.006282	-0.167534	8005.881033	58278.720467	4421.635191	31413.196504
56.536000	0.006858	-0.015028	-0.002846	-0.147373	7797.566995	56460.662417	4366.803653	30124.019547
57.036500	0.007981	-0.011136	-0.003327	-0.113574	7449.514639	52904.993568	4260.803911	28092.626953
57.540000	0.007836	-0.009540	0.000280	-0.092514	7237.265021	50719.031014	4209.969136	26904.582120
58.033500	0.005781	-0.007373	-0.003630	-0.080741	7104.332124	49675.756033	4165.998472	26265.084428
58.534500	0.000893	-0.006358	-0.008915	-0.058142	6852.331281	47414.055623	4091.636536	25085.053038
59.035000	0.004150	-0.005368	-0.000355	-0.062132	6917.228986	47926.004559	4124.515749	25288.965591
59.534500	0.003780	-0.004291	-0.002969	-0.041952	6735.986086	45993.871953	4065.495430	24276.676595
60.036000	0.001193	-0.001377	-0.002003	-0.021602	6543.555779	44303.083848	4017.682704	23302.384794
60.536000	-0.001520	-0.003448	-0.011073	-0.002491	6369.662188	42338.328681	3951.873413	22428.080037
61.036000	0.007225	-0.000724	-0.002668	0.024433	6231.339027	40207.815548	3910.894072	21259.828708
61.536000	0.006755	-0.002247	0.003537	-0.007608	6475.330562	42914.324488	3997.490901	22658.419318
62.036500	0.002630	-0.002170	-0.004695	0.025051	6192.728644	40031.525610	3905.182870	21233.861126
62.537500	0.002467	-0.001382	-0.002176	0.028721	6164.635443	39786.749651	3902.707255	21080.339017
63.037500	0.010088	0.000979	0.003387	0.036431	6163.990366	39336.775239	3898.109440	20762.099719
63.535000	0.008798	0.003533	0.000001	0.043915	6100.610340	38926.909142	3875.173796	20458.507284
64.035000	0.010268	0.004046	0.004750	0.044509	6106.885807	38920.273059	3883.872860	20434.649345
64.535500	0.007344	0.005250	0.000249	0.055501	6008.769712	38120.433109	3851.854147	19998.751180
65.035500	0.011618	0.006324	0.007064	0.052887	6056.942656	38419.700365	3871.204765	20101.422378
65.536000	0.013833	0.005912	0.009759	0.051404	6083.115944	38507.015476	3879.913762	20159.917138
66.036500	0.015922	0.007055	0.019681	0.050883	6101.731962	38643.288122	3902.054870	20180.549377
66.536500	0.014012	0.006688	0.013161	0.053199	6071.645574	38423.862675	3883.284648	20089.104000
67.039500	0.016892	0.008282	0.014005	0.041373	6177.598738	39534.705195	3910.315775	20561.049887
67.537500	0.018330	0.008220	0.013799	0.037405	6217.460737	39864.565383	3918.495603	20722.298239
68.037500	0.023796	0.010771	0.016450	0.030946	6307.158520	40636.803982	3938.596656	20987.945857
68.535000	0.021216	0.012328	0.017405	0.028057	6309.510066	41023.656047	3947.204522	21108.014038
69.035000	0.021212	0.012180	0.019497	0.021700	6358.354125	41570.863512	3966.398788	21375.152148
69.534500	0.022745	0.013134	0.017670	0.017534	6402.767679	42027.840513	3971.776783	21552.289448
70.035500	0.021691	0.013871	0.019608	0.014660	6417.072958	42353.517261	3982.936900	21675.517714
70.536000	0.023724	0.013189	0.022901	0.012041	6453.921979	42529.276977	3996.817499	21788.527179
71.037000	0.023615	0.013157	0.026884	0.009877	6470.326524	42723.703019	4011.450838	21882.419797
71.539500	0.024037	0.013964	0.021989	0.009168	6479.386255	42862.517096	4001.463013	21913.285317
72.039500	0.024455	0.014539	0.023834	0.008337	6489.419432	42991.628766	4007.835688	21949.516380
72.537000	0.024078	0.014460	0.021883	0.007493	6493.181984	43062.120923	4005.196042	21986.397397
73.035000	0.025681	0.013789	0.025014	0.005863	6519.317524	43150.563111	4016.603952	22057.796143
73.540000	0.026312	0.014478	0.024069	0.004874	6532.489274	43305.980963	4016.709817	22101.281421
74.035500	0.028177	0.015092	0.028585	0.004463	6551.069174	43401.074689	4028.650337	22119.364148
74.535500	0.022945	0.015367	0.019404	0.008327	6477.371724	43068.864837	3997.329522	21949.945600
75.036000	0.026950	0.015527	0.028641	0.003558	6548.429577	43525.846874	4030.991995	22159.246068
75.536000	0.029081	0.015809	0.023643	0.002869	6571.585045	43616.533896	4020.521444	22189.713109
76.037000	0.029593	0.016843	0.029427	0.002923	6575.351550	43708.205722	4034.471019	22187.308194
76.537000	0.027828	0.015719	0.027193	0.004552	6547.483652	43451.137365	4025.046600	22115.431677
77.034500	0.028993	0.016126	0.024914	0.001540	6581.817783	43770.666577	4026.829431	22248.538219
77.534500	0.031671	0.017589	0.024592	0.002174	6598.729110	43848.421463	4024.504453	22220.428381
78.035000	0.030916	0.017604	0.025458	0.001962	6594.235115	43869.773032	4027.126059	22229.826983
78.535500	0.030513	0.018298	0.026016	0.004496	6569.981346	43697.228415	4022.327255	22117.930717
79.035500	0.030495	0.018977	0.027441	0.002317	6587.807273	43965.726590	4031.095450	22214.127364
79.535500	0.029340	0.019032	0.024836	0.001733	6583.084368	44025.910989	4026.167888	22239.961716
80.035500	0.032137	0.020251	0.028053	0.003281	6593.419876	43994.898888	4030.234211	22171.486870
80.536500	0.031799	0.021108	0.025719	0.008128	6550.720054	43620.268542	4012.852211	21958.650843
81.039500	0.034419	0.020846	0.034044	0.003598	6609.733410	44021.103960	4044.174610	22157.491674
81.537000	0.037544	0.020698	0.031383	0.003490	6636.740712	44017.350179	4037.880602	22162.274916
82.034500	0.037353	0.021365	0.028394	0.004281	6628.517515	44005.605325	4028.628476	22127.379523
82.534500	0.034191	0.020994	0.033286	0.007708	6573.819048	43648.918913	4032.204705	21977.004331
83.034500	0.037167	0.021783	0.031837	0.004791	6622.701844	43996.964003	4035.801609	22104.942260
83.535500	0.035877	0.022924	0.029837	0.006232	6599.960813	43968.620996	4027.390513	22041.609725
84.036000	0.037580	0.022538	0.033173	0.006096	6615.254360	43945.054384	4035.873958	22047.569513
84.536000	0.035310	0.022673	0.029182	0.009831	6565.557510	43607.342320	4017.086006	21884.436071
85.036500	0.037609	0.022583	0.029770	0.006423	6612.771733	43918.523328	4026.762710	22033.232273
85.536500	0.038957	0.022259	0.034737	0.006401	6624.207023	43890.151792	4038.969648	22034.229534
86.037000	0.036660	0.021971	0.028868	0.006405	6605.024636	43862.633443	4024.613536	22034.015512
86.537000	0.037030	0.022757	0.033346	0.010517	6574.062138	43551.118155	4025.501457	21854.589320
87.037500	0.038047	0.022334	0.034304	0.007455	6607.827232	43798.071913	4035.315199	21988.040519
87.535000	0.038202	0.022837	0.030970	0.007967	6604.864306	43797.296913	4025.926929	21965.676417
88.035000	0.038930	0.022736	0.030591	0.008048	6610.243750	43780.251100	4024.810014	21962.146395
88.535500	0.037897	0.022629	0.036117	0.011446	6573.546709	43452.624686	4029.987624	21814.295778
89.035500	0.041367	0.023118	0.032171	0.009370	6619.536294	43692.085440	4025.434357	21904.475094
89.536000	0.039611	0.023248	0.034650	0.009390	6604.752297	43702.442454	4031.428209	21903.628837
90.036500	0.040528	0.022983	0.036057	0.009478	6611.636179	43669.293461	4034.654328	21899.766242
90.539500	0.040189	0.023635	0.036115	0.011603	6591.188293	43531.783233	4029.602035	21807.515455
91.037500	0.041184	0.023828	0.033339	0.010794	6606.155151	43625.265417	4024.813612	21842.577884
91.537000	0.041045	0.023463	0.038893	0.010831	6604.684459	43587.726036	4038.294575	21840.953382
92.035000	0.042198	0.023453	0.037775	0.011106	6611.993550	43561.121059	4034.874475	21829.046566
92.534000	0.038459	0.024139	0.031464	0.013319	6562.766526	43418.827202	4014.182353	21733.295445
93.035500	0.039183	0.025224	0.028519	0.013586	6566.524829	43495.033884	4006.490811	21721.805728
93.535500	0.040597	0.024433	0.031612	0.012810	6584.576751	43493.611675	4015.763369	21755.289076
94.036000	0.040322	0.024014	0.036431	0.013462	6576.920664	43393.982377	4025.843684	21727.132617
94.536000	0.040225	0.024605	0.032746	0.014144	6570.508781	43385.495798	4015.283569	21697.756450
95.037000	0.037414	0.024336	0.032857	0.013286	6554.468673	43440.264924	4017.617412	21734.752881
95.536500	0.038807	0.024330	0.035142	0.014284	6557.700825	43346.999007	4020.725272	21691.717009
96.037000	0.038977	0.024882	0.036526	0.015246	6551.209000	43308.838986	4021.745206	21650.323747
96.535000	0.039335	0.025645	0.037560	0.015737	6550.123694	43334.136652	4023.060476	21629.259006
97.035000	0.040987	0.025700	0.036217	0.016065	6560.978237	43308.826260	4019.019543	21615.199202
97.535500	0.039163	0.025678	0.028073	0.015900	6547.377275	43322.066015	3999.923999	21622.258131
98.036000	0.041121	0.026544	0.032124	0.017124	6553.387616	43288.813970	4006.649866	21569.825221
98.535500	0.042242	0.026469	0.030947	0.019905	6539.819709	43024.957423	3997.247326	21451.270880
99.036500	0.041482	0.025866	0.034419	0.016857	6558.542449	43250.778718	4012.782340	21581.265424
99.536000	0.042099	0.026066	0.041038	0.017719	6556.526535	43189.518438	4026.695455	21544.401858
100.045000	0.043188	0.026269	0.044472	0.017837	6564.496859	43197.404939	4034.792950	21539.362931
100.537000	0.040620	0.026247	0.034780	0.020285	6523.517242	42969.619367	4005.445419	21435.118396
101.037500	0.042110	0.026486	0.039306	0.018501	6550.210406	43156.024838	4020.595223	21511.025414
101.537500	0.043643	0.026019	0.040117	0.018390	6563.692490	43123.166601	4022.827263	21515.756828
102.035000	0.043443	0.026893	0.039297	0.019704	6551.276689	43082.622053	4017.669261	21459.810678
102.535500	0.041182	0.025779	0.037432	0.019499	6534.484189	42998.834916	4013.674237	21468.542545
103.034500	0.044594	0.026779	0.036701	0.019961	6558.605000	43048.367113	4010.810175	21448.874956
103.535000	0.043463	0.027534	0.036171	0.020382	6545.893589	43079.128394	4008.532536	21430.982939
104.036500	0.044039	0.027419	0.042377	0.020738	6547.692353	43035.754846	4022.614863	21415.903337
104.539000	0.043645	0.027268	0.041820	0.022345	6531.367109	42874.143700	4017.384734	21347.862644
105.037000	0.044415	0.028342	0.042016	0.022242	6538.478072	42982.291254	4018.107661	21352.220425
105.537500	0.042790	0.027694	0.037323	0.022351	6524.355358	42912.667353	4006.581871	21347.590263
106.037500	0.044594	0.026865	0.036566	0.022086	6541.208976	42860.969862	4005.410853	21358.801764
106.535000	0.043530	0.027502	0.040770	0.023790	6518.682477	42763.199098	4011.386304	21286.877450
107.035000	0.045616	0.027568	0.042629	0.023086	6541.390355	42833.623999	4017.547921	21316.545763
107.535000	0.043815	0.027728	0.045057	0.023777	6521.107592	42785.089825	4021.746480	21287.434272
108.036000	0.045308	0.027860	0.044618	0.023835	6532.773916	42791.876898	4020.544356	21284.994102
108.536000	0.043595	0.027949	0.036099	0.026346	6498.533167	42570.621939	3994.202950	21179.519359
109.036000	0.043988	0.027868	0.037424	0.024507	6516.586175	42731.089016	4001.691491	21256.713952
109.536500	0.044895	0.028519	0.046166	0.025300	6517.508384	42718.159296	4020.745792	21223.399685
110.037000	0.045321	0.028736	0.037095	0.025872	6516.320605	42685.702118	3997.675054	21199.388697
110.537000	0.043138	0.027929	0.040809	0.028348	6478.758669	42387.097836	4000.608763	21095.909292
111.034000	0.045537	0.028206	0.041877	0.025753	6519.044097	42648.194561	4009.335024	21204.385449
111.538000	0.045418	0.028416	0.041078	0.026378	6513.010436	42610.270710	4005.933481	21178.189403
112.035000	0.045509	0.028311	0.042902	0.026885	6509.637272	42554.540220	4009.078901	21156.965446
