sample name	sample
index	1209
start time	 04-26-2021  01:10:04 PM
880	0.047504
Peak Time (s)	92.037
Peak Height 	0.0475
calc peak height	90,93
Baseline Time (s)	11.537
Baseline Value 	-0.002408
subtract baseline	10,4
Abs	0.035584
Peak Time (s)	92.538
Peak Height 	0.03558
calc peak height	90,93
Baseline Time (s)	9.037
Baseline Value 	-3.8196E-4
subtract baseline	10,3
PK_550	-0.029995
Peak Time (s)	90.535
Peak Height 	-0.03
calc peak height	90,93
Baseline Time (s)	8.537
Baseline Value 	5.1329E-4
subtract baseline	10,2
PK_880	0.033128
Peak Time (s)	91.035
Peak Height 	0.03313
calc peak height	90,93
Baseline Time (s)	10.036
Baseline Value 	-5.4276E-4
subtract baseline	10,1


Time (s)	A880-A510	A880-A775	A880-A975	A880	I510	I775	I975	I880	
0.038000	-0.002517	-0.000909	-0.002105	0.005288	6114.089114	43172.807656	3867.932135	22405.482812
0.536500	-0.000663	-0.000731	0.000717	0.004475	6133.690534	43264.639883	3875.986199	22441.984026
1.036500	-0.001825	-0.001427	-0.001305	0.002756	6137.797809	43359.693324	3875.311816	22519.372156
1.536500	0.000462	0.000487	0.001573	0.001246	6165.946644	43679.399582	3885.115557	22587.574835
2.039500	-0.001886	-0.000627	-0.000951	0.004343	6125.660129	43286.619490	3872.574723	22447.925614
2.537000	0.000142	-0.000956	0.003631	0.000238	6171.073414	43638.683866	3892.026111	22633.276278
3.039500	-0.001884	-0.001298	0.008440	-0.002742	6178.193913	43886.457448	3909.801497	22768.916262
3.535000	0.001670	-0.000098	-0.002818	0.000351	6181.649886	43708.578509	3877.298164	22628.166176
4.038000	-0.001237	-0.001507	-0.006435	0.004085	6132.334322	43228.888246	3861.057059	22459.513245
4.535500	0.000011	-0.000322	0.005013	0.000595	6167.441843	43664.588367	3894.347852	22617.090609
5.035500	0.001277	-0.000183	-0.000057	0.000107	6180.533057	43723.433449	3884.014409	22639.231005
5.536000	0.001496	-0.000316	-0.000721	0.000235	6181.215437	43698.988969	3882.240616	22633.426076
6.036000	0.001292	0.000099	-0.000572	0.000163	6180.223414	43744.686434	3882.735357	22636.679898
6.537000	0.001345	0.000457	0.004846	0.000390	6178.924120	43756.870195	3894.433800	22626.364710
7.037000	0.002133	-0.000558	0.001070	-0.000448	6191.102711	43740.295350	3887.795913	22664.418777
7.534500	0.002282	0.000501	-0.006348	0.000310	6186.537666	43768.635465	3869.555979	22630.021067
8.037000	-0.000829	0.000376	-0.000398	0.002275	6148.725921	43572.755518	3878.403822	22541.086066
8.537000	-0.000142	0.000000	-0.002786	0.000820	6164.619929	43673.657225	3876.321524	22606.860880
9.037500	-0.001364	-0.000239	0.000000	-0.000368	6164.369131	43762.720090	3885.208133	22660.774931
9.535500	0.001859	0.000815	-0.003787	0.000456	6182.273124	43784.371387	3874.905347	22623.369339
10.036000	0.000000	-0.000789	0.001056	-0.001164	6180.483797	43785.830291	3889.375879	22696.964995
10.535500	0.001738	0.000652	0.004550	0.000475	6181.227592	43767.278882	3893.571201	22622.531024
11.036000	-0.000302	-0.000084	0.003114	-0.000555	6173.685688	43794.928281	3892.653088	22669.296833
11.536500	0.001210	0.000461	-0.002924	0.000000	6180.828618	43793.973947	3877.841672	22644.070797
12.037500	-0.000166	-0.000455	0.004731	-0.000575	6174.838436	43761.833927	3896.362224	22670.172060
12.540000	0.001584	-0.000624	0.002309	-0.000466	6187.124342	43735.845874	3890.629385	22665.239860
13.037500	-0.000004	-0.000817	-0.000288	-0.001951	6186.347197	43857.272973	3888.123198	22732.848690
13.535000	0.000542	0.000130	0.004192	-0.000592	6180.262694	43818.511611	3895.178744	22670.959240
14.037500	-0.000932	-0.000008	0.006618	0.002869	6143.559477	43481.302853	3892.831818	22514.253308
14.536000	-0.001748	0.000027	0.003850	0.001436	6148.128820	43618.529302	3889.815776	22579.010186
15.036000	0.002501	0.000491	0.001214	-0.000683	6195.627339	43860.985518	3888.648889	22675.093490
15.536500	0.004132	0.000663	0.003428	-0.000725	6208.225111	43881.239673	3893.748365	22677.012575
16.036500	-0.000088	0.000139	0.001608	0.001600	6159.224822	43613.650221	3884.400221	22571.556781
16.537000	0.002376	0.000030	-0.003924	-0.000385	6192.449882	43789.578926	3876.470957	22661.550892
17.034500	0.003575	0.000247	0.001147	-0.003630	6225.985028	44116.341570	3895.161461	22809.526613
17.535000	0.000227	-0.000059	0.001481	-0.000011	6173.566021	43746.121021	3887.736336	22644.559307
18.038000	-0.000183	0.000570	0.007174	0.002727	6150.156247	43548.607688	3894.414039	22520.674708
18.535500	0.000830	0.000475	0.000146	0.000989	6170.609468	43702.454393	3882.492006	22599.234719
19.036000	0.000379	0.000032	0.001087	0.000639	6169.854062	43693.735672	3885.388894	22615.107873
19.536000	0.001061	0.000200	0.003175	0.000416	6176.604344	43730.362778	3890.593925	22625.187774
20.036500	-0.001576	-0.000072	-0.001910	0.000693	6154.913737	43678.851892	3878.558659	22612.643582
20.536500	-0.001222	-0.000133	-0.002184	0.000624	6158.048555	43679.577471	3878.100808	22615.750701
21.037000	0.001853	0.000708	0.001171	0.001505	6174.389116	43675.838210	3883.632143	22575.874884
21.537500	-0.000485	0.000826	0.006049	0.001411	6157.682587	43695.780150	3894.847706	22580.131688
22.036500	0.000534	-0.000799	-0.002029	0.000644	6170.969607	43615.390047	3878.402686	22614.861818
22.535000	0.001831	0.000462	0.002039	0.000833	6179.246066	43715.823642	3887.093797	22606.300147
23.035500	-0.001114	-0.000740	-0.002132	-0.000009	6163.556017	43681.967435	3879.628926	22644.459559
23.535500	0.001742	0.000507	-0.002689	0.000993	6177.377981	43704.976597	3876.153001	22599.029809
24.038000	-0.002574	-0.000964	-0.000197	0.000470	6149.163186	43616.109125	3882.886373	22622.724592
24.536000	0.001291	0.000557	0.005185	0.000910	6174.634528	43717.499673	3894.024629	22602.823008
25.036500	0.000941	0.000015	0.004404	0.000299	6176.586063	43723.958783	3893.638972	22630.491140
25.537000	0.001488	0.000279	0.004571	0.000875	6176.365158	43694.666550	3892.713267	22604.393878
26.037000	-0.001146	0.000164	-0.001570	0.001492	6152.174335	43626.132244	3877.535284	22576.459323
26.540000	0.000731	0.000027	0.000716	0.000802	6171.258547	43677.892247	3884.188578	22607.694443
27.037500	0.002578	0.000761	-0.000350	-0.001219	6200.245102	43937.032494	3886.334808	22699.500491
27.535000	0.001203	-0.000227	0.006205	-0.002251	6197.655556	43941.157523	3903.545875	22746.505113
28.035000	-0.002739	-0.000231	-0.000858	0.004324	6119.530072	43325.069076	3872.820863	22448.758453
28.535500	0.002604	0.000660	-0.001291	-0.000646	6196.132046	43873.508063	3882.937172	22673.438545
29.036000	-0.000731	-0.000181	0.000705	-0.001028	6174.003681	43830.185877	3888.277520	22690.772838
29.536500	-0.001045	-0.000311	-0.001178	-0.001048	6171.809649	43819.837578	3884.089323	22691.688912
30.036500	-0.000806	-0.000290	0.000754	0.004798	6130.254127	43275.664101	3875.348550	22427.470814
30.539500	-0.002429	-0.000169	0.001913	0.001306	6144.051486	43612.348807	3885.745770	22584.866798
31.039500	-0.000462	0.000492	0.002826	0.001792	6155.017198	43628.703686	3886.704164	22562.880385
31.537500	0.003177	0.000518	0.003219	-0.000718	6200.979806	43866.865443	3893.258272	22676.705213
32.040500	0.000667	-0.000344	-0.002524	0.002705	6156.629149	43465.357786	3872.719284	22521.680966
32.535000	0.001304	0.000097	0.004445	-0.001019	6189.162194	43855.509526	3896.720684	22690.368884
33.035000	0.002222	0.000596	0.006405	-0.000474	6191.962813	43851.244713	3899.943343	22665.598149
33.535500	-0.001664	0.000175	-0.001893	-0.000042	6159.714213	43771.064523	3880.238328	22645.987719
34.036000	0.000624	0.001079	0.002696	0.003378	6151.315764	43535.327154	3882.852945	22491.343451
34.536500	0.000170	0.000301	0.000933	0.001401	6162.623728	43647.519739	3883.334241	22580.595017
35.038500	0.001591	0.000139	0.001042	0.001271	6174.175820	43644.471029	3883.867610	22586.437760
35.537000	0.000990	-0.000003	0.000934	0.000944	6172.138462	43661.835943	3884.361077	22601.286401
36.040000	-0.001764	-0.000108	-0.002494	0.002199	6142.360284	43534.511322	3873.906759	22544.497093
36.535000	0.000711	0.000245	0.003568	0.001471	6166.128467	43635.720521	3889.100441	22577.414203
37.034500	-0.000068	-0.000174	0.001227	0.000973	6164.036958	43643.051769	3884.952525	22599.966190
37.535500	0.001237	-0.000040	-0.002282	0.001125	6172.634474	43641.400841	3876.767274	22593.089817
38.041000	-0.000889	-0.000151	-0.003436	0.002476	6146.780315	43504.639519	3871.203336	22531.975066
38.535500	-0.002342	-0.001116	-0.003982	0.000222	6152.720842	43625.183970	3874.992122	22633.982179
39.036500	0.002634	0.000755	0.005113	0.001842	6177.701953	43648.704220	3891.750966	22560.625902
39.536500	0.001046	0.000236	-0.000063	0.001433	6168.910163	43638.410433	3881.030454	22579.145311
40.036500	-0.000465	-0.000525	0.005706	0.001635	6156.163919	43548.353481	3893.561802	22569.998452
40.537500	-0.002203	-0.000545	-0.002059	0.000685	6150.318553	43635.246970	3878.243562	22613.000458
41.037500	-0.000427	0.000319	-0.000544	0.001445	6157.859321	43645.031061	3879.928859	22578.582386
41.535000	-0.001130	-0.000756	-0.002259	0.000555	6159.250218	43627.704014	3878.088190	22618.910550
42.040000	0.000321	0.000238	0.003000	0.001993	6159.345428	43586.184533	3886.645706	22553.809269
42.535500	-0.000786	0.000699	0.001315	0.001891	6151.881293	43638.820024	3883.091406	22558.413264
43.035500	0.000846	-0.000019	-0.002762	0.001301	6168.403381	43626.892503	3875.307151	22585.117488
43.536000	0.002793	0.000676	0.004785	-0.003229	6217.033254	44119.041608	3902.534893	22791.217377
44.036000	0.000813	0.000550	-0.000855	0.001831	6164.210481	43630.548578	3878.373164	22561.134476
44.536500	0.003042	0.000315	0.005213	-0.000089	6195.235777	43788.584253	3896.354943	22648.130450
45.036000	0.002800	0.000738	-0.001044	-0.000446	6196.094200	43861.964865	3883.041005	22664.320114
45.540000	0.001581	-0.000052	-0.002042	-0.001155	6192.265786	43854.362692	3882.393130	22696.557283
46.034500	-0.004948	-0.000649	-0.000804	0.003666	6108.164843	43347.389647	3874.402481	22478.361104
46.535500	0.001971	-0.000481	0.002861	-0.000905	6193.316456	43790.443300	3892.870067	22685.183588
47.035000	-0.002081	-0.000144	0.001277	0.001435	6145.667785	43602.603095	3884.026131	22579.019816
47.535500	-0.001927	0.000167	0.003991	0.001669	6145.078194	43609.882377	3889.609159	22568.475111
48.035500	0.001140	0.000286	-0.000843	0.004195	6149.085862	43385.252468	3873.143104	22454.577641
48.536000	0.001851	0.000218	0.002763	-0.000622	6190.291325	43829.542201	3892.007692	22672.323245
49.039500	0.001882	-0.000671	0.007378	-0.000946	6192.955182	43776.477654	3903.243102	22687.069099
49.536500	0.003834	-0.000071	0.002782	-0.003757	6228.916382	44098.300993	3899.168654	22815.374290
50.037000	-0.002154	-0.000120	0.001533	0.004337	6123.731668	43334.179115	3878.108244	22448.163068
50.537500	0.003786	-0.002245	0.006155	0.010147	6124.686634	42603.344147	3875.465224	22188.804467
51.034500	0.020176	-0.024118	-0.014720	0.457470	4115.723955	16422.221614	3238.323395	9805.319744
51.535000	0.001819	-0.033847	-0.021503	-0.045618	6545.704552	44871.141481	3940.032216	24827.518410
52.035500	-0.000618	-0.096791	-0.021490	-0.278519	9075.429895	64941.831890	4671.215089	40366.836845
52.535500	0.006253	-0.095645	-0.004745	-0.277626	9160.563079	64977.809169	4736.695770	40289.861153
53.036000	0.004980	-0.054025	-0.003964	-0.210820	8256.900674	61483.965923	4479.028360	34963.113374
53.536000	0.012138	-0.041198	0.005470	-0.184455	8026.534853	59687.986102	4419.028010	33076.299045
54.036500	-0.001616	-0.033810	-0.003908	-0.156383	7558.786273	57049.912188	4294.332805	31189.311778
54.537000	-0.005905	-0.035970	-0.008335	-0.174239	7705.596620	59040.314774	4337.813376	32375.410184
55.040000	-0.003526	-0.040277	-0.008773	-0.186857	7873.314747	60123.623857	4378.432003	33243.476072
55.534500	0.004527	-0.036070	0.003472	-0.159619	7659.790045	57171.510456	4328.593939	31400.663148
56.035000	0.003777	-0.025688	0.001132	-0.091776	6969.073028	50454.000131	4116.868910	27283.063859
56.535000	0.006458	-0.023574	0.010621	-0.062306	6727.590256	47555.048818	4062.592156	25685.358265
57.035500	0.010396	-0.022070	0.010013	-0.044976	6612.332739	45959.431855	4015.943770	24795.192384
57.535500	0.010293	-0.020884	0.002580	-0.026412	6457.502511	44273.117580	3951.667020	23880.238500
58.036000	0.010916	-0.020384	0.004611	0.004350	6221.147397	41492.868975	3884.968311	22447.602787
58.536000	0.009845	-0.019807	0.007619	0.023061	6074.690666	39917.228524	3850.335789	21624.530272
59.036500	0.013033	-0.021159	0.011247	0.031072	6039.985330	39129.187975	3840.891472	21282.858711
59.539500	0.015615	-0.020606	0.016222	0.049768	5926.781722	37649.581777	3811.932971	20509.546287
60.034500	0.014870	-0.020199	0.005514	0.052258	5904.557702	37483.600476	3784.925065	20409.014153
60.535000	0.011239	-0.020956	0.011367	0.039516	5967.578478	38449.486199	3823.213309	20929.483672
61.035000	0.014035	-0.019322	0.008229	0.036530	6008.258137	38828.908706	3822.894062	21053.657469
61.534500	0.012372	-0.022136	0.009418	0.039252	5977.356559	38374.621782	3819.674932	20940.404416
62.035500	0.010522	-0.022143	0.006542	0.028760	6038.564441	39239.952840	3835.775849	21380.839976
62.536000	0.010995	-0.019665	0.006970	0.025712	6063.844424	39704.388402	3843.214797	21510.756372
63.036000	0.014603	-0.018756	0.012077	0.021041	6124.118783	40179.449964	3864.472356	21711.708802
63.537500	0.015824	-0.018721	0.008621	0.018698	6150.417519	40383.757309	3862.026934	21813.288168
64.039000	0.015598	-0.017830	0.008900	0.018926	6147.060264	40440.949394	3862.137843	21803.376569
64.536500	0.013331	-0.018618	0.014968	0.018733	6131.739444	40389.617751	3875.968091	21811.764193
65.037500	0.013939	-0.019567	0.009835	0.020238	6125.137931	40178.779170	3861.313630	21746.454215
65.535000	0.014806	-0.019158	0.014842	0.019712	6135.403426	40258.959232	3873.513287	21769.268807
66.035000	0.012809	-0.019689	0.008060	0.022772	6098.315812	39951.862623	3851.917321	21636.986418
66.536000	0.014822	-0.019437	0.008368	0.016344	6160.460824	40525.154510	3866.644889	21915.941257
67.035500	0.016835	-0.019877	0.010361	0.015914	6178.667641	40524.297039	3871.998389	21934.743481
67.536500	0.017011	-0.018929	0.011916	0.016150	6178.216394	40585.944314	3874.926606	21924.408352
68.036000	0.013747	-0.019521	0.014992	0.021065	6117.657294	40111.907108	3870.848406	21710.669548
68.536500	0.018619	-0.019127	0.011127	0.016817	6185.265942	40511.118350	3871.696803	21895.288589
69.040000	0.016266	-0.019590	0.007252	0.015769	6175.501251	40561.696124	3865.455469	21941.104331
69.537500	0.016707	-0.019246	0.011135	0.016248	6175.218239	40550.029109	3872.973755	21920.119607
70.038000	0.014289	-0.020207	0.009801	0.020681	6124.458516	40086.069129	3860.266740	21727.262953
70.535000	0.016964	-0.020172	0.010025	0.016425	6175.817119	40454.697070	3870.125634	21912.409640
71.035000	0.019290	-0.020384	0.011497	0.016735	6190.906856	40409.661664	3872.696218	21898.842975
71.535500	0.019347	-0.020520	0.014563	0.016218	6195.216804	40442.531419	3880.674404	21921.436114
72.036000	0.014437	-0.020037	0.012447	0.020798	6124.693107	40090.648227	3865.821142	21722.234978
72.536500	0.019648	-0.021119	0.018014	0.016318	6196.721341	40382.204344	3888.195772	21917.052556
73.036500	0.021203	-0.020578	0.016213	0.016747	6205.201462	40391.907026	3883.185325	21898.338311
73.537000	0.020034	-0.020447	0.016041	0.016853	6195.606291	40394.021781	3882.560603	21893.695998
74.036500	0.019617	-0.020838	0.012512	0.021055	6161.084260	40000.372719	3865.397459	21711.105749
74.537500	0.020455	-0.021260	0.018534	0.017503	6193.889496	40268.198892	3886.700480	21865.346903
75.035000	0.020930	-0.021593	0.016258	0.017637	6196.451274	40228.089534	3881.292740	21859.503710
75.535000	0.020111	-0.021619	0.023038	0.017340	6192.526959	40251.334300	3897.253003	21872.434021
76.035500	0.021039	-0.021287	0.016602	0.018641	6189.732861	40168.279717	3879.817365	21815.785850
76.536000	0.021145	-0.022629	0.020039	0.017308	6200.541010	40167.493365	3890.530217	21873.835176
77.036000	0.023112	-0.021613	0.014095	0.018159	6208.947512	40181.609598	3875.303622	21836.754725
77.536500	0.023172	-0.022615	0.019795	0.017526	6214.178187	40149.988723	3889.486546	21864.311950
78.036500	0.020656	-0.021451	0.020470	0.023006	6154.310707	39782.329123	3878.708781	21626.917621
78.539500	0.023607	-0.022427	0.022457	0.017382	6218.556468	40178.409166	3895.838255	21870.595552
79.037000	0.022604	-0.022556	0.024847	0.017793	6207.881376	40132.199386	3900.341102	21852.690476
79.535000	0.022850	-0.021823	0.019104	0.018497	6204.423872	40134.651552	3885.745615	21822.041537
80.035000	0.022176	-0.022841	0.017330	0.018528	6199.116910	40044.997802	3881.697401	21820.692181
80.535500	0.024502	-0.022601	0.022888	0.019286	6210.937339	40000.858941	3892.499661	21787.757620
81.035500	0.022069	-0.024210	0.018822	0.019700	6189.514575	39828.720088	3882.415370	21769.804693
81.535500	0.025341	-0.023128	0.024305	0.020986	6204.440720	39811.334886	3891.858259	21714.060657
82.036500	0.024898	-0.023780	0.018680	0.021514	6197.130591	39711.380152	3878.041834	21691.251060
82.536000	0.027176	-0.023909	0.020347	0.022700	6205.350379	39600.384042	3879.117126	21640.094048
83.037000	0.025842	-0.024118	0.021751	0.023154	6191.905499	39544.402896	3881.237673	21620.527985
83.537000	0.027034	-0.024138	0.022777	0.024356	6191.826544	39441.695884	3880.844269	21568.875062
84.037500	0.019581	-0.025227	0.019360	0.028623	6105.039561	38994.604836	3863.814877	21386.645057
84.535000	0.024728	-0.024903	0.023573	0.025821	6163.653351	39254.891497	3879.351388	21506.128043
85.035000	0.028805	-0.026267	0.022924	0.025811	6194.208427	39141.917193	3877.925451	21506.551733
85.535500	0.026680	-0.026333	0.026775	0.026958	6169.722883	39041.037568	3883.971667	21457.558935
86.035500	0.024892	-0.027190	0.028643	0.032837	6113.063494	38485.796714	3875.016014	21208.417577
86.536000	0.026833	-0.027084	0.030326	0.029241	6153.879618	38789.839706	3886.820167	21360.402566
87.036000	0.027439	-0.026957	0.027652	0.030952	6145.689327	38659.417468	3877.002673	21287.913335
87.537000	0.024839	-0.028421	0.024469	0.031433	6122.978139	38499.960005	3868.877911	21267.625577
88.039500	0.023768	-0.029348	0.023168	0.037111	6073.770829	37963.657043	3853.586627	21029.411730
88.537000	0.028099	-0.028427	0.030663	0.033984	6128.187470	38291.324619	3876.957211	21160.195745
89.034500	0.029679	-0.029006	0.030707	0.034880	6133.222043	38171.533488	3875.060340	21122.626783
89.538000	0.028237	-0.029403	0.027472	0.036712	6109.179890	37991.335868	3863.864383	21046.052786
90.035000	0.026395	-0.030651	0.024539	0.042040	6057.163611	37465.060401	3845.888767	20825.175546
90.535500	0.031514	-0.029995	0.032803	0.038798	6117.906461	37776.037153	3871.020165	20959.242200
91.035500	0.033128	-0.031714	0.031477	0.039119	6127.408151	37612.934895	3867.381794	20945.933870
91.536000	0.029945	-0.030236	0.028551	0.042746	6077.694058	37441.920684	3853.042293	20796.106528
92.036500	0.028847	-0.030807	0.028997	0.047504	6035.560457	37021.476032	3843.719608	20601.413397
92.538500	0.032963	-0.030590	0.035584	0.044953	6083.576974	37239.261574	3863.582938	20705.543566
93.037000	0.031795	-0.031687	0.032111	0.045372	6072.075675	37119.766545	3855.069817	20688.375200
93.534500	0.033323	-0.031004	0.030182	0.048938	6057.383182	36893.805888	3843.186549	20543.175888
94.130500	0.030174	-0.031719	0.027348	0.055063	5991.345327	36363.647789	3824.124812	20296.482643
94.538000	0.033893	-0.031679	0.035141	0.050508	6050.189163	36718.890899	3850.497547	20479.598437
95.035500	0.034640	-0.031114	0.033181	0.052394	6042.020909	36616.384150	3842.203213	20403.559540
95.535500	0.034342	-0.031567	0.039303	0.053432	6032.471935	36501.042312	3853.182103	20361.826220
96.035500	0.034411	-0.032211	0.031207	0.054839	6022.934226	36343.056369	3832.764610	20305.463787
96.536000	0.035245	-0.032593	0.029967	0.056240	6018.902891	36206.286423	3827.167915	20249.500436
