sample name	sample
index	215
start time	 02-22-2021  10:12:03 AM
880	-0.033816
Peak Time (s)	92.036
Peak Height 	-0.03382
calc peak height	90,93
Baseline Time (s)	9.034
Baseline Value 	-0.004503
subtract baseline	10,4
Abs	-0.005656
Peak Time (s)	92.036
Peak Height 	-0.005656
calc peak height	90,93
Baseline Time (s)	8.538
Baseline Value 	0.004425
subtract baseline	10,3
PK_550	-0.002331
Peak Time (s)	92.036
Peak Height 	-0.002331
calc peak height	90,93
Baseline Time (s)	9.536
Baseline Value 	4.1946E-4
subtract baseline	10,2
PK_880	-0.005122
Peak Time (s)	90.038
Peak Height 	-0.005122
calc peak height	90,93
Baseline Time (s)	10.536
Baseline Value 	0.001895
subtract baseline	10,1


Time (s)	A880-A510	A880-A775	A880-A975	A880	I510	I775	I975	I880	
0.035000	0.001101	-0.000429	-0.000539	0.000798	6886.734238	47215.676580	3926.488215	24738.527548
0.536000	0.000114	0.001000	-0.000723	0.005844	6830.460679	46847.424282	3912.730988	24484.967078
1.039000	-0.000785	-0.000516	-0.003904	0.003417	6844.643178	46939.992434	3910.759736	24606.573371
1.539500	0.001134	-0.000131	-0.003410	0.000062	6893.962546	47321.612973	3920.852220	24775.765380
2.037000	0.002619	-0.000507	-0.003996	-0.000931	6917.349444	47384.799169	3921.924587	24826.094785
2.536500	-0.001784	-0.000263	-0.005877	0.003417	6835.362936	46965.564779	3905.620892	24606.548647
3.036500	0.000530	-0.000252	0.001049	-0.001262	6900.742374	47444.979155	3936.185954	24842.893521
3.537500	0.001370	-0.000050	0.002902	0.000261	6894.315372	47309.501064	3937.065749	24765.690595
4.035000	-0.001163	-0.000864	-0.002426	-0.000229	6875.132837	47276.300581	3924.217254	24790.516114
4.535000	0.000134	-0.000431	-0.004914	-0.000001	6885.156082	47297.285973	3917.064262	24778.945866
5.035500	0.000332	0.000148	-0.002642	0.000313	6884.067614	47324.398082	3922.213623	24763.056948
5.539000	0.000129	0.000187	-0.002017	0.000345	6881.859946	47325.066111	3923.777356	24761.409885
6.036500	0.001173	0.000357	-0.001671	0.000662	6888.685427	47310.047234	3923.856247	24745.389120
6.536500	-0.001082	-0.000819	-0.000507	-0.000725	6880.535750	47331.640688	3930.612170	24815.627693
7.036500	0.001914	-0.000260	-0.002533	0.000051	6901.417293	47309.491652	3923.193655	24776.330626
7.537000	0.000550	-0.000043	-0.003210	0.000237	6886.827867	47312.640264	3920.916307	24766.878270
8.037500	0.000458	-0.000163	-0.005365	-0.000380	6891.764315	47363.638617	3916.873877	24798.143985
8.538000	0.001054	0.000087	0.000000	-0.000106	6894.789100	47361.073675	3930.314045	24784.256601
9.034500	-0.000817	-0.000377	-0.004567	0.000000	6876.229112	47302.739644	3917.972168	24778.895030
9.535500	-0.000281	0.000000	0.000519	0.000133	6880.001546	47327.709129	3931.057249	24772.166024
10.039000	0.000943	0.000365	0.000437	0.000692	6886.249887	47307.860885	3929.357682	24743.905426
10.536000	0.000000	0.000376	0.001140	0.000561	6878.624384	47322.322182	3931.569582	24750.492601
11.036000	-0.000116	-0.000500	-0.001033	-0.000477	6887.273926	47338.944689	3928.557827	24803.043275
11.536500	0.000117	-0.000705	-0.003048	-0.000223	6887.085384	47291.970310	3922.557881	24790.200474
12.037000	-0.002044	0.000412	-0.001819	-0.000135	6866.010851	47397.411326	3925.572047	24785.733139
12.537000	-0.000315	-0.000718	0.005593	-0.000223	6883.025491	47290.674573	3945.577373	24790.205469
13.035000	0.002474	0.000032	0.003343	-0.002550	6931.315484	47606.768025	3945.783456	24908.375950
13.535000	0.002099	-0.000141	0.000571	-0.000581	6909.117798	47386.467510	3933.094550	24808.308200
14.035000	0.000588	0.000629	0.001391	-0.000140	6890.735285	47420.306083	3934.106582	24785.997668
14.536000	-0.002377	0.000357	-0.000605	0.002367	6839.596005	47135.684513	3922.168385	24659.351516
15.035500	0.001411	-0.000258	0.002666	-0.000800	6904.694457	47396.971779	3939.272400	24819.458486
15.565500	0.002713	0.000084	-0.002373	-0.000734	6916.364388	47425.289957	3925.687758	24816.074838
16.036500	0.003404	0.000071	0.000053	-0.001299	6928.272961	47482.045040	3933.627385	24844.756172
16.537000	0.002331	0.000372	-0.000581	-0.001218	6917.342823	47504.707764	3931.726090	24840.673933
17.037000	0.002192	0.000080	0.000791	-0.001721	6920.789853	47526.451896	3936.723075	24866.229381
17.535000	0.001714	0.000857	0.001131	0.000435	6895.911413	47384.638585	3931.882356	24756.899894
18.035000	-0.000198	-0.000291	-0.001863	-0.001035	6891.756162	47417.757878	3927.837000	24831.387650
18.535500	0.000649	0.000579	-0.000222	0.001203	6878.694692	47277.361300	3926.256879	24718.059786
19.035500	0.000474	0.000122	0.001388	0.001378	6875.418220	47212.824362	3930.059487	24709.249564
19.535500	0.000170	0.000024	-0.001497	0.000827	6877.726534	47259.097808	3923.881035	24737.069692
20.036000	0.001255	0.000492	-0.001439	0.001279	6883.667949	47260.759484	3922.841581	24714.244300
20.536000	0.000410	-0.000239	0.001015	0.000883	6879.453063	47226.547044	3930.383536	24734.254866
21.036500	-0.002151	-0.000246	-0.004244	0.000814	6856.157916	47232.789026	3916.685214	24737.741811
21.536500	0.000274	-0.000274	0.000389	0.000573	6881.085913	47254.574595	3929.543556	24749.890388
22.037000	0.000818	0.000484	0.002668	0.001245	6879.884052	47263.392285	3933.816496	24715.961393
22.534500	0.000386	0.000295	0.001739	0.001361	6874.751651	47232.188362	3931.036437	24710.096936
23.035000	-0.000440	0.000006	0.001277	0.001036	6870.053302	47235.864414	3930.671368	24726.493703
23.535500	0.002099	0.000653	-0.003384	0.001626	6888.334183	47241.675106	3916.809859	24696.716225
24.038500	0.002903	0.001026	0.006794	0.001850	6893.784972	47256.992923	3943.233082	24685.433526
24.536000	-0.000523	-0.000153	0.003694	0.000678	6872.635981	47256.213546	3938.068624	24744.597311
25.036000	0.001156	0.000152	-0.000500	0.001281	6882.716096	47225.706455	3925.314563	24714.118623
25.536500	0.000333	0.000386	0.005612	0.001348	6874.368488	47242.843401	3941.407596	24710.737680
26.036500	-0.000631	-0.000153	0.000487	0.000790	6870.567002	47244.704095	3929.228751	24738.907046
26.537000	-0.000333	-0.000710	-0.001111	0.000108	6879.758604	47257.603931	3926.802952	24773.436872
27.037000	0.000917	0.000456	-0.000818	0.000928	6883.790334	47293.026378	3925.407655	24731.976712
27.538000	-0.000853	-0.000091	0.004212	0.000843	6868.006013	47245.718854	3939.013177	24736.268794
28.035000	0.000590	0.000171	0.004120	-0.002673	6914.631238	47633.858435	3948.208894	24914.662592
28.538500	0.003066	0.000617	0.002602	-0.000992	6922.150908	47506.545112	3939.612148	24829.156842
29.036000	0.002118	0.000431	0.002974	-0.001205	6915.202301	47509.385611	3941.181510	24840.001180
29.536000	0.004433	0.001269	0.005551	-0.000477	6930.232105	47520.618004	3946.147855	24803.040388
30.036500	0.000551	0.000002	0.004113	-0.001799	6906.006647	47526.393869	3945.836510	24870.170544
30.536500	-0.002472	0.000443	-0.003272	0.004704	6817.087392	46906.593774	3909.051751	24541.988699
31.037000	0.002412	0.000495	-0.000417	-0.001396	6919.788888	47535.706918	3932.635786	24849.712589
31.559000	0.000995	0.000072	0.002059	-0.001604	6908.350831	47513.433058	3939.796904	24860.239393
32.034000	0.001744	-0.000240	-0.003094	0.001995	6881.533801	47112.800743	3916.602416	24678.124869
32.535500	-0.000649	0.000073	-0.001182	0.004560	6835.287341	46883.641339	3914.888200	24549.193583
33.057000	0.001357	0.000246	0.000403	-0.000993	6906.005856	47468.562393	3933.744817	24829.239291
33.535500	0.002392	0.000282	0.003687	-0.000827	6914.214428	47455.212645	3942.080638	24820.820176
34.036000	0.001637	0.000279	0.004525	-0.001343	6911.954140	47507.930059	3945.716443	24847.001933
34.536000	-0.001100	0.000180	-0.002473	0.004694	6829.862194	46880.925518	3911.160644	24542.492821
35.036500	0.001419	-0.000722	0.005522	-0.002748	6923.193080	47549.568413	3952.200544	24918.499585
35.537000	0.000579	0.000132	0.002053	0.001725	6873.144740	47178.245854	3930.903461	24691.708558
36.037000	-0.000881	-0.000313	0.000571	0.001382	6862.707748	47167.878879	3927.881928	24709.032021
36.535000	-0.000254	0.000217	-0.003078	0.003220	6851.408627	47034.530302	3913.432879	24616.444208
37.034500	-0.000750	-0.000143	0.000750	0.001339	6864.324343	47189.614112	3928.468711	24711.180502
37.535000	0.000512	-0.000227	0.000890	0.001332	6876.204852	47181.845056	3928.860152	24711.562674
38.035500	0.001541	-0.000109	0.000386	0.001437	6884.858693	47183.041860	3927.246155	24706.235395
38.535500	0.000344	0.000835	0.002726	0.002197	6866.531912	47201.877286	3931.437122	24667.927202
39.036000	-0.001283	0.000771	0.001213	0.001957	6853.593963	47219.970251	3928.058782	24680.035407
39.536000	0.001717	0.000970	-0.001428	0.001926	6881.931885	47243.425900	3921.165150	24681.606911
40.037000	-0.000192	0.000755	-0.000168	0.002261	6860.921583	47187.159309	3923.601397	24664.686342
40.536500	0.000420	-0.000427	-0.002135	0.001406	6874.643199	47153.769641	3920.669117	24707.806448
41.036000	0.001973	0.000022	0.000745	0.001843	6885.111763	47155.028024	3927.122044	24685.793861
41.537500	0.000105	-0.000190	0.002689	0.001659	6869.332631	47152.169067	3932.770948	24695.066817
42.035000	0.000570	-0.000216	-0.002651	0.001844	6871.945596	47130.620604	3918.160744	24685.730033
42.538000	-0.000044	-0.000248	-0.001799	0.001193	6872.298422	47193.887293	3922.118121	24718.580123
43.035500	0.000286	-0.000431	0.000594	0.001410	6873.353836	47152.993250	3927.869069	24707.614262
43.535500	-0.000021	0.000893	0.002217	0.002447	6860.789959	47182.362919	3929.422285	24655.361052
44.036000	0.000459	-0.000288	-0.002631	0.001897	6870.414428	47117.937914	3918.073659	24683.058634
44.536000	-0.000579	0.000520	0.003540	0.001849	6861.158249	47205.230777	3934.529800	24685.464992
45.036000	0.002661	0.000935	0.000799	0.002141	6888.776734	47217.831930	3926.476045	24670.750598
45.537000	0.000234	-0.000246	0.001795	-0.003069	6915.006001	47631.668112	3943.016860	24934.824252
46.037000	0.000983	-0.000061	0.005544	-0.001352	6905.862424	47473.943517	3948.487482	24847.463819
46.565000	0.004702	0.000096	0.005075	-0.001274	6940.371164	47482.055330	3947.013536	24843.508189
47.037500	0.001693	-0.000676	0.000515	-0.001567	6914.607275	47432.856222	3935.575794	24858.404207
47.535500	-0.000751	0.000922	0.005592	0.001698	6860.967533	47261.911794	3940.419302	24693.108506
48.035500	0.002034	-0.000657	0.000339	-0.001251	6914.842706	47402.302237	3934.261885	24842.347498
48.536000	0.001922	-0.000139	-0.000222	-0.001503	6916.164975	47481.391495	3933.438653	24855.140700
49.036000	-0.000618	0.000247	-0.001645	0.002222	6857.314074	47139.268407	3919.812681	24666.658102
49.536500	0.001179	0.000258	-0.003681	0.002815	6868.566750	47079.978376	3912.917241	24636.830240
50.038000	0.000668	0.000189	-0.000169	-0.000937	6898.986941	47456.898234	3932.075082	24826.399108
50.536500	-0.000346	0.000427	0.002758	0.003898	6844.249985	46986.898880	3927.009930	24582.413090
51.037500	0.001995	-0.000024	0.000615	-0.001239	6914.358899	47466.021622	3934.963914	24841.710597
51.537500	-0.000918	-0.000039	-0.001161	0.001555	6860.746578	47178.257994	3922.845489	24700.316910
52.035000	0.003526	0.000441	0.001590	-0.000570	6922.523744	47445.108281	3935.781361	24807.795355
52.535500	0.001922	0.000099	-0.000097	0.001419	6888.614477	47206.242863	3926.015628	24707.168286
53.035500	-0.016083	-0.017128	0.001814	0.116018	5814.793957	35584.519047	3663.430658	19623.645779
53.536000	-0.032979	-0.028382	0.000039	-0.008523	6660.683850	45351.119112	3952.988607	25214.713572
54.036000	-0.019026	-0.021489	-0.001590	-0.073520	7428.851086	53008.613862	4137.718572	28835.155161
54.536500	-0.018300	-0.021120	-0.003058	-0.100425	7732.428523	56261.815645	4219.789351	30499.765486
55.036500	-0.022924	-0.014940	-0.014019	-0.093889	7607.478895	56218.097966	4162.820139	30085.834809
55.537500	-0.015726	-0.012663	-0.009609	-0.095233	7702.832563	56665.269013	4181.304026	30170.469815
56.034500	-0.006441	-0.008002	-0.001812	-0.089722	7745.564649	56559.968916	4188.715036	29825.226599
56.537500	-0.005749	-0.014343	-0.013258	-0.125104	8173.244951	60276.804657	4268.701399	32120.086780
57.035500	-0.004064	-0.006655	-0.005844	-0.093515	7816.209199	57199.766524	4187.939143	30062.369002
57.535500	-0.001804	-0.007719	-0.006151	-0.088906	7789.183122	56493.956412	4172.056789	29774.415213
58.036000	0.000244	-0.007869	-0.003127	-0.089223	7816.388750	56514.678131	4182.831249	29794.139023
58.536000	-0.002327	-0.007852	-0.006564	-0.073029	7604.580447	54551.195171	4120.702400	28805.708447
59.036000	-0.002377	-0.007971	-0.003484	-0.067240	7540.510976	53852.113794	4112.347507	28461.201759
59.536500	-0.002836	-0.008742	-0.004189	-0.055357	7407.914995	52386.611817	4074.201415	27768.337573
60.037000	-0.002818	-0.007615	-0.005084	-0.046363	7313.801924	51496.602927	4044.997755	27256.319567
60.537000	-0.002563	-0.006819	-0.006135	-0.042375	7275.240357	51140.143842	4030.370578	27032.689557
61.037500	-0.002687	-0.005095	0.002650	-0.035712	7205.959529	50593.719030	4036.510110	26663.559617
61.535000	-0.003866	-0.006187	-0.003825	-0.037200	7209.084960	50637.237799	4022.129279	26745.487755
62.035500	-0.002635	-0.000263	-0.003511	-0.013560	6987.733316	48725.737208	3957.022775	25476.321394
62.536000	-0.004901	-0.004555	-0.007104	-0.029130	7117.768654	49933.598949	3990.015735	26304.461684
63.035500	-0.003714	-0.003738	-0.004889	-0.021386	7053.187706	49188.045418	3974.673137	25888.865384
63.536000	-0.007353	-0.006252	-0.003245	-0.046527	7268.671157	51668.086752	4050.856737	27265.548691
64.036500	-0.003834	-0.001610	-0.007802	-0.056849	7413.135394	53380.682929	4067.880811	27854.256510
64.536500	-0.001905	-0.003732	-0.012136	-0.070412	7580.399259	54730.551764	4095.605480	28649.424158
65.037500	-0.003140	-0.004045	-0.012179	-0.071043	7573.757331	54768.554423	4097.390256	28686.996067
65.563500	-0.001844	-0.003938	-0.010875	-0.074234	7623.256744	55164.541631	4111.127274	28877.997251
66.033500	-0.000993	-0.003953	-0.011077	-0.074396	7634.501218	55182.282298	4111.002182	28887.718139
66.534500	-0.003250	-0.004957	-0.015012	-0.076380	7631.474357	55300.683429	4105.027110	29007.253052
67.035000	-0.002346	-0.004101	-0.011480	-0.076040	7637.740386	55362.972237	4114.820265	28986.729490
67.536000	-0.001921	-0.004844	-0.014803	-0.076970	7652.833285	55385.696742	4107.470794	29042.877809
68.036000	-0.002409	-0.004914	-0.009267	-0.077919	7657.990095	55492.218252	4127.487999	29100.335539
68.536500	-0.004093	-0.005490	-0.010276	-0.077142	7630.578928	55328.381590	4121.942910	29053.300480
69.036500	-0.002618	-0.004732	-0.013256	-0.077559	7651.635031	55470.595246	4114.032270	29078.530749
69.536500	-0.002301	-0.004773	-0.012586	-0.076581	7644.266354	55347.184349	4113.082672	29019.383575
70.040000	-0.001828	-0.005112	-0.012366	-0.077275	7657.275747	55390.084859	4115.896160	29061.304390
70.534000	-0.005132	-0.005058	-0.012812	-0.075461	7600.456028	55177.482959	4108.947529	28951.804500
71.035000	-0.005721	-0.005201	-0.010876	-0.075454	7593.900069	55159.444231	4114.877965	28951.420458
71.535500	-0.004059	-0.005687	-0.013505	-0.074443	7601.069829	54979.282811	4103.712959	28890.581547
72.035500	-0.003579	-0.004407	-0.011511	-0.073051	7591.019112	54965.845373	4105.553043	28807.064156
72.536000	-0.003566	-0.004464	-0.012692	-0.070793	7566.351942	54688.535696	4095.071664	28672.097644
73.036500	-0.004141	-0.005011	-0.010110	-0.071083	7563.233429	54657.990903	4103.820321	28689.424415
73.536500	-0.007083	-0.005260	-0.009656	-0.068996	7508.478044	54379.850837	4098.840464	28565.257964
74.037000	-0.005897	-0.004892	-0.010739	-0.068532	7516.300588	54368.417613	4094.140244	28537.736712
74.537000	-0.005019	-0.004870	-0.011642	-0.066403	7502.754421	54118.865131	4084.975806	28411.802089
75.034500	-0.004634	-0.005088	-0.011960	-0.065780	7500.172730	54019.532008	4082.144278	28375.037302
75.535000	-0.006314	-0.005091	-0.013595	-0.064128	7464.312471	53824.830700	4072.303872	28277.915951
76.034500	-0.006257	-0.005323	-0.012728	-0.063437	7457.525874	53716.507437	4072.830165	28237.384382
76.535500	-0.004034	-0.005199	-0.012100	-0.060877	7453.923454	53431.926168	4067.079751	28087.852768
77.035000	-0.005959	-0.004697	-0.011694	-0.059562	7419.379486	53337.113952	4064.380615	28011.322236
77.536000	-0.005823	-0.005621	-0.011618	-0.058976	7414.603269	53161.900114	4062.868867	27977.341113
78.036000	-0.005514	-0.004980	-0.007212	-0.057495	7402.184159	53064.475403	4071.556519	27891.559255
78.536000	-0.004773	-0.005069	-0.006210	-0.055473	7388.658249	52820.992983	4068.523126	27775.009518
79.037000	-0.006993	-0.005198	-0.009970	-0.055313	7363.615180	52787.593738	4056.917172	27765.774162
79.537500	-0.007775	-0.005163	-0.012146	-0.053731	7338.894600	52609.985834	4045.892957	27674.969591
80.037500	-0.004792	-0.004533	-0.008199	-0.051699	7348.816855	52449.413507	4051.496281	27558.772819
80.535000	-0.005967	-0.004847	-0.008047	-0.050322	7322.218358	52256.554089	4047.908621	27480.388444
81.035000	-0.007183	-0.005041	-0.006742	-0.050078	7307.058560	52206.631545	4051.017152	27466.488488
81.535500	-0.006752	-0.004469	-0.010738	-0.048943	7299.773383	52142.725757	4036.054203	27402.092603
82.038000	-0.006159	-0.004197	-0.016229	-0.047888	7294.990299	52053.777572	4017.220566	27342.360929
82.536000	-0.005511	-0.004841	-0.009501	-0.046546	7287.840648	51829.225061	4032.697054	27266.648831
83.036500	-0.008020	-0.004198	-0.008490	-0.045849	7254.880072	51823.104186	4033.605631	27227.384948
83.537000	-0.007069	-0.004146	-0.011683	-0.044991	7255.838695	51732.343207	4021.939119	27179.164109
84.040000	-0.006508	-0.003913	-0.010898	-0.043709	7248.451440	51614.248267	4020.515437	27107.258263
84.537500	-0.006224	-0.004273	-0.013461	-0.042697	7241.022286	51460.326323	4010.321666	27050.670826
85.038000	-0.005992	-0.003215	-0.010100	-0.041951	7235.773330	51495.290967	4017.769186	27008.993483
85.535000	-0.007698	-0.004054	-0.010233	-0.041122	7210.006872	51308.666976	4015.024054	26962.833736
86.035500	-0.006549	-0.004324	-0.006303	-0.041285	7223.314692	51296.682381	4026.745875	26971.891951
86.535500	-0.008172	-0.004070	-0.009732	-0.039767	7191.499355	51155.763234	4012.589546	26887.497104
87.036000	-0.005483	-0.003158	-0.009439	-0.038740	7208.314682	51143.052804	4010.506645	26830.620566
87.536500	-0.005921	-0.003667	-0.010572	-0.038378	7200.207743	51046.140719	4006.265103	26810.548396
88.036500	-0.006332	-0.003336	-0.008152	-0.038423	7196.502652	51087.991221	4013.264085	26813.051974
88.539500	-0.007980	-0.003716	-0.008798	-0.037823	7173.849717	50979.127700	4009.722489	26779.892354
89.037000	-0.005723	-0.002803	-0.007841	-0.036755	7185.820150	50962.003701	4009.406634	26720.978571
89.535000	-0.005143	-0.002320	-0.008022	-0.035197	7175.964448	50842.956019	4004.479967	26635.238552
90.037500	-0.005122	-0.003306	-0.009214	-0.036141	7185.682893	50838.226170	4003.781759	26687.134375
90.535500	-0.007491	-0.002959	-0.010485	-0.035360	7154.049774	50790.331404	3997.999327	26644.231971
91.035500	-0.006277	-0.003042	-0.016176	-0.035033	7162.938701	50745.089691	3981.198860	26626.283100
91.536000	-0.005127	-0.003577	-0.010993	-0.034911	7173.254148	50672.630638	3995.311156	26619.544409
92.036000	-0.006053	-0.002331	-0.005656	-0.033816	7152.979785	50689.262410	4007.266928	26559.532411
92.536500	-0.006607	-0.003088	-0.008807	-0.034112	7150.407827	50638.566770	3999.209042	26575.781427
93.036000	-0.006513	-0.002686	-0.009924	-0.033277	7143.012025	50590.833157	3993.728711	26530.099360
93.537000	-0.004849	-0.003271	-0.006668	-0.033317	7160.040845	50530.882238	4002.996020	26532.248743
94.037000	-0.004670	-0.002374	-0.007353	-0.032116	7149.818731	50497.556400	3997.684522	26466.703265
94.534500	-0.006376	-0.003119	-0.008056	-0.032958	7141.184356	50508.147791	3998.075584	26512.627781
95.035000	-0.007993	-0.003091	-0.009293	-0.032457	7120.103104	50456.311378	3993.199560	26485.309368
95.535500	-0.007414	-0.003307	-0.009130	-0.031999	7121.310350	50382.458735	3992.372197	26460.330684
96.043500	-0.005794	-0.001580	-0.010332	-0.030659	7124.087698	50424.822376	3985.279831	26387.404473
96.547000	-0.006994	-0.003837	-0.009727	-0.032094	7126.421259	50334.702966	3990.966985	26465.486834
97.036500	-0.005958	-0.003351	-0.012109	-0.031013	7125.969963	50269.603414	3981.326878	26406.610048
97.537000	-0.006209	-0.001983	-0.011870	-0.029477	7108.243692	50251.281309	3977.735845	26323.228957
98.036500	-0.007188	-0.002705	-0.009135	-0.029471	7098.497579	50171.916036	3985.304395	26322.934107
98.548500	-0.007209	-0.002700	-0.013900	-0.029895	7102.488052	50218.664315	3973.289357	26345.911647
99.035000	-0.005600	-0.002129	-0.007823	-0.029182	7111.350298	50203.161213	3988.152379	26307.253796
