sample name	sample
index	738
start time	 03-25-2021  03:36:24 PM
880	-0.016535
Peak Time (s)	90.035
Peak Height 	-0.01654
calc peak height	90,93
Baseline Time (s)	8.535
Baseline Value 	-0.004334
subtract baseline	10,4
Abs	-0.002778
Peak Time (s)	91.536
Peak Height 	-0.002778
calc peak height	90,93
Baseline Time (s)	9.535
Baseline Value 	0.00178
subtract baseline	10,3
PK_550	0.001620
Peak Time (s)	90.035
Peak Height 	0.00162
calc peak height	90,93
Baseline Time (s)	9.036
Baseline Value 	1.3263E-4
subtract baseline	10,2
PK_880	0.000898
Peak Time (s)	91.036
Peak Height 	8.9755E-4
calc peak height	90,93
Baseline Time (s)	11.537
Baseline Value 	0.001585
subtract baseline	10,1


Time (s)	A880-A510	A880-A775	A880-A975	A880	I510	I775	I975	I880	
0.036000	-0.000034	0.000493	0.006065	0.003394	7170.512374	44008.250357	3974.486350	23448.158915
0.535500	-0.004045	-0.000641	-0.002723	0.007885	7087.655388	43479.588021	3941.182647	23236.654714
1.036000	0.000164	0.000469	-0.004662	0.005099	7155.703673	43845.002822	3943.275462	23367.587564
1.537500	0.000226	0.000302	0.000892	0.002753	7179.389689	44050.892009	3963.006625	23478.523237
2.037000	-0.002312	0.000222	-0.000666	0.002302	7158.854647	44085.954468	3960.218838	23499.899044
2.537000	-0.003577	0.000157	-0.003875	0.005724	7113.106670	43756.780894	3943.677197	23338.137574
3.035000	0.001784	0.000559	0.002202	-0.000359	7225.691585	44371.102855	3974.206265	23626.563810
3.535000	0.000531	0.000110	0.002822	0.000397	7205.707398	44256.226822	3973.859528	23590.495605
4.035500	-0.001090	0.000053	-0.002729	0.001708	7176.715407	44126.233218	3956.531408	23528.102185
4.535500	-0.002209	-0.000173	0.002029	-0.000284	7185.330117	44294.135145	3973.575157	23622.990597
5.036000	0.000846	0.000182	0.003378	0.000604	7206.785737	44243.435934	3974.749394	23580.638576
5.536000	-0.000830	0.000209	-0.001402	0.000298	7193.203601	44275.053220	3963.409341	23595.213179
6.036500	-0.001569	-0.000572	0.000730	0.000598	7182.944380	44172.326506	3968.039312	23580.918716
6.536500	-0.001700	-0.000468	0.000601	-0.000531	7192.806604	44289.621342	3970.574659	23634.793420
7.037000	0.000550	0.000731	-0.003020	0.000344	7206.429403	44320.462164	3959.225207	23593.047132
7.535000	-0.000455	0.000574	-0.000568	0.000090	7198.980190	44329.671246	3966.042136	23605.138312
8.035000	-0.000289	-0.000656	0.001051	-0.000489	7206.371892	44267.763446	3971.610894	23632.791642
8.535000	-0.002247	0.000384	0.001273	0.000000	7182.153203	44320.208305	3970.932137	23609.434366
9.035500	0.001684	0.000000	-0.001377	-0.000259	7223.696274	44308.230192	3964.879087	23621.779636
9.535000	0.001182	-0.000379	0.000000	-0.000452	7220.627960	44290.539934	3968.850889	23631.031084
10.036000	-0.000702	-0.000250	0.002537	-0.000240	7199.802693	44282.556900	3974.755556	23620.868679
10.536000	-0.000536	-0.000225	-0.001411	0.000045	7198.620842	44257.889651	3964.025801	23607.268532
11.037000	0.000464	0.000118	0.000082	0.000038	7208.617012	44291.221696	3967.816841	23607.644029
11.537000	0.000000	0.000620	-0.002608	0.000147	7202.922639	44328.618528	3960.753704	23602.414694
12.037500	0.001428	0.000687	0.005524	-0.000024	7218.809778	44351.389889	3981.838902	23610.589673
12.535000	0.000679	0.001104	0.004435	0.000177	7209.363722	44371.927567	3978.533824	23600.976597
13.035000	0.000214	0.000132	-0.002059	0.000215	7204.375148	44275.666335	3961.965743	23599.176873
13.545000	0.001385	-0.000190	-0.002470	0.000522	7212.948602	44215.791515	3960.157454	23584.530133
14.039000	-0.000123	0.001208	0.003404	0.002755	7175.925909	44136.550608	3969.349090	23478.409261
14.536000	0.000523	0.000832	-0.002188	0.003488	7175.073021	44031.492578	3953.432636	23443.710682
15.036500	-0.000940	0.000072	-0.000967	0.001381	7181.426800	44159.158565	3961.778061	23543.665480
15.550000	-0.002544	0.000221	-0.002190	0.000656	7172.751713	44242.157738	3960.523797	23578.151809
16.037000	-0.002153	-0.000228	-0.004423	0.001247	7170.788814	44143.367014	3953.447819	23550.034302
16.539500	-0.000312	-0.000048	0.004278	0.000462	7196.718172	44235.085569	3977.407820	23587.422779
17.037500	-0.000416	-0.000005	-0.002662	0.000613	7194.191720	44224.824100	3959.447076	23580.216933
17.535000	0.001216	0.000506	0.005776	-0.002639	7242.786613	44584.168765	3989.211439	23735.703998
18.034500	-0.000543	0.000140	0.002547	0.001564	7183.534317	44148.218520	3970.197419	23534.974916
18.535000	-0.000370	-0.000315	-0.001094	0.001346	7187.393809	44125.665752	3961.546054	23545.301536
19.035500	-0.000443	-0.000390	-0.001537	0.001537	7184.792207	44100.506898	3959.954142	23536.248079
19.535500	0.000285	0.000542	0.003470	0.001853	7188.853483	44158.941162	3971.805633	23521.217631
20.036000	-0.002263	-0.000030	-0.000840	0.001362	7168.581096	44151.285962	3962.147709	23544.572928
20.536500	-0.002121	0.000367	-0.002670	0.001305	7170.536485	44194.374686	3957.691151	23547.286977
21.036500	-0.000953	0.000665	-0.000189	0.001728	7177.872652	44182.527971	3962.865834	23527.171463
21.537500	-0.000929	0.000010	0.002969	0.001636	7179.013049	44129.019023	3971.085719	23531.539592
22.037500	-0.001066	-0.000285	0.000942	0.001246	7181.514598	44138.088009	3966.934790	23550.074400
22.535000	-0.002388	-0.000988	-0.000768	0.000808	7172.799787	44112.903081	3963.724147	23570.935706
23.035500	-0.001469	0.000257	0.002715	0.001633	7173.718538	44152.772880	3970.446330	23531.664758
23.535500	-0.001633	0.000549	0.002151	0.002057	7167.936612	44140.203460	3967.942467	23511.513172
24.036000	-0.000504	-0.000063	0.005018	0.001706	7182.512600	44115.405363	3976.118611	23528.188666
24.536000	-0.000032	0.000707	0.001523	0.002005	7184.220848	44160.206979	3966.485941	23513.999244
25.036000	-0.002022	-0.000081	0.002553	0.001420	7170.383270	44140.921056	3970.577585	23541.812544
25.533500	0.001523	0.000206	0.001999	0.001864	7200.999365	44125.959162	3968.045543	23520.682256
26.039500	-0.003403	-0.000150	-0.000233	0.001273	7158.247763	44148.283816	3963.898453	23548.780302
26.534500	-0.001231	0.000402	-0.001612	0.001755	7174.867235	44155.007149	3959.216119	23525.895504
27.035000	-0.000637	-0.000173	0.004965	0.001508	7183.156491	44123.760050	3976.487520	23537.592958
27.535000	0.000823	0.000696	0.002402	-0.000772	7220.232297	44423.692020	3975.768725	23646.318782
28.035500	0.001218	0.000221	0.002516	-0.000280	7219.264385	44331.281084	3974.804255	23622.782197
28.536000	0.002052	0.000635	0.002693	0.001170	7213.138379	44232.738377	3971.566861	23553.701763
29.036000	0.000315	0.000165	-0.000363	0.000847	7199.112506	44218.730947	3964.648957	23569.083641
29.536500	-0.000773	0.000378	0.000440	0.000751	7189.293959	44248.146429	3966.918179	23573.657162
30.037000	0.001012	0.000619	0.005045	0.001270	7201.819941	44221.669408	3977.299700	23548.926463
30.536000	0.000249	0.001387	0.000402	0.001585	7191.149593	44264.731399	3964.714541	23533.946761
31.037000	-0.001986	0.000722	0.000299	0.002796	7157.209692	44086.518474	3961.403524	23476.468577
31.535000	-0.000485	-0.000596	0.002645	0.002405	7175.808713	43998.782492	3968.312115	23495.001253
32.035000	0.000828	-0.000730	-0.000217	0.000223	7210.387218	44192.932483	3966.593303	23598.817201
32.535500	-0.001750	0.000602	0.001274	0.002146	7165.908346	44136.775243	3965.498697	23507.297611
33.035000	-0.000096	0.000025	-0.002204	0.000403	7199.432722	44247.669930	3961.127863	23590.225843
33.535500	0.001633	0.000702	0.005623	0.001206	7208.615480	44235.641700	3978.941877	23551.972848
34.036000	-0.001703	0.000459	-0.000989	0.000740	7180.216391	44256.895345	3963.338713	23574.175841
34.535500	0.000666	-0.000018	-0.002279	0.001723	7193.909153	44118.200507	3957.622778	23527.412919
35.036500	-0.002433	0.000185	0.001227	0.002303	7157.654417	44082.399432	3964.983437	23499.835989
35.537000	-0.001131	-0.000120	0.000923	0.002030	7173.147030	44079.410726	3964.907180	23512.825981
36.034500	-0.001133	0.000441	-0.001650	0.002751	7166.027519	44064.232254	3956.621711	23478.604151
36.535000	-0.003318	-0.000284	-0.001065	0.001762	7154.284810	44089.127690	3960.572564	23525.523613
37.035000	-0.002619	-0.000266	0.005087	0.001550	7163.225912	44110.999100	3976.694584	23535.632539
37.535000	-0.002097	0.000004	-0.002778	0.002100	7162.950904	44084.474086	3955.427402	23509.468860
38.035500	-0.001919	0.000376	-0.003051	0.002214	7163.580664	44108.926020	3954.459696	23504.060302
38.535500	-0.002350	-0.000395	0.000056	0.001658	7164.809502	44088.594209	3963.658855	23530.488571
39.036500	-0.002795	0.000276	0.001911	0.002265	7154.482147	44094.618166	3966.809164	23501.667539
39.536500	-0.002789	0.000477	-0.003368	0.002112	7156.039650	44128.162559	3953.922127	23508.917576
40.036500	-0.001192	0.000309	0.000855	0.002039	7172.452644	44119.214845	3964.712286	23512.397724
40.537500	0.000484	0.000523	0.001100	0.002279	7186.610636	44116.715108	3964.724319	23500.992319
41.035000	-0.002235	-0.000362	0.001089	0.001758	7164.965435	44082.231193	3966.013956	23525.753040
41.535000	-0.000028	-0.000750	-0.000262	0.001736	7186.920575	44047.564538	3962.662074	23526.801168
42.035000	-0.001837	0.000268	-0.001616	0.002078	7165.727659	44111.641402	3958.396571	23510.551555
42.535500	-0.001668	0.000551	-0.005178	0.002175	7166.437609	44129.223535	3949.252031	23505.946538
43.036000	-0.001392	0.000187	0.000072	0.001823	7172.611047	44128.082688	3963.283870	23522.661923
43.536000	-0.000784	0.000174	-0.000728	0.002424	7172.680664	44069.919459	3959.756992	23494.124552
44.036500	0.000095	0.001025	0.004150	0.002880	7176.844116	44107.315852	3970.923341	23472.489753
44.536500	0.003445	0.000699	0.000622	-0.002043	7259.161661	44545.521130	3974.470359	23707.118350
45.037000	0.000205	-0.000935	0.003237	-0.000368	7210.074067	44229.639094	3976.868512	23627.013606
45.538000	-0.000785	-0.000625	-0.000951	0.000234	7194.279420	44201.876205	3964.710117	23598.259235
46.037000	-0.002043	0.000121	0.002304	0.003351	7151.215458	43977.168109	3965.060451	23450.202623
46.535000	-0.000091	-0.000199	0.004629	0.000152	7201.967425	44250.134804	3979.093340	23602.175102
47.035500	-0.000019	0.000349	-0.000585	0.000766	7196.603495	44243.903094	3964.290497	23572.922024
47.535500	0.001569	0.000470	0.001820	0.000760	7212.407233	44255.920227	3970.389387	23573.192236
48.036000	-0.002353	-0.000191	-0.003015	0.003754	7144.234736	43909.677970	3950.707352	23431.120648
48.536500	-0.001180	-0.000230	0.006607	0.002470	7168.334350	44027.303497	3978.225784	23491.940816
49.048500	-0.000186	0.000260	-0.000416	0.000481	7197.775464	44262.630579	3965.437691	23586.523249
49.536500	-0.001600	-0.000528	0.000849	0.000138	7187.182390	44220.267377	3969.506045	23602.862443
50.034000	-0.002754	-0.000091	-0.003568	0.004054	7137.378028	43890.797793	3948.582226	23416.929241
50.537500	0.001105	-0.000022	-0.001068	-0.002508	7240.369008	44520.994745	3971.354460	23729.426743
51.037500	0.003526	0.000678	0.002255	-0.000296	7242.463926	44376.449975	3974.181322	23623.564924
51.535500	-0.014474	-0.005518	-0.000417	-0.004812	7109.603759	44216.451670	3978.886276	23840.297016
52.038000	-0.067129	-0.015089	-0.012179	0.270349	4877.128260	24361.248631	3442.030957	14008.167556
52.536000	-0.050781	-0.009932	-0.007503	-0.006110	6783.318642	43921.189656	3964.185682	23902.988630
53.036000	-0.052244	-0.019654	-0.013630	-0.124646	7985.866608	55593.757227	4287.861341	30497.213776
53.536000	-0.035339	-0.019923	0.001373	-0.131801	8275.766995	56435.543260	4362.157537	30955.833767
54.037000	-0.027986	-0.020661	-0.003214	-0.152567	8635.558403	58960.813214	4418.849572	32330.373862
54.536500	-0.018675	-0.011122	-0.004111	-0.098273	8070.890500	53474.013336	4233.836802	28870.643143
55.037000	-0.012284	-0.009182	-0.003216	-0.097759	8141.389741	53640.268711	4235.035018	28839.900139
55.535000	0.001655	-0.004842	-0.004885	-0.094074	8266.690069	53716.682835	4218.290823	28620.635402
56.035000	0.000785	-0.010710	-0.004519	-0.131638	8740.141669	57562.184032	4341.477137	30945.297875
56.535000	0.005184	-0.005809	-0.006483	-0.102600	8417.835168	54608.536617	4239.995269	29130.777101
57.035500	0.003461	-0.002938	-0.009000	-0.085219	8180.239607	52910.401993	4178.578450	28101.358546
57.536000	0.001978	-0.005119	-0.004960	-0.094698	8278.415436	53757.402048	4219.997757	28657.643418
58.036000	-0.005324	-0.004707	-0.008340	-0.078073	7989.933171	51894.772804	4159.157651	27689.924869
58.536500	-0.002404	-0.003573	-0.010961	-0.071089	7942.497400	51239.674043	4130.927121	27294.297739
59.036500	-0.006226	-0.003648	-0.002717	-0.068341	7866.739223	50926.592075	4147.003456	27140.383651
59.537000	-0.006432	-0.002972	-0.002629	-0.058835	7756.818956	49960.472561	4119.575930	26615.319310
60.034500	0.000651	-0.001370	-0.004670	-0.055472	7798.636837	49770.214212	4104.105984	26432.337021
60.537500	-0.002043	-0.003218	-0.005254	-0.061408	7835.361299	50213.261841	4119.427100	26756.309592
61.035000	-0.004313	-0.002644	-0.007422	-0.055791	7746.487203	49667.308602	4097.204537	26449.645500
61.535000	-0.011292	-0.006462	-0.005401	-0.068792	7814.208009	50666.153894	4140.447316	27165.570583
62.041000	-0.019239	-0.009519	-0.009275	-0.079043	7840.350416	51463.484165	4159.259832	27745.335065
62.536000	-0.004226	-0.000336	-0.009997	-0.041153	7586.675516	48358.941232	4049.457326	25668.761638
63.040500	-0.001325	0.001650	-0.008490	-0.027590	7472.935629	47163.874187	4017.124101	24968.389660
63.536500	0.006188	0.003244	-0.008694	-0.041175	7700.747378	48737.341179	4053.068345	25669.952413
64.038000	0.004226	0.002484	-0.013227	-0.040009	7666.263836	48534.616188	4037.622826	25608.851793
64.545500	0.011156	0.003787	-0.009512	-0.044879	7797.638983	49187.510362	4060.964404	25865.067424
65.039000	0.013422	0.004828	-0.005483	-0.043726	7810.211557	49175.528605	4068.885114	25804.123924
65.537500	0.016780	0.005479	-0.007381	-0.041765	7826.053784	49036.308763	4058.267678	25700.918520
66.035500	0.013486	0.006350	-0.011719	-0.033210	7693.374995	48227.726361	4023.466342	25255.976399
66.535500	0.018104	0.006673	-0.003952	-0.036207	7778.225414	48575.253626	4052.451507	25410.841852
67.041000	0.018990	0.007161	-0.010161	-0.033400	7756.685207	48332.184918	4028.126660	25265.765001
67.536000	0.018356	0.007432	-0.006127	-0.031037	7723.255251	48113.992933	4032.595251	25144.328631
68.036000	0.014215	0.007584	-0.010749	-0.022723	7586.799433	47272.715405	3998.432907	24722.365409
68.536500	0.017393	0.008038	-0.004409	-0.026555	7663.119730	47712.498698	4025.209339	24915.855858
69.036500	0.016261	0.007180	-0.007623	-0.025628	7640.568971	47528.844570	4014.233891	24868.876745
69.537000	0.016499	0.007257	-0.006655	-0.023456	7619.493203	47314.109587	4011.061807	24759.225577
70.035000	0.011924	0.006686	-0.016598	-0.015987	7490.314756	46499.987692	3966.159121	24386.338563
70.535000	0.014990	0.006920	-0.011102	-0.020306	7569.094012	46959.206652	3991.248741	24601.173535
71.035000	0.014394	0.006844	-0.010097	-0.019082	7549.556132	46827.554596	3990.683285	24540.082759
71.535500	0.014539	0.006494	-0.003974	-0.017686	7536.179139	46651.510350	4002.964312	24470.612783
72.036000	0.007985	0.005084	-0.010686	-0.010776	7394.551640	45821.809639	3967.933671	24129.984714
72.536500	0.009344	0.005909	-0.012037	-0.014688	7449.472247	46292.297174	3974.436620	24322.164010
73.036500	0.009724	0.005056	-0.006810	-0.013916	7445.368430	46130.276271	3985.837540	24284.080584
73.537000	0.008828	0.005476	-0.007230	-0.012024	7416.261812	45984.159859	3979.906123	24191.104520
74.034000	0.004405	0.004360	-0.010038	-0.005379	7302.533388	45221.543504	3955.977967	23867.673970
74.537000	0.006852	0.004028	-0.007720	-0.010360	7378.539744	45676.679787	3974.407322	24109.648709
75.034500	0.008552	0.004334	-0.009785	-0.009238	7384.503146	45596.473321	3966.322376	24054.896007
75.535500	0.007533	0.004619	-0.005228	-0.008472	7366.092421	45549.174916	3975.944839	24017.562521
76.035500	0.003188	0.003735	-0.008608	-0.001534	7251.466838	44788.348650	3949.945953	23682.728734
76.536000	0.005360	0.003165	-0.007992	-0.007267	7331.472017	45289.056385	3965.872787	23959.043969
77.036000	0.002637	0.002061	-0.010183	-0.007982	7311.003232	45251.090384	3962.147193	23993.748200
77.536500	0.001785	0.002934	-0.006938	-0.006234	7284.660029	45165.946205	3965.924169	23908.999310
78.036500	-0.000681	0.002020	-0.010739	-0.000969	7207.235799	44569.200573	3943.253446	23655.698167
78.537000	0.002581	0.003018	-0.003857	-0.004662	7276.819253	45021.388984	3969.743544	23833.024034
79.040500	0.000146	0.002037	-0.007948	-0.005176	7257.485874	44976.115630	3960.709603	23857.823318
79.534500	0.001974	0.002464	-0.008053	-0.004377	7267.839070	44940.232102	3958.440362	23819.324986
80.034500	-0.002103	0.002242	-0.010172	0.001581	7167.996100	44346.542577	3938.356300	23534.129408
80.535500	-0.000693	0.002293	-0.004808	-0.004004	7237.353758	44887.649326	3965.673985	23801.355211
81.035500	-0.000893	0.001635	-0.006214	-0.003903	7234.341769	44814.303359	3961.871669	23796.480676
81.536000	0.000790	0.002178	-0.003442	-0.003911	7251.266190	44867.556433	3968.894698	23796.876535
82.036500	-0.000801	0.002225	-0.004598	-0.003926	7235.491158	44873.567042	3966.005625	23797.595824
82.536500	-0.000649	0.002656	-0.001910	-0.003503	7232.786391	44874.226812	3971.743267	23777.229375
83.037000	-0.001624	0.001860	-0.008327	-0.003912	7227.142464	44836.911096	3956.587903	23796.916243
83.537000	0.001001	0.002652	-0.002410	-0.003756	7251.825840	44898.355360	3971.118166	23789.402310
84.037000	-0.001276	0.001330	-0.001577	-0.005385	7245.328282	44928.000477	3977.383772	23867.926439
84.535000	0.000939	0.001624	-0.008187	-0.005836	7272.118533	45000.208326	3961.771072	23889.759862
85.035000	-0.000424	0.001686	-0.001188	-0.006226	7262.317873	45043.874973	3980.530776	23908.594003
85.535500	-0.002629	0.000592	-0.002619	-0.008097	7258.967881	45119.392111	3981.657917	23999.362028
86.035500	-0.001056	0.001529	-0.000531	-0.008462	7278.464654	45245.964657	3987.961840	24017.079517
86.536000	-0.002263	0.001348	-0.003025	-0.009167	7273.410811	45297.154392	3983.361546	24051.443446
87.036500	-0.001361	0.001723	0.001350	-0.009670	7287.585306	45382.860453	3995.953160	24075.932474
87.537000	0.000246	0.001796	-0.004345	-0.010557	7312.882927	45476.794691	3983.540742	24119.252428
88.037000	0.000092	0.001253	-0.001652	-0.011176	7317.608154	45484.295568	3992.076172	24149.537876
88.537000	-0.000449	0.001133	-0.003282	-0.013102	7331.733339	45661.661809	3992.842908	24244.048532
89.037500	-0.001374	0.001536	-0.001519	-0.014136	7332.844238	45803.224172	4000.105363	24294.915383
89.537500	0.000041	0.001097	-0.003286	-0.015184	7358.077036	45863.425142	3998.234794	24346.661103
90.035500	-0.002014	0.001620	-0.005566	-0.016535	7350.852483	46049.113896	3995.820787	24413.493369
90.536000	-0.000484	0.000409	-0.003371	-0.017568	7377.209372	46031.394927	4004.230075	24464.728408
91.036000	0.000898	0.000878	-0.003720	-0.018717	7403.397630	46192.295656	4006.324767	24521.899833
91.536000	-0.000865	0.000742	-0.002778	-0.019654	7394.841223	46272.118513	4011.257820	24568.610804
92.036500	-0.001352	0.000549	-0.004123	-0.019801	7391.317214	46267.484539	4008.109163	24575.939647
92.537000	-0.000079	0.000340	-0.002827	-0.021621	7423.439428	46428.657620	4016.316499	24667.020996
93.037000	0.000263	0.000111	-0.003026	-0.022960	7441.001711	46540.009030	4019.332404	24734.278542
93.534500	-0.001720	-0.000010	-0.001309	-0.023741	7428.444504	46606.261386	4025.970963	24773.599936
94.037500	-0.002172	0.001055	-0.009693	-0.019016	7374.740530	46239.803535	3991.557160	24536.812692
94.535000	0.001042	0.000945	-0.003591	-0.024533	7465.681282	46782.373949	4022.006666	24813.539818
95.035500	-0.000031	-0.000159	-0.002208	-0.026317	7473.154805	46850.988272	4030.448712	24903.760377
95.536000	0.001263	0.000987	-0.002154	-0.025763	7480.973149	46911.033400	4029.112854	24875.719368
96.036000	-0.002506	-0.000083	-0.001152	-0.023116	7413.740054	46536.180579	4024.724737	24742.136863
96.536000	0.001559	-0.000106	-0.002426	-0.027994	7507.719723	47026.340631	4034.359508	24988.932201
97.036500	0.002535	0.000268	-0.003307	-0.028174	7520.010816	47082.735085	4032.481416	24998.129110
