sample name	sample
index	244
start time	 02-22-2021  11:40:12 AM


Wavelength (nm)	Absorbance
494.344910	0.106144
494.563924	0.106144
494.782919	0.106144
495.001897	0.024516
495.220856	0.042953
495.439797	0.052997
495.658719	0.049765
495.877624	0.043887
496.096510	0.041957
496.315378	0.050158
496.534227	0.037928
496.753059	0.062801
496.971872	0.022262
497.190667	-0.005574
497.409444	-0.006466
497.628203	-0.006427
497.846943	-0.004607
498.065665	-0.003163
498.284369	-0.003627
498.503055	-0.004117
498.721723	-0.004418
498.940372	-0.004143
499.159003	-0.003055
499.377616	-0.003184
499.596210	-0.003566
499.814787	-0.004583
500.033345	-0.005612
500.251885	-0.005848
500.470406	-0.005817
500.688910	-0.006250
500.907395	-0.006588
501.125862	-0.006591
501.344311	-0.006357
501.562742	-0.005964
501.781154	-0.005545
501.999548	-0.004730
502.217924	-0.003483
502.436282	-0.003134
502.654621	-0.003028
502.872942	-0.002073
503.091245	-0.002560
503.309530	-0.002308
503.527797	-0.003168
503.746045	-0.003748
503.964275	-0.003905
504.182487	-0.004500
504.400681	-0.004823
504.618856	-0.004080
504.837013	-0.004774
505.055152	-0.004925
505.273273	-0.004667
505.491376	-0.003965
505.709460	-0.003762
505.927526	-0.003702
506.145574	-0.003817
506.363604	-0.003320
506.581615	-0.003586
506.799608	-0.002875
507.017583	-0.002867
507.235540	-0.003913
507.453478	-0.003912
507.671399	-0.003316
507.889301	-0.003033
508.107185	-0.002899
508.325050	-0.003193
508.542898	-0.002614
508.760727	-0.002990
508.978538	-0.002604
509.196330	-0.001915
509.414105	-0.001396
509.631861	-0.001117
509.849599	-0.001743
510.067319	-0.002008
510.285021	-0.002071
510.502704	-0.003273
510.720369	-0.003688
510.938016	-0.004023
511.155645	-0.004111
511.373255	-0.005036
511.590848	-0.005057
511.808422	-0.004902
512.025977	-0.004873
512.243515	-0.004522
512.461034	-0.004687
512.678536	-0.004530
512.896018	-0.004366
513.113483	-0.004525
513.330930	-0.003894
513.548358	-0.003719
513.765768	-0.003867
513.983160	-0.003204
514.200533	-0.003247
514.417889	-0.002735
514.635226	-0.001921
514.852545	-0.002318
515.069845	-0.001946
515.287128	-0.001189
515.504392	-0.001759
515.721638	-0.001328
515.938866	-0.001209
516.156075	-0.001834
516.373267	-0.001680
516.590440	-0.001897
516.807594	-0.001110
517.024731	-0.000813
517.241850	-0.001717
517.458950	-0.001697
517.676032	-0.002472
517.893095	-0.002729
518.110141	-0.002023
518.327168	-0.001680
518.544177	-0.001864
518.761168	-0.001890
518.978141	-0.002080
519.195095	-0.001201
519.412031	-0.000463
519.628949	0.000385
519.845849	0.000453
520.062731	0.001239
520.279594	0.001383
520.496439	0.002165
520.713266	0.002764
520.930074	0.003164
521.146865	0.002713
521.363637	0.002440
521.580391	0.002447
521.797127	0.002602
522.013844	0.002353
522.230543	0.002101
522.447224	0.002291
522.663887	0.001974
522.880532	0.001507
523.097158	0.001342
523.313766	0.001317
523.530356	0.001452
523.746928	0.001620
523.963481	0.001163
524.180017	0.001429
524.396534	0.001269
524.613032	0.000867
524.829513	0.001828
525.045975	0.002594
525.262420	0.002727
525.478845	0.002693
525.695253	0.003127
525.911643	0.003209
526.128014	0.003239
526.344367	0.003386
526.560702	0.004279
526.777018	0.004082
526.993316	0.003876
527.209597	0.004091
527.425858	0.004499
527.642102	0.004571
527.858328	0.005103
528.074535	0.005346
528.290724	0.005049
528.506894	0.004778
528.723047	0.004103
528.939181	0.004587
529.155297	0.005007
529.371395	0.005239
529.587475	0.004830
529.803536	0.004798
530.019579	0.004650
530.235604	0.005304
530.451611	0.005647
530.667600	0.005982
530.883570	0.005791
531.099522	0.005687
531.315456	0.005455
531.531372	0.005358
531.747269	0.005364
531.963148	0.005655
532.179009	0.005390
532.394852	0.005755
532.610676	0.006454
532.826482	0.006624
533.042271	0.006687
533.258040	0.007338
533.473792	0.008290
533.689525	0.008767
533.905240	0.009097
534.120937	0.009539
534.336616	0.009657
534.552277	0.009063
534.767919	0.009341
534.983543	0.009852
535.199149	0.009713
535.414736	0.009691
535.630306	0.009553
535.845857	0.009759
536.061390	0.009761
536.276904	0.009376
536.492401	0.009689
536.707879	0.010029
536.923339	0.009827
537.138781	0.010060
537.354204	0.010038
537.569610	0.010233
537.784997	0.009952
538.000366	0.009907
538.215716	0.010308
538.431049	0.010716
538.646363	0.010338
538.861659	0.010266
539.076937	0.010367
539.292196	0.010351
539.507438	0.010569
539.722661	0.010785
539.937866	0.011167
540.153052	0.011407
540.368221	0.011599
540.583371	0.011646
540.798503	0.011818
541.013617	0.011931
541.228712	0.012216
541.443789	0.012360
541.658848	0.012600
541.873889	0.012498
542.088912	0.012600
542.303916	0.012343
542.518902	0.012655
542.733870	0.013004
542.948820	0.012985
543.163752	0.013266
543.378665	0.013184
543.593560	0.013363
543.808437	0.013194
544.023295	0.012823
544.238136	0.013300
544.452958	0.013520
544.667762	0.012818
544.882548	0.012732
545.097315	0.012258
545.312064	0.012438
545.526795	0.012039
545.741508	0.012315
545.956203	0.012644
546.170879	0.012844
546.385537	0.012735
546.600177	0.013831
546.814799	0.014320
547.029402	0.014753
547.243988	0.015364
547.458555	0.015903
547.673103	0.016006
547.887634	0.016329
548.102146	0.016363
548.316640	0.016732
548.531116	0.016763
548.745574	0.016629
548.960013	0.016685
549.174435	0.016257
549.388838	0.016390
549.603222	0.016498
549.817589	0.016817
550.031937	0.016667
550.246267	0.016405
550.460579	0.016316
550.674873	0.016243
550.889148	0.016468
551.103405	0.016329
551.317644	0.016401
551.531865	0.016613
551.746068	0.016333
551.960252	0.016184
552.174418	0.016930
552.388566	0.017176
552.602696	0.017105
552.816807	0.016999
553.030900	0.017629
553.244975	0.017704
553.459032	0.017507
553.673070	0.017628
553.887091	0.017889
554.101093	0.017478
554.315077	0.017297
554.529042	0.018122
554.742990	0.018335
554.956919	0.017773
555.170830	0.017705
555.384722	0.018211
555.598597	0.018272
555.812453	0.018575
556.026291	0.018647
556.240111	0.018871
556.453913	0.018325
556.667696	0.018125
556.881461	0.018540
557.095208	0.018610
557.308937	0.018706
557.522647	0.018737
557.736339	0.018637
557.950013	0.018807
558.163669	0.018819
558.377307	0.019060
558.590926	0.019479
558.804527	0.019729
559.018110	0.019977
559.231675	0.020043
559.445221	0.019999
559.658749	0.020345
559.872259	0.020404
560.085751	0.020346
560.299225	0.020760
560.512680	0.020743
560.726117	0.020380
560.939536	0.020340
561.152937	0.020027
561.366319	0.020373
561.579683	0.020471
561.793029	0.020485
562.006357	0.020673
562.219667	0.020392
562.432958	0.020356
562.646231	0.020637
562.859486	0.020781
563.072723	0.020938
563.285941	0.021051
563.499141	0.020800
563.712323	0.020837
563.925487	0.021056
564.138632	0.021199
564.351760	0.021512
564.564869	0.021542
564.777960	0.021759
564.991032	0.021997
565.204087	0.022154
565.417123	0.022396
565.630141	0.022403
565.843140	0.022455
566.056122	0.022369
566.269085	0.022171
566.482030	0.022443
566.694957	0.022189
566.907866	0.022009
567.120756	0.021846
567.333628	0.022011
567.546482	0.022157
567.759318	0.022397
567.972135	0.022907
568.184935	0.023208
568.397716	0.023250
568.610478	0.023558
568.823223	0.023973
569.035949	0.024322
569.248657	0.024217
569.461347	0.024367
569.674019	0.024359
569.886672	0.024136
570.099308	0.024084
570.311925	0.024276
570.524523	0.024542
570.737104	0.024481
570.949666	0.024596
571.162210	0.024620
571.374736	0.024773
571.587244	0.024743
571.799733	0.024832
572.012205	0.025124
572.224658	0.025028
572.437092	0.024854
572.649509	0.025180
572.861907	0.025088
573.074287	0.025265
573.286649	0.025512
573.498993	0.025596
573.711318	0.025878
573.923625	0.025837
574.135914	0.026397
574.348185	0.026422
574.560438	0.026582
574.772672	0.026572
574.984888	0.026642
575.197086	0.026493
575.409266	0.026740
575.621427	0.026971
575.833570	0.027367
576.045695	0.027212
576.257802	0.027379
576.469890	0.026999
576.681961	0.027134
576.894013	0.027412
577.106046	0.027783
577.318062	0.027808
577.530059	0.027717
577.742039	0.027694
577.954000	0.027714
578.165942	0.027765
578.377867	0.027940
578.589773	0.028357
578.801661	0.028481
579.013531	0.028469
579.225382	0.028505
579.437216	0.028612
579.649031	0.028589
579.860828	0.028660
580.072606	0.029076
580.284367	0.029252
580.496109	0.029390
580.707833	0.029513
580.919539	0.029417
581.131227	0.029401
581.342896	0.029433
581.554547	0.029763
581.766180	0.029785
581.977795	0.030046
582.189391	0.030588
582.400969	0.030532
582.612529	0.030566
582.824071	0.030886
583.035595	0.031090
583.247100	0.031480
583.458587	0.031490
583.670056	0.031673
583.881506	0.031726
584.092939	0.031672
584.304353	0.032010
584.515749	0.032120
584.727127	0.032086
584.938486	0.032401
585.149828	0.032538
585.361151	0.032584
585.572456	0.032815
585.783742	0.032664
585.995011	0.032612
586.206261	0.032365
586.417493	0.032325
586.628706	0.032389
586.839902	0.032406
587.051079	0.032312
587.262238	0.032331
587.473379	0.032334
587.684502	0.032466
587.895606	0.032641
588.106692	0.032719
588.317760	0.033105
588.528810	0.033337
588.739841	0.033451
588.950855	0.033665
589.161850	0.033821
589.372827	0.034067
589.583785	0.034224
589.794726	0.034225
590.005648	0.034313
590.216552	0.034498
590.427437	0.034801
590.638305	0.034996
590.849154	0.034996
591.059985	0.034928
591.270798	0.034857
591.481592	0.034757
591.692369	0.034852
591.903127	0.034971
592.113867	0.035030
592.324588	0.035068
592.535292	0.035176
592.745977	0.035271
592.956644	0.035734
593.167293	0.036012
593.377923	0.036635
593.588536	0.037043
593.799130	0.037184
594.009706	0.037214
594.220263	0.037318
594.430803	0.037265
594.641324	0.037379
594.851827	0.037386
595.062312	0.037751
595.272778	0.037924
595.483227	0.038003
595.693657	0.038379
595.904069	0.038679
596.114462	0.038837
596.324838	0.038786
596.535195	0.038772
596.745534	0.039106
596.955855	0.038964
597.166157	0.038634
597.376441	0.038665
597.586707	0.038516
597.796955	0.038579
598.007185	0.038589
598.217396	0.039009
598.427589	0.039370
598.637764	0.039149
598.847921	0.039343
599.058060	0.039402
599.268180	0.039404
599.478282	0.039574
599.688366	0.039549
599.898431	0.039441
600.108479	0.039599
600.318508	0.039714
600.528519	0.039899
600.738511	0.040002
600.948486	0.040253
601.158442	0.040502
601.368380	0.040681
601.578300	0.040595
601.788202	0.040700
601.998085	0.040492
602.207950	0.040561
602.417797	0.040340
602.627626	0.040080
602.837436	0.040284
603.047228	0.040243
603.257002	0.040240
603.466758	0.040269
603.676496	0.040694
603.886215	0.040831
604.095916	0.040862
604.305599	0.041183
604.515264	0.041620
604.724910	0.041490
604.934538	0.041727
605.144148	0.041897
605.353740	0.042361
605.563314	0.042325
605.772869	0.042290
605.982406	0.042261
606.191925	0.042587
606.401425	0.042664
606.610908	0.042845
606.820372	0.043088
607.029818	0.043267
607.239246	0.043280
607.448655	0.043398
607.658047	0.043804
607.867420	0.044107
608.076775	0.044009
608.286111	0.044084
608.495430	0.044331
608.704730	0.044248
608.914012	0.044360
609.123275	0.044478
609.332521	0.044562
609.541748	0.044494
609.750957	0.044604
609.960148	0.044697
610.169321	0.044953
610.378475	0.045012
610.587611	0.045010
610.796729	0.044933
611.005829	0.044994
611.214910	0.044954
611.423974	0.045184
611.633019	0.045257
611.842045	0.045263
612.051054	0.045035
612.260044	0.044842
612.469017	0.045200
612.677970	0.045365
612.886906	0.045514
613.095824	0.045799
613.304723	0.045988
613.513604	0.046045
613.722467	0.046080
613.931311	0.046125
614.140138	0.046308
614.348946	0.046248
614.557736	0.046288
614.766507	0.046166
614.975261	0.046244
615.183996	0.046252
615.392713	0.046264
615.601412	0.046534
615.810092	0.046616
616.018754	0.046926
616.227399	0.046743
616.436024	0.046906
616.644632	0.047073
616.853222	0.047125
617.061793	0.047216
617.270346	0.047288
617.478880	0.047358
617.687397	0.047854
617.895895	0.047863
618.104375	0.048173
618.312837	0.048192
618.521281	0.048332
618.729706	0.048278
618.938113	0.048345
619.146502	0.048389
619.354873	0.048431
619.563226	0.048260
619.771560	0.048197
619.979876	0.048232
620.188174	0.048133
620.396453	0.048217
620.604715	0.048395
620.812958	0.048542
621.021183	0.048776
621.229390	0.048893
621.437578	0.049033
621.645748	0.049312
621.853900	0.049450
622.062034	0.049658
622.270150	0.049777
622.478247	0.050030
622.686326	0.049927
622.894387	0.050031
623.102430	0.050042
623.310454	0.050070
623.518461	0.049787
623.726449	0.049691
623.934418	0.049734
624.142370	0.049558
624.350303	0.049442
624.558218	0.049730
624.766115	0.049823
624.973994	0.050046
625.181855	0.050131
625.389697	0.050498
625.597521	0.050729
625.805327	0.050796
626.013114	0.050962
626.220883	0.050976
626.428634	0.050815
626.636367	0.050519
626.844082	0.050505
627.051778	0.050527
627.259457	0.050458
627.467117	0.050564
627.674758	0.050452
627.882382	0.050500
628.089987	0.050541
628.297574	0.050631
628.505143	0.050951
628.712694	0.050964
628.920226	0.051022
629.127740	0.051091
629.335236	0.051197
629.542714	0.051504
629.750174	0.051692
629.957615	0.051965
630.165038	0.052359
630.372443	0.052542
630.579829	0.052563
630.787198	0.052828
630.994548	0.053151
631.201880	0.053156
631.409194	0.053414
631.616489	0.053389
631.823766	0.053578
632.031025	0.053431
632.238266	0.053608
632.445489	0.053973
632.652693	0.054023
632.859879	0.054067
633.067047	0.054237
633.274197	0.054242
633.481329	0.054344
633.688442	0.054270
633.895537	0.054192
634.102614	0.054116
634.309672	0.053875
634.516713	0.053736
634.723735	0.053715
634.930739	0.053689
635.137724	0.053736
635.344692	0.053902
635.551641	0.054115
635.758572	0.054491
635.965485	0.054536
636.172379	0.054807
636.379256	0.054824
636.586114	0.054929
636.792954	0.054981
636.999775	0.055079
637.206579	0.055275
637.413364	0.055310
637.620131	0.055300
637.826880	0.055504
638.033610	0.055529
638.240323	0.055889
638.447017	0.055949
638.653692	0.056225
638.860350	0.056422
639.066990	0.056414
639.273611	0.056571
639.480214	0.056615
639.686798	0.056599
639.893365	0.056582
640.099913	0.056554
640.306443	0.056672
640.512955	0.056650
640.719449	0.056604
640.925924	0.056695
641.132381	0.056745
641.338820	0.056794
641.545241	0.056992
641.751644	0.057279
641.958028	0.057395
642.164394	0.057523
642.370742	0.057617
642.577071	0.057687
642.783383	0.057743
642.989676	0.057702
643.195951	0.058053
643.402207	0.058037
643.608446	0.058194
643.814666	0.058386
644.020868	0.058328
644.227052	0.058312
644.433218	0.058448
644.639365	0.058519
644.845494	0.058642
645.051605	0.058624
645.257698	0.058656
645.463772	0.058585
645.669828	0.058478
645.875866	0.058670
646.081886	0.058814
646.287888	0.058975
646.493871	0.059161
646.699836	0.059255
646.905783	0.059290
647.111712	0.059562
647.317622	0.059738
647.523514	0.059946
647.729388	0.060188
647.935244	0.060293
648.141082	0.060314
648.346901	0.060379
648.552702	0.060606
648.758485	0.060591
648.964250	0.060655
649.169996	0.060786
649.375724	0.060879
649.581434	0.060992
649.787126	0.061158
649.992800	0.061172
650.198455	0.061177
650.404092	0.061081
650.609711	0.061297
650.815311	0.061303
651.020894	0.061467
651.226458	0.061468
651.432004	0.061574
651.637532	0.061569
651.843041	0.061757
652.048532	0.061834
652.254006	0.061866
652.459460	0.062026
652.664897	0.062085
652.870315	0.062031
653.075716	0.061970
653.281097	0.061892
653.486461	0.062237
653.691807	0.062358
653.897134	0.062431
654.102443	0.062597
654.307734	0.062470
654.513006	0.062471
654.718261	0.062484
654.923497	0.062901
655.128715	0.063161
655.333915	0.063062
655.539096	0.063206
655.744259	0.063458
655.949404	0.063585
656.154531	0.063936
656.359640	0.064226
656.564730	0.064592
656.769802	0.064632
656.974856	0.064651
657.179892	0.064795
657.384909	0.064835
657.589908	0.064954
657.794889	0.065150
657.999852	0.064990
658.204797	0.065159
658.409723	0.065321
658.614631	0.065476
658.819521	0.065442
659.024393	0.065641
659.229246	0.065598
659.434081	0.065677
659.638898	0.065829
659.843697	0.066183
660.048478	0.066211
660.253240	0.066108
660.457984	0.066161
660.662710	0.066495
660.867417	0.066568
661.072107	0.066855
661.276778	0.066984
661.481431	0.067008
661.686066	0.067083
661.890682	0.067222
662.095281	0.067254
662.299861	0.067390
662.504422	0.067478
662.708966	0.067511
662.913491	0.067467
663.117999	0.067653
663.322488	0.067764
663.526958	0.067816
663.731411	0.067857
663.935845	0.067992
664.140261	0.068089
664.344659	0.067896
664.549038	0.068079
664.753400	0.068304
664.957743	0.068349
665.162068	0.068347
665.366375	0.068489
665.570663	0.068623
665.774933	0.068981
665.979185	0.069212
666.183419	0.069580
666.387635	0.069689
666.591832	0.069724
666.796011	0.069906
667.000172	0.070084
667.204315	0.070267
667.408439	0.070604
667.612545	0.070701
667.816634	0.070688
668.020703	0.070699
668.224755	0.070801
668.428788	0.070885
668.632803	0.070861
668.836800	0.070934
669.040779	0.070850
669.244739	0.070652
669.448681	0.070563
669.652605	0.070721
669.856511	0.070718
670.060399	0.070661
670.264268	0.070553
670.468119	0.070757
670.671952	0.071021
670.875767	0.071186
671.079563	0.071514
671.283341	0.071754
671.487101	0.071939
671.690843	0.072005
671.894567	0.072231
672.098272	0.072665
672.301959	0.072685
672.505628	0.072679
672.709278	0.072783
672.912911	0.072724
673.116525	0.072608
673.320121	0.072583
673.523699	0.072807
673.727258	0.072863
673.930799	0.072948
674.134322	0.073027
674.337827	0.073069
674.541314	0.073111
674.744782	0.073241
674.948232	0.073380
675.151664	0.073486
675.355078	0.073617
675.558474	0.073724
675.761851	0.073784
675.965210	0.073866
676.168551	0.073938
676.371873	0.074228
676.575178	0.074328
676.778464	0.074416
676.981732	0.074428
677.184981	0.074466
677.388213	0.074644
677.591426	0.074896
677.794621	0.075041
677.997798	0.075183
678.200956	0.075117
678.404097	0.075031
678.607219	0.075239
678.810323	0.075474
679.013408	0.075687
679.216476	0.075634
679.419525	0.075587
679.622556	0.075791
679.825569	0.075960
680.028563	0.076034
680.231540	0.076209
680.434498	0.076404
680.637438	0.076329
680.840359	0.076361
681.043263	0.076630
681.246148	0.076803
681.449015	0.076712
681.651864	0.076777
681.854694	0.077004
682.057506	0.077150
682.260301	0.077053
682.463076	0.077192
682.665834	0.077431
682.868573	0.077420
683.071295	0.077417
683.273998	0.077718
683.476682	0.077827
683.679349	0.077924
683.881997	0.078052
684.084627	0.078146
684.287239	0.078241
684.489833	0.078476
684.692408	0.078490
684.894965	0.078519
685.097504	0.078475
685.300025	0.078499
685.502527	0.078700
685.705012	0.078761
685.907478	0.078994
686.109925	0.079113
686.312355	0.078885
686.514766	0.079085
686.717159	0.079299
686.919534	0.079333
687.121891	0.079425
687.324230	0.079414
687.526550	0.079379
687.728852	0.079507
687.931136	0.079475
688.133401	0.079427
688.335649	0.079497
688.537878	0.079517
688.740089	0.079648
688.942281	0.079755
689.144456	0.079705
689.346612	0.080035
689.548750	0.079832
689.750870	0.079986
689.952971	0.080161
690.155055	0.080249
690.357120	0.080241
690.559167	0.080244
690.761195	0.080328
690.963206	0.080424
691.165198	0.080489
691.367172	0.080717
691.569128	0.080793
691.771065	0.081066
691.972984	0.081054
692.174885	0.081283
692.376768	0.081471
692.578633	0.081491
692.780479	0.081604
692.982308	0.081735
693.184118	0.081892
693.385909	0.082003
693.587683	0.081905
693.789438	0.082248
693.991175	0.082331
694.192894	0.082262
694.394595	0.082317
694.596277	0.082412
694.797941	0.082374
694.999587	0.082524
695.201215	0.082527
695.402824	0.082615
695.604416	0.082593
695.805989	0.082637
696.007543	0.082756
696.209080	0.082843
696.410598	0.082924
696.612099	0.082999
696.813580	0.082870
697.015044	0.083152
697.216490	0.083468
697.417917	0.083462
697.619326	0.083509
697.820717	0.083576
698.022089	0.083696
698.223444	0.083759
698.424780	0.083842
698.626098	0.084060
698.827397	0.083986
699.028679	0.083865
699.229942	0.083926
699.431187	0.083992
699.632414	0.084069
699.833622	0.084156
700.034813	0.084248
700.235985	0.084251
700.437139	0.084268
700.638274	0.084291
700.839392	0.084500
701.040491	0.084643
701.241572	0.084713
701.442635	0.084956
701.643679	0.085042
701.844706	0.085065
702.045714	0.085127
702.246704	0.085156
702.447675	0.085263
702.648629	0.085079
702.849564	0.084838
703.050481	0.085007
703.251380	0.084842
703.452260	0.084764
703.653122	0.084787
703.853966	0.084643
704.054792	0.084537
704.255600	0.084606
704.456389	0.084580
704.657160	0.084625
704.857913	0.084410
705.058648	0.084304
705.259365	0.084361
705.460063	0.084125
705.660743	0.084182
705.861405	0.084260
706.062048	0.084276
706.262674	0.084310
706.463281	0.084349
706.663870	0.084172
706.864441	0.084290
707.064993	0.084179
707.265527	0.084416
707.466043	0.084486
707.666541	0.084516
707.867021	0.084513
708.067482	0.084581
708.267925	0.084613
708.468350	0.084923
708.668757	0.085087
708.869145	0.085326
709.069516	0.085328
709.269868	0.085612
709.470201	0.085758
709.670517	0.085857
709.870814	0.085911
710.071093	0.086044
710.271354	0.086162
710.471597	0.086128
710.671821	0.086180
710.872028	0.086031
711.072216	0.085899
711.272385	0.085751
711.472537	0.085670
711.672670	0.085734
711.872785	0.085725
712.072882	0.085706
712.272961	0.085761
712.473021	0.085975
712.673063	0.086178
712.873087	0.086119
713.073093	0.086232
713.273081	0.086212
713.473050	0.086275
713.673001	0.086372
713.872934	0.086449
714.072849	0.086413
714.272745	0.086127
714.472623	0.086122
714.672483	0.086092
714.872325	0.086011
715.072148	0.086192
715.271954	0.086019
715.471741	0.085946
715.671509	0.085841
715.871260	0.085702
716.070992	0.085756
716.270707	0.085875
716.470403	0.086074
716.670080	0.086070
716.869740	0.086019
717.069381	0.086019
717.269004	0.085994
717.468609	0.085964
717.668195	0.086196
717.867764	0.086220
718.067314	0.086171
718.266846	0.086064
718.466360	0.085981
718.665855	0.085839
718.865332	0.085905
719.064791	0.085936
719.264232	0.086025
719.463655	0.085781
719.663059	0.085725
719.862445	0.085796
720.061813	0.085654
720.261163	0.085805
720.460494	0.085962
720.659807	0.086028
720.859102	0.085982
721.058379	0.085894
721.257638	0.085965
721.456878	0.086008
721.656100	0.085664
721.855304	0.085526
722.054490	0.085299
722.253657	0.085106
722.452806	0.084965
722.651937	0.084945
722.851050	0.084842
723.050145	0.084919
723.249221	0.084603
723.448279	0.084679
723.647319	0.084839
723.846340	0.084956
724.045344	0.084775
724.244329	0.084622
724.443296	0.084546
724.642245	0.084447
724.841175	0.084323
725.040088	0.084516
725.238982	0.084426
725.437857	0.084285
725.636715	0.084281
725.835554	0.084441
726.034376	0.084371
726.233179	0.084315
726.431963	0.084325
726.630730	0.084389
726.829478	0.084241
727.028208	0.084403
727.226920	0.084304
727.425614	0.084162
727.624289	0.083886
727.822946	0.083896
728.021585	0.083836
728.220206	0.083532
728.418808	0.083315
728.617392	0.083439
728.815958	0.083345
729.014506	0.083332
729.213036	0.083280
729.411547	0.083256
729.610040	0.083356
729.808515	0.083378
730.006972	0.083558
730.205410	0.083462
730.403831	0.083359
730.602233	0.083150
730.800616	0.083029
730.998982	0.082892
731.197329	0.083045
731.395658	0.082834
731.593969	0.082603
731.792262	0.082533
731.990536	0.082599
732.188793	0.082358
732.387031	0.082364
732.585250	0.082444
732.783452	0.082567
732.981635	0.082517
733.179800	0.082529
733.377947	0.082520
733.576076	0.082645
733.774186	0.082577
733.972278	0.082576
734.170352	0.082660
734.368408	0.082515
734.566446	0.082450
734.764465	0.082219
734.962466	0.082247
735.160449	0.082177
735.358413	0.082064
735.556360	0.082012
735.754288	0.081962
735.952198	0.081913
736.150090	0.082069
736.347963	0.081830
736.545818	0.081857
736.743655	0.081757
736.941474	0.081909
737.139275	0.081819
737.337057	0.081843
737.534821	0.081846
737.732567	0.081688
737.930295	0.081681
738.128005	0.081759
738.325696	0.081634
738.523369	0.081318
738.721024	0.081024
738.918660	0.080807
739.116279	0.080583
739.313879	0.080520
739.511461	0.080399
739.709024	0.079981
739.906570	0.079755
740.104097	0.079663
740.301606	0.079819
740.499097	0.079859
740.696569	0.079724
740.894024	0.079625
741.091460	0.079578
741.288878	0.079532
741.486277	0.079612
741.683659	0.079586
741.881022	0.079446
742.078367	0.079246
742.275694	0.078960
742.473002	0.078882
742.670293	0.078984
742.867565	0.078780
743.064819	0.078720
743.262054	0.078716
743.459272	0.078780
743.656471	0.078756
743.853652	0.078634
744.050815	0.078725
744.247959	0.078757
744.445085	0.078671
744.642194	0.078243
744.839283	0.078123
745.036355	0.077870
745.233408	0.077585
745.430444	0.077520
745.627461	0.077663
745.824459	0.077551
746.021440	0.077446
746.218402	0.077331
746.415346	0.077665
746.612272	0.077565
746.809180	0.077354
747.006069	0.077181
747.202940	0.077084
747.399793	0.076767
747.596628	0.076759
747.793444	0.076606
747.990243	0.076543
748.187023	0.076260
748.383784	0.076259
748.580528	0.076334
748.777253	0.076680
748.973960	0.076552
749.170649	0.076683
749.367320	0.076571
749.563973	0.076503
749.760607	0.076266
749.957223	0.076258
750.153821	0.075971
750.350400	0.075962
750.546962	0.075794
750.743505	0.075757
750.940030	0.075630
751.136536	0.075591
751.333025	0.075555
751.529495	0.075457
751.725947	0.075422
751.922381	0.075328
752.118796	0.075272
752.315194	0.075075
752.511573	0.074969
752.707934	0.074684
752.904276	0.074370
753.100601	0.074219
753.296907	0.074216
753.493195	0.073963
753.689465	0.073978
753.885716	0.073832
754.081949	0.073860
754.278164	0.073856
754.474361	0.073772
754.670540	0.073814
754.866700	0.073903
755.062843	0.073754
755.258967	0.073732
755.455072	0.073415
755.651160	0.073364
755.847229	0.073075
756.043280	0.072926
756.239313	0.073232
756.435328	0.073149
756.631324	0.073103
756.827302	0.072934
757.023262	0.072750
757.219204	0.072960
757.415127	0.072860
757.611033	0.072782
757.806920	0.072849
758.002788	0.072518
758.198639	0.072602
758.394471	0.072416
758.590286	0.072365
758.786081	0.072526
758.981859	0.072491
759.177619	0.072504
759.373360	0.072578
759.569083	0.072564
759.764788	0.072640
759.960474	0.072503
760.156143	0.072607
760.351793	0.072762
760.547425	0.072737
760.743038	0.072636
760.938634	0.072461
761.134211	0.072258
761.329770	0.072012
761.525311	0.071997
761.720833	0.072107
761.916338	0.072149
762.111824	0.071906
762.307292	0.071863
762.502741	0.071670
762.698173	0.071592
762.893586	0.071655
763.088981	0.071590
763.284358	0.071367
763.479716	0.071142
763.675057	0.070793
763.870379	0.070844
764.065683	0.070686
764.260968	0.070682
764.456236	0.070574
764.651485	0.070609
764.846716	0.070444
765.041929	0.070475
765.237123	0.070389
765.432299	0.070329
765.627457	0.070346
765.822597	0.070264
766.017719	0.070152
766.212822	0.070250
766.407907	0.069945
766.602974	0.069992
766.798023	0.069949
766.993054	0.069803
767.188066	0.069903
767.383060	0.069604
767.578036	0.069615
767.772993	0.069810
767.967933	0.069883
768.162854	0.070020
768.357757	0.070270
768.552642	0.070185
768.747508	0.070372
768.942356	0.070304
769.137186	0.070320
769.331998	0.070374
769.526792	0.070081
769.721567	0.069765
769.916324	0.069554
770.111063	0.069378
770.305784	0.069262
770.500486	0.069117
770.695171	0.068952
770.889837	0.069088
771.084484	0.069001
771.279114	0.069167
771.473725	0.069217
771.668318	0.069289
771.862893	0.069125
772.057450	0.069184
772.251988	0.069122
772.446509	0.069175
772.641011	0.069052
772.835494	0.068823
773.029960	0.068565
773.224407	0.068526
773.418836	0.068442
773.613247	0.068409
773.807640	0.068309
774.002014	0.068379
774.196370	0.068304
774.390708	0.068179
774.585028	0.068289
774.779330	0.068528
774.973613	0.068661
775.167878	0.068782
775.362125	0.068848
775.556354	0.068823
775.750564	0.068881
775.944756	0.068947
776.138930	0.068940
776.333086	0.068921
776.527223	0.068769
776.721343	0.068718
776.915444	0.068526
777.109526	0.068657
777.303591	0.068637
777.497637	0.068501
777.691666	0.068511
777.885676	0.068447
778.079667	0.068505
778.273641	0.068410
778.467596	0.068416
778.661533	0.068696
778.855452	0.068474
779.049352	0.068660
779.243235	0.068675
779.437099	0.068460
779.630945	0.068801
779.824773	0.068852
780.018582	0.068766
780.212373	0.068650
780.406146	0.068520
780.599901	0.068428
780.793638	0.068412
780.987356	0.068299
781.181056	0.068269
781.374738	0.067793
781.568402	0.067672
781.762047	0.068016
781.955674	0.068160
782.149283	0.068106
782.342874	0.068249
782.536447	0.068077
782.730001	0.067955
782.923537	0.067967
783.117055	0.068175
783.310555	0.068316
783.504036	0.068020
783.697499	0.067812
783.890944	0.067810
784.084371	0.068033
784.277780	0.068104
784.471170	0.068180
784.664542	0.068209
784.857896	0.068075
785.051231	0.067974
785.244549	0.068187
785.437848	0.068268
785.631129	0.068151
785.824392	0.068110
786.017636	0.068028
786.210863	0.068223
786.404071	0.068556
786.597260	0.068823
786.790432	0.068870
786.983585	0.068871
787.176721	0.069063
787.369838	0.069269
787.562936	0.069118
787.756017	0.069280
787.949079	0.069281
788.142123	0.069272
788.335149	0.069480
788.528156	0.069576
788.721146	0.069563
788.914117	0.069537
789.107070	0.069489
789.300005	0.069450
789.492921	0.069315
789.685819	0.069517
789.878699	0.069574
790.071561	0.069425
790.264405	0.069375
790.457230	0.069526
790.650037	0.069525
790.842826	0.069568
791.035597	0.069684
791.228349	0.069822
791.421084	0.069544
791.613800	0.069307
791.806497	0.069305
791.999177	0.069330
792.191838	0.069220
792.384481	0.069198
792.577106	0.069410
792.769713	0.069504
792.962301	0.069555
793.154871	0.069796
793.347423	0.069877
793.539957	0.069959
793.732473	0.069947
793.924970	0.069869
794.117449	0.069773
794.309910	0.069598
794.502353	0.069759
794.694777	0.069747
794.887183	0.069660
795.079571	0.069716
795.271941	0.069842
795.464293	0.070012
795.656626	0.070130
795.848941	0.070387
796.041238	0.070350
796.233516	0.070272
796.425777	0.070406
796.618019	0.070587
796.810243	0.070653
797.002449	0.070699
797.194636	0.070788
797.386805	0.070914
797.578956	0.070918
797.771089	0.071209
797.963204	0.071365
798.155300	0.071408
798.347378	0.071512
798.539438	0.071610
798.731480	0.071641
798.923503	0.071618
799.115509	0.071544
799.307496	0.071538
799.499465	0.071477
799.691415	0.071405
799.883348	0.071504
800.075262	0.071410
800.267158	0.071477
800.459035	0.071414
800.650895	0.071547
800.842736	0.071642
801.034559	0.071802
801.226364	0.071989
801.418150	0.072130
801.609919	0.072112
801.801669	0.072205
801.993401	0.072352
802.185114	0.072327
802.376810	0.072218
802.568487	0.072613
802.760146	0.072761
802.951787	0.072801
803.143409	0.072826
803.335014	0.073113
803.526600	0.073281
803.718168	0.073342
803.909717	0.073625
804.101249	0.073879
804.292762	0.073912
804.484257	0.073825
804.675734	0.073895
804.867192	0.074162
805.058632	0.074044
805.250054	0.074093
805.441458	0.074291
805.632844	0.074256
805.824211	0.074477
806.015561	0.074424
806.206891	0.074809
806.398204	0.074775
806.589499	0.074708
806.780775	0.074813
806.972033	0.074919
807.163273	0.074873
807.354495	0.075116
807.545698	0.075066
807.736883	0.075424
807.928050	0.075654
808.119199	0.076166
808.310329	0.076262
808.501441	0.076381
808.692535	0.076580
808.883611	0.076713
809.074669	0.076839
809.265708	0.077133
809.456729	0.077033
809.647732	0.076933
809.838717	0.076872
810.029683	0.077122
810.220632	0.077513
810.411562	0.077581
810.602474	0.077821
810.793367	0.078012
810.984242	0.078082
811.175100	0.078275
811.365938	0.078342
811.556759	0.078706
811.747562	0.078802
811.938346	0.078998
812.129112	0.079052
812.319860	0.079171
812.510589	0.079396
812.701300	0.079535
812.891994	0.079593
813.082668	0.079802
813.273325	0.079863
813.463964	0.079951
813.654584	0.079896
813.845186	0.080143
814.035769	0.080112
814.226335	0.080097
814.416882	0.080124
814.607411	0.080456
814.797922	0.080450
814.988415	0.080409
815.178889	0.080788
815.369345	0.080926
815.559783	0.081170
815.750203	0.081672
815.940605	0.081922
816.130988	0.082195
816.321353	0.082314
816.511700	0.082639
816.702028	0.082843
816.892339	0.082845
817.082631	0.083030
817.272905	0.083187
817.463161	0.083109
817.653398	0.083163
817.843617	0.083394
818.033819	0.083639
818.224001	0.083622
818.414166	0.083777
818.604312	0.083962
818.794440	0.084145
818.984550	0.084190
819.174642	0.084250
819.364716	0.084329
819.554771	0.084195
819.744808	0.084215
819.934827	0.084551
820.124827	0.084591
820.314810	0.084702
820.504774	0.084847
820.694720	0.085077
820.884647	0.085227
821.074557	0.085405
821.264448	0.085784
821.454321	0.085833
821.644176	0.085987
821.834012	0.086376
822.023831	0.086709
822.213631	0.087073
822.403413	0.087221
822.593176	0.087632
822.782922	0.087872
822.972649	0.088028
823.162358	0.088210
823.352049	0.088182
823.541721	0.088305
823.731376	0.088353
823.921012	0.088332
824.110629	0.088561
824.300229	0.088601
824.489811	0.088846
824.679374	0.088983
824.868919	0.089351
825.058445	0.089680
825.247954	0.089538
825.437444	0.089813
825.626916	0.089877
825.816370	0.090046
826.005806	0.090287
826.195223	0.090336
826.384622	0.090556
826.574003	0.090529
826.763366	0.090787
826.952711	0.091281
827.142037	0.091506
827.331345	0.091885
827.520635	0.092028
827.709906	0.092217
827.899160	0.092590
828.088395	0.092608
828.277612	0.092861
828.466810	0.092899
828.655991	0.093025
828.845153	0.092969
829.034297	0.092987
829.223423	0.093089
829.412531	0.093135
829.601620	0.093267
829.790691	0.093384
829.979744	0.093580
830.168779	0.093654
830.357795	0.093960
830.546793	0.094099
830.735773	0.094352
830.924735	0.094449
831.113679	0.094768
831.302604	0.094916
831.491511	0.095310
831.680400	0.095499
831.869271	0.095889
832.058123	0.096030
832.246957	0.096367
832.435773	0.096670
832.624571	0.097062
832.813351	0.097465
833.002112	0.097802
833.190855	0.098052
833.379580	0.098223
833.568287	0.098417
833.756975	0.098615
833.945645	0.099052
834.134297	0.099204
834.322931	0.099604
834.511547	0.099718
834.700144	0.099831
834.888723	0.100001
835.077284	0.100334
835.265826	0.100842
835.454351	0.100898
835.642857	0.100814
835.831345	0.100949
836.019815	0.101078
836.208266	0.101120
836.396699	0.101349
836.585114	0.101595
836.773511	0.101723
836.961890	0.101751
837.150250	0.102391
837.338592	0.102696
837.526916	0.103089
837.715222	0.103011
837.903510	0.103320
838.091779	0.103648
838.280030	0.103758
838.468263	0.103858
838.656477	0.104174
838.844674	0.104038
839.032852	0.104206
839.221012	0.104292
839.409153	0.104798
839.597277	0.105042
839.785382	0.105243
839.973469	0.105500
840.161538	0.105847
840.349589	0.106014
840.537621	0.106089
840.725635	0.106452
840.913631	0.106583
841.101609	0.106871
841.289568	0.106839
841.477509	0.106921
841.665432	0.107269
841.853337	0.107574
842.041224	0.108028
842.229092	0.108373
842.416942	0.108435
842.604774	0.108723
842.792588	0.108788
842.980383	0.109090
843.168160	0.109085
843.355919	0.109451
843.543660	0.109531
843.731382	0.109234
843.919087	0.109696
844.106773	0.109799
844.294441	0.109781
844.482090	0.109862
844.669722	0.109902
844.857335	0.110210
845.044930	0.110071
845.232507	0.110018
845.420065	0.110435
845.607605	0.110588
845.795127	0.111078
845.982631	0.111387
846.170117	0.111604
846.357584	0.111988
846.545033	0.112202
846.732464	0.112499
846.919877	0.113128
847.107272	0.113194
847.294648	0.113136
847.482006	0.113117
847.669346	0.113155
847.856667	0.113359
848.043971	0.113676
848.231256	0.113856
848.418523	0.114070
848.605771	0.114098
848.793002	0.114237
848.980214	0.114304
849.167408	0.114477
849.354584	0.114863
849.541742	0.114940
849.728881	0.115039
849.916002	0.115551
850.103105	0.115712
850.290190	0.116156
850.477256	0.116344
850.664304	0.116550
850.851334	0.116780
851.038346	0.117030
851.225340	0.117506
851.412315	0.117667
851.599272	0.117858
851.786211	0.117986
851.973132	0.118009
852.160034	0.118343
852.346918	0.118672
852.533784	0.118807
852.720632	0.119062
852.907462	0.119270
853.094273	0.119594
853.281066	0.119805
853.467841	0.119902
853.654598	0.120199
853.841336	0.120483
854.028056	0.120932
854.214758	0.121494
854.401442	0.121862
854.588107	0.122026
854.774755	0.122185
854.961384	0.122208
855.147995	0.122599
855.334587	0.122720
855.521162	0.122920
855.707718	0.123113
855.894256	0.123159
856.080775	0.123315
856.267277	0.123506
856.453760	0.123928
856.640225	0.124377
856.826672	0.124951
857.013101	0.125383
857.199511	0.125948
857.385903	0.126195
857.572277	0.126461
857.758633	0.127035
857.944970	0.127420
858.131290	0.127622
858.317591	0.127936
858.503873	0.127951
858.690138	0.128309
858.876384	0.128155
859.062612	0.128237
859.248822	0.128648
859.435014	0.129050
859.621188	0.129222
859.807343	0.129293
859.993480	0.129390
860.179599	0.129552
860.365699	0.129676
860.551781	0.130017
860.737846	0.130286
860.923891	0.130127
861.109919	0.129714
861.295929	0.130074
861.481920	0.130762
861.667893	0.130927
861.853848	0.131360
862.039784	0.131507
862.225702	0.131856
862.411603	0.132188
862.597484	0.132712
862.783348	0.133152
862.969193	0.133190
863.155021	0.133084
863.340830	0.133427
863.526620	0.133525
863.712393	0.133681
863.898147	0.133806
864.083883	0.134099
864.269601	0.134222
864.455301	0.134194
864.640982	0.134540
864.826645	0.134751
865.012290	0.134975
865.197917	0.135355
865.383526	0.135665
865.569116	0.135744
865.754688	0.135674
865.940242	0.135867
866.125777	0.136326
866.311295	0.136402
866.496794	0.136641
866.682275	0.136812
866.867737	0.136764
867.053182	0.136971
867.238608	0.137360
867.424016	0.137634
867.609406	0.137996
867.794778	0.138103
867.980131	0.138209
868.165466	0.138329
868.350783	0.138705
868.536082	0.138962
868.721362	0.139061
868.906625	0.139184
869.091869	0.139526
869.277094	0.139418
869.462302	0.139589
869.647491	0.139909
869.832662	0.140154
870.017815	0.139905
870.202950	0.140066
870.388066	0.140463
870.573165	0.140786
870.758245	0.140790
870.943306	0.140837
871.128350	0.140881
871.313375	0.140612
871.498382	0.140529
871.683371	0.140911
871.868342	0.141000
872.053294	0.140866
872.238229	0.140532
872.423144	0.140550
872.608042	0.140411
872.792922	0.140622
872.977783	0.141169
873.162626	0.141122
873.347451	0.141018
873.532258	0.140870
873.717046	0.140944
873.901816	0.141267
874.086568	0.141533
874.271302	0.142204
874.456017	0.141997
874.640715	0.141876
874.825394	0.142252
875.010055	0.142496
875.194697	0.142692
875.379322	0.142735
875.563928	0.142803
875.748516	0.142794
875.933085	0.142809
876.117637	0.142718
876.302170	0.142961
876.486685	0.143299
876.671182	0.142945
876.855661	0.143245
877.040121	0.143320
877.224563	0.143177
877.408987	0.143677
877.593393	0.143624
877.777780	0.143908
877.962150	0.143471
878.146501	0.142961
878.330833	0.142997
878.515148	0.142997
878.699444	0.143238
878.883722	0.143604
879.067982	0.143330
879.252224	0.143440
879.436447	0.143490
879.620653	0.143907
879.804840	0.144417
879.989008	0.144521
880.173159	0.144659
880.357291	0.144768
880.541405	0.144802
880.725501	0.144761
880.909579	0.144846
881.093638	0.145106
881.277680	0.145068
881.461703	0.145143
881.645707	0.145637
881.829694	0.145368
882.013662	0.145611
882.197612	0.145575
882.381544	0.145925
882.565458	0.146066
882.749353	0.146070
882.933230	0.146330
883.117089	0.146351
883.300930	0.146493
883.484753	0.146704
883.668557	0.146372
883.852343	0.146403
884.036111	0.146401
884.219861	0.146352
884.403592	0.146512
884.587305	0.146387
884.771000	0.146325
884.954677	0.146099
885.138335	0.146282
885.321976	0.146355
885.505598	0.146588
885.689201	0.146543
885.872787	0.146643
886.056354	0.146680
886.239904	0.146961
886.423434	0.147329
886.606947	0.147730
886.790442	0.147435
886.973918	0.147663
887.157376	0.147702
887.340816	0.147745
887.524237	0.147641
887.707641	0.147698
887.891026	0.147530
888.074393	0.147694
888.257741	0.147474
888.441072	0.148332
888.624384	0.148405
888.807678	0.148694
888.990954	0.148944
889.174211	0.149109
889.357451	0.149460
889.540672	0.149786
889.723875	0.149542
889.907059	0.149814
890.090226	0.149673
890.273374	0.149605
890.456504	0.149471
890.639616	0.149134
890.822709	0.149332
891.005785	0.148926
891.188842	0.148805
891.371881	0.148846
891.554901	0.148874
891.737904	0.148577
891.920888	0.148489
892.103854	0.148255
892.286802	0.148604
892.469731	0.148269
892.652643	0.148269
892.835536	0.148265
893.018410	0.148053
893.201267	0.147847
893.384106	0.147650
893.566926	0.147834
893.749728	0.147352
893.932511	0.147018
894.115277	0.147150
894.298024	0.147247
894.480753	0.146971
894.663464	0.146748
894.846157	0.146366
895.028831	0.146411
895.211487	0.145796
895.394125	0.146271
895.576745	0.146308
895.759346	0.146209
895.941930	0.145753
896.124495	0.145612
896.307041	0.145571
896.489570	0.145573
896.672080	0.145568
896.854573	0.145633
897.037046	0.145571
897.219502	0.145522
897.401940	0.145633
897.584359	0.145767
897.766760	0.145865
897.949143	0.145794
898.131507	0.145788
898.313854	0.145678
898.496182	0.145606
898.678492	0.145520
898.860783	0.145436
899.043057	0.145136
899.225312	0.145019
899.407549	0.144666
899.589768	0.144838
899.771968	0.144648
899.954151	0.144487
900.136315	0.144362
900.318461	0.144009
900.500588	0.144061
900.682698	0.143820
900.864789	0.143613
901.046862	0.143849
901.228917	0.143267
901.410953	0.143196
901.592971	0.143115
901.774972	0.142703
901.956953	0.142544
902.138917	0.142096
902.320862	0.142152
902.502790	0.142442
902.684699	0.141933
902.866589	0.142002
903.048462	0.142132
903.230316	0.141972
903.412152	0.142279
903.593970	0.142068
903.775770	0.141809
903.957551	0.141610
904.139314	0.141309
904.321059	0.141405
904.502786	0.141436
904.684494	0.140954
904.866185	0.140738
905.047857	0.140514
905.229510	0.140468
905.411146	0.140766
905.592763	0.140352
905.774363	0.140206
905.955943	0.140096
906.137506	0.139800
906.319051	0.140266
906.500577	0.139773
906.682085	0.139660
906.863575	0.139903
907.045046	0.139378
907.226500	0.139353
907.407935	0.139069
907.589352	0.138884
907.770750	0.139237
907.952131	0.138501
908.133493	0.138618
908.314837	0.138278
908.496163	0.137551
908.677470	0.137227
908.858760	0.137067
909.040031	0.136700
909.221284	0.136647
909.402518	0.135792
909.583735	0.135259
909.764933	0.135245
909.946113	0.135451
910.127275	0.135428
910.308418	0.135206
910.489544	0.134765
910.670651	0.134829
910.851740	0.134554
911.032810	0.134236
911.213863	0.134351
911.394897	0.133548
911.575913	0.132790
911.756911	0.132582
911.937890	0.132584
912.118851	0.132568
912.299794	0.132257
912.480719	0.131967
912.661626	0.132199
912.842514	0.132090
913.023384	0.131918
913.204236	0.131820
913.385070	0.131570
913.565886	0.131096
913.746683	0.130728
913.927462	0.130495
914.108223	0.129853
914.288965	0.129106
914.469690	0.128553
914.650396	0.128248
914.831084	0.128001
915.011754	0.127477
915.192405	0.127052
915.373038	0.126762
915.553653	0.126501
915.734250	0.126591
915.914829	0.126376
916.095389	0.125892
916.275931	0.125548
916.456455	0.125274
916.636961	0.124821
916.817448	0.124686
916.997917	0.124385
917.178368	0.124171
917.358801	0.123767
917.539216	0.123533
917.719612	0.123306
917.899990	0.123080
918.080350	0.122585
918.260692	0.122763
918.441015	0.122365
918.621320	0.121872
918.801607	0.120961
918.981876	0.120976
919.162127	0.120383
919.342359	0.119561
919.522573	0.119193
919.702769	0.119643
919.882947	0.119320
920.063106	0.119207
920.243247	0.119072
920.423370	0.118605
920.603475	0.117779
920.783562	0.117660
920.963630	0.118031
921.143680	0.117899
921.323712	0.116583
921.503725	0.116015
921.683721	0.115539
921.863698	0.114852
922.043657	0.114932
922.223598	0.114462
922.403520	0.114238
922.583424	0.113693
922.763311	0.113532
922.943178	0.113777
923.123028	0.113344
923.302859	0.112619
923.482673	0.112382
923.662467	0.111543
923.842244	0.111334
924.022003	0.111202
924.201743	0.110347
924.381465	0.109776
924.561169	0.108642
924.740854	0.108221
924.920522	0.107734
925.100171	0.107130
925.279802	0.107057
925.459414	0.106522
925.639009	0.105257
925.818585	0.105147
925.998143	0.104593
926.177683	0.104262
926.357205	0.103393
926.536708	0.103153
926.716193	0.102555
926.895660	0.101916
927.075109	0.101400
927.254539	0.101007
927.433951	0.100911
927.613345	0.101245
927.792721	0.100740
927.972079	0.100953
928.151418	0.100676
928.330739	0.100818
928.510042	0.100177
928.689327	0.099980
928.868593	0.100006
929.047841	0.099047
929.227071	0.097832
929.406283	0.097669
929.585476	0.096617
929.764652	0.095910
929.943809	0.095306
930.122948	0.094970
930.302068	0.093691
930.481171	0.093061
930.660255	0.093175
930.839321	0.092572
931.018369	0.092052
931.197398	0.091688
931.376409	0.091605
931.555402	0.090453
931.734377	0.090300
931.913334	0.090219
932.092272	0.089561
932.271192	0.089016
932.450094	0.088292
932.628978	0.088011
932.807844	0.087358
932.986691	0.086418
933.165520	0.086387
933.344331	0.085795
933.523123	0.085859
933.701898	0.085330
933.880654	0.084812
934.059392	0.084752
934.238111	0.083355
934.416813	0.083004
934.595496	0.082551
934.774161	0.082465
934.952808	0.082056
935.131437	0.081215
935.310047	0.080821
935.488639	0.079740
935.667213	0.079260
935.845769	0.079210
936.024306	0.078674
936.202825	0.077644
936.381326	0.076783
936.559809	0.075114
936.738274	0.074445
936.916720	0.073728
937.095148	0.072895
937.273558	0.071684
937.451950	0.070798
937.630323	0.070067
937.808678	0.069556
937.987015	0.069021
938.165334	0.069316
938.343635	0.068406
938.521917	0.067667
938.700181	0.067368
938.878427	0.067110
939.056655	0.067080
939.234864	0.066598
939.413055	0.066249
939.591228	0.065819
939.769383	0.065187
939.947519	0.065185
940.125638	0.064969
940.303738	0.064406
940.481820	0.064734
940.659883	0.063592
940.837929	0.063566
941.015956	0.062375
941.193965	0.061483
941.371955	0.060655
941.549928	0.059706
941.727882	0.059606
941.905818	0.059729
942.083736	0.057994
942.261636	0.058641
942.439517	0.058017
942.617380	0.058427
942.795225	0.057221
942.973052	0.056927
943.150860	0.056701
943.328651	0.055381
943.506423	0.053789
943.684176	0.053046
943.861912	0.052296
944.039629	0.051573
944.217328	0.050099
944.395009	0.050189
944.572672	0.049443
944.750317	0.048155
944.927943	0.047494
945.105551	0.047199
945.283141	0.047509
945.460712	0.046737
945.638265	0.046241
945.815801	0.046384
945.993317	0.046143
946.170816	0.045916
946.348297	0.046170
946.525759	0.045260
946.703203	0.044259
946.880629	0.042837
947.058036	0.041677
947.235425	0.040455
947.412797	0.039235
947.590149	0.037362
947.767484	0.036804
947.944800	0.035812
948.122099	0.035983
948.299379	0.036503
948.476640	0.036536
948.653884	0.036366
948.831109	0.036728
949.008316	0.036914
949.185505	0.038348
949.362676	0.036876
949.539828	0.037357
949.716962	0.035196
949.894078	0.034343
950.071176	0.033004
950.248256	0.033029
950.425317	0.031014
950.602360	0.029814
950.779385	0.027790
950.956391	0.028566
951.133380	0.027439
951.310350	0.027219
951.487302	0.026475
951.664235	0.026715
951.841151	0.024902
952.018048	0.024504
952.194927	0.024353
952.371788	0.024428
952.548631	0.022713
952.725455	0.021583
952.902261	0.021154
953.079049	0.019796
953.255819	0.019018
953.432570	0.018460
953.609303	0.019005
953.786018	0.018294
953.962715	0.016938
954.139394	0.017062
954.316054	0.017301
954.492696	0.016972
954.669320	0.018005
954.845926	0.018063
955.022513	0.018045
955.199083	0.017870
955.375634	0.018189
955.552166	0.018649
955.728681	0.018118
955.905177	0.016447
956.081655	0.016866
956.258115	0.016455
956.434557	0.015490
956.610980	0.014285
956.787385	0.013566
956.963772	0.013434
957.140141	0.012252
957.316492	0.011252
957.492824	0.011742
957.669138	0.010285
957.845434	0.007492
958.021712	0.006504
958.197971	0.005027
958.374212	0.003392
958.550435	0.002753
958.726640	0.003082
958.902826	0.002459
959.078995	0.000848
959.255145	0.000483
959.431277	0.002037
959.607390	0.001334
959.783486	0.002568
959.959563	0.003786
960.135622	0.002855
960.311662	0.001619
960.487685	0.002013
960.663689	0.002904
960.839675	0.002404
961.015643	-0.000409
961.191593	0.000642
961.367524	0.000072
961.543437	-0.001420
961.719332	-0.002010
961.895209	-0.002704
962.071067	-0.003246
962.246907	-0.004347
962.422730	-0.004068
962.598533	-0.002925
962.774319	-0.004001
962.950086	-0.005667
963.125835	-0.003871
963.301566	-0.004904
963.477279	-0.004068
963.652973	-0.004043
963.828650	-0.003690
964.004308	-0.003372
964.179947	-0.002187
964.355569	-0.002092
964.531172	-0.000972
964.706757	-0.003529
964.882324	-0.003013
965.057873	-0.004038
965.233403	-0.003215
965.408916	-0.003767
965.584410	-0.005600
965.759885	-0.006663
965.935343	-0.006097
966.110782	-0.005033
966.286203	-0.003005
966.461606	-0.002498
966.636991	-0.000564
966.812357	-0.001049
966.987705	0.000340
967.163035	0.002747
967.338347	0.003317
967.513641	0.003416
967.688916	0.004203
967.864173	0.002929
968.039412	0.003548
968.214632	0.000934
968.389835	0.001814
968.565019	0.000831
968.740185	-0.002058
968.915333	-0.002015
969.090462	-0.001029
969.265573	-0.003406
969.440667	-0.004337
969.615741	-0.003861
969.790798	-0.003356
969.965836	-0.003895
970.140856	-0.003401
970.315858	-0.000892
970.490842	-0.000768
970.665808	-0.002448
970.840755	-0.001119
971.015684	0.000732
971.190595	0.000150
971.365487	0.001245
971.540362	-0.000461
971.715218	-0.001396
971.890056	-0.001225
972.064875	-0.002142
972.239677	-0.002849
972.414460	-0.002407
972.589225	-0.003450
972.763972	-0.004458
972.938700	-0.005604
973.113411	-0.003822
973.288103	-0.003471
973.462777	-0.004536
973.637432	-0.004316
973.812070	-0.002144
973.986689	-0.003487
974.161290	-0.003239
974.335873	-0.002505
974.510437	-0.003048
974.684984	-0.004007
974.859512	-0.004296
975.034022	-0.004767
975.208513	-0.004928
975.382987	-0.005401
975.557442	-0.005052
975.731879	-0.004704
975.906298	-0.005363
976.080698	-0.003792
976.255080	-0.003715
976.429445	-0.004013
976.603790	-0.002624
976.778118	-0.001445
976.952427	-0.002461
977.126719	0.000598
977.300992	-0.000059
977.475246	0.000181
977.649483	-0.000819
977.823701	-0.001635
977.997901	-0.001670
978.172083	-0.001455
978.346247	-0.003426
978.520392	-0.003842
978.694519	-0.006252
978.868628	-0.004299
979.042719	-0.004963
979.216791	-0.002847
979.390845	-0.001339
979.564882	-0.001560
979.738899	-0.001975
979.912899	-0.001301
980.086880	-0.001159
980.260843	-0.003658
980.434788	-0.005445
980.608715	-0.004173
980.782623	-0.005329
980.956514	-0.005459
981.130386	-0.005617
981.304240	-0.006568
981.478075	-0.006078
981.651892	-0.005543
981.825692	-0.003519
981.999472	-0.003681
982.173235	-0.004632
982.346980	-0.002851
982.520706	-0.004795
982.694414	-0.004445
982.868104	-0.003997
983.041775	-0.004177
983.215428	-0.003497
983.389064	-0.004628
983.562680	-0.006566
983.736279	-0.006605
983.909860	-0.010410
984.083422	-0.007803
984.256966	-0.008182
984.430491	-0.005319
984.603999	-0.003802
984.777488	-0.003981
984.950959	-0.002731
985.124412	-0.000766
985.297847	-0.000604
985.471263	0.001674
985.644661	-0.000491
985.818041	0.000769
985.991403	-0.001256
986.164747	-0.002498
986.338072	-0.004164
986.511379	-0.004615
986.684668	-0.004782
986.857938	-0.005544
987.031191	-0.004518
987.204425	-0.004163
987.377641	-0.004504
987.550839	-0.005370
987.724018	-0.006572
987.897179	-0.006673
988.070322	-0.006959
988.243447	-0.008683
988.416554	-0.008165
988.589642	-0.009934
988.762712	-0.008267
988.935764	-0.008649
989.108798	-0.009100
989.281813	-0.007819
989.454811	-0.008380
989.627790	-0.007251
989.800751	-0.006003
989.973693	-0.006152
990.146617	-0.007930
990.319524	-0.008380
990.492412	-0.008466
990.665281	-0.006404
990.838133	-0.007282
991.010966	-0.005097
991.183781	-0.005440
991.356578	-0.005344
991.529356	-0.004659
991.702117	-0.003332
991.874859	-0.003473
992.047583	-0.004612
992.220288	-0.005099
992.392976	-0.004428
992.565645	-0.005227
992.738296	-0.005330
992.910929	-0.006066
993.083543	-0.006483
993.256139	-0.006576
993.428718	-0.008125
993.601277	-0.007454
993.773819	-0.007710
993.946342	-0.008200
994.118848	-0.008136
994.291335	-0.008341
994.463803	-0.007643
994.636254	-0.006950
994.808686	-0.007445
994.981100	-0.007540
995.153496	-0.006213
995.325874	-0.006831
995.498233	-0.004809
995.670574	-0.004147
995.842897	-0.003815
996.015202	-0.003991
996.187488	-0.003925
996.359757	-0.002860
996.532007	-0.002681
996.704239	-0.002884
996.876452	-0.002719
997.048648	-0.004170
997.220825	-0.004485
997.392984	-0.005041
997.565124	-0.004354
997.737247	-0.003403
997.909351	-0.004561
998.081437	-0.004651
998.253505	-0.004535
998.425554	-0.003994
998.597586	-0.003787
998.769599	-0.003313
998.941594	-0.002047
999.113571	-0.002688
999.285529	-0.005421
999.457469	-0.004723
999.629391	-0.004391
999.801295	-0.004846
999.973181	-0.005768
1000.145048	-0.006941
1000.316897	-0.006907
1000.488728	-0.007979
1000.660541	-0.007264
1000.832335	-0.006618
1001.004111	-0.005557
1001.175869	-0.003753
1001.347609	-0.004601
1001.519331	-0.003420
1001.691034	-0.002245
1001.862719	-0.003405
1002.034386	-0.004478
1002.206035	-0.004430
1002.377665	-0.003971
1002.549277	-0.003560
1002.720871	-0.004661
1002.892447	-0.003718
1003.064004	-0.004546
1003.235544	-0.003825
1003.407065	-0.003305
1003.578568	-0.001726
1003.750052	-0.003745
1003.921519	-0.003727
1004.092967	-0.005674
1004.264397	-0.005875
1004.435809	-0.007307
1004.607202	-0.007978
1004.778577	-0.008216
1004.949934	-0.007667
1005.121273	-0.007687
1005.292594	-0.006112
1005.463896	-0.005480
1005.635180	-0.005976
1005.806446	-0.006056
1005.977694	-0.004351
1006.148923	-0.004621
1006.320135	-0.006448
1006.491328	-0.006785
1006.662503	-0.007193
1006.833659	-0.006778
1007.004798	-0.007576
1007.175918	-0.005817
1007.347020	-0.005357
1007.518103	-0.005767
1007.689169	-0.005409
1007.860216	-0.004329
1008.031245	-0.003117
1008.202256	-0.003007
1008.373248	-0.002952
1008.544223	-0.003123
1008.715179	-0.002155
1008.886117	-0.002509
1009.057036	-0.002867
1009.227938	-0.002953
1009.398821	-0.002533
1009.569686	-0.003662
1009.740533	-0.005452
1009.911361	-0.006829
1010.082172	-0.006194
1010.252964	-0.008637
1010.423738	-0.009311
1010.594493	-0.008410
1010.765231	-0.007764
1010.935950	-0.008571
1011.106651	-0.009608
1011.277334	-0.007993
1011.447998	-0.005950
1011.618645	-0.004959
1011.789273	-0.003623
1011.959882	-0.002206
1012.130474	-0.003366
1012.301048	-0.004309
1012.471603	-0.003790
1012.642140	-0.003111
1012.812658	-0.003802
1012.983159	-0.003916
1013.153641	-0.005168
1013.324105	-0.006470
1013.494551	-0.007053
1013.664979	-0.006443
1013.835388	-0.006249
1014.005779	-0.006743
1014.176152	-0.006874
1014.346507	-0.006471
1014.516843	-0.006603
1014.687162	-0.006476
1014.857462	-0.005021
1015.027744	-0.006067
1015.198007	-0.006344
1015.368252	-0.005131
1015.538480	-0.003955
1015.708689	-0.003445
1015.878879	-0.004095
1016.049052	-0.005034
1016.219206	-0.004900
1016.389342	-0.004420
1016.559460	-0.002784
1016.729559	-0.002065
1016.899641	-0.001949
1017.069704	-0.002210
1017.239749	-0.002809
1017.409775	-0.001230
1017.579784	-0.001780
1017.749774	-0.002325
1017.919746	-0.004188
1018.089700	-0.006050
1018.259635	-0.006104
1018.429553	-0.006691
1018.599452	-0.007154
1018.769333	-0.007032
1018.939195	-0.007696
1019.109040	-0.006462
1019.278866	-0.005659
1019.448674	-0.005365
1019.618464	-0.004010
1019.788235	-0.005163
1019.957989	-0.006329
1020.127724	-0.006391
1020.297441	-0.005213
1020.467139	-0.005759
1020.636820	-0.006655
1020.806482	-0.006819
1020.976126	-0.005545
1021.145752	-0.006550
1021.315359	-0.005797
1021.484948	-0.004304
1021.654519	-0.005050
1021.824072	-0.008179
1021.993607	-0.007197
1022.163123	-0.006944
1022.332621	-0.007538
1022.502101	-0.008822
1022.671563	-0.009292
1022.841007	-0.010190
1023.010432	-0.010646
1023.179839	-0.009456
1023.349228	-0.007790
1023.518598	-0.008262
1023.687951	-0.008535
1023.857285	-0.007791
1024.026601	-0.005776
1024.195899	-0.004250
1024.365178	-0.003640
1024.534439	-0.003730
1024.703682	-0.004675
1024.872907	-0.003355
1025.042114	-0.003129
1025.211302	-0.002381
1025.380472	-0.003083
1025.549624	-0.003887
1025.718758	-0.004528
1025.887873	-0.003893
1026.056970	-0.003224
1026.226049	-0.002480
1026.395110	-0.002680
1026.564153	-0.002722
1026.733177	-0.001961
1026.902183	-0.001755
1027.071171	-0.002485
1027.240141	-0.001293
1027.409092	-0.002910
1027.578026	-0.002580
1027.746940	-0.003187
1027.915837	-0.004337
1028.084716	-0.004532
1028.253576	-0.005431
1028.422418	-0.004170
1028.591242	-0.005043
1028.760048	-0.004778
1028.928835	-0.004065
1029.097604	-0.005507
1029.266355	-0.006035
1029.435088	-0.005671
1029.603803	-0.005168
1029.772499	-0.006506
1029.941177	-0.007288
1030.109837	-0.007077
1030.278478	-0.007930
1030.447102	-0.006675
1030.615707	-0.007316
1030.784294	-0.007148
1030.952863	-0.006856
1031.121413	-0.007154
1031.289945	-0.006081
1031.458460	-0.007327
1031.626955	-0.008465
1031.795433	-0.008778
1031.963892	-0.009866
1032.132334	-0.008463
1032.300756	-0.008142
1032.469161	-0.008055
1032.637548	-0.008995
1032.805916	-0.008730
1032.974266	-0.008589
1033.142598	-0.006238
1033.310911	-0.006318
1033.479207	-0.006847
1033.647484	-0.007471
1033.815743	-0.007711
1033.983983	-0.008662
1034.152206	-0.007307
1034.320410	-0.006707
1034.488596	-0.005749
1034.656764	-0.006692
1034.824914	-0.006417
1034.993045	-0.004594
1035.161158	-0.004359
1035.329253	-0.003434
1035.497330	-0.003794
1035.665388	-0.005483
1035.833428	-0.005992
1036.001450	-0.006523
1036.169454	-0.005621
1036.337440	-0.005555
1036.505407	-0.006219
1036.673356	-0.005307
1036.841287	-0.006492
1037.009200	-0.006230
1037.177094	-0.005165
1037.344970	-0.005764
1037.512828	-0.006095
1037.680668	-0.006607
1037.848489	-0.007807
1038.016293	-0.008652
1038.184078	-0.009261
1038.351845	-0.008839
1038.519593	-0.008174
1038.687324	-0.008046
1038.855036	-0.007849
1039.022730	-0.007936
1039.190406	-0.007919
1039.358063	-0.006891
1039.525702	-0.007146
1039.693323	-0.007608
1039.860926	-0.007607
1040.028511	-0.008607
1040.196077	-0.009325
1040.363625	-0.009301
1040.531155	-0.009087
1040.698667	-0.008493
1040.866161	-0.009745
1041.033636	-0.009981
1041.201093	-0.009811
1041.368532	-0.010293
1041.535952	-0.010247
1041.703355	-0.008852
1041.870739	-0.007926
1042.038105	-0.006372
1042.205452	-0.006132
1042.372782	-0.004726
1042.540093	-0.003823
1042.707386	-0.003964
1042.874661	-0.003612
1043.041918	-0.003485
1043.209156	-0.004985
1043.376376	-0.005506
1043.543578	-0.006839
1043.710762	-0.007588
1043.877927	-0.007560
1044.045074	-0.006879
1044.212203	-0.006741
1044.379314	-0.006817
1044.546407	-0.006717
1044.713481	-0.003945
1044.880537	-0.005146
1045.047575	-0.005105
1045.214595	-0.005391
1045.381596	-0.004845
1045.548579	-0.005017
1045.715544	-0.003785
1045.882491	-0.002397
1046.049420	-0.002381
1046.216330	-0.003590
1046.383222	-0.002585
1046.550096	-0.001465
1046.716951	-0.001974
1046.883789	-0.003271
1047.050608	-0.002355
1047.217409	-0.003402
1047.384192	-0.004825
1047.550956	-0.003939
1047.717703	-0.006228
1047.884431	-0.005698
1048.051140	-0.006957
1048.217832	-0.004395
1048.384505	-0.003531
1048.551161	-0.005574
1048.717798	-0.005487
1048.884416	-0.005401
1049.051017	-0.004891
1049.217599	-0.003280
1049.384163	-0.003566
1049.550709	-0.002812
1049.717237	-0.004341
1049.883746	-0.004318
1050.050237	-0.003289
1050.216710	-0.003170
1050.383165	-0.002412
1050.549601	-0.002621
1050.716019	-0.001162
1050.882420	-0.001527
1051.048801	-0.002859
1051.215165	-0.003351
1051.381510	-0.004161
1051.547837	-0.004456
1051.714146	-0.004087
1051.880437	-0.004617
1052.046709	-0.005500
1052.212964	-0.007456
1052.379200	-0.007964
1052.545417	-0.007460
1052.711617	-0.007184
1052.877798	-0.007950
1053.043961	-0.007085
1053.210106	-0.007812
1053.376233	-0.007233
1053.542341	-0.007329
1053.708432	-0.006327
1053.874504	-0.006424
1054.040557	-0.005994
1054.206593	-0.005639
1054.372610	-0.004040
1054.538609	-0.004101
1054.704590	-0.003490
1054.870553	-0.003709
1055.036497	-0.003700
1055.202424	-0.004810
1055.368331	-0.002560
1055.534221	-0.001732
1055.700093	-0.002445
1055.865946	-0.002203
1056.031781	-0.003576
1056.197598	-0.004491
1056.363397	-0.004487
1056.529177	-0.003311
1056.694939	-0.001650
1056.860683	-0.003302
1057.026409	-0.003524
1057.192116	-0.004762
1057.357806	-0.006354
1057.523477	-0.005743
1057.689130	-0.006332
1057.854764	-0.007187
1058.020381	-0.008084
1058.185979	-0.007772
1058.351559	-0.007697
1058.517120	-0.008317
1058.682664	-0.006721
1058.848189	-0.006620
1059.013696	-0.005920
1059.179185	-0.003654
1059.344656	-0.003892
1059.510108	-0.004174
1059.675542	-0.005373
1059.840958	-0.007395
1060.006356	-0.007440
1060.171735	-0.006416
1060.337096	-0.003795
1060.502439	-0.003934
1060.667764	-0.005126
1060.833071	-0.003973
1060.998359	-0.003054
1061.163629	-0.003100
1061.328881	-0.000505
1061.494115	-0.000265
1061.659330	-0.000203
1061.824527	-0.003273
1061.989706	-0.002285
1062.154867	-0.001693
1062.320010	-0.000422
1062.485134	-0.000705
1062.650240	-0.002266
1062.815328	-0.002881
1062.980398	-0.004118
1063.145449	-0.004937
1063.310482	-0.004185
1063.475497	-0.004308
1063.640494	-0.004918
1063.805473	-0.007222
1063.970433	-0.006344
1064.135375	-0.004817
1064.300299	-0.004804
1064.465204	-0.003433
1064.630092	-0.003500
1064.794961	-0.002342
1064.959812	-0.003752
1065.124645	-0.002926
1065.289459	-0.000868
1065.454256	-0.000685
1065.619034	-0.000678
1065.783793	-0.000851
1065.948535	-0.001055
1066.113258	-0.001634
1066.277964	-0.001904
1066.442651	-0.001523
1066.607319	-0.002010
1066.771970	-0.002381
1066.936602	-0.002421
1067.101216	-0.002692
1067.265812	-0.001741
1067.430389	-0.002944
1067.594949	-0.001960
1067.759490	-0.003376
1067.924013	-0.004939
1068.088518	-0.003557
1068.253004	-0.002944
1068.417472	-0.003088
1068.581922	-0.002698
1068.746354	-0.002917
1068.910768	-0.003791
1069.075163	-0.002659
1069.239540	-0.001764
1069.403899	-0.001466
1069.568240	-0.002667
1069.732562	-0.003949
1069.896866	-0.004779
1070.061152	-0.003574
1070.225420	-0.004084
1070.389670	-0.002567
1070.553901	-0.004769
1070.718114	-0.003587
1070.882309	-0.002782
1071.046486	-0.002996
1071.210644	-0.002092
1071.374784	-0.003437
1071.538906	-0.004671
1071.703010	-0.004408
1071.867096	-0.003136
1072.031163	-0.002410
1072.195212	-0.002860
1072.359243	-0.001544
1072.523256	-0.002500
1072.687250	-0.003347
1072.851226	-0.001117
1073.015184	-0.001883
1073.179124	-0.002696
1073.343045	-0.002835
1073.506949	-0.002808
1073.670834	-0.003095
1073.834701	-0.002450
1073.998549	-0.001377
1074.162380	-0.000471
1074.326192	-0.000571
1074.489986	-0.000200
1074.653761	0.001792
1074.817519	0.000760
1074.981258	0.001932
1075.144979	0.001098
1075.308682	-0.000103
1075.472367	0.001176
1075.636033	0.001823
1075.799681	0.002029
1075.963311	0.001305
1076.126923	-0.000351
1076.290516	0.002982
1076.454092	0.002142
1076.617649	0.002051
1076.781187	0.001977
1076.944708	0.001246
1077.108210	0.000515
1077.271695	0.000248
1077.435160	0.003150
1077.598608	0.005138
1077.762038	0.003103
1077.925449	0.002908
1078.088842	0.003870
1078.252217	0.003621
1078.415573	0.003185
1078.578912	0.002291
1078.742232	0.001391
1078.905534	-0.000098
1079.068817	-0.003261
1079.232083	-0.001850
1079.395330	-0.004067
1079.558559	-0.003683
1079.721770	-0.003605
1079.884962	-0.003380
1080.048136	-0.003131
1080.211293	-0.002668
1080.374430	-0.002254
1080.537550	0.000237
1080.700651	-0.001066
1080.863735	0.001798
1081.026800	0.001413
1081.189846	0.002787
1081.352875	0.003641
1081.515885	0.006465
1081.678877	0.006662
1081.841851	0.007072
1082.004807	0.006017
1082.167744	0.006064
1082.330663	0.002891
1082.493564	0.004368
1082.656447	0.004189
1082.819312	0.003811
1082.982158	0.001010
1083.144986	0.002865
1083.307796	0.003550
1083.470587	0.004676
1083.633361	0.004464
1083.796116	0.006859
1083.958853	0.006489
1084.121571	0.004068
1084.284272	0.001663
1084.446954	0.001111
1084.609618	0.000175
1084.772264	-0.001598
1084.934892	-0.001923
1085.097501	-0.000736
1085.260092	-0.000917
1085.422665	-0.001848
1085.585220	0.000332
1085.747756	0.002783
1085.910274	0.005289
1086.072774	0.005061
1086.235256	0.005890
1086.397720	0.007128
1086.560165	0.004735
1086.722592	0.004059
1086.885001	0.004318
1087.047392	0.003059
1087.209764	0.003064
1087.372119	0.002168
1087.534455	0.002462
1087.696772	0.001832
1087.859072	0.001064
1088.021353	0.002934
1088.183616	0.004733
1088.345861	0.006175
1088.508088	0.007934
1088.670296	0.008263
1088.832486	0.007262
1088.994658	0.006452
1089.156812	0.008056
1089.318948	0.008384
1089.481065	0.006808
1089.643164	0.008225
1089.805245	0.007715
1089.967308	0.007592
1090.129352	0.005905
1090.291378	0.006478
1090.453386	0.007326
1090.615376	0.004759
1090.777347	0.002945
1090.939301	0.001444
1091.101236	0.000295
1091.263153	-0.000190
1091.425051	-0.000194
1091.586932	0.001136
1091.748794	-0.000050
1091.910638	0.001314
1092.072463	0.003142
1092.234271	0.003822
1092.396060	0.006996
1092.557831	0.008548
1092.719584	0.008535
1092.881319	0.008536
1093.043035	0.010562
1093.204733	0.012506
1093.366413	0.008123
1093.528075	0.008440
1093.689718	0.009062
1093.851343	0.008505
1094.012950	0.004749
1094.174539	0.002968
1094.336110	0.001650
1094.497662	0.000641
1094.659196	-0.000564
1094.820712	0.002523
1094.982210	0.000838
1095.143689	0.001934
1095.305151	0.000452
1095.466594	0.003127
1095.628018	0.003985
1095.789425	0.003006
1095.950813	0.003236
1096.112183	0.003854
1096.273535	0.000467
1096.434869	0.000190
1096.596184	-0.000078
1096.757482	0.002384
1096.918761	-0.000551
1097.080021	0.001563
1097.241264	0.003522
1097.402488	0.002261
1097.563694	0.002380
1097.724882	0.006790
1097.886052	0.011516
1098.047203	0.010961
1098.208336	0.010888
1098.369451	0.013508
1098.530548	0.011282
1098.691627	0.011196
1098.852687	0.010103
1099.013729	0.011093
1099.174753	0.011596
1099.335758	0.006945
1099.496746	0.008470
1099.657715	0.008244
1099.818666	0.007965
1099.979599	0.010695
1100.140513	0.011238
1100.301409	0.012555
1100.462287	0.011682
1100.623147	0.011258
1100.783989	0.013067
1100.944812	0.012748
1101.105617	0.011390
1101.266404	0.011835
1101.427173	0.010715
1101.587923	0.011673
1101.748656	0.009818
1101.909370	0.007859
1102.070066	0.007457
1102.230743	0.008707
1102.391403	0.008336
1102.552044	0.009941
1102.712667	0.008820
1102.873271	0.007304
1103.033858	0.006474
1103.194426	0.008377
1103.354976	0.010662
1103.515508	0.009273
1103.676021	0.010077
1103.836517	0.009415
1103.996994	0.007430
1104.157453	0.010015
1104.317893	0.011487
1104.478316	0.012816
1104.638720	0.011263
1104.799106	0.011327
1104.959474	0.013278
1105.119823	0.010401
1105.280155	0.010044
1105.440468	0.011076
1105.600763	0.008063
1105.761039	0.007774
1105.921298	0.005994
1106.081538	0.007438
1106.241760	0.010739
1106.401964	0.009143
1106.562149	0.007817
1106.722316	0.009890
1106.882465	0.010304
1107.042596	0.011799
1107.202709	0.014636
1107.362803	0.014977
1107.522879	0.015555
1107.682937	0.014226
1107.842977	0.016305
1108.002999	0.017860
1108.163002	0.016405
1108.322987	0.016288
1108.482954	0.013123
1108.642902	0.010487
1108.802833	0.011766
1108.962745	0.012733
1109.122639	0.011235
1109.282515	0.008549
1109.442372	0.010092
1109.602211	0.009751
1109.762032	0.009395
1109.921835	0.016761
1110.081620	0.016490
1110.241386	0.016787
1110.401134	0.015012
1110.560864	0.016477
1110.720576	0.018030
1110.880269	0.017743
1111.039945	0.012322
1111.199602	0.016613
1111.359240	0.014411
1111.518861	0.015716
1111.678463	0.014359
1111.838047	0.017479
1111.997613	0.016379
1112.157161	0.019384
1112.316690	0.019502
1112.476202	0.024503
1112.635695	0.021918
1112.795169	0.019059
1112.954626	0.018737
1113.114064	0.019361
1113.273484	0.014862
1113.432886	0.014589
1113.592270	0.011750
1113.751635	0.010364
1113.910983	0.010524
1114.070312	0.010028
1114.229622	0.010520
1114.388915	0.007649
1114.548189	0.005309
1114.707445	0.008491
1114.866683	0.011017
1115.025903	0.009481
1115.185104	0.006006
1115.344287	0.007211
1115.503452	0.005130
1115.662599	0.005530
1115.821727	0.008430
1115.980838	0.011638
1116.139930	0.010054
1116.299004	0.010796
1116.458059	0.011286
1116.617097	0.016191
1116.776116	0.017838
1116.935117	0.018779
1117.094099	0.018966
1117.253064	0.017767
1117.412010	0.015650
1117.570938	0.021377
1117.729848	0.018529
1117.888740	0.019006
1118.047613	0.019197
1118.206468	0.016523
1118.365305	0.020294
1118.524124	0.019426
1118.682924	0.022888
1118.841707	0.025546
1119.000471	0.021628
1119.159216	0.020151
1119.317944	0.020675
1119.476653	0.020428
1119.635344	0.020744
1119.794017	0.018563
1119.952672	0.018480
1120.111308	0.016549
1120.269927	0.013489
1120.428527	0.011945
1120.587108	0.014416
1120.745672	0.017704
1120.904217	0.017826
1121.062744	0.017234
1121.221253	0.014778
1121.379744	0.016448
1121.538216	0.017564
1121.696671	0.017351
1121.855107	0.017809
1122.013524	0.020128
1122.171924	0.016672
1122.330305	0.017538
1122.488668	0.019481
1122.647013	0.021280
1122.805340	0.022245
1122.963648	0.021530
1123.121938	0.021357
1123.280210	0.023691
1123.438464	0.020893
1123.596700	0.019940
1123.754917	0.017398
1123.913116	0.016782
1124.071297	0.017583
1124.229459	0.018780
1124.387604	0.019152
1124.545730	0.019655
1124.703838	0.019981
1124.861928	0.016831
1125.019999	0.016448
1125.178052	0.016457
1125.336088	0.013069
1125.494104	0.015807
1125.652103	0.014383
1125.810083	0.012760
1125.968045	0.013396
1126.125989	0.011801
1126.283915	0.009364
1126.441823	0.012829
1126.599712	0.012548
1126.757583	0.015358
1126.915436	0.011293
1127.073270	0.009081
1127.231087	0.010234
1127.388885	0.013405
1127.546665	0.015657
1127.704426	0.024735
1127.862170	0.026067
1128.019895	0.033525
1128.177602	0.034400
1128.335291	0.035266
1128.492961	0.033583
1128.650614	0.034247
1128.808248	0.031532
1128.965864	0.028795
1129.123461	0.023399
1129.281041	0.024575
1129.438602	0.021019
1129.596145	0.025342
1129.753670	0.026850
1129.911176	0.033364
1130.068665	0.033924
1130.226135	0.034933
1130.383587	0.034891
1130.541020	0.037473
1130.698436	0.035578
1130.855833	0.036230
1131.013212	0.027590
1131.170573	0.023234
1131.327915	0.019039
1131.485239	0.015384
1131.642545	0.016667
1131.799833	0.020578
1131.957103	0.020142
1132.114354	0.015770
1132.271588	0.014638
1132.428803	0.021833
1132.585999	0.022597
1132.743178	0.026095
1132.900338	0.027171
1133.057480	0.022821
1133.214604	0.019923
1133.371710	0.018295
1133.528797	0.019393
1133.685866	0.021283
1133.842917	0.016495
1133.999950	0.019552
1134.156964	0.021305
1134.313960	0.023594
1134.470938	0.025023
1134.627898	0.026406
1134.784840	0.026196
1134.941763	0.031942
1135.098668	0.025456
1135.255555	0.027903
1135.412424	0.031142
1135.569274	0.028864
1135.726107	0.027282
1135.882921	0.026225
1136.039716	0.023217
1136.196494	0.027280
1136.353253	0.025807
1136.509995	0.028837
1136.666717	0.029662
1136.823422	0.027948
1136.980109	0.024202
1137.136777	0.023286
1137.293427	0.026619
1137.450059	0.031883
1137.606672	0.028763
1137.763267	0.026217
1137.919844	0.030213
1138.076403	0.028127
1138.232944	0.027010
1138.389466	0.031874
1138.545971	0.033261
1138.702457	0.029770
1138.858924	0.028935
1139.015374	0.028830
1139.171805	0.025576
1139.328218	0.023027
1139.484613	0.023316
1139.640990	0.026183
1139.797348	0.023773
1139.953688	0.021415
1140.110010	0.025259
1140.266314	0.019910
1140.422600	0.022510
1140.578867	0.024247
1140.735116	0.021700
1140.891347	0.021355
1141.047559	0.015406
1141.203754	0.009919
1141.359930	0.014806
1141.516088	0.006982
1141.672228	0.011068
1141.828349	0.010510
1141.984452	0.010705
1142.140537	0.015141
1142.296604	0.014933
1142.452653	0.016591
1142.608683	0.023071
1142.764695	0.015912
1142.920689	0.020762
1143.076665	0.019069
1143.232622	0.014221
1143.388562	0.007640
1143.544483	0.003058
1143.700385	0.003608
1143.856270	0.005277
1144.012136	0.002055
1144.167985	0.011386
1144.323814	0.012579
1144.479626	0.020187
1144.635420	0.016610
1144.791195	0.023463
1144.946952	0.021587
1145.102691	0.023670
1145.258411	0.023223
1145.414113	0.022952
1145.569798	0.015378
1145.725463	0.012689
1145.881111	0.002923
1146.036741	0.007211
1146.192352	0.010592
1146.347945	0.012914
1146.503519	0.012415
1146.659076	0.009459
1146.814614	0.019843
1146.970134	0.024210
1147.125636	0.032040
1147.281120	0.035216
1147.436585	0.036187
1147.592032	0.033298
1147.747461	0.029200
1147.902872	0.030562
1148.058265	0.030819
1148.213639	0.019906
1148.368995	0.018381
1148.524333	0.008493
1148.679653	0.008463
1148.834954	0.013251
1148.990237	0.010268
1149.145502	0.011378
1149.300749	0.013167
1149.455977	0.013466
1149.611188	0.014797
1149.766380	0.019121
1149.921553	0.024915
1150.076709	0.023266
1150.231846	0.022313
1150.386966	0.022558
1150.542066	0.028305
1150.697149	0.025919
1150.852214	0.026343
1151.007260	0.032587
1151.162288	0.029735
1151.317298	0.025348
1151.472289	0.022101
1151.627263	0.015879
1151.782218	0.019430
1151.937155	0.017466
1152.092073	0.017373
1152.246974	0.022748
1152.401856	0.016856
1152.556720	0.013439
1152.711566	0.020961
1152.866393	0.021832
1153.021203	0.027760
1153.175994	0.023670
1153.330767	0.024066
1153.485521	0.026442
1153.640258	0.021371
1153.794976	0.021142
1153.949676	0.020030
1154.104358	0.018058
1154.259021	0.020991
1154.413667	0.019449
1154.568294	0.021474
1154.722903	0.020430
1154.877493	0.017456
1155.032066	0.015352
1155.186620	0.013186
1155.341156	0.013892
1155.495674	0.016009
1155.650173	0.014224
1155.804654	0.014953
1155.959118	0.015648
1156.113562	0.015219
1156.267989	0.008229
1156.422397	0.012307
1156.576788	0.015897
1156.731160	0.015605
1156.885513	0.018013
1157.039849	0.021110
1157.194166	0.015617
1157.348465	0.016658
1157.502746	0.018292
1157.657009	0.026006
1157.811253	0.027657
1157.965479	0.022326
1158.119687	0.025257
1158.273877	0.014457
1158.428048	0.016756
1158.582201	0.020224
1158.736337	0.022695
1158.890453	0.017636
1159.044552	0.022049
1159.198632	0.022955
1159.352694	0.031567
1159.506738	0.037360
1159.660764	0.043801
1159.814771	0.034185
1159.968761	0.036830
1160.122732	0.027788
1160.276685	0.033561
1160.430619	0.024964
1160.584535	0.018928
1160.738434	0.020114
1160.892313	0.014520
1161.046175	0.010333
1161.200019	0.018740
1161.353844	0.021780
1161.507651	0.025938
1161.661440	0.025538
1161.815210	0.031728
1161.968962	0.036288
1162.122697	0.031662
1162.276412	0.025906
1162.430110	0.028055
1162.583789	0.028965
1162.737451	0.018789
1162.891094	0.012860
1163.044718	0.010484
1163.198325	0.010052
1163.351913	0.005704
1163.505483	0.003647
1163.659035	0.013743
1163.812569	0.012794
1163.966084	0.009317
1164.119581	0.013871
1164.273060	0.018317
1164.426521	0.026893
1164.579964	0.025748
1164.733388	0.030609
1164.886794	0.031215
1165.040182	0.030377
1165.193551	0.032915
1165.346903	0.030819
1165.500236	0.034429
1165.653551	0.032549
1165.806848	0.027495
1165.960126	0.024947
1166.113386	0.024194
1166.266628	0.025941
1166.419852	0.023520
1166.573058	0.019710
1166.726245	0.012633
1166.879414	0.012698
1167.032565	0.009378
1167.185698	0.014049
1167.338812	0.013552
1167.491909	0.017358
1167.644987	0.013042
1167.798046	0.010563
1167.951088	0.018293
1168.104111	0.020785
1168.257117	0.013980
1168.410103	0.022596
1168.563072	0.021510
1168.716023	0.021389
1168.868955	0.010615
1169.021869	0.011812
1169.174765	0.001753
1169.327642	-0.000917
1169.480501	0.010103
1169.633343	0.004380
1169.786165	0.002552
1169.938970	-0.002202
1170.091757	-0.002433
1170.244525	-0.002321
1170.397275	0.002586
1170.550007	0.007881
1170.702720	0.007508
1170.855415	0.004307
1171.008092	0.013152
1171.160751	0.013380
1171.313392	0.012290
1171.466014	0.041862
1171.618619	0.012066
1171.771205	0.012066
1171.923772	0.012066
