sample name	sample
index	1475
start time	 05-18-2021  12:16:59 PM
880	0.081810
Peak Time (s)	92.536
Peak Height 	0.08181
calc peak height	90,93
Baseline Time (s)	8.537
Baseline Value 	-0.004847
subtract baseline	10,4
Abs	0.021929
Peak Time (s)	92.035
Peak Height 	0.02193
calc peak height	90,93
Baseline Time (s)	10.035
Baseline Value 	0.003354
subtract baseline	10,3
PK_550	0.028052
Peak Time (s)	92.035
Peak Height 	0.02805
calc peak height	90,93
Baseline Time (s)	9.54
Baseline Value 	1.9443E-4
subtract baseline	10,2
PK_880	0.024129
Peak Time (s)	91.538
Peak Height 	0.02413
calc peak height	90,93
Baseline Time (s)	10.535
Baseline Value 	0.001185
subtract baseline	10,1


Time (s)	A880-A510	A880-A775	A880-A975	A880	I510	I775	I975	I880	
0.035500	0.002389	0.000774	-0.002242	0.001758	6586.666382	44766.788174	3948.054796	23324.553525
0.535000	-0.000486	-0.000916	-0.000206	0.003563	6547.144660	44431.479662	3948.624452	23239.852194
1.035500	-0.001719	-0.000068	0.000632	0.003508	6537.268059	44517.857559	3950.830568	23242.423365
1.535500	-0.003541	-0.000564	-0.002192	0.005530	6505.207112	44277.390652	3938.916574	23147.895173
2.039000	0.001516	0.000930	0.002120	0.000506	6589.889691	44902.768362	3961.989859	23383.552949
2.536000	0.001640	-0.000968	-0.002353	-0.000918	6603.067617	44856.923221	3954.397485	23450.839701
3.039000	0.002158	0.000362	0.004095	-0.001365	6611.304006	45028.846081	3971.639210	23472.000432
3.536500	0.001033	0.000338	-0.001763	0.001742	6575.309207	44726.425817	3949.277129	23325.330265
4.037000	0.000520	0.000584	-0.000142	0.000576	6580.844288	44862.554194	3956.179782	23380.264384
4.537000	0.001334	-0.000682	0.000506	0.000077	6591.991625	44788.506140	3959.033084	23403.804490
5.035000	-0.000331	0.000308	-0.003731	0.000390	6575.209699	44853.819323	3947.757653	23389.037999
5.535000	-0.000233	0.000025	-0.001474	0.000300	6576.799811	44835.240430	3953.559536	23393.289326
6.035500	0.000456	0.000137	-0.002103	0.000709	6579.166278	44806.521174	3950.986387	23373.956807
6.535500	0.000284	0.000595	-0.002437	0.000772	6577.178230	44844.664313	3950.008697	23371.019916
7.036000	-0.000008	-0.000834	-0.000403	-0.000670	6586.934670	44845.916837	3958.628957	23439.127270
7.536000	0.002710	0.000948	0.004123	0.000722	6598.206714	44883.607775	3966.461980	23373.373063
8.036500	-0.000687	-0.000649	0.002230	-0.000864	6582.814104	44882.463816	3965.692541	23448.272684
8.537000	-0.000587	-0.000070	-0.001137	0.000000	6576.343326	44855.023507	3955.138521	23407.438200
9.037500	0.004044	0.000399	0.001584	0.000500	6611.485137	44851.927079	3960.664606	23383.815822
9.540000	-0.000389	0.000000	0.002484	0.000179	6576.500890	44844.431750	3963.716108	23398.964667
10.035000	0.000564	0.000177	0.000000	-0.000222	6587.982426	44900.254379	3958.516482	23417.916939
10.535000	0.000000	-0.000226	-0.001856	-0.000433	6584.986643	44881.751970	3954.427317	23427.894833
11.035500	-0.000120	-0.000020	0.000310	-0.000441	6584.037952	44902.380231	3959.835281	23428.269245
11.535500	0.000577	0.001131	-0.000533	0.000516	6581.833840	44921.222798	3955.356103	23383.087238
12.035500	-0.000834	0.000033	-0.003052	-0.000419	6577.795194	44905.414621	3951.430813	23427.230108
12.539000	0.001342	0.000718	-0.000166	-0.000298	6595.248729	44960.003075	3958.292806	23421.526851
13.036000	0.002610	-0.000285	-0.000680	-0.001154	6613.369971	44945.797981	3959.144440	23462.036225
13.537000	-0.000222	-0.000563	0.004089	-0.001177	6589.421645	44921.038867	3971.148893	23463.098313
14.034500	-0.002415	0.000813	-0.000131	0.001963	6544.381839	44750.834501	3952.764329	23314.906669
14.537000	-0.003307	-0.000018	-0.001100	0.003007	6528.166578	44570.646054	3947.790032	23265.885024
15.041000	0.002193	0.000170	-0.000669	-0.001013	6608.597510	44976.084227	3958.820994	23455.326978
15.535000	0.000289	-0.000062	0.000930	-0.001173	6593.725417	44969.120090	3963.210092	23462.893732
16.035500	0.001711	0.000514	0.000915	-0.000450	6599.682644	44954.985730	3961.368064	23428.719912
16.536000	-0.002729	0.000244	-0.001249	0.005296	6513.900035	44376.663918	3941.796627	23158.795792
17.036000	0.004669	0.000163	0.001900	-0.002973	6646.687671	45165.738892	3970.161425	23548.361340
17.538500	0.000411	0.000337	-0.001523	0.000874	6577.392465	44809.952651	3952.014583	23366.203495
18.036500	-0.000316	-0.000265	-0.002784	0.000655	6573.087408	44773.038378	3949.439110	23376.526205
18.540000	-0.001224	0.000106	-0.004523	0.002742	6547.846359	44608.007493	3940.034247	23278.351603
19.034500	-0.001170	0.000054	0.002346	0.000707	6565.435916	44798.726520	3962.050417	23374.071264
19.534500	0.000278	0.000404	-0.003323	0.000925	6575.829676	44811.431842	3947.442245	23363.777432
20.034500	-0.000999	0.000217	0.000467	0.000395	6569.516066	44844.588123	3958.142926	23388.793053
20.535500	0.001109	0.000526	-0.003502	0.001604	6577.117507	44757.759069	3945.331991	23331.822359
21.035500	-0.000527	0.000430	-0.001042	0.000316	6574.170293	44872.680658	3954.587422	23392.494745
21.536000	-0.002726	-0.000640	0.000452	-0.000214	6560.080386	44820.645995	3959.622432	23417.547217
22.039000	0.002088	0.000241	0.002870	0.000572	6594.193513	44829.868681	3963.698223	23380.449199
22.536500	-0.000014	-0.000422	0.005099	0.001209	6570.962697	44704.560084	3967.689872	23350.427409
23.037000	-0.002285	-0.000303	0.003548	0.000061	6561.477212	44826.635253	3966.677530	23404.575547
23.537000	0.000350	0.000649	-0.000740	0.000777	6577.699588	44849.458836	3954.197478	23370.788717
24.035000	0.001326	-0.000131	-0.000681	-0.000022	6592.761508	44851.182787	3956.324791	23408.466928
24.534500	-0.003413	0.000321	-0.001608	0.001310	6541.494409	44766.371478	3950.726132	23345.675755
25.035500	-0.000614	-0.000617	-0.001489	0.000202	6574.405428	44782.813332	3953.764346	23397.916119
25.535000	-0.000318	0.000443	-0.001145	0.000641	6573.195118	44842.619615	3953.528052	23377.181331
26.036000	0.001041	-0.000427	0.001809	0.000057	6589.661523	44815.052761	3962.332241	23404.731515
26.536500	0.003307	-0.000404	-0.001189	0.000866	6602.068528	44739.228571	3952.861328	23366.555919
27.036000	0.001324	0.000872	-0.001336	-0.000532	6597.089540	44997.583033	3955.965815	23432.596224
27.536500	0.001316	0.000232	0.001590	-0.001814	6607.950259	45059.851058	3966.470242	23493.307294
28.036000	0.000330	0.000973	0.004062	-0.000578	6589.025735	45011.782177	3969.575468	23434.760194
28.537500	0.001849	-0.000555	0.000047	-0.002134	6615.241909	45014.528247	3963.406863	23508.496597
29.038000	0.002736	0.000402	0.007270	0.000073	6603.961119	44893.465219	3976.023196	23403.967408
29.535000	0.001955	0.000262	0.001203	-0.001465	6610.427451	45028.855273	3964.626027	23476.760297
30.035500	0.002614	0.000261	0.004016	-0.001163	6613.481090	44999.485567	3970.930864	23462.444930
30.536000	0.000122	0.000156	0.000118	0.001252	6571.747994	44756.024572	3955.146491	23348.393989
31.036000	-0.000116	-0.000204	-0.001474	0.001523	6567.444765	44695.310042	3950.531393	23335.647025
31.540500	0.003663	0.000472	0.000410	-0.001091	6621.842878	45012.962007	3961.706917	23459.034628
32.036500	0.002113	0.000562	0.004409	-0.001055	6608.274477	45018.216073	3971.650709	23457.352218
32.537000	-0.000932	0.000095	-0.004372	0.002718	6550.502558	44609.254963	3940.461751	23279.468950
33.034000	0.000099	0.000513	0.004258	0.000297	6579.633336	44882.623778	3967.867552	23393.407152
33.537000	0.001675	-0.000334	0.001842	-0.002692	6618.530041	45090.068951	3969.309275	23534.993147
34.035000	-0.001120	-0.000256	-0.005055	0.000661	6566.246166	44773.305055	3943.832121	23376.230362
34.535500	-0.002192	-0.000518	0.001670	0.000479	6558.738946	44765.587873	3960.933950	23384.830564
35.035500	-0.000024	0.000600	0.006930	0.001072	6572.029474	44816.152518	3972.641103	23356.847037
35.535500	0.001189	-0.000111	0.003466	0.000350	6588.436094	44817.249932	3965.747763	23390.916956
36.039000	-0.000589	0.000260	0.000163	0.000751	6569.970229	44814.398465	3956.500973	23371.990285
36.536000	-0.000674	-0.000150	-0.001939	0.000627	6570.301759	44786.788397	3951.596770	23377.855193
37.039500	0.000447	-0.000420	0.001667	-0.000040	6585.446735	44825.013605	3962.220059	23409.315140
37.537000	0.000280	0.000245	-0.001119	0.001069	6574.630681	44782.327806	3952.532632	23357.020602
38.034000	-0.000154	-0.000147	0.000404	0.000272	6577.702108	44821.287748	3958.294166	23394.597592
38.537000	0.001274	0.001243	-0.000693	0.001165	6582.240324	44869.346375	3953.349993	23352.502851
39.035000	0.000620	0.000704	0.001184	0.000685	6580.760689	44863.565566	3959.205893	23375.097824
39.535500	-0.001940	0.000095	-0.001782	0.000191	6563.284672	44852.469405	3953.063435	23398.403125
40.035500	-0.000389	-0.000290	-0.002675	0.000058	6577.529920	44828.176152	3951.183915	23404.705165
40.536000	-0.000785	0.000590	-0.001639	0.001352	6563.244553	44788.202183	3950.547023	23343.681439
41.039000	-0.001007	-0.000296	-0.003614	-0.000050	6573.212362	44837.995381	3949.130244	23409.805789
41.536500	0.000789	0.000079	0.001353	0.000716	6581.928112	44800.233892	3959.549859	23373.623966
42.037000	-0.000809	-0.000378	-0.003284	0.000307	6571.864944	44795.629983	3949.064057	23392.951582
42.536500	0.001711	0.000293	-0.000558	0.000655	6590.278585	44826.787836	3954.949789	23376.519584
43.037500	-0.001347	0.000481	0.005960	0.000836	6562.853979	44827.502136	3970.794651	23368.008390
43.535000	0.001197	0.000569	0.000228	0.000250	6589.355190	44892.549392	3957.910988	23395.639196
44.035500	0.002139	0.000845	0.003465	-0.003502	6629.454942	45283.655394	3975.443470	23573.519753
44.535500	-0.005448	-0.000069	-0.001728	0.003399	6507.064228	44528.224607	3945.278869	23247.515687
45.036000	0.001112	0.000245	-0.003796	0.002580	6568.888332	44636.901578	3942.212185	23285.927927
45.538500	0.001285	-0.000014	0.002709	-0.001835	6607.857223	45037.920890	3969.331739	23494.284102
46.036000	0.000206	0.000400	-0.001374	-0.001582	6596.507014	45053.625189	3958.482743	23482.303498
46.536500	-0.003373	-0.000289	-0.002100	0.003260	6525.499361	44520.444821	3944.704859	23254.022606
47.037000	-0.000934	0.000461	0.001026	0.003035	6547.816665	44613.911661	3952.975903	23264.593722
47.537000	0.000782	-0.000047	0.001999	0.000675	6582.224019	44792.140499	3961.265056	23375.585402
48.037500	-0.000729	0.000782	-0.003920	-0.001178	6585.122418	45051.385391	3951.161451	23463.140214
48.537500	-0.000475	0.000146	0.002767	0.002784	6553.785650	44607.754567	3957.921953	23276.345654
49.035000	-0.000620	-0.000154	-0.000492	0.003110	6549.830455	44547.798448	3949.036325	23261.081748
49.535500	0.001928	0.000041	0.001418	-0.003515	6627.746941	45206.551874	3970.310720	23574.113517
50.035000	0.003109	0.000173	0.005396	-0.002524	6629.385078	45122.944657	3977.855601	23526.982615
50.536500	0.000165	-0.000250	0.000478	0.003691	6551.536380	44482.926681	3949.996596	23233.830203
51.036000	-0.015704	-0.011793	0.006547	0.026572	6239.774285	41315.923021	3909.258660	22190.009586
51.537000	0.009458	-0.012833	0.000118	0.319135	4703.929353	22450.713489	3395.598345	12732.167630
52.037000	-0.016198	-0.023048	-0.032748	-0.113154	7502.349765	54531.502055	4177.803004	29512.902930
52.537500	0.000962	-0.048807	-0.012173	-0.203758	8798.765588	62842.100088	4557.286753	35687.832970
53.035000	-0.030978	-0.040187	-0.046788	-0.191624	8229.431254	62359.231659	4385.820238	34784.339804
53.538000	-0.019178	-0.059793	-0.025785	-0.227281	8844.912489	64597.088379	4596.072595	37513.071052
54.035500	-0.012050	-0.023230	-0.014340	-0.157234	8042.996761	60020.655405	4379.090171	32356.499398
54.535500	-0.016366	-0.022687	-0.013769	-0.148643	7892.379937	58972.396568	4351.608027	31779.430948
55.039000	-0.020707	-0.015126	-0.015380	-0.091341	7231.646292	52906.919211	4164.558557	28209.002888
55.536000	-0.010265	-0.011040	-0.017460	-0.110121	7533.181430	55609.005481	4215.029691	29327.635378
56.036500	-0.001489	-0.014142	-0.006582	-0.139106	7954.145690	58844.525117	4343.650583	31152.019802
56.536500	-0.005847	-0.006477	-0.015460	-0.084082	7308.142186	53067.169709	4142.984316	27789.400993
57.036500	-0.000810	-0.001524	-0.008309	-0.057324	7093.039575	50611.579760	4087.101827	26301.806347
57.537000	0.004024	0.002815	-0.007185	-0.037762	6953.208320	48969.113133	4036.809733	25270.899010
58.035000	0.007294	0.003362	-0.005263	-0.026529	6879.546346	47849.866670	4012.206591	24699.518571
58.535500	0.009579	0.004983	-0.004000	-0.022044	6859.431918	47554.540257	4003.818046	24475.493275
59.035500	0.001052	0.004567	-0.007981	-0.015201	6721.730315	46814.780682	3976.083306	24138.150312
59.536000	0.008256	0.006044	-0.000434	-0.015328	6786.796651	46977.149781	3995.675778	24144.338169
60.036500	0.008215	0.005398	0.001831	-0.005723	6701.409409	45949.618174	3976.931325	23679.560583
60.536500	0.017978	0.014689	0.009223	0.052342	6301.187015	41378.925561	3855.805137	21078.349544
61.036500	0.008772	0.008386	0.003229	0.031933	6390.091694	42648.515840	3888.836950	21953.286835
61.537000	0.003905	0.006367	0.006347	0.022524	6426.788883	43330.188706	3918.444444	22370.687342
62.037000	0.008262	0.015367	0.004467	0.082727	6001.120987	38836.322133	3779.729881	19849.609200
62.535000	0.008354	0.016208	0.008101	0.077215	6041.414914	39365.592072	3798.941877	20066.200430
63.037500	0.011527	0.017093	0.011001	0.067943	6132.757949	40227.891907	3825.143609	20436.734716
63.535000	0.014902	0.018475	0.011507	0.060364	6215.355936	41005.663352	3842.959276	20745.559678
64.035500	0.011887	0.016987	0.007918	0.053780	6242.715125	41455.122299	3849.642694	21018.234796
64.538500	0.013715	0.018250	0.005690	0.047681	6304.301822	42113.840606	3858.349728	21274.543522
65.036500	0.008354	0.018141	0.004515	0.046459	6272.005049	42214.408986	3858.456798	21326.347954
65.536500	0.012861	0.019007	0.005376	0.034516	6402.212526	43390.479507	3887.818377	21840.245130
66.037000	0.016519	0.020446	0.001901	0.031103	6459.715169	43845.176756	3887.674349	21989.714810
66.537000	0.013888	0.020948	0.003939	0.031746	6432.969139	43831.801757	3890.926392	21961.459773
67.034500	0.012112	0.021733	0.005650	0.031735	6418.644196	43906.919246	3894.954689	21961.975206
67.535000	0.016643	0.021932	0.005284	0.023824	6520.936046	44679.517485	3912.793490	22312.488188
68.035500	0.018232	0.024119	0.010926	0.025199	6522.714503	44757.587864	3923.017833	22251.082406
68.535500	0.011746	0.022015	0.007977	0.029271	6435.689321	44166.907241	3906.245924	22070.451393
69.038500	0.011249	0.022618	0.006239	0.030377	6422.655668	44119.091083	3899.528922	22021.670900
69.536500	0.016138	0.023226	0.006830	0.026092	6497.884286	44585.993058	3911.073181	22211.350108
70.036500	0.017306	0.023529	0.005950	0.027141	6498.865340	44514.345223	3906.488896	22164.710427
70.536500	0.012535	0.023976	0.002990	0.034282	6401.474314	43878.198398	3882.823939	21850.456178
71.059000	0.012646	0.023127	0.008873	0.035043	6396.235981	43726.705531	3894.756645	21817.288860
71.537500	0.015324	0.024165	0.012787	0.030753	6452.792304	44230.369691	3914.162192	22005.108450
72.035000	0.015879	0.025832	0.007246	0.033057	6438.512421	44169.832061	3895.596849	21904.015851
72.535500	0.013324	0.024679	0.008779	0.039600	6365.140426	43445.307098	3883.915017	21619.751543
73.035500	0.011602	0.024433	0.003067	0.041261	6338.242563	43267.837055	3866.966081	21548.277323
73.535500	0.015864	0.024527	0.004184	0.036904	6407.177532	43683.427584	3879.521787	21736.363039
74.036000	0.014594	0.023748	0.005379	0.038060	6387.640738	43502.281653	3879.614277	21686.293893
74.536000	0.011601	0.025018	0.000824	0.046188	6299.444131	42866.511827	3850.757733	21337.851632
75.036500	0.009036	0.024448	0.006390	0.047283	6270.907539	42713.627971	3860.833762	21291.402121
75.537000	0.013276	0.025632	0.006920	0.044209	6328.166302	43105.675581	3869.031183	21422.077897
76.037000	0.014996	0.025040	0.011979	0.045385	6332.467259	42942.482063	3877.941753	21372.000272
76.537500	0.016137	0.025907	0.004739	0.048281	6318.617575	42755.847379	3854.852459	21249.174028
77.034500	0.011928	0.025823	0.006018	0.054924	6234.239896	42143.645538	3842.850330	20970.572758
77.535000	0.015518	0.026083	0.010627	0.050979	6292.604915	42525.223249	3862.060828	21135.510590
78.035500	0.019758	0.027011	0.006962	0.052889	6310.855112	42435.741270	3849.495654	21055.444140
78.538500	0.015216	0.026168	0.010341	0.059765	6222.331076	41739.731528	3841.698849	20770.185153
79.036500	0.016901	0.026499	0.013196	0.055455	6268.516960	42156.713924	3857.743855	20948.461210
79.536500	0.019391	0.026237	0.015846	0.057293	6273.589924	41967.550718	3859.580926	20872.237236
80.037000	0.017378	0.026283	0.015218	0.059750	6239.035629	41751.347969	3852.625754	20770.815914
80.537000	0.016377	0.026057	0.012721	0.067104	6175.395961	41079.530001	3830.746244	20470.664851
81.037500	0.016815	0.025059	0.007410	0.062373	6214.624988	41408.988106	3829.475610	20663.184930
81.536500	0.018088	0.025680	0.013567	0.064539	6207.814032	41272.247512	3838.266940	20574.782960
82.035000	0.018473	0.025483	0.016665	0.065573	6202.869877	41163.744547	3842.845975	20532.733726
82.535500	0.015530	0.025099	0.011340	0.066740	6171.749716	41027.402906	3828.515787	20485.380353
83.035500	0.018428	0.025263	0.012502	0.068301	6181.840207	40904.972198	3827.642515	20422.261633
83.536000	0.018385	0.025127	0.016636	0.070062	6168.238604	40739.503816	3832.851006	20351.366315
84.036500	0.019120	0.026166	0.018822	0.071820	6160.544176	40676.913944	3833.791446	20280.822579
84.539500	0.021122	0.025799	0.012168	0.073307	6164.415378	40516.126815	3816.026422	20221.416077
85.037000	0.022025	0.026804	0.015534	0.074321	6163.579238	40515.356924	3821.125967	20181.005251
85.537000	0.020261	0.026064	0.013652	0.074819	6146.612771	40408.236763	3815.964212	20161.160972
86.037500	0.020424	0.027280	0.015218	0.075676	6141.428639	40439.270525	3817.499921	20127.134848
86.538000	0.018956	0.026579	0.015697	0.079738	6100.410780	40030.089778	3809.772608	19966.711910
87.035000	0.019040	0.026642	0.010126	0.079247	6104.655262	40077.459832	3798.927830	19986.039014
87.535500	0.022055	0.027352	0.017622	0.076077	6150.631062	40410.881155	3821.847086	20111.241807
88.038500	0.021179	0.026583	0.020127	0.075464	6148.659763	40397.379190	3828.652155	20135.534983
88.536000	0.021248	0.025841	0.020571	0.079077	6122.251983	40023.531021	3821.735972	19992.721728
89.039000	0.019823	0.026922	0.015207	0.081035	6097.241425	39948.755319	3805.944008	19915.817533
89.536500	0.022931	0.027507	0.017825	0.076155	6156.604148	40417.549849	3822.118548	20108.129937
90.037000	0.022257	0.026689	0.020703	0.075590	6155.789551	40395.715501	3829.639467	20130.543767
90.537000	0.022391	0.027558	0.019448	0.076543	6149.653269	40388.435779	3824.808887	20092.767880
91.037000	0.019118	0.027750	0.015619	0.080493	6096.044703	40065.695295	3807.986714	19937.069198
91.538000	0.024129	0.026810	0.018100	0.076597	6162.280982	40319.281199	3821.755286	20090.621720
92.035500	0.023794	0.028052	0.021929	0.076855	6157.828737	40404.161026	3829.553743	20080.403569
92.536000	0.021714	0.026916	0.015234	0.081810	6105.471835	39882.207539	3804.344057	19885.465820
93.036000	0.019878	0.027493	0.020851	0.080954	6098.243577	40004.293365	3818.268981	19918.984935
93.547500	0.025203	0.028227	0.019286	0.076945	6167.745507	40411.509285	3823.580479	20076.873700
94.036000	0.022056	0.028415	0.022061	0.076706	6145.932022	40448.379996	3830.172010	20086.336039
94.537000	0.022463	0.027701	0.020729	0.076175	6152.955532	40432.577551	3828.415482	20107.366640
95.037000	0.021166	0.027509	0.015925	0.078761	6123.987356	40193.387887	3812.364158	20005.153960
95.537500	0.024366	0.028213	0.019762	0.076297	6166.320765	40466.243363	3826.030996	20102.497337
96.035000	0.024065	0.027330	0.018317	0.075371	6171.024351	40469.964349	3824.899053	20139.252348
