sample name	sample
index	1152
start time	 04-22-2021  03:35:12 PM
880	0.022841
Peak Time (s)	100.035
Peak Height 	0.02284
calc peak height	100,103
Baseline Time (s)	10.036
Baseline Value 	-0.002554
subtract baseline	10,4
Abs	0.022839
Peak Time (s)	101.035
Peak Height 	0.02284
calc peak height	100,103
Baseline Time (s)	8.535
Baseline Value 	0.00244
subtract baseline	10,3
PK_550	0.029301
Peak Time (s)	102.537
Peak Height 	0.0293
calc peak height	100,103
Baseline Time (s)	10.036
Baseline Value 	7.4397E-4
subtract baseline	10,2
PK_880	0.025912
Peak Time (s)	102.537
Peak Height 	0.02591
calc peak height	100,103
Baseline Time (s)	10.537
Baseline Value 	0.001489
subtract baseline	10,1


Time (s)	A880-A510	A880-A775	A880-A975	A880	I510	I775	I975	I880	
0.035500	0.001616	-0.000204	0.000067	0.001474	6285.282879	43153.782476	3920.232301	22692.542150
0.536000	-0.003505	-0.001123	-0.008569	0.004273	6225.029222	42811.640986	3894.327488	22565.748996
1.036000	-0.001468	-0.000064	-0.001500	0.003389	6247.127202	42990.127345	3912.273049	22605.715380
1.536500	-0.002366	-0.000768	-0.002930	0.000586	6261.609313	43183.704615	3915.404734	22732.962965
2.036500	-0.000199	-0.000599	-0.002194	0.000505	6278.792634	43206.903768	3917.271997	22736.649948
2.537000	-0.001087	-0.000453	-0.004754	0.003695	6247.694114	42926.091204	3904.197881	22591.853146
3.045500	0.000244	-0.001158	0.001257	-0.002868	6308.166996	43468.167505	3933.014231	22890.907889
3.538000	0.000146	-0.000241	-0.004713	0.000409	6282.177755	43248.937927	3911.740594	22741.016390
4.035000	0.000453	0.000658	-0.002750	0.001071	6279.453571	43270.919402	3914.707731	22710.879088
4.535500	-0.004262	-0.001136	-0.006861	0.003420	6225.750734	42888.606224	3900.069124	22604.288868
5.036000	-0.000386	-0.000833	-0.001388	-0.000164	6282.495501	43247.166790	3920.654021	22767.171705
5.536000	-0.001091	0.000504	0.000036	0.000437	6272.491574	43315.478163	3922.547519	22739.764857
6.036000	-0.001618	-0.000071	0.001633	0.000475	6268.163542	43258.503443	3926.137950	22737.998914
6.539000	-0.001279	-0.000043	-0.000035	-0.000155	6275.582616	43319.640986	3923.746182	22766.750696
7.036500	-0.000543	0.000005	-0.002018	0.000440	6276.660116	43268.866409	3917.823854	22739.625371
7.537000	0.000192	-0.001062	-0.001255	-0.000656	6290.712275	43271.508072	3922.090407	22789.619286
8.035000	0.000676	-0.000912	0.001264	-0.000250	6291.311451	43247.839945	3926.962300	22771.071388
8.535000	0.001394	0.000186	0.000000	0.000343	6292.270271	43294.638688	3922.679600	22744.037630
9.035000	0.000993	0.000080	0.002310	0.000114	6290.943605	43306.008301	3928.539855	22754.465947
9.536000	-0.000634	-0.001003	-0.006765	-0.000343	6281.962383	43248.015691	3908.787279	22775.325603
10.036000	0.002106	0.000000	0.004373	0.000000	6300.398653	43309.192107	3933.592149	22759.673055
10.536500	0.000000	-0.000741	-0.004790	-0.001084	6292.527146	43341.047908	3914.970017	22809.188236
11.035500	-0.001223	0.000572	0.000260	0.000092	6274.117903	43353.709761	3923.855042	22755.468325
11.537000	-0.000071	-0.000227	-0.002135	-0.000492	6287.422610	43333.706370	3919.692254	22782.106949
12.037000	-0.000285	-0.000989	0.001111	-0.000626	6286.814046	43275.531898	3927.477628	22788.250316
12.537000	-0.000935	-0.000264	-0.001246	-0.000306	6279.367798	43313.051632	3921.306698	22773.618798
13.034500	0.000317	-0.000260	-0.000984	-0.001157	6295.525942	43392.540393	3923.868193	22812.526706
13.535000	-0.001193	-0.001224	-0.002966	-0.001089	6283.398440	43296.611810	3919.156027	22809.400546
14.038500	-0.003109	-0.001241	-0.001047	0.000470	6256.832602	43150.684712	3919.980377	22738.240102
14.538000	-0.002152	-0.000021	0.001663	0.002147	6251.355083	43108.454831	3922.355017	22661.975872
15.035500	-0.000925	-0.000682	-0.000979	-0.001068	6285.289302	43344.979980	3923.673368	22808.437998
15.536000	-0.000675	0.000038	0.003396	-0.000770	6284.916465	43384.172120	3933.108373	22794.802840
16.042500	0.000844	-0.000047	-0.002726	-0.000434	6294.018194	43345.089973	3918.204330	22779.481391
16.537000	0.001274	0.000794	-0.006224	0.001980	6278.778305	43199.298355	3904.751838	22669.579051
17.034000	0.004070	0.000471	0.004759	-0.003194	6340.422662	43650.734710	3941.953582	22905.889364
17.537000	-0.000969	-0.000342	-0.003843	-0.000081	6277.389780	43285.001357	3914.843341	22763.390542
18.035000	-0.001091	-0.000332	0.000473	0.000314	6273.432607	43249.275942	3923.835815	22745.366800
18.535000	-0.002396	0.000039	-0.001116	0.001262	6256.238812	43195.927488	3918.008454	22702.209551
19.035500	-0.000881	-0.000541	-0.003943	0.000627	6272.645876	43200.957705	3912.999970	22731.117728
19.536000	-0.000198	0.000243	-0.001328	0.001239	6273.183440	43216.883674	3917.574340	22703.231871
20.036000	-0.001345	-0.000730	-0.002045	0.000436	6270.552341	43201.170677	3917.772763	22739.806337
20.537000	-0.002715	-0.000721	-0.002390	0.000131	6262.422082	43230.220202	3917.679447	22753.696157
21.036500	0.002097	0.000660	0.000880	0.001245	6290.737967	43254.930005	3922.627976	22702.969565
21.537000	-0.001703	-0.000260	0.002746	0.000967	6263.760804	43195.454431	3927.573957	22715.600726
22.037000	-0.000688	0.000334	0.004777	0.001012	6271.170342	43246.290605	3932.177332	22713.545317
22.535000	-0.002227	-0.000352	-0.001520	0.001208	6257.933719	43164.674510	3917.206637	22704.644038
23.035000	-0.000592	-0.000870	-0.000396	0.000563	6275.344121	43176.436264	3921.263939	22734.030225
23.535000	-0.001460	-0.000720	-0.000172	0.000485	6269.299689	43197.540566	3921.958394	22737.570145
24.035500	0.000196	-0.001101	-0.004229	-0.000033	6285.949794	43210.193740	3913.852189	22761.163042
24.536000	-0.001024	-0.000324	0.000714	0.000773	6270.423534	43207.518000	3923.332570	22724.424337
25.036000	-0.001323	-0.000305	-0.001800	0.001019	6266.268876	43186.486593	3916.998367	22713.244448
25.539000	-0.001011	-0.000267	-0.005456	0.000448	6273.017477	43242.915856	3909.964838	22739.270901
26.037000	0.001235	0.000097	-0.000316	0.000603	6289.043801	43262.261527	3921.354329	22732.165948
26.536500	-0.001659	0.000285	-0.000453	0.002299	6253.957673	43122.800607	3917.150589	22655.102179
27.035000	0.002411	-0.000132	-0.001042	-0.001236	6312.302681	43411.746353	3923.917184	22816.133493
27.537500	-0.001066	0.000279	0.001650	-0.001577	6288.115811	43481.771808	3930.928317	22831.719922
28.035500	0.002207	0.000145	0.001193	0.000011	6301.094423	43321.617422	3926.194824	22759.173989
28.535500	-0.003373	-0.000101	-0.003239	0.004766	6222.306866	42860.130794	3905.202029	22543.498504
29.035500	0.001474	0.000472	0.002489	-0.000023	6295.708556	43355.164490	3929.272250	22760.742094
29.536000	0.001382	0.000819	0.003324	0.000647	6289.837745	43325.165336	3929.654447	22730.186579
30.039500	0.000661	0.000093	0.001006	-0.000052	6289.675883	43322.710570	3925.910521	22762.063382
30.536500	-0.001409	-0.000283	-0.000814	0.003301	6248.239435	42977.994305	3914.038374	22609.696671
31.037000	-0.000974	-0.000430	-0.004481	0.001687	6263.832199	43113.197041	3909.362873	22682.872342
31.537500	-0.000489	-0.000046	0.002825	0.000305	6278.109660	43276.671994	3929.290961	22745.783960
32.037500	0.001287	0.000084	0.004088	0.000099	6293.323412	43307.811427	3932.699202	22755.162407
32.537000	-0.003785	-0.000833	-0.003988	0.005219	6215.790039	42751.513919	3902.487194	22523.042565
33.035500	0.001820	-0.000368	-0.001453	-0.001144	6307.016718	43381.175284	3922.756081	22811.899014
33.536500	0.001219	0.000102	-0.001442	0.001707	6280.451078	43160.517638	3916.242012	22681.953016
34.036000	-0.000120	-0.001181	0.000845	0.000070	6282.738936	43193.330502	3925.256949	22756.499794
34.536500	-0.002054	-0.000577	0.002815	0.003205	6244.072030	42959.831138	3922.571101	22614.036404
35.036000	0.000817	-0.000713	-0.000912	0.000699	6285.099919	43178.354455	3919.765274	22727.807083
35.537000	-0.001839	0.000232	-0.002996	0.001189	6261.034396	43220.479983	3913.877890	22705.516195
36.037500	-0.000232	0.000135	0.000627	0.001447	6271.329981	43187.600578	3921.581602	22693.790016
36.537000	0.001157	-0.000003	0.002286	0.001618	6280.655085	43159.061115	3925.009225	22686.008034
37.034500	-0.002210	-0.000779	0.001154	0.000813	6261.069279	43161.713508	3924.254591	22722.628012
37.535500	-0.002595	0.000046	-0.000275	0.001480	6253.065208	43176.335354	3919.436267	22692.293981
38.035000	0.000713	0.000577	0.002197	0.002035	6274.065480	43174.080907	3923.841598	22667.064582
38.535500	-0.002750	-0.000978	-0.002603	0.000853	6256.648408	43139.581337	3915.539294	22720.786174
39.036000	-0.000083	-0.000027	-0.003575	0.002229	6266.500157	43100.460133	3910.192938	22658.282360
39.539500	-0.001020	-0.001115	0.002870	0.000914	6269.379632	43121.341154	3927.982525	22718.012140
40.036000	-0.001112	-0.000495	-0.000211	0.001187	6266.598628	43153.417508	3920.255815	22705.608091
40.537000	-0.000885	-0.001215	0.000967	0.000466	6273.838597	43153.523582	3924.622449	22738.423925
41.037500	0.000495	0.000171	-0.001187	0.001090	6279.635196	43224.003653	3918.239859	22710.025193
41.535000	-0.001963	-0.000540	-0.002016	0.000574	6264.779063	43205.981002	3917.523095	22733.514463
42.035000	0.003983	0.000627	0.001987	0.001436	6303.805959	43234.166391	3924.739279	22694.292993
42.535500	-0.001846	-0.000487	0.005129	0.001051	6262.028741	43166.742701	3932.904837	22711.778503
43.035500	-0.001593	-0.000705	-0.001838	0.000281	6269.843725	43217.810872	3918.602002	22746.874140
43.536000	0.002002	-0.000260	-0.000741	-0.004273	6332.709311	43683.339711	3931.636372	22955.533078
44.036000	-0.000015	-0.000177	0.001122	-0.000813	6290.326246	43368.320950	3927.937529	22796.808917
44.537000	-0.003272	-0.000843	0.003669	0.003609	6231.791954	42898.180109	3923.605907	22595.726028
45.036000	0.001169	0.000152	0.002960	-0.000452	6296.661299	43365.239263	3931.356958	22780.286619
45.534000	0.001123	0.000027	-0.000681	-0.001149	6301.682483	43418.435116	3924.547311	22812.149613
46.034500	0.002612	-0.000964	0.005211	-0.001815	6318.351214	43388.234527	3939.781118	22842.630646
46.542000	-0.003798	-0.000863	-0.004379	0.003893	6225.681710	42870.333980	3904.598187	22582.916040
47.034500	0.000501	-0.000020	-0.002641	0.001215	6278.718570	43194.692469	3914.626809	22704.315017
47.535000	0.000817	0.000250	0.001995	0.001404	6279.690830	43202.262744	3924.831992	22695.740622
48.036000	0.001444	-0.000537	0.000255	-0.001262	6305.028077	43376.523896	3926.968307	22817.325499
48.536000	-0.001907	-0.001035	-0.002733	0.003885	6240.031209	42855.190664	3908.342268	22583.247346
49.038500	-0.000025	-0.000902	-0.001755	-0.002028	6299.602732	43413.810351	3924.097946	22852.391028
49.536500	-0.000155	-0.000199	0.003790	-0.003443	6309.533090	43611.382718	3940.267683	22917.353212
50.036500	0.002353	-0.000227	0.003399	0.009614	6228.919396	42406.272724	3909.256337	22325.962683
50.537000	0.019893	-0.012004	0.044941	0.420936	4274.605083	17881.318095	3344.080390	10465.769376
51.034500	0.005408	-0.013540	-0.039887	0.075106	5789.937652	35868.654927	3690.795215	19613.848461
51.534500	-0.018448	-0.018259	-0.042372	0.056340	5756.855976	36948.767587	3720.113605	20349.621154
52.035500	-0.019207	-0.115812	-0.036427	-0.306568	9411.113883	65535.000000	4786.341710	43076.865970
52.535500	-0.007573	-0.117621	-0.018753	-0.308376	9614.216811	65535.000000	4871.819524	43244.320317
53.035500	-0.007031	-0.106444	-0.012359	-0.297200	9453.023910	65535.000000	4850.478340	42220.569404
53.538500	-0.013167	-0.089663	-0.022863	-0.280279	9116.816045	65514.849959	4732.546718	40720.035486
54.036500	-0.012823	-0.070478	-0.017978	-0.256109	8787.649477	64801.570262	4653.959318	38675.461110
54.536500	-0.011896	-0.060120	-0.017272	-0.242757	8623.008657	64376.955096	4604.287902	37593.802105
55.037000	-0.014721	-0.054528	-0.018407	-0.234419	8479.080947	63990.212236	4568.022000	36935.106562
55.537500	-0.008420	-0.045385	-0.015386	-0.219062	8364.987147	63123.895533	4521.957316	35754.354056
56.034500	-0.011771	-0.030510	-0.017200	-0.187694	7948.999009	60883.710592	4404.358608	33468.574280
56.535000	-0.007395	-0.019380	-0.012893	-0.155320	7636.947579	58120.861911	4311.668896	31276.408492
57.035500	-0.004119	-0.014862	-0.008803	-0.127863	7383.154296	55285.572652	4238.941236	29541.065194
57.535500	-0.005212	-0.008031	-0.014435	-0.089604	6999.180364	51636.202807	4112.472376	27298.814375
58.035500	-0.005475	-0.006962	-0.009620	-0.067255	6793.778016	49310.921881	4065.415489	26077.523953
58.538500	-0.006415	-0.005285	-0.010419	-0.049153	6628.922170	47592.536929	4016.775556	25133.422993
59.036500	-0.002432	-0.004168	-0.007485	-0.033631	6532.479343	46137.977212	3985.535060	24354.574568
59.542500	-0.005687	-0.004012	-0.012063	-0.031345	6487.072283	45926.984747	3968.877639	24242.216836
60.037000	-0.001724	-0.000811	-0.010586	-0.006365	6320.004471	43827.813966	3913.795246	23052.117343
60.534500	-0.003333	0.002058	-0.010340	0.008212	6196.747824	42742.178420	3881.640906	22388.622373
61.034500	-0.001439	0.002918	-0.010760	0.020073	6123.099882	41748.344230	3854.920832	21864.950020
61.535500	-0.000354	0.003239	-0.009677	0.018666	6141.355465	41902.830819	3860.278463	21926.333241
62.035500	-0.003494	0.001000	-0.010015	0.011242	6172.982902	42369.852656	3875.689727	22253.472282
62.535500	-0.004020	0.000065	-0.005194	0.016783	6128.283668	41787.389042	3874.113668	22008.790919
63.038500	-0.001226	0.003406	-0.009737	0.014210	6167.795558	42319.044003	3869.810381	22122.019997
63.536500	-0.004842	0.003780	-0.002197	0.014630	6138.040602	42314.935636	3885.458162	22103.513312
64.036500	0.001897	0.007766	0.003179	0.057275	5885.115179	38967.218562	3806.329441	20312.193396
64.537000	0.001349	0.001700	0.000786	0.044091	5971.746773	39561.496702	3828.545463	20847.326382
65.034500	0.002643	0.002352	-0.002006	0.014918	6191.294119	42159.823590	3885.240133	22090.781777
65.534500	-0.000948	0.003976	0.000837	0.042338	5967.967916	39902.208934	3832.314332	20919.728498
66.035000	-0.003244	0.005472	0.002393	0.032904	6017.972333	40842.444638	3855.611827	21314.326114
66.535000	-0.003139	0.007703	-0.005280	0.023927	6082.789058	41831.500949	3858.416139	21697.865005
67.053000	-0.003319	0.008107	-0.003014	0.009431	6187.750150	43186.500106	3895.213980	22334.137064
67.544500	-0.003630	0.009439	-0.003093	0.001455	6245.388419	44056.957733	3913.048719	22693.423754
68.036500	-0.002761	0.010395	0.001113	-0.005176	6302.784835	44780.287978	3938.058932	22997.185996
68.536500	-0.001538	0.010183	-0.002703	-0.010414	6353.019346	45266.440756	3941.384375	23240.388263
69.037000	0.000911	0.011571	0.004012	-0.016217	6418.293594	45972.075196	3971.159944	23513.354199
69.537500	0.003205	0.012380	0.004759	-0.020362	6470.083138	46464.798761	3983.029079	23710.505640
70.037500	0.000052	0.011103	-0.006055	-0.023088	6466.630080	46610.161854	3963.477491	23841.263786
70.534500	0.002172	0.012254	-0.001151	-0.021199	6468.500733	46536.062475	3970.723420	23750.578118
71.034500	0.003524	0.011914	0.003490	-0.022163	6487.298574	46598.618692	3984.328426	23796.773839
71.535000	0.004648	0.011976	0.005394	-0.021283	6489.287709	46516.623896	3986.832979	23754.582544
72.035500	0.006227	0.012668	0.003975	-0.020476	6495.592326	46505.106424	3981.396078	23715.975834
72.539000	0.003879	0.013608	0.004523	-0.018498	6460.454419	46401.299782	3977.917072	23621.600960
73.036500	0.004618	0.014032	0.011009	-0.018911	6469.777052	46484.995897	3994.805295	23641.263342
73.536500	0.005768	0.015277	0.008717	-0.017737	6469.577393	46492.036518	3986.287061	23585.412072
74.037000	0.004017	0.015799	0.004661	-0.017389	6452.616360	46509.485917	3975.562710	23568.889354
74.537500	0.004224	0.015944	0.005581	-0.015677	6440.506448	46352.893196	3973.645251	23487.792404
75.037500	0.003237	0.015215	0.004184	-0.017454	6446.854545	46457.546542	3974.563743	23571.975897
75.534500	0.003686	0.016127	0.003999	-0.017125	6447.828385	46515.996370	3973.322941	23556.395364
76.035500	0.008381	0.016574	0.006445	-0.017052	6485.237649	46553.402321	3979.074405	23552.903515
76.535500	0.007320	0.016194	0.007273	-0.015884	6467.142989	46398.481329	3978.248626	23497.554047
77.036000	0.007425	0.016529	0.010068	-0.016327	6471.578830	46476.283237	3986.143033	23518.525358
77.536000	0.008164	0.017554	0.006476	-0.014335	6461.441698	46379.681774	3972.566946	23424.440554
78.036500	0.008766	0.017213	0.009311	-0.014257	6465.682228	46337.775278	3979.248643	23420.746536
78.536500	0.010041	0.018619	0.009346	-0.011652	6454.934654	46218.300042	3973.017672	23298.331044
79.037000	0.007944	0.019207	0.014060	-0.012034	6441.120792	46315.023692	3985.407179	23316.243423
79.537000	0.009077	0.018788	0.009957	-0.012560	6454.476292	46325.652968	3976.695858	23340.910859
80.037000	0.008063	0.019018	0.008592	-0.013185	6451.341474	46410.970549	3974.901770	23370.292087
80.535500	0.007470	0.020375	0.014596	-0.010377	6424.036091	46266.186220	3982.670172	23238.676464
81.036000	0.008173	0.019721	0.009452	-0.011789	6440.992182	46341.724470	3973.603026	23304.729913
81.535500	0.008523	0.020402	0.008672	-0.010793	6435.806321	46310.382778	3969.319792	23258.146843
82.038500	0.009460	0.020680	0.011067	-0.008434	6424.406605	46103.376621	3969.403125	23148.096562
82.536500	0.008315	0.021649	0.014613	-0.006019	6396.055393	45960.188233	3972.132161	23036.126601
83.037000	0.008440	0.019968	0.013004	-0.007358	6407.688267	45926.351271	3971.483012	23098.161250
83.537000	0.012654	0.021004	0.012610	-0.005756	6428.534483	45870.419070	3966.674002	23023.940759
84.037500	0.011335	0.020434	0.011522	-0.005547	6416.327434	45793.586438	3963.562165	23014.298233
84.537500	0.010871	0.020995	0.012639	-0.004568	6404.829741	45752.536387	3963.894322	22969.140620
85.035000	0.012322	0.020043	0.012583	-0.004260	6413.929493	45628.637420	3963.022410	22954.932852
85.535500	0.010269	0.020952	0.012890	-0.002303	6382.102940	45525.853942	3959.079372	22864.984314
86.036000	0.012121	0.020978	0.011461	-0.000726	6384.272218	45374.281919	3951.933145	22792.799260
86.536000	0.012083	0.021883	0.011892	0.001512	6366.325092	45244.536113	3947.662460	22690.823827
87.036000	0.013089	0.022425	0.015047	0.003174	6361.178856	45135.811040	3951.191420	22615.447189
87.539000	0.013995	0.023414	0.010591	0.005039	6353.655283	45050.831181	3936.337039	22531.171611
88.037000	0.013104	0.023623	0.014080	0.005633	6342.037478	45013.550476	3943.113394	22504.399586
88.537000	0.012709	0.023926	0.014803	0.007579	6323.802894	44854.964967	3940.245667	22416.967023
89.037500	0.015167	0.023756	0.009953	0.007588	6342.871789	44837.694647	3928.928973	22416.559913
89.537500	0.013279	0.023973	0.013627	0.008683	6319.659402	44753.308255	3934.921551	22367.572463
90.035000	0.012971	0.024172	0.012683	0.009081	6314.187564	44734.158948	3931.799558	22349.781340
90.535500	0.014018	0.024288	0.009389	0.011214	6305.788127	44540.802359	3919.275112	22254.742497
91.035500	0.013081	0.024325	0.010710	0.010549	6303.684315	44607.988559	3923.840996	22284.323275
91.538500	0.016804	0.024977	0.018164	0.012082	6320.637393	44523.670339	3937.575673	22216.195644
92.036500	0.015212	0.026406	0.016498	0.013289	6298.988783	44544.935793	3930.887986	22162.740085
92.536500	0.017778	0.024993	0.016854	0.013351	6318.342617	44404.051675	3931.567775	22159.959972
93.037000	0.017522	0.025449	0.018672	0.014636	6306.419666	44325.132047	3932.806787	22103.220661
93.537000	0.020141	0.026413	0.018598	0.015931	6316.666831	44293.680491	3929.630107	22046.202798
94.037000	0.018232	0.025862	0.016402	0.016577	6296.929587	44180.089391	3923.068407	22017.842872
94.535000	0.018947	0.026935	0.014682	0.017679	6293.938301	44177.342479	3916.590625	21969.499304
95.035500	0.017806	0.026433	0.017193	0.018076	6282.119601	44092.166403	3921.435543	21952.101779
95.535500	0.021050	0.027128	0.013080	0.018921	6300.576227	44078.032097	3910.107437	21915.208282
96.038500	0.018785	0.026637	0.017220	0.020040	6274.574486	43926.034972	3916.996267	21866.390432
96.536000	0.022827	0.028062	0.021707	0.021584	6293.752475	43914.812468	3923.753016	21799.266263
97.039500	0.021775	0.026868	0.017108	0.019706	6300.114505	43979.268619	3917.504693	21880.949454
97.536500	0.020058	0.027042	0.013640	0.019949	6285.024670	43972.779516	3909.044160	21870.335658
98.037000	0.021422	0.028090	0.017411	0.021772	6281.505948	43899.661498	3913.474571	21791.084992
98.536500	0.020802	0.028062	0.018261	0.021442	6279.284544	43928.156356	3916.168526	21805.404964
99.035000	0.022286	0.027618	0.020859	0.020718	6296.252197	43954.615213	3923.795242	21836.886450
99.535000	0.021694	0.028186	0.015967	0.020712	6291.735771	44008.725484	3912.600869	21837.130404
100.035000	0.024899	0.029219	0.019206	0.022841	6300.023446	43905.372708	3915.132756	21744.777220
100.535500	0.022224	0.027341	0.019721	0.020576	6296.862145	43941.821853	3921.501816	21843.044978
101.035500	0.025451	0.028978	0.022839	0.021328	6315.994283	44025.317906	3926.954261	21810.374947
101.536000	0.023769	0.028274	0.020249	0.020950	6305.907547	43994.564078	3921.857711	21826.811696
102.036500	0.025346	0.029059	0.022320	0.021755	6311.865811	43992.599287	3924.769558	21791.820764
102.536500	0.025912	0.029301	0.022699	0.021972	6314.576260	43995.029389	3925.144095	21782.431158
103.037500	0.024656	0.028351	0.019229	0.021774	6306.387205	43924.189274	3917.625052	21791.018063
103.537500	0.027163	0.029736	0.023448	0.022810	6317.778570	43957.059451	3924.941386	21746.140354
104.034500	0.022635	0.028235	0.021400	0.024233	6271.952577	43682.237609	3916.966504	21684.647579
104.535000	0.026762	0.028289	0.023225	0.023628	6308.341358	43744.039848	3922.540822	21710.769686
105.035500	0.022569	0.028935	0.023972	0.023127	6279.912328	43851.773636	3925.417570	21732.419378
105.538500	0.027027	0.028562	0.021274	0.023566	6310.867366	43775.442057	3918.204622	21713.442833
106.036000	0.022870	0.029025	0.019677	0.026430	6256.982113	43550.700068	3908.035502	21590.104348
106.536500	0.025658	0.029101	0.025588	0.026016	6281.445077	43596.450817	3922.482674	21607.874269
107.038500	0.027573	0.029556	0.022539	0.025863	6297.347484	43653.379669	3915.843203	21614.465477
107.534000	0.025591	0.029936	0.027562	0.026791	6274.998015	43602.122294	3925.246655	21574.637250
108.034000	0.024748	0.029969	0.021149	0.029657	6246.729760	43338.155224	3904.065197	21452.146076
108.534500	0.027495	0.029938	0.027461	0.028700	6274.961651	43424.267360	3920.620369	21492.954808
109.034500	0.028048	0.029797	0.018761	0.027874	6285.523844	43487.990572	3902.698992	21528.224224
109.535000	0.027462	0.029711	0.023979	0.028521	6276.076305	43419.757989	3913.063076	21500.594746
110.035000	0.027131	0.029230	0.021261	0.032129	6246.049208	43041.059834	3898.750773	21347.123084
