sample name	sample
index	634
start time	 03-19-2021  03:17:40 PM


Wavelength (nm)	Absorbance
494.344910	-0.355113
494.563924	-0.355113
494.782919	-0.355113
495.001897	NaN
495.220856	1.004532
495.439797	NaN
495.658719	NaN
495.877624	NaN
496.096510	1.400691
496.315378	-0.003505
496.534227	-0.172206
496.753059	-0.296785
496.971872	-0.188216
497.190667	-0.008763
497.409444	-0.001457
497.628203	0.003598
497.846943	0.006263
498.065665	0.008488
498.284369	0.010014
498.503055	0.011119
498.721723	0.011254
498.940372	0.009949
499.159003	0.009123
499.377616	0.009674
499.596210	0.009665
499.814787	0.009703
500.033345	0.009241
500.251885	0.008077
500.470406	0.006488
500.688910	0.006634
500.907395	0.007697
501.125862	0.008430
501.344311	0.008452
501.562742	0.008995
501.781154	0.009125
501.999548	0.009050
502.217924	0.008888
502.436282	0.010969
502.654621	0.009911
502.872942	0.009563
503.091245	0.009651
503.309530	0.009102
503.527797	0.008415
503.746045	0.007205
503.964275	0.007526
504.182487	0.008698
504.400681	0.007698
504.618856	0.008111
504.837013	0.008800
505.055152	0.008455
505.273273	0.009385
505.491376	0.009815
505.709460	0.009660
505.927526	0.008923
506.145574	0.008245
506.363604	0.008260
506.581615	0.008454
506.799608	0.008140
507.017583	0.008039
507.235540	0.007962
507.453478	0.007117
507.671399	0.007756
507.889301	0.007992
508.107185	0.008320
508.325050	0.008581
508.542898	0.008411
508.760727	0.008181
508.978538	0.008479
509.196330	0.008581
509.414105	0.008619
509.631861	0.008526
509.849599	0.008495
510.067319	0.008224
510.285021	0.007608
510.502704	0.007406
510.720369	0.007076
510.938016	0.007303
511.155645	0.006870
511.373255	0.007150
511.590848	0.007023
511.808422	0.007119
512.025977	0.006234
512.243515	0.005962
512.461034	0.005561
512.678536	0.005553
512.896018	0.005320
513.113483	0.005564
513.330930	0.004988
513.548358	0.004738
513.765768	0.004829
513.983160	0.006134
514.200533	0.006539
514.417889	0.007102
514.635226	0.006680
514.852545	0.006473
515.069845	0.006066
515.287128	0.006571
515.504392	0.006598
515.721638	0.006209
515.938866	0.006171
516.156075	0.006289
516.373267	0.006352
516.590440	0.006588
516.807594	0.006982
517.024731	0.006664
517.241850	0.006530
517.458950	0.006354
517.676032	0.006727
517.893095	0.005895
518.110141	0.005229
518.327168	0.005507
518.544177	0.005997
518.761168	0.005648
518.978141	0.005856
519.195095	0.005239
519.412031	0.005631
519.628949	0.005166
519.845849	0.005655
520.062731	0.005831
520.279594	0.005216
520.496439	0.004667
520.713266	0.003850
520.930074	0.003672
521.146865	0.004000
521.363637	0.004137
521.580391	0.004264
521.797127	0.004118
522.013844	0.004068
522.230543	0.004194
522.447224	0.004294
522.663887	0.004922
522.880532	0.005173
523.097158	0.005123
523.313766	0.005127
523.530356	0.004816
523.746928	0.004741
523.963481	0.005195
524.180017	0.005228
524.396534	0.005175
524.613032	0.005302
524.829513	0.005351
525.045975	0.005232
525.262420	0.005069
525.478845	0.005206
525.695253	0.004928
525.911643	0.004748
526.128014	0.004674
526.344367	0.004821
526.560702	0.004591
526.777018	0.003915
526.993316	0.003754
527.209597	0.003386
527.425858	0.003383
527.642102	0.003734
527.858328	0.003783
528.074535	0.003278
528.290724	0.003030
528.506894	0.003161
528.723047	0.004009
528.939181	0.004578
529.155297	0.005100
529.371395	0.004932
529.587475	0.004764
529.803536	0.004395
530.019579	0.004795
530.235604	0.005221
530.451611	0.005258
530.667600	0.004904
530.883570	0.004862
531.099522	0.004452
531.315456	0.004344
531.531372	0.004324
531.747269	0.004717
531.963148	0.004986
532.179009	0.004413
532.394852	0.004316
532.610676	0.004247
532.826482	0.004193
533.042271	0.004289
533.258040	0.004568
533.473792	0.004785
533.689525	0.004786
533.905240	0.004582
534.120937	0.004914
534.336616	0.004656
534.552277	0.004890
534.767919	0.004633
534.983543	0.004527
535.199149	0.004751
535.414736	0.004248
535.630306	0.004250
535.845857	0.003902
536.061390	0.003510
536.276904	0.003719
536.492401	0.003516
536.707879	0.003370
536.923339	0.003485
537.138781	0.003301
537.354204	0.003503
537.569610	0.003457
537.784997	0.003563
538.000366	0.003803
538.215716	0.003729
538.431049	0.003504
538.646363	0.003924
538.861659	0.003818
539.076937	0.003652
539.292196	0.003773
539.507438	0.003570
539.722661	0.003939
539.937866	0.003935
540.153052	0.003882
540.368221	0.003943
540.583371	0.003822
540.798503	0.003800
541.013617	0.003719
541.228712	0.003529
541.443789	0.003610
541.658848	0.003383
541.873889	0.002987
542.088912	0.003279
542.303916	0.003283
542.518902	0.003137
542.733870	0.003052
542.948820	0.003212
543.163752	0.003645
543.378665	0.003714
543.593560	0.003773
543.808437	0.004168
544.023295	0.003962
544.238136	0.003986
544.452958	0.003917
544.667762	0.003556
544.882548	0.003431
545.097315	0.003134
545.312064	0.003108
545.526795	0.003063
545.741508	0.003130
545.956203	0.003252
546.170879	0.003017
546.385537	0.003214
546.600177	0.003759
546.814799	0.003670
547.029402	0.003450
547.243988	0.003168
547.458555	0.003461
547.673103	0.003375
547.887634	0.003627
548.102146	0.003941
548.316640	0.003636
548.531116	0.003677
548.745574	0.003701
548.960013	0.003914
549.174435	0.004235
549.388838	0.003997
549.603222	0.004397
549.817589	0.003807
550.031937	0.003852
550.246267	0.004517
550.460579	0.004279
550.674873	0.004402
550.889148	0.004405
551.103405	0.004342
551.317644	0.004260
551.531865	0.003899
551.746068	0.004210
551.960252	0.003883
552.174418	0.003415
552.388566	0.003764
552.602696	0.003676
552.816807	0.003202
553.030900	0.003172
553.244975	0.003109
553.459032	0.002866
553.673070	0.002905
553.887091	0.003204
554.101093	0.003301
554.315077	0.002822
554.529042	0.002992
554.742990	0.003140
554.956919	0.003078
555.170830	0.003255
555.384722	0.003497
555.598597	0.003284
555.812453	0.003232
556.026291	0.003154
556.240111	0.003442
556.453913	0.003519
556.667696	0.003904
556.881461	0.003997
557.095208	0.004071
557.308937	0.003978
557.522647	0.004186
557.736339	0.004157
557.950013	0.004442
558.163669	0.004289
558.377307	0.003856
558.590926	0.003806
558.804527	0.003701
559.018110	0.003694
559.231675	0.004143
559.445221	0.003864
559.658749	0.003709
559.872259	0.003633
560.085751	0.003865
560.299225	0.004043
560.512680	0.003987
560.726117	0.003826
560.939536	0.003645
561.152937	0.003529
561.366319	0.003658
561.579683	0.003859
561.793029	0.003931
562.006357	0.003982
562.219667	0.004280
562.432958	0.004323
562.646231	0.004545
562.859486	0.004748
563.072723	0.004629
563.285941	0.004816
563.499141	0.004761
563.712323	0.004464
563.925487	0.004221
564.138632	0.003861
564.351760	0.003816
564.564869	0.003599
564.777960	0.003535
564.991032	0.003273
565.204087	0.003119
565.417123	0.003014
565.630141	0.003151
565.843140	0.003110
566.056122	0.003350
566.269085	0.003209
566.482030	0.003336
566.694957	0.003205
566.907866	0.003246
567.120756	0.003255
567.333628	0.003365
567.546482	0.003440
567.759318	0.003439
567.972135	0.003817
568.184935	0.003779
568.397716	0.003711
568.610478	0.003938
568.823223	0.003930
569.035949	0.003997
569.248657	0.003993
569.461347	0.003918
569.674019	0.003875
569.886672	0.003293
570.099308	0.003569
570.311925	0.003576
570.524523	0.003148
570.737104	0.003203
570.949666	0.002948
571.162210	0.003154
571.374736	0.003258
571.587244	0.003384
571.799733	0.003621
572.012205	0.003473
572.224658	0.003531
572.437092	0.003757
572.649509	0.003778
572.861907	0.004082
573.074287	0.003862
573.286649	0.003754
573.498993	0.004035
573.711318	0.004308
573.923625	0.004308
574.135914	0.004472
574.348185	0.004643
574.560438	0.004538
574.772672	0.004737
574.984888	0.004735
575.197086	0.004491
575.409266	0.004603
575.621427	0.004179
575.833570	0.004402
576.045695	0.004286
576.257802	0.004267
576.469890	0.004655
576.681961	0.004355
576.894013	0.004670
577.106046	0.005232
577.318062	0.004869
577.530059	0.004831
577.742039	0.004612
577.954000	0.004512
578.165942	0.004465
578.377867	0.004380
578.589773	0.004324
578.801661	0.004172
579.013531	0.003853
579.225382	0.003933
579.437216	0.004035
579.649031	0.004431
579.860828	0.004461
580.072606	0.004295
580.284367	0.004057
580.496109	0.004272
580.707833	0.004262
580.919539	0.004387
581.131227	0.004448
581.342896	0.004601
581.554547	0.004294
581.766180	0.004277
581.977795	0.004404
582.189391	0.004428
582.400969	0.004467
582.612529	0.004661
582.824071	0.004607
583.035595	0.004516
583.247100	0.004365
583.458587	0.004259
583.670056	0.004466
583.881506	0.004570
584.092939	0.004911
584.304353	0.005150
584.515749	0.004860
584.727127	0.004758
584.938486	0.004788
585.149828	0.004846
585.361151	0.005299
585.572456	0.005406
585.783742	0.005591
585.995011	0.005339
586.206261	0.004899
586.417493	0.005025
586.628706	0.004999
586.839902	0.005089
587.051079	0.005455
587.262238	0.005362
587.473379	0.005489
587.684502	0.005671
587.895606	0.005518
588.106692	0.005476
588.317760	0.005426
588.528810	0.005365
588.739841	0.005388
588.950855	0.005086
589.161850	0.004809
589.372827	0.004368
589.583785	0.004009
589.794726	0.004265
590.005648	0.004634
590.216552	0.004512
590.427437	0.004774
590.638305	0.004822
590.849154	0.004966
591.059985	0.005269
591.270798	0.005577
591.481592	0.005575
591.692369	0.005550
591.903127	0.005236
592.113867	0.005211
592.324588	0.005421
592.535292	0.005503
592.745977	0.005427
592.956644	0.005429
593.167293	0.005491
593.377923	0.005536
593.588536	0.005361
593.799130	0.005725
594.009706	0.005959
594.220263	0.005913
594.430803	0.005891
594.641324	0.006218
594.851827	0.006258
595.062312	0.006003
595.272778	0.005873
595.483227	0.005907
595.693657	0.005753
595.904069	0.005673
596.114462	0.005622
596.324838	0.005519
596.535195	0.005483
596.745534	0.005241
596.955855	0.005266
597.166157	0.005609
597.376441	0.005740
597.586707	0.005836
597.796955	0.005947
598.007185	0.005833
598.217396	0.005920
598.427589	0.005491
598.637764	0.005642
598.847921	0.006038
599.058060	0.005858
599.268180	0.006011
599.478282	0.006126
599.688366	0.006360
599.898431	0.006268
600.108479	0.006163
600.318508	0.006265
600.528519	0.006262
600.738511	0.006160
600.948486	0.006020
601.158442	0.005963
601.368380	0.005654
601.578300	0.005627
601.788202	0.005954
601.998085	0.006060
602.207950	0.006197
602.417797	0.006130
602.627626	0.005917
602.837436	0.006027
603.047228	0.006090
603.257002	0.006261
603.466758	0.006162
603.676496	0.006038
603.886215	0.006142
604.095916	0.006038
604.305599	0.006275
604.515264	0.006367
604.724910	0.006561
604.934538	0.006627
605.144148	0.006428
605.353740	0.006412
605.563314	0.006455
605.772869	0.006393
605.982406	0.006694
606.191925	0.006483
606.401425	0.006509
606.610908	0.006250
606.820372	0.006227
607.029818	0.006427
607.239246	0.006724
607.448655	0.006674
607.658047	0.006670
607.867420	0.006575
608.076775	0.006700
608.286111	0.006604
608.495430	0.006842
608.704730	0.006750
608.914012	0.006715
609.123275	0.006436
609.332521	0.006497
609.541748	0.006466
609.750957	0.006332
609.960148	0.006411
610.169321	0.006681
610.378475	0.006714
610.587611	0.006603
610.796729	0.006622
611.005829	0.006718
611.214910	0.006738
611.423974	0.006986
611.633019	0.006994
611.842045	0.006904
612.051054	0.006912
612.260044	0.006874
612.469017	0.007083
612.677970	0.007248
612.886906	0.007395
613.095824	0.007500
613.304723	0.007497
613.513604	0.007632
613.722467	0.007706
613.931311	0.007516
614.140138	0.007564
614.348946	0.007652
614.557736	0.007599
614.766507	0.007416
614.975261	0.007516
615.183996	0.007260
615.392713	0.007348
615.601412	0.007120
615.810092	0.007200
616.018754	0.007017
616.227399	0.007092
616.436024	0.007283
616.644632	0.007368
616.853222	0.007268
617.061793	0.007455
617.270346	0.007471
617.478880	0.007766
617.687397	0.007684
617.895895	0.007983
618.104375	0.007857
618.312837	0.007485
618.521281	0.007378
618.729706	0.007428
618.938113	0.007144
619.146502	0.006951
619.354873	0.006948
619.563226	0.007109
619.771560	0.006667
619.979876	0.006855
620.188174	0.006948
620.396453	0.006972
620.604715	0.006734
620.812958	0.006995
621.021183	0.007131
621.229390	0.006898
621.437578	0.006872
621.645748	0.007153
621.853900	0.007214
622.062034	0.007344
622.270150	0.007494
622.478247	0.007496
622.686326	0.007504
622.894387	0.007284
623.102430	0.007512
623.310454	0.007512
623.518461	0.007526
623.726449	0.007242
623.934418	0.007183
624.142370	0.007083
624.350303	0.007319
624.558218	0.007138
624.766115	0.007506
624.973994	0.007361
625.181855	0.007526
625.389697	0.007443
625.597521	0.007451
625.805327	0.007696
626.013114	0.007640
626.220883	0.007502
626.428634	0.007783
626.636367	0.007593
626.844082	0.007840
627.051778	0.007569
627.259457	0.007553
627.467117	0.007647
627.674758	0.007274
627.882382	0.007329
628.089987	0.007316
628.297574	0.007106
628.505143	0.007273
628.712694	0.007221
628.920226	0.007500
629.127740	0.007806
629.335236	0.007980
629.542714	0.008307
629.750174	0.008255
629.957615	0.008422
630.165038	0.008607
630.372443	0.008638
630.579829	0.008659
630.787198	0.008604
630.994548	0.008377
631.201880	0.008031
631.409194	0.007877
631.616489	0.007824
631.823766	0.007657
632.031025	0.007547
632.238266	0.007328
632.445489	0.007075
632.652693	0.006928
632.859879	0.006938
633.067047	0.007137
633.274197	0.007105
633.481329	0.007227
633.688442	0.007301
633.895537	0.007361
634.102614	0.007217
634.309672	0.007416
634.516713	0.007375
634.723735	0.007454
634.930739	0.007516
635.137724	0.007586
635.344692	0.007676
635.551641	0.007683
635.758572	0.007676
635.965485	0.007996
636.172379	0.008043
636.379256	0.008200
636.586114	0.008246
636.792954	0.008252
636.999775	0.008382
637.206579	0.008586
637.413364	0.008790
637.620131	0.008845
637.826880	0.008932
638.033610	0.008830
638.240323	0.008765
638.447017	0.008813
638.653692	0.008922
638.860350	0.008798
639.066990	0.008458
639.273611	0.008241
639.480214	0.008237
639.686798	0.008342
639.893365	0.008471
640.099913	0.008605
640.306443	0.008588
640.512955	0.008363
640.719449	0.008381
640.925924	0.008477
641.132381	0.008552
641.338820	0.008577
641.545241	0.008449
641.751644	0.008419
641.958028	0.008397
642.164394	0.008266
642.370742	0.008362
642.577071	0.008448
642.783383	0.008426
642.989676	0.008327
643.195951	0.008528
643.402207	0.008674
643.608446	0.008701
643.814666	0.008815
644.020868	0.008937
644.227052	0.009035
644.433218	0.009125
644.639365	0.009318
644.845494	0.009449
645.051605	0.009249
645.257698	0.008975
645.463772	0.009009
645.669828	0.009057
645.875866	0.009116
646.081886	0.009063
646.287888	0.009010
646.493871	0.008973
646.699836	0.009055
646.905783	0.009187
647.111712	0.009232
647.317622	0.009267
647.523514	0.009223
647.729388	0.009317
647.935244	0.009120
648.141082	0.009053
648.346901	0.008975
648.552702	0.008992
648.758485	0.008939
648.964250	0.008982
649.169996	0.009048
649.375724	0.009051
649.581434	0.008867
649.787126	0.009235
649.992800	0.009424
650.198455	0.009435
650.404092	0.009490
650.609711	0.009659
650.815311	0.009761
651.020894	0.009579
651.226458	0.009629
651.432004	0.009843
651.637532	0.009634
651.843041	0.009603
652.048532	0.009730
652.254006	0.009745
652.459460	0.009617
652.664897	0.009629
652.870315	0.009662
653.075716	0.009529
653.281097	0.009442
653.486461	0.009378
653.691807	0.009184
653.897134	0.009185
654.102443	0.009143
654.307734	0.009254
654.513006	0.009134
654.718261	0.009132
654.923497	0.009234
655.128715	0.009217
655.333915	0.009469
655.539096	0.009654
655.744259	0.009725
655.949404	0.009769
656.154531	0.009743
656.359640	0.010044
656.564730	0.010119
656.769802	0.010220
656.974856	0.010399
657.179892	0.010529
657.384909	0.010559
657.589908	0.010485
657.794889	0.010618
657.999852	0.010665
658.204797	0.010559
658.409723	0.010634
658.614631	0.010640
658.819521	0.010443
659.024393	0.010388
659.229246	0.010478
659.434081	0.010479
659.638898	0.010280
659.843697	0.010352
660.048478	0.010380
660.253240	0.010519
660.457984	0.010401
660.662710	0.010560
660.867417	0.010472
661.072107	0.010451
661.276778	0.010508
661.481431	0.010745
661.686066	0.010602
661.890682	0.010447
662.095281	0.010258
662.299861	0.010394
662.504422	0.010295
662.708966	0.010362
662.913491	0.010215
663.117999	0.010202
663.322488	0.009929
663.526958	0.009998
663.731411	0.010128
663.935845	0.010208
664.140261	0.009955
664.344659	0.010200
664.549038	0.010214
664.753400	0.010315
664.957743	0.010550
665.162068	0.010582
665.366375	0.010590
665.570663	0.010793
665.774933	0.010881
665.979185	0.010999
666.183419	0.010939
666.387635	0.011018
666.591832	0.010991
666.796011	0.010682
667.000172	0.010720
667.204315	0.010694
667.408439	0.010435
667.612545	0.010529
667.816634	0.010636
668.020703	0.010683
668.224755	0.010724
668.428788	0.010872
668.632803	0.011114
668.836800	0.011163
669.040779	0.011194
669.244739	0.011189
669.448681	0.011031
669.652605	0.011189
669.856511	0.011277
670.060399	0.011142
670.264268	0.010979
670.468119	0.010908
670.671952	0.011023
670.875767	0.011017
671.079563	0.011152
671.283341	0.011290
671.487101	0.011323
671.690843	0.011184
671.894567	0.011242
672.098272	0.011462
672.301959	0.011448
672.505628	0.011410
672.709278	0.011390
672.912911	0.011353
673.116525	0.011300
673.320121	0.011143
673.523699	0.011280
673.727258	0.011296
673.930799	0.011143
674.134322	0.011126
674.337827	0.011186
674.541314	0.011364
674.744782	0.011365
674.948232	0.011394
675.151664	0.011361
675.355078	0.011220
675.558474	0.011382
675.761851	0.011496
675.965210	0.011703
676.168551	0.011825
676.371873	0.011782
676.575178	0.011798
676.778464	0.011833
676.981732	0.012077
677.184981	0.012076
677.388213	0.011974
677.591426	0.012056
677.794621	0.011962
677.997798	0.011873
678.200956	0.011760
678.404097	0.012000
678.607219	0.012132
678.810323	0.012152
679.013408	0.012255
679.216476	0.012396
679.419525	0.012359
679.622556	0.012349
679.825569	0.012492
680.028563	0.012642
680.231540	0.012509
680.434498	0.012372
680.637438	0.012287
680.840359	0.012343
681.043263	0.012157
681.246148	0.012119
681.449015	0.012172
681.651864	0.012158
681.854694	0.012090
682.057506	0.012087
682.260301	0.012105
682.463076	0.012248
682.665834	0.012136
682.868573	0.012246
683.071295	0.012325
683.273998	0.012195
683.476682	0.012129
683.679349	0.012264
683.881997	0.012376
684.084627	0.012379
684.287239	0.012185
684.489833	0.012171
684.692408	0.012165
684.894965	0.012099
685.097504	0.012246
685.300025	0.012210
685.502527	0.012219
685.705012	0.012212
685.907478	0.012142
686.109925	0.012214
686.312355	0.012274
686.514766	0.012294
686.717159	0.012296
686.919534	0.012186
687.121891	0.012147
687.324230	0.012074
687.526550	0.011923
687.728852	0.011949
687.931136	0.012015
688.133401	0.011981
688.335649	0.011909
688.537878	0.012003
688.740089	0.012029
688.942281	0.012030
689.144456	0.011913
689.346612	0.011990
689.548750	0.012148
689.750870	0.012149
689.952971	0.012204
690.155055	0.012321
690.357120	0.012239
690.559167	0.012441
690.761195	0.012506
690.963206	0.012692
691.165198	0.012633
691.367172	0.012679
691.569128	0.012697
691.771065	0.012754
691.972984	0.012868
692.174885	0.012907
692.376768	0.012879
692.578633	0.012919
692.780479	0.012922
692.982308	0.013055
693.184118	0.013000
693.385909	0.013002
693.587683	0.013007
693.789438	0.012858
693.991175	0.012943
694.192894	0.013024
694.394595	0.013005
694.596277	0.013067
694.797941	0.013102
694.999587	0.013089
695.201215	0.013060
695.402824	0.013104
695.604416	0.013086
695.805989	0.013237
696.007543	0.013223
696.209080	0.013205
696.410598	0.013115
696.612099	0.013107
696.813580	0.013208
697.015044	0.013097
697.216490	0.013173
697.417917	0.013320
697.619326	0.013151
697.820717	0.013058
698.022089	0.013116
698.223444	0.013204
698.424780	0.013180
698.626098	0.013090
698.827397	0.013194
699.028679	0.013142
699.229942	0.013100
699.431187	0.013065
699.632414	0.013018
699.833622	0.013014
700.034813	0.012853
700.235985	0.012931
700.437139	0.012991
700.638274	0.012932
700.839392	0.012909
701.040491	0.012841
701.241572	0.013058
701.442635	0.013129
701.643679	0.013222
701.844706	0.013478
702.045714	0.013457
702.246704	0.013424
702.447675	0.013612
702.648629	0.013731
702.849564	0.013734
703.050481	0.013703
703.251380	0.013608
703.452260	0.013557
703.653122	0.013496
703.853966	0.013514
704.054792	0.013443
704.255600	0.013383
704.456389	0.013168
704.657160	0.013223
704.857913	0.013219
705.058648	0.013242
705.259365	0.013314
705.460063	0.013306
705.660743	0.013249
705.861405	0.013431
706.062048	0.013339
706.262674	0.013403
706.463281	0.013450
706.663870	0.013358
706.864441	0.013453
707.064993	0.013350
707.265527	0.013220
707.466043	0.013226
707.666541	0.013228
707.867021	0.013262
708.067482	0.013432
708.267925	0.013478
708.468350	0.013538
708.668757	0.013428
708.869145	0.013437
709.069516	0.013592
709.269868	0.013675
709.470201	0.013745
709.670517	0.013804
709.870814	0.013736
710.071093	0.013652
710.271354	0.013684
710.471597	0.013806
710.671821	0.013817
710.872028	0.013830
711.072216	0.013837
711.272385	0.013771
711.472537	0.013810
711.672670	0.013762
711.872785	0.013801
712.072882	0.013878
712.272961	0.013889
712.473021	0.013906
712.673063	0.013898
712.873087	0.013826
713.073093	0.013786
713.273081	0.013842
713.473050	0.013876
713.673001	0.013906
713.872934	0.013777
714.072849	0.013765
714.272745	0.013803
714.472623	0.013772
714.672483	0.013920
714.872325	0.013838
715.072148	0.013832
715.271954	0.013854
715.471741	0.013784
715.671509	0.013756
715.871260	0.013808
716.070992	0.013681
716.270707	0.013662
716.470403	0.013638
716.670080	0.013782
716.869740	0.013643
717.069381	0.013685
717.269004	0.013666
717.468609	0.013638
717.668195	0.013483
717.867764	0.013608
718.067314	0.013694
718.266846	0.013726
718.466360	0.013604
718.665855	0.013615
718.865332	0.013701
719.064791	0.013686
719.264232	0.013732
719.463655	0.014027
719.663059	0.014111
719.862445	0.014076
720.061813	0.014004
720.261163	0.014119
720.460494	0.014186
720.659807	0.014010
720.859102	0.014010
721.058379	0.014172
721.257638	0.013930
721.456878	0.013848
721.656100	0.013809
721.855304	0.013789
722.054490	0.013683
722.253657	0.013688
722.452806	0.013712
722.651937	0.013842
722.851050	0.013403
723.050145	0.013404
723.249221	0.013317
723.448279	0.013277
723.647319	0.013155
723.846340	0.013166
724.045344	0.013059
724.244329	0.012952
724.443296	0.012931
724.642245	0.013167
724.841175	0.013108
725.040088	0.013008
725.238982	0.012877
725.437857	0.013007
725.636715	0.012835
725.835554	0.012811
726.034376	0.012827
726.233179	0.012758
726.431963	0.012773
726.630730	0.012841
726.829478	0.012986
727.028208	0.013099
727.226920	0.012883
727.425614	0.013110
727.624289	0.013120
727.822946	0.013039
728.021585	0.012911
728.220206	0.012833
728.418808	0.012797
728.617392	0.012910
728.815958	0.012956
729.014506	0.013148
729.213036	0.013107
729.411547	0.013153
729.610040	0.013182
729.808515	0.013234
730.006972	0.013361
730.205410	0.013347
730.403831	0.013152
730.602233	0.013043
730.800616	0.013039
730.998982	0.012981
731.197329	0.013009
731.395658	0.013009
731.593969	0.013147
731.792262	0.012950
731.990536	0.012936
732.188793	0.012995
732.387031	0.013162
732.585250	0.013068
732.783452	0.013069
732.981635	0.013055
733.179800	0.013054
733.377947	0.013021
733.576076	0.013065
733.774186	0.013146
733.972278	0.013231
734.170352	0.013215
734.368408	0.013176
734.566446	0.013221
734.764465	0.013328
734.962466	0.013351
735.160449	0.013331
735.358413	0.013341
735.556360	0.013309
735.754288	0.013139
735.952198	0.012950
736.150090	0.012960
736.347963	0.012836
736.545818	0.012536
736.743655	0.012483
736.941474	0.012159
737.139275	0.012110
737.337057	0.012027
737.534821	0.012066
737.732567	0.011987
737.930295	0.011764
738.128005	0.011764
738.325696	0.011831
738.523369	0.011798
738.721024	0.011889
738.918660	0.012024
739.116279	0.012168
739.313879	0.012109
739.511461	0.012205
739.709024	0.012314
739.906570	0.012259
740.104097	0.012232
740.301606	0.012077
740.499097	0.012275
740.696569	0.012202
740.894024	0.012214
741.091460	0.012316
741.288878	0.012393
741.486277	0.012642
741.683659	0.012780
741.881022	0.012925
742.078367	0.013127
742.275694	0.013211
742.473002	0.013154
742.670293	0.012960
742.867565	0.012978
743.064819	0.013066
743.262054	0.012913
743.459272	0.012942
743.656471	0.012816
743.853652	0.012880
744.050815	0.012741
744.247959	0.012688
744.445085	0.012650
744.642194	0.012421
744.839283	0.012251
745.036355	0.012270
745.233408	0.012159
745.430444	0.012206
745.627461	0.012162
745.824459	0.012189
746.021440	0.012273
746.218402	0.012147
746.415346	0.012103
746.612272	0.012130
746.809180	0.011896
747.006069	0.011781
747.202940	0.011711
747.399793	0.011705
747.596628	0.011643
747.793444	0.011520
747.990243	0.011688
748.187023	0.011881
748.383784	0.011820
748.580528	0.011997
748.777253	0.012271
748.973960	0.012258
749.170649	0.012288
749.367320	0.012288
749.563973	0.012264
749.760607	0.012280
749.957223	0.012288
750.153821	0.012268
750.350400	0.012387
750.546962	0.012199
750.743505	0.012329
750.940030	0.012278
751.136536	0.012129
751.333025	0.012287
751.529495	0.012148
751.725947	0.012165
751.922381	0.012261
752.118796	0.012224
752.315194	0.012308
752.511573	0.012078
752.707934	0.012210
752.904276	0.012298
753.100601	0.012303
753.296907	0.012382
753.493195	0.012386
753.689465	0.012517
753.885716	0.012741
754.081949	0.012661
754.278164	0.012964
754.474361	0.013081
754.670540	0.013039
754.866700	0.013015
755.062843	0.013221
755.258967	0.013175
755.455072	0.013009
755.651160	0.012883
755.847229	0.012838
756.043280	0.012740
756.239313	0.012538
756.435328	0.012509
756.631324	0.012502
756.827302	0.012509
757.023262	0.012500
757.219204	0.012523
757.415127	0.012599
757.611033	0.012754
757.806920	0.012727
758.002788	0.012662
758.198639	0.012770
758.394471	0.012867
758.590286	0.012689
758.786081	0.012714
758.981859	0.012748
759.177619	0.012419
759.373360	0.012171
759.569083	0.012052
759.764788	0.012060
759.960474	0.011915
760.156143	0.011954
760.351793	0.011908
760.547425	0.011718
760.743038	0.011818
760.938634	0.011902
761.134211	0.012194
761.329770	0.012374
761.525311	0.012430
761.720833	0.012557
761.916338	0.012259
762.111824	0.012293
762.307292	0.012365
762.502741	0.011958
762.698173	0.011861
762.893586	0.011585
763.088981	0.011428
763.284358	0.011328
763.479716	0.011184
763.675057	0.011221
763.870379	0.011151
764.065683	0.011249
764.260968	0.011640
764.456236	0.011749
764.651485	0.011770
764.846716	0.011997
765.041929	0.012016
765.237123	0.012073
765.432299	0.012234
765.627457	0.012327
765.822597	0.012276
766.017719	0.012266
766.212822	0.012165
766.407907	0.012370
766.602974	0.012177
766.798023	0.012128
766.993054	0.012306
767.188066	0.012338
767.383060	0.012381
767.578036	0.012409
767.772993	0.012390
767.967933	0.012171
768.162854	0.012168
768.357757	0.012065
768.552642	0.012041
768.747508	0.012049
768.942356	0.012175
769.137186	0.012413
769.331998	0.012499
769.526792	0.012241
769.721567	0.012627
769.916324	0.012607
770.111063	0.012784
770.305784	0.012860
770.500486	0.012680
770.695171	0.012489
770.889837	0.012376
771.084484	0.012353
771.279114	0.012390
771.473725	0.012246
771.668318	0.012214
771.862893	0.012179
772.057450	0.012191
772.251988	0.012272
772.446509	0.012177
772.641011	0.012016
772.835494	0.011789
773.029960	0.011854
773.224407	0.011925
773.418836	0.011998
773.613247	0.012085
773.807640	0.011995
774.002014	0.012044
774.196370	0.012132
774.390708	0.012209
774.585028	0.012367
774.779330	0.012466
774.973613	0.012484
775.167878	0.012254
775.362125	0.012289
775.556354	0.012527
775.750564	0.012673
775.944756	0.012825
776.138930	0.012835
776.333086	0.012788
776.527223	0.012790
776.721343	0.012694
776.915444	0.012819
777.109526	0.012715
777.303591	0.012706
777.497637	0.012804
777.691666	0.012646
777.885676	0.012450
778.079667	0.012575
778.273641	0.012532
778.467596	0.012581
778.661533	0.012607
778.855452	0.012746
779.049352	0.012667
779.243235	0.012374
779.437099	0.012311
779.630945	0.012423
779.824773	0.012329
780.018582	0.012295
780.212373	0.012332
780.406146	0.012157
780.599901	0.012099
780.793638	0.012107
780.987356	0.011983
781.181056	0.011921
781.374738	0.011800
781.568402	0.011774
781.762047	0.011749
781.955674	0.011694
782.149283	0.011779
782.342874	0.011616
782.536447	0.011640
782.730001	0.011693
782.923537	0.011767
783.117055	0.011939
783.310555	0.011926
783.504036	0.012053
783.697499	0.012165
783.890944	0.012285
784.084371	0.012355
784.277780	0.012326
784.471170	0.012391
784.664542	0.012327
784.857896	0.012247
785.051231	0.012408
785.244549	0.012405
785.437848	0.012285
785.631129	0.012131
785.824392	0.012101
786.017636	0.011919
786.210863	0.011972
786.404071	0.012075
786.597260	0.012044
786.790432	0.011865
786.983585	0.011722
787.176721	0.011775
787.369838	0.011843
787.562936	0.011716
787.756017	0.011876
787.949079	0.011695
788.142123	0.011774
788.335149	0.011918
788.528156	0.012055
788.721146	0.012104
788.914117	0.012158
789.107070	0.012232
789.300005	0.012383
789.492921	0.012543
789.685819	0.012671
789.878699	0.012619
790.071561	0.012547
790.264405	0.012487
790.457230	0.012628
790.650037	0.012596
790.842826	0.012584
791.035597	0.012648
791.228349	0.012430
791.421084	0.012442
791.613800	0.012495
791.806497	0.012478
791.999177	0.012491
792.191838	0.012445
792.384481	0.012409
792.577106	0.012416
792.769713	0.012398
792.962301	0.012463
793.154871	0.012477
793.347423	0.012298
793.539957	0.012239
793.732473	0.012193
793.924970	0.012141
794.117449	0.012238
794.309910	0.012016
794.502353	0.011974
794.694777	0.011993
794.887183	0.012040
795.079571	0.012053
795.271941	0.012079
795.464293	0.012120
795.656626	0.012187
795.848941	0.012071
796.041238	0.012271
796.233516	0.012377
796.425777	0.012379
796.618019	0.012338
796.810243	0.012447
797.002449	0.012519
797.194636	0.012700
797.386805	0.012717
797.578956	0.012715
797.771089	0.012802
797.963204	0.012737
798.155300	0.012657
798.347378	0.012630
798.539438	0.012781
798.731480	0.012825
798.923503	0.012661
799.115509	0.012539
799.307496	0.012531
799.499465	0.012347
799.691415	0.012324
799.883348	0.012460
800.075262	0.012422
800.267158	0.012416
800.459035	0.012439
800.650895	0.012423
800.842736	0.012483
801.034559	0.012626
801.226364	0.012897
801.418150	0.012971
801.609919	0.012928
801.801669	0.013048
801.993401	0.013030
802.185114	0.012991
802.376810	0.013134
802.568487	0.012885
802.760146	0.012770
802.951787	0.012599
803.143409	0.012425
803.335014	0.012225
803.526600	0.012271
803.718168	0.012112
803.909717	0.011867
804.101249	0.011786
804.292762	0.012180
804.484257	0.012142
804.675734	0.012165
804.867192	0.012137
805.058632	0.012333
805.250054	0.012347
805.441458	0.012296
805.632844	0.012556
805.824211	0.012574
806.015561	0.012414
806.206891	0.012538
806.398204	0.012418
806.589499	0.012553
806.780775	0.012571
806.972033	0.012655
807.163273	0.012788
807.354495	0.012713
807.545698	0.012713
807.736883	0.012623
807.928050	0.012550
808.119199	0.012591
808.310329	0.012595
808.501441	0.012471
808.692535	0.012388
808.883611	0.012301
809.074669	0.012357
809.265708	0.012176
809.456729	0.012217
809.647732	0.012197
809.838717	0.012310
810.029683	0.012098
810.220632	0.012101
810.411562	0.011938
810.602474	0.011944
810.793367	0.011939
810.984242	0.011988
811.175100	0.012208
811.365938	0.012184
811.556759	0.012150
811.747562	0.012448
811.938346	0.012457
812.129112	0.012485
812.319860	0.012553
812.510589	0.012538
812.701300	0.012722
812.891994	0.012521
813.082668	0.012579
813.273325	0.012685
813.463964	0.012655
813.654584	0.012723
813.845186	0.012634
814.035769	0.012507
814.226335	0.012634
814.416882	0.012565
814.607411	0.012544
814.797922	0.012530
814.988415	0.012427
815.178889	0.012262
815.369345	0.012158
815.559783	0.012338
815.750203	0.012480
815.940605	0.012320
816.130988	0.012505
816.321353	0.012610
816.511700	0.012719
816.702028	0.012661
816.892339	0.012865
817.082631	0.012992
817.272905	0.012904
817.463161	0.012975
817.653398	0.013002
817.843617	0.012748
818.033819	0.012771
818.224001	0.012690
818.414166	0.012822
818.604312	0.012799
818.794440	0.012703
818.984550	0.012749
819.174642	0.012722
819.364716	0.012773
819.554771	0.012689
819.744808	0.012644
819.934827	0.012615
820.124827	0.012631
820.314810	0.012503
820.504774	0.012577
820.694720	0.012583
820.884647	0.012510
821.074557	0.012425
821.264448	0.012532
821.454321	0.012512
821.644176	0.012423
821.834012	0.012482
822.023831	0.012598
822.213631	0.012565
822.403413	0.012644
822.593176	0.012572
822.782922	0.012715
822.972649	0.012639
823.162358	0.012698
823.352049	0.012759
823.541721	0.012532
823.731376	0.012443
823.921012	0.012412
824.110629	0.012233
824.300229	0.012069
824.489811	0.012138
824.679374	0.012375
824.868919	0.012291
825.058445	0.012177
825.247954	0.012198
825.437444	0.012282
825.626916	0.012344
825.816370	0.012416
826.005806	0.012656
826.195223	0.012546
826.384622	0.012407
826.574003	0.012346
826.763366	0.012741
826.952711	0.012814
827.142037	0.012687
827.331345	0.012978
827.520635	0.012879
827.709906	0.012902
827.899160	0.012854
828.088395	0.012920
828.277612	0.013039
828.466810	0.012767
828.655991	0.012666
828.845153	0.012555
829.034297	0.012273
829.223423	0.012200
829.412531	0.012288
829.601620	0.012036
829.790691	0.011695
829.979744	0.011539
830.168779	0.011581
830.357795	0.011716
830.546793	0.011885
830.735773	0.011957
830.924735	0.011904
831.113679	0.011738
831.302604	0.011972
831.491511	0.012287
831.680400	0.012390
831.869271	0.012303
832.058123	0.012316
832.246957	0.012072
832.435773	0.012160
832.624571	0.012359
832.813351	0.012240
833.002112	0.012317
833.190855	0.012286
833.379580	0.012261
833.568287	0.012288
833.756975	0.012149
833.945645	0.012274
834.134297	0.011946
834.322931	0.011885
834.511547	0.011966
834.700144	0.011992
834.888723	0.012109
835.077284	0.011979
835.265826	0.011904
835.454351	0.011864
835.642857	0.011966
835.831345	0.011976
836.019815	0.012038
836.208266	0.011883
836.396699	0.011840
836.585114	0.011671
836.773511	0.011822
836.961890	0.011974
837.150250	0.012156
837.338592	0.012279
837.526916	0.012436
837.715222	0.012697
837.903510	0.013217
838.091779	0.013107
838.280030	0.013147
838.468263	0.013292
838.656477	0.013417
838.844674	0.013477
839.032852	0.013456
839.221012	0.013420
839.409153	0.013073
839.597277	0.012855
839.785382	0.013075
839.973469	0.013111
840.161538	0.013125
840.349589	0.013011
840.537621	0.012627
840.725635	0.012577
840.913631	0.012896
841.101609	0.013221
841.289568	0.013105
841.477509	0.013017
841.665432	0.013056
841.853337	0.012948
842.041224	0.012933
842.229092	0.013308
842.416942	0.013371
842.604774	0.013001
842.792588	0.013007
842.980383	0.013148
843.168160	0.013131
843.355919	0.013303
843.543660	0.013214
843.731382	0.013259
843.919087	0.013234
844.106773	0.013058
844.294441	0.013255
844.482090	0.013071
844.669722	0.012866
844.857335	0.012734
845.044930	0.012483
845.232507	0.012587
845.420065	0.012457
845.607605	0.012304
845.795127	0.012463
845.982631	0.012378
846.170117	0.012164
846.357584	0.012265
846.545033	0.012191
846.732464	0.012257
846.919877	0.012161
847.107272	0.012178
847.294648	0.012338
847.482006	0.012333
847.669346	0.012231
847.856667	0.012458
848.043971	0.012479
848.231256	0.012747
848.418523	0.012801
848.605771	0.012907
848.793002	0.012957
848.980214	0.013117
849.167408	0.013355
849.354584	0.013681
849.541742	0.013751
849.728881	0.014040
849.916002	0.014205
850.103105	0.014370
850.290190	0.014692
850.477256	0.014914
850.664304	0.014730
850.851334	0.014533
851.038346	0.014432
851.225340	0.014537
851.412315	0.014402
851.599272	0.014267
851.786211	0.014233
851.973132	0.014106
852.160034	0.014039
852.346918	0.014245
852.533784	0.014481
852.720632	0.014437
852.907462	0.014548
853.094273	0.014894
853.281066	0.014959
853.467841	0.014673
853.654598	0.014699
853.841336	0.014885
854.028056	0.014762
854.214758	0.014638
854.401442	0.014769
854.588107	0.014743
854.774755	0.014415
854.961384	0.014582
855.147995	0.014941
855.334587	0.014873
855.521162	0.014831
855.707718	0.014937
855.894256	0.014835
856.080775	0.014713
856.267277	0.014655
856.453760	0.014639
856.640225	0.014530
856.826672	0.014429
857.013101	0.014482
857.199511	0.014623
857.385903	0.014597
857.572277	0.014538
857.758633	0.014640
857.944970	0.014567
858.131290	0.014716
858.317591	0.014606
858.503873	0.014811
858.690138	0.014739
858.876384	0.014710
859.062612	0.014887
859.248822	0.015069
859.435014	0.015131
859.621188	0.015191
859.807343	0.015228
859.993480	0.015463
860.179599	0.015375
860.365699	0.015495
860.551781	0.015457
860.737846	0.015388
860.923891	0.015415
861.109919	0.015590
861.295929	0.015766
861.481920	0.015873
861.667893	0.015675
861.853848	0.015957
862.039784	0.015984
862.225702	0.016269
862.411603	0.016171
862.597484	0.016106
862.783348	0.016215
862.969193	0.016277
863.155021	0.016124
863.340830	0.016295
863.526620	0.016011
863.712393	0.016042
863.898147	0.015763
864.083883	0.016044
864.269601	0.016120
864.455301	0.015977
864.640982	0.016015
864.826645	0.015983
865.012290	0.016023
865.197917	0.016205
865.383526	0.016118
865.569116	0.016242
865.754688	0.016149
865.940242	0.016506
866.125777	0.016519
866.311295	0.016601
866.496794	0.016489
866.682275	0.016488
866.867737	0.016525
867.053182	0.016511
867.238608	0.016428
867.424016	0.016575
867.609406	0.016154
867.794778	0.016005
867.980131	0.015704
868.165466	0.016063
868.350783	0.016136
868.536082	0.015948
868.721362	0.016028
868.906625	0.016121
869.091869	0.015892
869.277094	0.016111
869.462302	0.016234
869.647491	0.016670
869.832662	0.016588
870.017815	0.016767
870.202950	0.016889
870.388066	0.016906
870.573165	0.016979
870.758245	0.017077
870.943306	0.016992
871.128350	0.017020
871.313375	0.017035
871.498382	0.017410
871.683371	0.017104
871.868342	0.017109
872.053294	0.017416
872.238229	0.017463
872.423144	0.017876
872.608042	0.018300
872.792922	0.018379
872.977783	0.018302
873.162626	0.018152
873.347451	0.018545
873.532258	0.018779
873.717046	0.018914
873.901816	0.018804
874.086568	0.018395
874.271302	0.018480
874.456017	0.018704
874.640715	0.018644
874.825394	0.018532
875.010055	0.018396
875.194697	0.018295
875.379322	0.017803
875.563928	0.017893
875.748516	0.017898
875.933085	0.017917
876.117637	0.017751
876.302170	0.017675
876.486685	0.017668
876.671182	0.017660
876.855661	0.017800
877.040121	0.017794
877.224563	0.017390
877.408987	0.017394
877.593393	0.016920
877.777780	0.016596
877.962150	0.016560
878.146501	0.016363
878.330833	0.016305
878.515148	0.016152
878.699444	0.016084
878.883722	0.016523
879.067982	0.016810
879.252224	0.016948
879.436447	0.017288
879.620653	0.017680
879.804840	0.017762
879.989008	0.017643
880.173159	0.017529
880.357291	0.017823
880.541405	0.017759
880.725501	0.017623
880.909579	0.017613
881.093638	0.017752
881.277680	0.017573
881.461703	0.017773
881.645707	0.017609
881.829694	0.017691
882.013662	0.017633
882.197612	0.017642
882.381544	0.017714
882.565458	0.017949
882.749353	0.017643
882.933230	0.017773
883.117089	0.017738
883.300930	0.017941
883.484753	0.017903
883.668557	0.018029
883.852343	0.018217
884.036111	0.017995
884.219861	0.017832
884.403592	0.017837
884.587305	0.017686
884.771000	0.017615
884.954677	0.017765
885.138335	0.018055
885.321976	0.018299
885.505598	0.018014
885.689201	0.018074
885.872787	0.018179
886.056354	0.018348
886.239904	0.018059
886.423434	0.018017
886.606947	0.017944
886.790442	0.017863
886.973918	0.017529
887.157376	0.017596
887.340816	0.017705
887.524237	0.017646
887.707641	0.017468
887.891026	0.018098
888.074393	0.018169
888.257741	0.018217
888.441072	0.017745
888.624384	0.017697
888.807678	0.017536
888.990954	0.017466
889.174211	0.017204
889.357451	0.017176
889.540672	0.016863
889.723875	0.016834
889.907059	0.016641
890.090226	0.016887
890.273374	0.016847
890.456504	0.017013
890.639616	0.016811
890.822709	0.017065
891.005785	0.017160
891.188842	0.016783
891.371881	0.016685
891.554901	0.016905
891.737904	0.016769
891.920888	0.016763
892.103854	0.016811
892.286802	0.017001
892.469731	0.016922
892.652643	0.017323
892.835536	0.017484
893.018410	0.017440
893.201267	0.017308
893.384106	0.017135
893.566926	0.017202
893.749728	0.017387
893.932511	0.017280
894.115277	0.017247
894.298024	0.016724
894.480753	0.016648
894.663464	0.016761
894.846157	0.016861
895.028831	0.017333
895.211487	0.017529
895.394125	0.017110
895.576745	0.017159
895.759346	0.017257
895.941930	0.017503
896.124495	0.017646
896.307041	0.017762
896.489570	0.017758
896.672080	0.017540
896.854573	0.017236
897.037046	0.017069
897.219502	0.016929
897.401940	0.016724
897.584359	0.016755
897.766760	0.016463
897.949143	0.016365
898.131507	0.016161
898.313854	0.016207
898.496182	0.016492
898.678492	0.016594
898.860783	0.016987
899.043057	0.016847
899.225312	0.016846
899.407549	0.017297
899.589768	0.017261
899.771968	0.017261
899.954151	0.017057
900.136315	0.016917
900.318461	0.017135
900.500588	0.016905
900.682698	0.017062
900.864789	0.016959
901.046862	0.016622
901.228917	0.016639
901.410953	0.016591
901.592971	0.016721
901.774972	0.017180
901.956953	0.017147
902.138917	0.016758
902.320862	0.016816
902.502790	0.016731
902.684699	0.016839
902.866589	0.016875
903.048462	0.017295
903.230316	0.017126
903.412152	0.016908
903.593970	0.016783
903.775770	0.017128
903.957551	0.017161
904.139314	0.017085
904.321059	0.017030
904.502786	0.016813
904.684494	0.016911
904.866185	0.017239
905.047857	0.017205
905.229510	0.017652
905.411146	0.017517
905.592763	0.017440
905.774363	0.017802
905.955943	0.017758
906.137506	0.018061
906.319051	0.018010
906.500577	0.017775
906.682085	0.017659
906.863575	0.017214
907.045046	0.017241
907.226500	0.017127
907.407935	0.016892
907.589352	0.017033
907.770750	0.016961
907.952131	0.016846
908.133493	0.016960
908.314837	0.016658
908.496163	0.016501
908.677470	0.016458
908.858760	0.016727
909.040031	0.016654
909.221284	0.016577
909.402518	0.016452
909.583735	0.016099
909.764933	0.015986
909.946113	0.015778
910.127275	0.015987
910.308418	0.015995
910.489544	0.015669
910.670651	0.015849
910.851740	0.015585
911.032810	0.015357
911.213863	0.015269
911.394897	0.015175
911.575913	0.015002
911.756911	0.015034
911.937890	0.014747
912.118851	0.014755
912.299794	0.014198
912.480719	0.014362
912.661626	0.014494
912.842514	0.014248
913.023384	0.014475
913.204236	0.014857
913.385070	0.014322
913.565886	0.014427
913.746683	0.014384
913.927462	0.014578
914.108223	0.014339
914.288965	0.014189
914.469690	0.014472
914.650396	0.014013
914.831084	0.014070
915.011754	0.014297
915.192405	0.014295
915.373038	0.014118
915.553653	0.013887
915.734250	0.013818
915.914829	0.013839
916.095389	0.013619
916.275931	0.013328
916.456455	0.013088
916.636961	0.013111
916.817448	0.013051
916.997917	0.012634
917.178368	0.012592
917.358801	0.012465
917.539216	0.012519
917.719612	0.012703
917.899990	0.012823
918.080350	0.012910
918.260692	0.012497
918.441015	0.012529
918.621320	0.013228
918.801607	0.013341
918.981876	0.013472
919.162127	0.013217
919.342359	0.012697
919.522573	0.013137
919.702769	0.013111
919.882947	0.013532
920.063106	0.013324
920.243247	0.012865
920.423370	0.012489
920.603475	0.012595
920.783562	0.012502
920.963630	0.012622
921.143680	0.012259
921.323712	0.011599
921.503725	0.011033
921.683721	0.010972
921.863698	0.011125
922.043657	0.011172
922.223598	0.010895
922.403520	0.010740
922.583424	0.010592
922.763311	0.010616
922.943178	0.010634
923.123028	0.010948
923.302859	0.010959
923.482673	0.010548
923.662467	0.010309
923.842244	0.010100
924.022003	0.010074
924.201743	0.009613
924.381465	0.009330
924.561169	0.009426
924.740854	0.008937
924.920522	0.008639
925.100171	0.008477
925.279802	0.009052
925.459414	0.008860
925.639009	0.008776
925.818585	0.009068
925.998143	0.009021
926.177683	0.008822
926.357205	0.009081
926.536708	0.009481
926.716193	0.009578
926.895660	0.008858
927.075109	0.008830
927.254539	0.008829
927.433951	0.008758
927.613345	0.008944
927.792721	0.009577
927.972079	0.009182
928.151418	0.008271
928.330739	0.008417
928.510042	0.008931
928.689327	0.008496
928.868593	0.007995
929.047841	0.007794
929.227071	0.007210
929.406283	0.006306
929.585476	0.006220
929.764652	0.006267
929.943809	0.006145
930.122948	0.005818
930.302068	0.006534
930.481171	0.006461
930.660255	0.006623
930.839321	0.006300
931.018369	0.006368
931.197398	0.006925
931.376409	0.006773
931.555402	0.006198
931.734377	0.005532
931.913334	0.004953
932.092272	0.004904
932.271192	0.004880
932.450094	0.005260
932.628978	0.005254
932.807844	0.004685
932.986691	0.004446
933.165520	0.004449
933.344331	0.005071
933.523123	0.005408
933.701898	0.005366
933.880654	0.005053
934.059392	0.004705
934.238111	0.004446
934.416813	0.003706
934.595496	0.003899
934.774161	0.004206
934.952808	0.003625
935.131437	0.002774
935.310047	0.002644
935.488639	0.002688
935.667213	0.002937
935.845769	0.002921
936.024306	0.003102
936.202825	0.002850
936.381326	0.002341
936.559809	0.002472
936.738274	0.002463
936.916720	0.002585
937.095148	0.002042
937.273558	0.002139
937.451950	0.001492
937.630323	0.001592
937.808678	0.001388
937.987015	0.001763
938.165334	0.001161
938.343635	0.000915
938.521917	0.001503
938.700181	0.000676
938.878427	0.000036
939.056655	0.000335
939.234864	-0.000574
939.413055	-0.000556
939.591228	-0.001291
939.769383	-0.001699
939.947519	-0.001988
940.125638	-0.003166
940.303738	-0.002403
940.481820	-0.002171
940.659883	-0.002557
940.837929	-0.001586
941.015956	-0.001416
941.193965	-0.001143
941.371955	-0.000964
941.549928	-0.000088
941.727882	-0.000179
941.905818	-0.000277
942.083736	-0.000570
942.261636	-0.000730
942.439517	-0.001153
942.617380	-0.001953
942.795225	-0.002370
942.973052	-0.002561
943.150860	-0.002664
943.328651	-0.003037
943.506423	-0.002556
943.684176	-0.002687
943.861912	-0.002114
944.039629	-0.001555
944.217328	-0.000867
944.395009	-0.000840
944.572672	-0.000377
944.750317	-0.000936
944.927943	-0.000038
945.105551	-0.000425
945.283141	-0.000362
945.460712	-0.001111
945.638265	-0.001494
945.815801	-0.001994
945.993317	-0.001765
946.170816	-0.001971
946.348297	-0.001384
946.525759	-0.001604
946.703203	-0.001747
946.880629	-0.002559
947.058036	-0.002414
947.235425	-0.002350
947.412797	-0.001710
947.590149	-0.002567
947.767484	-0.001983
947.944800	-0.002736
948.122099	-0.002860
948.299379	-0.003210
948.476640	-0.002583
948.653884	-0.002687
948.831109	-0.003280
949.008316	-0.003726
949.185505	-0.003400
949.362676	-0.003968
949.539828	-0.002953
949.716962	-0.003780
949.894078	-0.003204
950.071176	-0.002498
950.248256	-0.002402
950.425317	-0.001446
950.602360	-0.000695
950.779385	0.000484
950.956391	0.000320
951.133380	-0.000816
951.310350	0.001086
951.487302	0.000870
951.664235	-0.000540
951.841151	-0.000607
952.018048	-0.001786
952.194927	-0.002745
952.371788	-0.003601
952.548631	-0.003769
952.725455	-0.004389
952.902261	-0.005921
953.079049	-0.005454
953.255819	-0.004710
953.432570	-0.004286
953.609303	-0.003277
953.786018	-0.002880
953.962715	-0.002519
954.139394	-0.001809
954.316054	0.000939
954.492696	0.001577
954.669320	0.002103
954.845926	0.002184
955.022513	0.003132
955.199083	0.004400
955.375634	0.005128
955.552166	0.005469
955.728681	0.006419
955.905177	0.003896
956.081655	0.003000
956.258115	0.002876
956.434557	0.002279
956.610980	0.001907
956.787385	0.000415
956.963772	-0.000450
957.140141	-0.000854
957.316492	-0.002065
957.492824	-0.001441
957.669138	-0.000860
957.845434	-0.001467
958.021712	-0.001022
958.197971	0.000191
958.374212	0.000956
958.550435	0.001237
958.726640	0.001939
958.902826	0.002890
959.078995	0.004412
959.255145	0.005529
959.431277	0.006312
959.607390	0.005840
959.783486	0.004704
959.959563	0.004537
960.135622	0.003865
960.311662	0.004400
960.487685	0.004835
960.663689	0.002146
960.839675	0.002430
961.015643	0.002639
961.191593	0.004130
961.367524	0.003831
961.543437	0.004457
961.719332	0.006543
961.895209	0.006182
962.071067	0.005535
962.246907	0.007075
962.422730	0.007657
962.598533	0.007005
962.774319	0.006807
962.950086	0.008001
963.125835	0.006372
963.301566	0.004578
963.477279	0.005302
963.652973	0.006112
963.828650	0.007831
964.004308	0.006302
964.179947	0.006396
964.355569	0.007738
964.531172	0.007748
964.706757	0.008843
964.882324	0.011554
965.057873	0.010194
965.233403	0.009773
965.408916	0.008932
965.584410	0.010005
965.759885	0.011247
965.935343	0.010886
966.110782	0.010862
966.286203	0.010763
966.461606	0.010134
966.636991	0.011956
966.812357	0.010332
966.987705	0.010407
967.163035	0.008056
967.338347	0.005992
967.513641	0.005713
967.688916	0.006211
967.864173	0.006909
968.039412	0.008414
968.214632	0.008662
968.389835	0.010480
968.565019	0.011987
968.740185	0.014315
968.915333	0.016669
969.090462	0.015485
969.265573	0.015190
969.440667	0.014185
969.615741	0.013316
969.790798	0.011704
969.965836	0.011179
970.140856	0.008986
970.315858	0.010273
970.490842	0.009213
970.665808	0.010574
970.840755	0.009065
971.015684	0.008366
971.190595	0.008229
971.365487	0.008861
971.540362	0.009762
971.715218	0.010119
971.890056	0.009650
972.064875	0.009477
972.239677	0.009819
972.414460	0.012337
972.589225	0.015594
972.763972	0.016741
972.938700	0.017136
973.113411	0.016191
973.288103	0.016081
973.462777	0.015637
973.637432	0.018152
973.812070	0.018121
973.986689	0.017682
974.161290	0.016793
974.335873	0.015067
974.510437	0.012837
974.684984	0.014032
974.859512	0.014143
975.034022	0.014219
975.208513	0.011270
975.382987	0.010236
975.557442	0.008029
975.731879	0.009175
975.906298	0.008976
976.080698	0.011897
976.255080	0.010813
976.429445	0.011895
976.603790	0.010324
976.778118	0.012456
976.952427	0.012089
977.126719	0.013193
977.300992	0.011786
977.475246	0.011592
977.649483	0.009517
977.823701	0.009611
977.997901	0.011171
978.172083	0.010719
978.346247	0.009398
978.520392	0.008859
978.694519	0.010064
978.868628	0.010386
979.042719	0.011432
979.216791	0.011409
979.390845	0.010570
979.564882	0.009064
979.738899	0.010119
979.912899	0.010356
980.086880	0.011453
980.260843	0.009821
980.434788	0.008863
980.608715	0.008333
980.782623	0.009304
980.956514	0.008972
981.130386	0.008420
981.304240	0.009631
981.478075	0.010140
981.651892	0.008735
981.825692	0.008761
981.999472	0.009157
982.173235	0.010588
982.346980	0.010182
982.520706	0.011987
982.694414	0.010384
982.868104	0.010023
983.041775	0.009340
983.215428	0.012290
983.389064	0.014442
983.562680	0.014261
983.736279	0.012626
983.909860	0.012039
984.083422	0.009988
984.256966	0.012254
984.430491	0.013083
984.603999	0.012140
984.777488	0.011294
984.950959	0.010401
985.124412	0.009728
985.297847	0.009091
985.471263	0.009044
985.644661	0.010941
985.818041	0.010268
985.991403	0.008412
986.164747	0.008787
986.338072	0.008440
986.511379	0.010020
986.684668	0.011513
986.857938	0.012640
987.031191	0.013578
987.204425	0.012462
987.377641	0.013399
987.550839	0.013703
987.724018	0.014575
987.897179	0.015572
988.070322	0.013879
988.243447	0.012368
988.416554	0.010886
988.589642	0.011184
988.762712	0.012054
988.935764	0.010662
989.108798	0.009558
989.281813	0.009092
989.454811	0.007134
989.627790	0.006665
989.800751	0.006388
989.973693	0.007498
990.146617	0.006593
990.319524	0.006247
990.492412	0.005900
990.665281	0.006785
990.838133	0.007795
991.010966	0.008037
991.183781	0.009625
991.356578	0.009345
991.529356	0.008566
991.702117	0.008880
991.874859	0.009267
992.047583	0.010192
992.220288	0.011608
992.392976	0.012287
992.565645	0.011941
992.738296	0.011214
992.910929	0.013228
993.083543	0.012099
993.256139	0.011412
993.428718	0.011035
993.601277	0.009296
993.773819	0.007985
993.946342	0.007302
994.118848	0.007786
994.291335	0.007596
994.463803	0.008070
994.636254	0.009845
994.808686	0.010677
994.981100	0.011301
995.153496	0.012708
995.325874	0.012444
995.498233	0.010939
995.670574	0.010641
995.842897	0.010855
996.015202	0.008056
996.187488	0.006620
996.359757	0.006529
996.532007	0.006124
996.704239	0.006471
996.876452	0.008490
997.048648	0.009701
997.220825	0.009885
997.392984	0.009288
997.565124	0.009949
997.737247	0.010232
997.909351	0.011155
998.081437	0.011455
998.253505	0.010560
998.425554	0.009506
998.597586	0.009089
998.769599	0.009197
998.941594	0.009105
999.113571	0.011216
999.285529	0.012000
999.457469	0.009662
999.629391	0.009091
999.801295	0.009878
999.973181	0.009497
1000.145048	0.010015
1000.316897	0.009726
1000.488728	0.008283
1000.660541	0.005857
1000.832335	0.006449
1001.004111	0.006427
1001.175869	0.006365
1001.347609	0.007497
1001.519331	0.007956
1001.691034	0.007030
1001.862719	0.008160
1002.034386	0.009582
1002.206035	0.010685
1002.377665	0.010971
1002.549277	0.012409
1002.720871	0.012470
1002.892447	0.011380
1003.064004	0.010524
1003.235544	0.011755
1003.407065	0.011749
1003.578568	0.011675
1003.750052	0.011051
1003.921519	0.010428
1004.092967	0.009885
1004.264397	0.009671
1004.435809	0.009265
1004.607202	0.010115
1004.778577	0.008870
1004.949934	0.007233
1005.121273	0.007698
1005.292594	0.008659
1005.463896	0.007123
1005.635180	0.006301
1005.806446	0.007871
1005.977694	0.006291
1006.148923	0.005481
1006.320135	0.004497
1006.491328	0.005292
1006.662503	0.005131
1006.833659	0.004010
1007.004798	0.002610
1007.175918	0.002187
1007.347020	0.001620
1007.518103	0.004354
1007.689169	0.005552
1007.860216	0.007274
1008.031245	0.008097
1008.202256	0.008361
1008.373248	0.009214
1008.544223	0.012368
1008.715179	0.011071
1008.886117	0.008914
1009.057036	0.006877
1009.227938	0.005473
1009.398821	0.005152
1009.569686	0.004255
1009.740533	0.003053
1009.911361	0.002909
1010.082172	0.001981
1010.252964	0.003643
1010.423738	0.004623
1010.594493	0.004175
1010.765231	0.004701
1010.935950	0.003222
1011.106651	0.002529
1011.277334	0.003565
1011.447998	0.002821
1011.618645	0.003903
1011.789273	0.005832
1011.959882	0.007120
1012.130474	0.007761
1012.301048	0.007482
1012.471603	0.008405
1012.642140	0.009776
1012.812658	0.007944
1012.983159	0.008144
1013.153641	0.008029
1013.324105	0.008151
1013.494551	0.007082
1013.664979	0.007016
1013.835388	0.007080
1014.005779	0.007690
1014.176152	0.007448
1014.346507	0.008162
1014.516843	0.008560
1014.687162	0.007893
1014.857462	0.007249
1015.027744	0.007517
1015.198007	0.007768
1015.368252	0.007038
1015.538480	0.008138
1015.708689	0.007275
1015.878879	0.008221
1016.049052	0.007983
1016.219206	0.008177
1016.389342	0.007635
1016.559460	0.007703
1016.729559	0.008409
1016.899641	0.009974
1017.069704	0.007356
1017.239749	0.006686
1017.409775	0.005937
1017.579784	0.005773
1017.749774	0.005535
1017.919746	0.005398
1018.089700	0.005425
1018.259635	0.004566
1018.429553	0.003355
1018.599452	0.004034
1018.769333	0.005665
1018.939195	0.005765
1019.109040	0.005365
1019.278866	0.006187
1019.448674	0.005958
1019.618464	0.006383
1019.788235	0.005808
1019.957989	0.006405
1020.127724	0.007409
1020.297441	0.006161
1020.467139	0.005924
1020.636820	0.006533
1020.806482	0.006002
1020.976126	0.005372
1021.145752	0.004496
1021.315359	0.004775
1021.484948	0.002791
1021.654519	0.001803
1021.824072	0.001072
1021.993607	0.002080
1022.163123	0.001207
1022.332621	0.001393
1022.502101	0.002515
1022.671563	0.003356
1022.841007	0.003566
1023.010432	0.005388
1023.179839	0.005861
1023.349228	0.007137
1023.518598	0.006345
1023.687951	0.008043
1023.857285	0.008568
1024.026601	0.008689
1024.195899	0.008646
1024.365178	0.009150
1024.534439	0.008514
1024.703682	0.008476
1024.872907	0.008269
1025.042114	0.008042
1025.211302	0.007962
1025.380472	0.007788
1025.549624	0.006509
1025.718758	0.006182
1025.887873	0.006899
1026.056970	0.007863
1026.226049	0.008040
1026.395110	0.007443
1026.564153	0.008165
1026.733177	0.007818
1026.902183	0.007569
1027.071171	0.008527
1027.240141	0.008042
1027.409092	0.007654
1027.578026	0.007267
1027.746940	0.005681
1027.915837	0.005400
1028.084716	0.004952
1028.253576	0.004357
1028.422418	0.005480
1028.591242	0.004919
1028.760048	0.005176
1028.928835	0.004707
1029.097604	0.005494
1029.266355	0.007332
1029.435088	0.008154
1029.603803	0.008341
1029.772499	0.008451
1029.941177	0.008485
1030.109837	0.008530
1030.278478	0.009547
1030.447102	0.008855
1030.615707	0.008321
1030.784294	0.007647
1030.952863	0.007992
1031.121413	0.007228
1031.289945	0.006851
1031.458460	0.006184
1031.626955	0.006154
1031.795433	0.004976
1031.963892	0.004646
1032.132334	0.002965
1032.300756	0.003439
1032.469161	0.003303
1032.637548	0.003291
1032.805916	0.003892
1032.974266	0.003310
1033.142598	0.004164
1033.310911	0.003700
1033.479207	0.004576
1033.647484	0.005506
1033.815743	0.006254
1033.983983	0.007219
1034.152206	0.007460
1034.320410	0.007538
1034.488596	0.006514
1034.656764	0.006232
1034.824914	0.006976
1034.993045	0.007662
1035.161158	0.008702
1035.329253	0.008217
1035.497330	0.007956
1035.665388	0.007866
1035.833428	0.007164
1036.001450	0.006651
1036.169454	0.005886
1036.337440	0.005783
1036.505407	0.004817
1036.673356	0.005458
1036.841287	0.005502
1037.009200	0.004986
1037.177094	0.006295
1037.344970	0.006887
1037.512828	0.007481
1037.680668	0.007460
1037.848489	0.007770
1038.016293	0.008941
1038.184078	0.008201
1038.351845	0.007415
1038.519593	0.005947
1038.687324	0.005579
1038.855036	0.004407
1039.022730	0.005106
1039.190406	0.007307
1039.358063	0.005408
1039.525702	0.005157
1039.693323	0.004829
1039.860926	0.004375
1040.028511	0.004941
1040.196077	0.004179
1040.363625	0.004429
1040.531155	0.003352
1040.698667	0.001790
1040.866161	0.003962
1041.033636	0.004444
1041.201093	0.004618
1041.368532	0.005007
1041.535952	0.004573
1041.703355	0.003672
1041.870739	0.003652
1042.038105	0.003354
1042.205452	0.003247
1042.372782	0.003081
1042.540093	0.001741
1042.707386	0.000734
1042.874661	0.000343
1043.041918	0.000310
1043.209156	0.001790
1043.376376	0.002145
1043.543578	0.001891
1043.710762	0.002324
1043.877927	0.001363
1044.045074	0.000856
1044.212203	0.002114
1044.379314	0.002549
1044.546407	0.004276
1044.713481	0.003393
1044.880537	0.003482
1045.047575	0.005368
1045.214595	0.005289
1045.381596	0.004825
1045.548579	0.005786
1045.715544	0.004388
1045.882491	0.004498
1046.049420	0.004618
1046.216330	0.005351
1046.383222	0.006000
1046.550096	0.004588
1046.716951	0.003741
1046.883789	0.005736
1047.050608	0.006125
1047.217409	0.005867
1047.384192	0.006895
1047.550956	0.006926
1047.717703	0.006738
1047.884431	0.004940
1048.051140	0.004754
1048.217832	0.004229
1048.384505	0.002683
1048.551161	0.000948
1048.717798	0.001908
1048.884416	0.000864
1049.051017	-0.000959
1049.217599	-0.001292
1049.384163	0.000596
1049.550709	0.002596
1049.717237	0.005409
1049.883746	0.006227
1050.050237	0.007788
1050.216710	0.007306
1050.383165	0.006594
1050.549601	0.007278
1050.716019	0.005842
1050.882420	0.004313
1051.048801	0.003475
1051.215165	0.001509
1051.381510	0.000604
1051.547837	0.000561
1051.714146	0.000277
1051.880437	0.001025
1052.046709	0.002250
1052.212964	0.004690
1052.379200	0.005128
1052.545417	0.004814
1052.711617	0.005398
1052.877798	0.004869
1053.043961	0.004108
1053.210106	0.004670
1053.376233	0.004344
1053.542341	0.002237
1053.708432	0.002179
1053.874504	0.002506
1054.040557	0.003247
1054.206593	0.004712
1054.372610	0.006730
1054.538609	0.007738
1054.704590	0.008623
1054.870553	0.008849
1055.036497	0.009511
1055.202424	0.009000
1055.368331	0.009081
1055.534221	0.009179
1055.700093	0.007768
1055.865946	0.006268
1056.031781	0.006939
1056.197598	0.005593
1056.363397	0.006515
1056.529177	0.006793
1056.694939	0.006114
1056.860683	0.006791
1057.026409	0.007123
1057.192116	0.006203
1057.357806	0.007296
1057.523477	0.006593
1057.689130	0.007009
1057.854764	0.005732
1058.020381	0.005665
1058.185979	0.005694
1058.351559	0.006353
1058.517120	0.006101
1058.682664	0.006808
1058.848189	0.005376
1059.013696	0.005696
1059.179185	0.004895
1059.344656	0.003706
1059.510108	0.003523
1059.675542	0.005316
1059.840958	0.003803
1060.006356	0.002239
1060.171735	0.001785
1060.337096	0.001093
1060.502439	0.000784
1060.667764	0.002364
1060.833071	0.002346
1060.998359	0.003570
1061.163629	0.002632
1061.328881	0.001667
1061.494115	0.002896
1061.659330	0.002681
1061.824527	0.004646
1061.989706	0.004282
1062.154867	0.003307
1062.320010	0.003975
1062.485134	0.002417
1062.650240	0.000793
1062.815328	0.000432
1062.980398	-0.001065
1063.145449	-0.000482
1063.310482	-0.001072
1063.475497	-0.002968
1063.640494	-0.002495
1063.805473	-0.002248
1063.970433	-0.002982
1064.135375	-0.000569
1064.300299	0.000844
1064.465204	0.001431
1064.630092	0.000904
1064.794961	0.000142
1064.959812	0.000744
1065.124645	0.000971
1065.289459	0.001331
1065.454256	0.004047
1065.619034	0.001881
1065.783793	0.000861
1065.948535	0.000702
1066.113258	0.001096
1066.277964	0.003194
1066.442651	0.003586
1066.607319	0.003569
1066.771970	0.002891
1066.936602	0.002165
1067.101216	0.003038
1067.265812	0.003743
1067.430389	0.004166
1067.594949	0.003653
1067.759490	0.001619
1067.924013	0.001608
1068.088518	0.000863
1068.253004	0.003329
1068.417472	0.002237
1068.581922	0.001133
1068.746354	0.000932
1068.910768	-0.000131
1069.075163	0.000606
1069.239540	0.001347
1069.403899	0.002401
1069.568240	0.003074
1069.732562	0.001953
1069.896866	0.002075
1070.061152	0.002460
1070.225420	0.003429
1070.389670	0.004400
1070.553901	0.004166
1070.718114	0.003826
1070.882309	0.002790
1071.046486	0.002411
1071.210644	0.001542
1071.374784	0.000403
1071.538906	-0.000812
1071.703010	-0.000472
1071.867096	0.000025
1072.031163	0.000599
1072.195212	0.000704
1072.359243	-0.000122
1072.523256	0.000912
1072.687250	0.001296
1072.851226	0.002561
1073.015184	0.006022
1073.179124	0.003669
1073.343045	0.002422
1073.506949	0.000990
1073.670834	0.000261
1073.834701	0.000062
1073.998549	-0.000372
1074.162380	-0.002091
1074.326192	-0.001383
1074.489986	-0.004406
1074.653761	-0.001751
1074.817519	-0.001224
1074.981258	-0.001085
1075.144979	0.000094
1075.308682	0.002031
1075.472367	0.001155
1075.636033	0.001071
1075.799681	0.000614
1075.963311	0.003194
1076.126923	0.001645
1076.290516	0.001081
1076.454092	0.002528
1076.617649	0.002724
1076.781187	0.002696
1076.944708	0.002738
1077.108210	0.002983
1077.271695	0.003926
1077.435160	0.002831
1077.598608	0.000910
1077.762038	0.001392
1077.925449	0.002059
1078.088842	0.001245
1078.252217	0.002036
1078.415573	0.002364
1078.578912	0.004056
1078.742232	0.003745
1078.905534	0.002652
1079.068817	0.004522
1079.232083	0.005975
1079.395330	0.005513
1079.558559	0.005329
1079.721770	0.002237
1079.884962	0.002482
1080.048136	0.005464
1080.211293	0.005614
1080.374430	0.008702
1080.537550	0.008789
1080.700651	0.007307
1080.863735	0.004502
1081.026800	0.005768
1081.189846	0.005938
1081.352875	0.004912
1081.515885	0.001972
1081.678877	0.000060
1081.841851	-0.003455
1082.004807	-0.004104
1082.167744	-0.003201
1082.330663	-0.004308
1082.493564	-0.003217
1082.656447	-0.002183
1082.819312	-0.003415
1082.982158	-0.001488
1083.144986	0.000426
1083.307796	0.001875
1083.470587	0.003712
1083.633361	0.001834
1083.796116	0.005251
1083.958853	0.003362
1084.121571	0.003716
1084.284272	0.005265
1084.446954	0.002806
1084.609618	0.001589
1084.772264	0.001095
1084.934892	0.001037
1085.097501	-0.000973
1085.260092	-0.002907
1085.422665	-0.004958
1085.585220	-0.005277
1085.747756	-0.005747
1085.910274	-0.005577
1086.072774	-0.008111
1086.235256	-0.009710
1086.397720	-0.010906
1086.560165	-0.008784
1086.722592	-0.007040
1086.885001	-0.005757
1087.047392	-0.004165
1087.209764	-0.002964
1087.372119	-0.003251
1087.534455	0.000112
1087.696772	0.003798
1087.859072	0.002435
1088.021353	0.002855
1088.183616	0.003510
1088.345861	0.004391
1088.508088	0.003857
1088.670296	0.002779
1088.832486	0.001920
1088.994658	0.000445
1089.156812	-0.002985
1089.318948	-0.001800
1089.481065	-0.000936
1089.643164	-0.001783
1089.805245	-0.000632
1089.967308	-0.001488
1090.129352	-0.000587
1090.291378	0.001215
1090.453386	0.000706
1090.615376	0.001731
1090.777347	0.002431
1090.939301	0.001963
1091.101236	0.001626
1091.263153	-0.002899
1091.425051	-0.002892
1091.586932	-0.004061
1091.748794	-0.003159
1091.910638	-0.001565
1092.072463	-0.000504
1092.234271	-0.002396
1092.396060	-0.002370
1092.557831	-0.003038
1092.719584	-0.001895
1092.881319	-0.000660
1093.043035	-0.000624
1093.204733	-0.006612
1093.366413	-0.005459
1093.528075	-0.007569
1093.689718	-0.005727
1093.851343	-0.005960
1094.012950	-0.003169
1094.174539	-0.000830
1094.336110	-0.001988
1094.497662	-0.000123
1094.659196	0.002932
1094.820712	0.002977
1094.982210	0.004752
1095.143689	0.006099
1095.305151	0.007514
1095.466594	0.001425
1095.628018	0.001388
1095.789425	0.001717
1095.950813	0.001260
1096.112183	0.002694
1096.273535	0.001537
1096.434869	0.003573
1096.596184	0.003177
1096.757482	0.002870
1096.918761	0.004905
1097.080021	0.002688
1097.241264	0.005617
1097.402488	0.006436
1097.563694	0.005704
1097.724882	0.004971
1097.886052	0.002818
1098.047203	-0.002191
1098.208336	-0.001467
1098.369451	0.000900
1098.530548	0.001179
1098.691627	-0.001758
1098.852687	-0.002756
1099.013729	-0.002703
1099.174753	-0.001100
1099.335758	-0.001687
1099.496746	0.002832
1099.657715	0.005206
1099.818666	0.002760
1099.979599	0.004378
1100.140513	0.004244
1100.301409	0.004924
1100.462287	0.004488
1100.623147	0.003829
1100.783989	0.004862
1100.944812	0.004195
1101.105617	-0.001629
1101.266404	0.000417
1101.427173	-0.001825
1101.587923	-0.000894
1101.748656	-0.002296
1101.909370	-0.000346
1102.070066	0.000045
1102.230743	-0.001042
1102.391403	-0.002453
1102.552044	-0.002064
1102.712667	-0.003921
1102.873271	-0.001261
1103.033858	-0.006070
1103.194426	-0.004530
1103.354976	-0.006052
1103.515508	-0.007022
1103.676021	-0.008033
1103.836517	-0.004717
1103.996994	-0.003396
1104.157453	-0.004287
1104.317893	-0.002425
1104.478316	0.003523
1104.638720	-0.000004
1104.799106	0.002049
1104.959474	0.002933
1105.119823	0.005042
1105.280155	0.004470
1105.440468	0.002894
1105.600763	0.004932
1105.761039	0.000823
1105.921298	-0.000854
1106.081538	0.000256
1106.241760	-0.002537
1106.401964	-0.005825
1106.562149	-0.006019
1106.722316	-0.007683
1106.882465	-0.005810
1107.042596	-0.005039
1107.202709	-0.003016
1107.362803	-0.005235
1107.522879	-0.001876
1107.682937	-0.000189
1107.842977	0.002338
1108.002999	-0.000547
1108.163002	0.000232
1108.322987	-0.001019
1108.482954	-0.004326
1108.642902	-0.004618
1108.802833	-0.002380
1108.962745	-0.004944
1109.122639	-0.006915
1109.282515	-0.008070
1109.442372	-0.008656
1109.602211	-0.010408
1109.762032	-0.009211
1109.921835	-0.008378
1110.081620	-0.009021
1110.241386	-0.009132
1110.401134	-0.012378
1110.560864	-0.009559
1110.720576	-0.006485
1110.880269	-0.002955
1111.039945	-0.000824
1111.199602	-0.000280
1111.359240	0.001634
1111.518861	0.003797
1111.678463	0.002726
1111.838047	0.004717
1111.997613	0.002866
1112.157161	-0.003489
1112.316690	-0.004367
1112.476202	-0.007976
1112.635695	-0.008139
1112.795169	-0.007172
1112.954626	-0.008324
1113.114064	-0.007113
1113.273484	-0.009113
1113.432886	-0.006758
1113.592270	-0.001962
1113.751635	-0.002175
1113.910983	-0.000888
1114.070312	-0.000511
1114.229622	-0.003929
1114.388915	-0.008386
1114.548189	-0.005878
1114.707445	-0.006416
1114.866683	-0.010113
1115.025903	-0.013352
1115.185104	-0.015166
1115.344287	-0.012572
1115.503452	-0.013406
1115.662599	-0.011812
1115.821727	-0.009150
1115.980838	-0.017429
1116.139930	-0.012260
1116.299004	-0.012807
1116.458059	-0.011721
1116.617097	-0.008826
1116.776116	-0.009789
1116.935117	-0.008686
1117.094099	-0.007879
1117.253064	-0.003096
1117.412010	0.001048
1117.570938	-0.000931
1117.729848	0.000914
1117.888740	0.004136
1118.047613	0.004351
1118.206468	0.003961
1118.365305	0.001500
1118.524124	-0.002721
1118.682924	-0.005653
1118.841707	-0.006683
1119.000471	-0.005649
1119.159216	-0.004910
1119.317944	-0.005893
1119.476653	-0.004738
1119.635344	-0.003902
1119.794017	-0.006106
1119.952672	0.001230
1120.111308	0.001113
1120.269927	0.000929
1120.428527	-0.001229
1120.587108	-0.000572
1120.745672	0.000560
1120.904217	-0.000603
1121.062744	0.000015
1121.221253	0.001994
1121.379744	-0.001813
1121.538216	-0.001003
1121.696671	0.001097
1121.855107	0.004189
1122.013524	0.004106
1122.171924	0.006732
1122.330305	0.008748
1122.488668	0.010302
1122.647013	0.011606
1122.805340	0.008974
1122.963648	0.008242
1123.121938	0.008778
1123.280210	0.005362
1123.438464	0.005652
1123.596700	0.001518
1123.754917	-0.005784
1123.913116	-0.008720
1124.071297	-0.008879
1124.229459	-0.006716
1124.387604	-0.004572
1124.545730	-0.003567
1124.703838	-0.001361
1124.861928	-0.000071
1125.019999	0.002286
1125.178052	0.008140
1125.336088	0.005228
1125.494104	0.003792
1125.652103	0.004524
1125.810083	-0.000785
1125.968045	-0.004646
1126.125989	-0.007050
1126.283915	-0.007408
1126.441823	-0.010601
1126.599712	-0.010242
1126.757583	-0.008940
1126.915436	-0.005579
1127.073270	-0.006579
1127.231087	-0.004305
1127.388885	-0.004560
1127.546665	-0.001166
1127.704426	-0.002176
1127.862170	-0.005231
1128.019895	-0.004521
1128.177602	-0.001295
1128.335291	-0.004508
1128.492961	-0.001038
1128.650614	-0.001141
1128.808248	0.002675
1128.965864	-0.004080
1129.123461	-0.007405
1129.281041	-0.005254
1129.438602	-0.005584
1129.596145	-0.007338
1129.753670	-0.006741
1129.911176	-0.010968
1130.068665	-0.013520
1130.226135	-0.014605
1130.383587	-0.010575
1130.541020	-0.007824
1130.698436	-0.007113
1130.855833	-0.008302
1131.013212	-0.013706
1131.170573	-0.011129
1131.327915	-0.011461
1131.485239	-0.006817
1131.642545	-0.007143
1131.799833	-0.005582
1131.957103	-0.010006
1132.114354	-0.008392
1132.271588	-0.009567
1132.428803	-0.003712
1132.585999	-0.004453
1132.743178	0.002180
1132.900338	0.002531
1133.057480	0.006043
1133.214604	0.005602
1133.371710	0.006672
1133.528797	0.008583
1133.685866	0.008981
1133.842917	0.011545
1133.999950	0.008660
1134.156964	0.002971
1134.313960	-0.001270
1134.470938	0.000250
1134.627898	-0.003883
1134.784840	0.001828
1134.941763	-0.004819
1135.098668	-0.003465
1135.255555	-0.009510
1135.412424	-0.007044
1135.569274	-0.005720
1135.726107	-0.005397
1135.882921	-0.007255
1136.039716	0.001108
1136.196494	-0.002173
1136.353253	0.001199
1136.509995	-0.000084
1136.666717	0.001576
1136.823422	0.000435
1136.980109	0.004484
1137.136777	0.004812
1137.293427	0.003836
1137.450059	-0.005639
1137.606672	-0.005548
1137.763267	-0.005921
1137.919844	-0.007417
1138.076403	-0.000542
1138.232944	0.002375
1138.389466	0.003199
1138.545971	0.000123
1138.702457	-0.001077
1138.858924	0.006683
1139.015374	0.004279
1139.171805	0.005876
1139.328218	0.004532
1139.484613	0.001474
1139.640990	-0.000852
1139.797348	-0.001491
1139.953688	0.004316
1140.110010	0.005808
1140.266314	0.001803
1140.422600	0.003835
1140.578867	0.003802
1140.735116	0.003677
1140.891347	-0.001701
1141.047559	-0.001997
1141.203754	-0.005711
1141.359930	-0.004446
1141.516088	-0.009292
1141.672228	-0.009960
1141.828349	-0.012823
1141.984452	-0.009410
1142.140537	-0.003479
1142.296604	-0.006297
1142.452653	-0.008134
1142.608683	-0.007538
1142.764695	-0.015539
1142.920689	-0.011318
1143.076665	-0.006442
1143.232622	-0.005379
1143.388562	-0.004427
1143.544483	-0.005063
1143.700385	-0.000120
1143.856270	0.006491
1144.012136	0.012632
1144.167985	0.014967
1144.323814	0.014370
1144.479626	0.010365
1144.635420	0.010347
1144.791195	0.001941
1144.946952	-0.004680
1145.102691	-0.000482
1145.258411	-0.008413
1145.414113	-0.010599
1145.569798	-0.008323
1145.725463	-0.005625
1145.881111	-0.004003
1146.036741	0.000996
1146.192352	0.005423
1146.347945	0.013033
1146.503519	0.008467
1146.659076	0.015458
1146.814614	0.009803
1146.970134	0.009188
1147.125636	0.006458
1147.281120	0.002873
1147.436585	-0.001208
1147.592032	0.001459
1147.747461	0.002337
1147.902872	-0.000686
1148.058265	-0.004203
1148.213639	-0.005310
1148.368995	-0.004779
1148.524333	-0.000332
1148.679653	0.008701
1148.834954	0.010562
1148.990237	0.007913
1149.145502	0.005059
1149.300749	0.007131
1149.455977	0.007802
1149.611188	0.013742
1149.766380	0.017595
1149.921553	0.016036
1150.076709	0.011435
1150.231846	0.018901
1150.386966	0.018700
1150.542066	0.017978
1150.697149	0.011087
1150.852214	0.013229
1151.007260	0.009576
1151.162288	0.013239
1151.317298	0.014028
1151.472289	0.012177
1151.627263	0.009801
1151.782218	0.013261
1151.937155	0.015723
1152.092073	0.030946
1152.246974	0.039378
1152.401856	0.034936
1152.556720	0.031187
1152.711566	0.022586
1152.866393	0.025591
1153.021203	0.019061
1153.175994	0.013069
1153.330767	0.011987
1153.485521	0.005757
1153.640258	-0.005016
1153.794976	-0.001400
1153.949676	-0.002586
1154.104358	0.001165
1154.259021	-0.002354
1154.413667	-0.003277
1154.568294	0.000400
1154.722903	-0.004230
1154.877493	-0.011762
1155.032066	-0.012218
1155.186620	-0.014077
1155.341156	-0.010108
1155.495674	-0.013750
1155.650173	-0.019739
1155.804654	-0.013480
1155.959118	-0.014042
1156.113562	-0.012911
1156.267989	-0.003392
1156.422397	-0.006467
1156.576788	0.002654
1156.731160	0.000845
1156.885513	0.003774
1157.039849	0.015776
1157.194166	-0.000643
1157.348465	-0.003966
1157.502746	0.005647
1157.657009	0.007663
1157.811253	0.010738
1157.965479	0.002969
1158.119687	0.003399
1158.273877	-0.003062
1158.428048	-0.001567
1158.582201	0.014625
1158.736337	0.017766
1158.890453	0.006289
1159.044552	0.006618
1159.198632	0.008480
1159.352694	0.001307
1159.506738	0.001152
1159.660764	0.007782
1159.814771	-0.002872
1159.968761	-0.001002
1160.122732	-0.011616
1160.276685	-0.006259
1160.430619	-0.009598
1160.584535	-0.007216
1160.738434	0.008765
1160.892313	0.012531
1161.046175	0.017555
1161.200019	0.027104
1161.353844	0.018038
1161.507651	0.038319
1161.661440	0.032627
1161.815210	0.034424
1161.968962	0.044098
1162.122697	0.032950
1162.276412	0.018599
1162.430110	0.024461
1162.583789	0.024204
1162.737451	0.023936
1162.891094	0.017209
1163.044718	0.028563
1163.198325	0.017742
1163.351913	0.004618
1163.505483	0.008744
1163.659035	0.017589
1163.812569	0.005525
1163.966084	0.001030
1164.119581	0.005333
1164.273060	0.004824
1164.426521	0.005462
1164.579964	0.016481
1164.733388	0.008796
1164.886794	0.001863
1165.040182	-0.007613
1165.193551	0.002778
1165.346903	0.000276
1165.500236	-0.002734
1165.653551	-0.006224
1165.806848	-0.012353
1165.960126	-0.022098
1166.113386	-0.014016
1166.266628	0.001724
1166.419852	0.001504
1166.573058	-0.008386
1166.726245	-0.001508
1166.879414	0.002651
1167.032565	0.004252
1167.185698	0.001589
1167.338812	0.007052
1167.491909	0.002845
1167.644987	-0.010944
1167.798046	0.000068
1167.951088	-0.012884
1168.104111	-0.018757
1168.257117	-0.017509
1168.410103	-0.017475
1168.563072	-0.020032
1168.716023	-0.022384
1168.868955	-0.008686
1169.021869	-0.009147
1169.174765	-0.004392
1169.327642	0.019385
1169.480501	0.016013
1169.633343	0.007858
1169.786165	0.006884
1169.938970	0.009128
1170.091757	0.011904
1170.244525	0.003689
1170.397275	0.003599
1170.550007	-0.014091
1170.702720	-0.021518
1170.855415	-0.019479
1171.008092	-0.010021
1171.160751	-0.006787
1171.313392	-0.001783
1171.466014	-0.040388
1171.618619	0.046269
1171.771205	0.046269
1171.923772	0.046269
