sample name	sample
index	586
start time	 03-16-2021  04:07:19 PM
880	0.043905
Peak Time (s)	182.537
Peak Height 	0.0439
calc peak height	180,183
Baseline Time (s)	10.535
Baseline Value 	-0.002047
subtract baseline	10,4
Abs	0.017528
Peak Time (s)	180.036
Peak Height 	0.01753
calc peak height	180,183
Baseline Time (s)	11.535
Baseline Value 	0.002963
subtract baseline	10,3
PK_550	0.015904
Peak Time (s)	180.537
Peak Height 	0.0159
calc peak height	180,183
Baseline Time (s)	10.535
Baseline Value 	4.232E-4
subtract baseline	10,2
PK_880	0.018375
Peak Time (s)	180.537
Peak Height 	0.01837
calc peak height	180,183
Baseline Time (s)	11.535
Baseline Value 	4.3169E-4
subtract baseline	10,1


Time (s)	A880-A510	A880-A775	A880-A975	A880	I510	I775	I975	I880	
0.037000	-0.001122	-0.000256	-0.006642	0.000538	5592.870559	33874.550342	3632.314497	18373.582694
0.537500	-0.005099	0.000289	-0.006589	0.006685	5530.098010	33477.570659	3621.311559	18155.556827
1.038000	-0.001962	-0.000661	-0.004909	0.002403	5575.959380	33713.099011	3632.075724	18307.119486
1.535000	-0.001219	0.000086	-0.003568	0.000267	5593.967723	33918.333353	3638.422321	18383.281379
2.034500	0.000648	-0.000356	-0.001142	-0.000245	5608.932901	33923.367526	3643.825103	18401.587881
2.536000	-0.002331	0.000339	-0.000098	0.006418	5548.756816	33499.787024	3633.522628	18164.936992
3.036000	-0.000683	-0.000554	0.000124	-0.002399	5614.130818	34063.356123	3650.157808	18478.849427
3.536500	0.000472	-0.001008	0.000419	-0.000443	5609.077717	33890.945357	3647.076320	18408.681401
4.036500	-0.000811	0.000274	0.000212	-0.000012	5598.277573	33951.752044	3645.895386	18393.248054
4.537000	-0.001514	0.000701	-0.000013	0.002335	5579.170929	33814.738895	3641.151220	18309.524583
5.037000	0.000993	0.000998	-0.001215	0.000247	5608.008815	33985.031519	3642.782345	18383.990289
5.537000	0.000765	-0.000639	0.000104	-0.000918	5613.923896	33951.203529	3647.372948	18425.686551
6.035000	-0.000791	-0.000212	0.002581	-0.000646	5602.390382	33962.330068	3651.468344	18415.937840
6.535500	0.000282	-0.000626	-0.004741	-0.000378	5607.459442	33913.504589	3637.453272	18406.322450
7.035000	-0.000338	-0.000187	-0.002261	-0.000649	5605.265312	33964.285539	3642.506305	18416.048478
7.536000	0.001242	-0.000195	-0.001936	-0.000212	5612.472275	33932.500106	3642.298483	18400.391813
8.039000	0.000633	-0.000072	0.003723	-0.000334	5609.400898	33949.992955	3653.015776	18404.759882
8.536500	-0.000214	0.000420	0.001276	0.000397	5599.464710	33932.904881	3647.108475	18378.633231
9.036500	0.000160	0.000705	0.003973	0.000310	5602.358266	33959.545948	3652.282487	18381.732376
9.537000	0.002507	-0.000418	0.000707	-0.001030	5625.670409	33975.008400	3648.698666	18429.697713
10.037000	-0.000371	-0.000536	-0.004464	-0.000772	5605.832323	33948.164891	3638.683712	18420.449816
10.535000	-0.002147	0.000000	-0.004651	0.000000	5589.814696	33931.260399	3636.927116	18392.811403
11.035000	0.002415	-0.000233	-0.000796	0.000115	5617.828053	33906.408725	3643.797906	18388.704045
11.535000	0.000000	0.000187	0.000000	-0.000260	5604.944008	33963.245748	3645.962107	18402.125358
12.036000	0.001227	0.000436	-0.000872	0.000114	5610.320636	33954.306933	3643.659593	18388.742820
12.538500	-0.001007	0.000497	-0.005402	0.000313	5595.006338	33944.469357	3634.984335	18381.637715
13.036000	-0.000220	0.000045	0.002935	-0.000536	5605.300836	33972.821757	3651.924251	18412.011027
13.537500	0.001003	0.000489	0.000254	-0.000161	5610.647473	33977.769559	3646.248733	18398.573018
14.037000	-0.002850	-0.000767	-0.004591	0.001881	5573.677253	33742.642266	3633.604600	18325.693130
14.536000	-0.000937	-0.000062	-0.002682	0.001524	5587.850166	33818.172642	3637.742601	18338.408664
15.034500	0.001269	0.000573	-0.000283	-0.000145	5612.222861	33982.617861	3645.225513	18397.996011
15.538000	0.001994	0.001284	-0.001791	0.000110	5615.193248	34015.272264	3641.972781	18388.876227
16.035000	0.001069	0.001135	0.000571	-0.000247	5611.601995	34030.168165	3646.993298	18401.643529
16.536000	-0.001674	0.000032	0.002476	-0.001036	5599.288124	34007.644090	3651.999166	18429.904670
17.035500	0.001348	0.000558	0.004287	-0.002545	5627.926844	34153.837865	3658.211718	18484.100123
17.536000	-0.001356	0.001508	0.003648	0.002290	5580.434649	33875.405341	3647.993762	18311.106673
18.036500	0.001480	0.000876	0.000589	0.001735	5601.704444	33869.969761	3643.365444	18330.896535
18.536500	-0.000845	0.000695	0.003620	0.001579	5588.082337	33868.123056	3649.264104	18336.443044
19.037000	-0.000679	0.000515	0.000499	0.001901	5587.108447	33832.379769	3642.893615	18324.971167
19.534500	-0.000260	0.000793	0.002324	0.001640	5591.368048	33870.822105	3646.748071	18334.282831
20.034500	-0.000270	0.000641	0.002120	0.002357	5586.807846	33808.856682	3645.041807	18308.732470
20.535000	-0.002001	0.000055	-0.004335	0.001045	5584.193644	33860.589146	3635.596663	18355.497919
21.035500	0.000796	-0.000257	0.002570	0.000828	5603.100628	33853.844187	3648.707824	18363.221933
21.536000	-0.000730	0.000299	-0.004804	0.001368	5590.121572	33854.920434	3634.150586	18343.947109
22.039000	-0.001608	-0.000777	0.000605	0.000323	5591.171501	33852.732418	3646.001699	18381.271513
22.536500	-0.002455	0.000247	-0.004319	0.001824	5576.492102	33818.826113	3634.203640	18327.726940
23.036500	0.002058	0.000098	-0.000868	0.001300	5608.082878	33845.483202	3641.483600	18346.391280
23.536500	-0.001341	0.001057	-0.001861	0.002193	5581.135805	33850.165426	3638.020362	18314.561495
24.036500	-0.001160	-0.000061	0.003092	0.001446	5586.940359	33823.720595	3648.529902	18341.176656
24.537500	-0.001002	-0.000571	-0.001442	0.001004	5590.702269	33818.959635	3640.971198	18356.956348
25.037500	-0.000232	0.000262	0.004550	0.001584	5591.893210	33836.958025	3650.983742	18336.277842
25.535000	-0.000568	0.000685	-0.002150	0.001624	5589.535340	33864.220812	3638.534572	18334.848772
26.035500	-0.001582	-0.000858	-0.002370	0.000747	5588.679092	33816.755432	3639.738124	18366.126310
26.535500	0.000556	0.001187	0.006703	0.002245	5592.691898	33855.805829	3653.765298	18312.738217
27.036000	0.000473	0.000136	0.004968	-0.001161	5613.613808	34024.081348	3656.892541	18434.386050
27.536500	0.000618	0.000165	0.002676	-0.001064	5613.912729	34019.198366	3652.424931	18430.902893
28.037000	0.000030	-0.000301	0.007181	-0.000586	5607.179889	33951.587651	3659.968246	18413.767827
28.536500	-0.000091	0.000234	-0.001796	0.001254	5594.847243	33858.452290	3639.860893	18348.011001
29.037500	0.001862	0.001154	-0.002796	0.000397	5612.545103	33985.354483	3639.597178	18378.600893
29.534500	0.000562	0.000987	-0.000775	-0.000122	5607.609644	34010.586433	3644.274400	18397.163257
30.035500	0.000370	0.001298	0.002268	0.000356	5603.388235	33998.595777	3649.022853	18380.066242
30.535500	-0.002513	0.001277	0.000954	0.003862	5563.453607	33747.109082	3640.123627	18255.306325
31.035500	0.001473	0.000613	0.001174	0.001116	5605.551288	33895.346732	3645.587794	18352.942269
31.538500	0.000297	0.000095	-0.000108	-0.000383	5607.586619	33965.423474	3645.988995	18406.505822
32.036000	0.001571	0.001430	-0.001287	0.000469	5610.254577	34000.045415	3642.240266	18376.046717
32.536500	-0.000431	0.000981	-0.000711	0.001684	5590.019790	33881.067918	3641.065564	18332.703812
33.036500	0.002817	0.000539	0.006133	-0.000457	5623.995660	34002.512284	3657.757395	18409.159112
33.540500	0.002449	0.000529	0.005737	-0.001966	5631.248327	34110.111415	3659.848937	18463.287698
34.037500	-0.000136	0.001149	-0.000834	0.002484	5586.856513	33836.011271	3639.369750	18304.228016
34.537500	-0.002302	-0.000056	0.003137	0.002118	5575.610853	33776.264278	3647.367456	18317.238729
35.037500	0.001409	0.000164	-0.004431	0.002584	5595.914070	33758.776207	3632.614808	18300.673569
35.535500	-0.002376	0.000523	-0.005812	0.002055	5575.538716	33821.972529	3631.065569	18319.474532
36.036000	0.000329	0.000360	0.001990	0.002642	5588.774154	33768.589522	3644.275984	18298.601044
36.536000	-0.002233	-0.000059	0.003794	0.002249	5575.228827	33766.808314	3648.343580	18312.596088
37.036500	0.000522	0.000929	0.003011	0.003043	5587.475947	33780.531600	3645.421973	18284.348329
37.536500	-0.001829	0.000044	0.005697	0.002646	5575.269045	33745.858500	3651.140766	18298.465529
38.037000	-0.001947	0.001039	-0.001748	0.003318	5570.349544	33768.805863	3636.167524	18274.576338
38.537000	-0.000484	0.000206	-0.001953	0.002474	5584.741238	33769.605399	3637.337940	18304.586756
39.038000	-0.000867	0.000964	0.006781	0.002928	5579.511008	33791.208502	3652.635231	18288.437341
39.535000	0.001219	0.000198	-0.000484	0.002288	5596.580393	33782.214608	3640.371488	18311.182629
40.035500	0.001029	0.001203	0.010163	0.002777	5592.317283	33818.965714	3659.253358	18293.804115
40.535500	0.001802	0.001066	0.000735	0.003298	5593.899391	33772.192331	3640.755940	18275.315989
41.038500	-0.000280	0.000361	0.005897	0.002446	5586.191821	33782.655657	3651.886604	18305.590638
41.536500	-0.000005	0.000277	-0.000143	0.002366	5588.414658	33782.316342	3640.856021	18308.425979
42.036500	-0.001056	0.000747	-0.003645	0.003104	5577.231697	33763.266938	3633.098808	18282.195189
42.536500	-0.002608	0.000247	-0.000511	0.002749	5569.773738	33752.945758	3639.476286	18294.791600
43.037000	0.000923	-0.000346	-0.002188	0.003084	5589.728873	33687.091549	3635.793210	18282.903258
43.537500	0.000844	0.000372	0.003989	0.002040	5595.788573	33812.318352	3649.092879	18320.036860
44.037500	0.003063	0.001680	0.003680	-0.001309	5630.977569	34145.646638	3654.758481	18439.702049
44.535000	0.000577	0.001314	0.000905	0.000852	5601.575291	33964.320311	3645.578705	18362.383825
45.035500	-0.001657	0.000625	-0.000411	0.002175	5579.281258	33820.695890	3640.713491	18315.213252
45.538500	0.001534	0.001399	0.003671	0.001480	5603.641651	33925.432568	3649.540970	18339.962296
46.036000	0.001285	0.000909	0.001195	0.000964	5605.324552	33927.286872	3645.907712	18358.360451
46.536500	0.002408	0.001174	-0.001118	0.001441	5609.397538	33912.187978	3640.763152	18341.349978
47.036500	0.000291	0.000207	-0.001195	0.002287	5590.763338	33782.943043	3639.068475	18311.213943
47.537000	-0.000078	0.001622	0.002262	0.004953	5571.804673	33694.059129	3640.519354	18216.650314
48.037000	-0.000034	0.001428	0.002746	0.001956	5590.799703	33893.554226	3646.941157	18322.999139
48.537500	0.001853	0.001496	-0.001140	0.002343	5600.220363	33870.804197	3639.067717	18309.245222
49.034500	0.000320	0.001362	-0.001287	0.003315	5584.510649	33791.985168	3637.016369	18274.693530
49.535500	0.002854	0.000931	0.005987	-0.001130	5628.507196	34078.858310	3658.746360	18433.275172
50.035500	0.003023	0.000977	0.002573	0.000636	5618.381180	33955.655679	3649.070570	18370.092288
50.536000	0.001728	0.001716	-0.002819	0.008733	5559.545497	33433.797847	3624.403410	18083.573314
51.036000	0.022033	-0.001630	0.013558	0.196429	4698.814195	22564.852425	3369.543566	12741.351486
51.536500	-0.012218	-0.015425	-0.004287	-0.003163	5546.870203	33067.172893	3643.405346	18506.345949
52.036500	-0.007753	-0.010471	-0.008974	-0.126920	6466.782060	43475.949213	3896.025781	23665.201116
52.537000	-0.007930	-0.031226	-0.004845	-0.296687	8185.762533	60087.323908	4414.801359	33616.790770
53.034500	0.009081	-0.021459	0.008069	-0.262177	7975.770781	56919.887310	4338.528866	31267.332564
53.537500	-0.003904	-0.015010	0.005496	-0.185285	7021.003534	48830.535135	4088.381636	26657.829767
54.035000	-0.020412	-0.013470	-0.011185	-0.179637	6814.471215	48398.117588	4025.947362	26350.353442
54.535000	-0.017517	-0.007881	-0.013948	-0.213613	7164.123466	52738.434291	4114.132127	28261.916395
55.038500	-0.007046	-0.005291	-0.008251	-0.234535	7486.137271	55511.328778	4194.510981	29515.618009
55.536000	-0.003977	-0.003316	-0.004976	-0.223622	7403.478611	54439.464895	4170.939943	28854.118530
56.036500	-0.003020	-0.000104	-0.013238	-0.205273	7225.443110	52673.736969	4091.985597	27778.712593
56.536000	-0.002239	0.000361	-0.010323	-0.180787	6994.006855	49995.275815	4031.443839	26412.663268
57.037000	-0.002985	-0.000237	-0.010612	-0.154956	6749.114208	47214.318184	3962.046957	25052.625615
57.537000	-0.003956	-0.001270	-0.008191	-0.124825	6480.919548	44145.492573	3892.848653	23565.100699
58.037500	-0.001094	-0.000534	-0.005413	-0.106694	6356.114292	42525.851561	3856.367959	22718.479861
58.535000	0.001454	-0.000602	-0.006529	-0.091568	6256.558040	41163.295533	3819.152236	22038.735462
59.035500	-0.001148	-0.000898	-0.005488	-0.066605	6048.187923	39000.910430	3766.813460	20967.397480
59.535000	-0.002980	-0.001327	-0.002939	-0.050816	5921.755054	37677.428565	3739.061661	20320.920239
60.035500	-0.003780	-0.001234	-0.008210	-0.035680	5811.746790	36493.242330	3697.907498	19722.820079
60.536000	-0.003558	0.000292	-0.007681	-0.008052	5631.750663	34533.307192	3646.167140	18683.475939
61.036500	-0.005389	-0.000077	-0.013304	0.001702	5559.008279	33804.347366	3618.210085	18332.040743
61.536500	-0.004537	0.000615	-0.008761	-0.000886	5580.409253	34038.703652	3631.052796	18424.530977
62.037000	-0.005002	0.001668	-0.003228	-0.010683	5639.315344	34826.599839	3659.383563	18779.651919
62.537500	-0.006340	0.002568	-0.008445	-0.012188	5640.381480	35003.935683	3652.430422	18834.898332
63.037500	-0.005487	0.002786	-0.004546	-0.010226	5633.311970	34875.255065	3656.050908	18762.912979
63.535000	-0.005389	0.001754	-0.013871	-0.009408	5628.727557	34739.288244	3637.271443	18732.967206
64.035000	-0.002835	0.003056	-0.002177	-0.005183	5618.127320	34525.696451	3651.056315	18579.283562
64.538500	-0.000003	0.004189	-0.006759	-0.002646	5619.996886	34423.620021	3637.912174	18487.741746
65.036000	-0.001869	0.004008	-0.009547	-0.001450	5600.671709	34323.825066	3630.650838	18444.775269
65.536500	-0.002035	0.003770	-0.006907	-0.000521	5593.788074	34239.435379	3633.759903	18411.449722
66.036500	-0.005095	0.004168	-0.005758	0.002648	5554.976944	34040.082043	3630.089376	18298.402992
66.537000	-0.004302	0.004551	-0.009706	0.001587	5566.474044	34143.867279	3624.871642	18336.171717
67.037500	-0.000129	0.004430	-0.003409	0.002036	5589.709011	34102.860661	3635.476305	18320.171649
67.537000	-0.000147	0.004532	-0.008170	0.000889	5596.788155	34192.744980	3628.907014	18361.062897
68.034500	-0.002609	0.004579	-0.000583	0.004122	5561.249199	33963.957888	3636.829066	18246.096723
68.535000	-0.001614	0.005240	-0.003321	0.002027	5580.469186	34161.747455	3635.652711	18320.477720
69.036000	-0.001018	0.004754	-0.005245	0.002131	5583.544763	34119.286585	3631.957845	18316.776752
69.535500	0.001205	0.003868	-0.007599	0.002226	5596.881488	34048.817244	3627.519842	18313.403478
70.036000	-0.000215	0.004782	-0.008471	0.005929	5564.885958	33849.408920	3619.293416	18182.192564
70.536500	-0.001237	0.004835	-0.004492	0.003523	5573.493305	34025.204415	3630.798480	18267.330516
71.037000	0.000517	0.005111	-0.008118	0.003674	5583.496244	34034.138360	3623.971327	18261.953363
71.537000	0.000711	0.004773	0.000426	0.002997	5588.943032	34058.442160	3640.741894	18285.982973
72.037000	-0.000992	0.005905	-0.003381	0.007732	5548.915170	33801.019290	3625.195828	18118.730922
72.537500	0.002615	0.005908	-0.002424	0.004263	5592.946351	34049.087125	3633.213004	18241.095938
73.035000	0.001499	0.005442	-0.001365	0.004350	5585.409142	34009.397942	3634.984335	18238.005155
73.535000	0.002396	0.006540	-0.003887	0.005176	5585.854411	34028.916081	3628.900025	18208.800532
74.038000	0.001430	0.006673	-0.000722	0.009838	5550.867248	33705.900425	3626.191645	18044.895704
74.536000	0.003555	0.006847	0.004411	0.006856	5582.591971	33930.616577	3640.972180	18149.513390
75.036000	0.004293	0.006610	-0.000107	0.006808	5587.510187	33917.073578	3632.796396	18151.202208
75.536500	0.003061	0.006882	0.002218	0.007015	5578.519182	33921.764134	3636.660543	18143.932923
76.036500	0.001802	0.006960	-0.005016	0.011901	5540.439545	33580.130875	3614.805373	17972.933064
76.537500	0.001660	0.007841	-0.000042	0.008127	5562.884866	33910.883067	3630.519583	18104.858699
77.037500	0.004440	0.007576	0.000328	0.008724	5576.459986	33849.342947	3630.106728	18083.905856
77.538000	0.003907	0.007805	0.003121	0.009235	5569.957389	33829.259648	3634.256520	18066.011105
78.035000	0.000074	0.006620	0.002702	0.013753	5518.508467	33425.641154	3625.307477	17908.621766
78.538000	0.004751	0.007640	-0.001780	0.010756	5565.750606	33709.350669	3622.634420	18012.838599
79.035500	0.002981	0.008200	0.002442	0.011509	5550.122070	33695.613852	3628.889576	17986.567864
79.536000	0.004794	0.008030	-0.000667	0.010868	5565.320653	33729.138525	3624.434670	18008.935097
80.036000	0.003482	0.007436	0.000782	0.011072	5555.922820	33672.547304	3626.680533	18001.823705
80.536500	0.004149	0.009204	0.000135	0.013723	5543.672636	33609.966331	3620.748668	17909.672605
81.037000	0.004092	0.007337	0.000930	0.012730	5549.449917	33548.240869	3623.957728	17944.120999
81.537000	0.005427	0.007261	-0.000854	0.012410	5559.679394	33565.443532	3621.327481	17955.227338
82.034500	0.002940	0.008178	-0.005439	0.013505	5537.581908	33552.926333	3611.209985	17917.237787
82.537500	0.003526	0.009408	-0.000336	0.015744	5527.434697	33481.692063	3616.295328	17839.779061
83.035500	0.004738	0.008834	0.002106	0.015199	5538.220414	33479.709731	3621.635676	17858.612301
83.535500	0.006176	0.009075	0.003705	0.015425	5545.676495	33480.713467	3624.102203	17850.787310
84.035500	0.005605	0.008819	0.006112	0.015578	5541.220643	33452.021605	3628.170265	17845.535773
84.536000	0.006977	0.008465	0.000853	0.015569	5549.727445	33427.648664	3618.728873	17845.822261
85.036000	0.005701	0.008078	-0.003150	0.015562	5541.909397	33401.027629	3611.621032	17846.080413
85.536500	0.004441	0.008293	0.001407	0.016359	5529.273482	33360.148270	3618.307600	17818.602359
86.037000	0.004030	0.009339	0.004565	0.017042	5522.579724	33385.599527	3622.741179	17795.081294
86.537000	0.004793	0.009177	0.002100	0.017116	5526.790509	33368.983832	3618.192355	17792.528110
87.034500	0.006442	0.008268	-0.001951	0.016978	5537.759038	33314.992123	3611.236356	17797.302149
87.535000	0.005602	0.008934	0.006972	0.017584	5528.878461	33319.180984	3626.097950	17776.444930
88.038000	0.003625	0.009479	-0.004469	0.024641	5474.113886	32866.396176	3593.424976	17536.038838
88.535500	0.005188	0.009799	-0.001316	0.018578	5520.269187	33310.144499	3609.528664	17742.345232
89.036000	0.004078	0.009807	-0.000467	0.019301	5509.106928	33260.182659	3609.753011	17717.615526
89.536000	0.008261	0.010746	0.001541	0.020093	5529.799534	33270.367114	3611.902856	17690.527198
90.036500	0.001353	0.009077	0.003061	0.025323	5456.451254	32791.688058	3605.359558	17513.011186
90.537000	0.003754	0.009351	0.009977	0.019761	5504.340297	33196.151352	3627.593844	17701.886664
91.037000	0.008145	0.010860	-0.005747	0.020654	5525.655202	33239.156581	3598.123991	17671.397993
91.537500	0.005366	0.008642	0.004841	0.019320	5516.828975	33177.414017	3619.153072	17716.941238
92.035000	0.002448	0.009570	0.001536	0.026076	5458.489451	32773.811728	3601.369269	17487.623529
92.535000	0.007522	0.010139	0.003182	0.021572	5516.240817	33124.825876	3612.189706	17640.106652
93.035500	0.005900	0.010775	0.005320	0.021288	5508.098551	33188.969099	3616.494285	17649.775918
93.535500	0.007854	0.010626	0.006503	0.021602	5518.085383	33156.729267	3618.045246	17639.102892
94.036000	0.006053	0.009622	-0.001913	0.026698	5476.335290	32734.593880	3594.287644	17466.673062
94.536500	0.006873	0.009745	0.000951	0.022341	5507.614299	33043.989725	3606.891136	17613.956630
95.036500	0.005717	0.009687	0.000026	0.021421	5506.183331	33103.917316	3606.883545	17645.264216
95.537000	0.006810	0.010721	0.005476	0.022299	5507.487566	33114.783330	3614.972088	17615.390512
96.037500	0.001945	0.011330	0.002913	0.028719	5439.794429	32713.089966	3599.159244	17398.870274
96.537500	0.005927	0.010759	0.005904	0.023898	5492.446398	33006.310212	3612.891977	17561.154510
97.035000	0.007345	0.010433	0.007608	0.022962	5506.705776	33048.634301	3617.588358	17592.863881
97.540500	0.005460	0.010242	0.000749	0.022206	5499.858259	33087.909901	3606.773256	17618.542181
98.035500	0.006569	0.010792	0.004094	0.028894	5466.273259	32664.194540	3600.914343	17393.024072
98.536000	0.007228	0.010910	0.005212	0.024283	5497.988100	32990.085120	3610.985259	17548.135464
99.036000	0.007448	0.011109	0.001592	0.023715	5502.761401	33043.293003	3605.603064	17567.357314
99.536500	0.006938	0.011149	0.005973	0.024081	5497.448856	33020.653845	3612.689199	17554.959466
100.037000	0.009224	0.010785	0.002752	0.023671	5513.826226	33023.878374	3607.721201	17568.848142
100.537500	0.007468	0.011021	0.001750	0.025467	5492.275099	32915.804758	3602.806326	17508.128830
101.037500	0.006248	0.011288	0.003864	0.024318	5491.846184	33013.855237	3608.540904	17546.951127
101.535000	0.008202	0.011315	0.009197	0.023693	5507.474226	33059.177755	3619.123396	17568.117091
102.035500	0.004798	0.010804	-0.001117	0.030110	5448.463192	32581.764626	3589.773988	17352.364030
102.535500	0.008822	0.010528	0.002783	0.025236	5501.872641	32897.747298	3605.024165	17515.938271
103.035500	0.010034	0.010806	0.001276	0.024113	5516.066257	32994.683169	3604.350005	17553.875748
103.536000	0.011032	0.011389	0.005190	0.025315	5514.823387	32951.820599	3609.121972	17513.265336
104.039000	0.005945	0.010678	-0.001377	0.031133	5449.203231	32503.313971	3587.570797	17318.279638
104.536500	0.006182	0.010983	0.003172	0.026446	5478.633475	32845.623865	3603.585077	17475.175381
105.037000	0.008349	0.010805	-0.000237	0.025261	5498.850030	32915.146160	3599.696297	17515.089187
105.537000	0.008275	0.011546	0.000039	0.025752	5495.432892	32932.445851	3599.322431	17498.543036
106.034500	0.006337	0.009020	0.000258	0.029942	5458.624139	32471.497611	3592.434048	17357.980958
106.535000	0.008896	0.011715	0.005987	0.027389	5489.296856	32831.103515	3606.871753	17443.460923
107.038500	0.010155	0.011644	0.008356	0.026828	5500.298537	32864.864451	3612.045387	17462.310920
107.535500	0.011146	0.011857	0.006489	0.026191	5510.186107	32923.591759	3609.869239	17483.757864
108.036000	0.008420	0.011057	0.007092	0.032175	5457.726535	32458.123858	3600.420119	17283.618995
108.536000	0.009898	0.012302	0.013393	0.026857	5498.568797	32908.294725	3620.969624	17461.344790
109.036000	0.007600	0.011678	0.006107	0.026775	5485.182565	32870.885295	3608.164025	17464.107543
109.536500	0.006654	0.010699	0.004526	0.025201	5488.970168	32911.962299	3608.151787	17517.120201
110.037500	0.005911	0.011154	0.002269	0.032736	5439.487306	32426.535283	3591.082492	17264.997792
110.537500	0.008983	0.011279	0.009231	0.026442	5495.541936	32866.355508	3614.283056	17475.303915
111.034500	0.011210	0.011824	0.005416	0.027165	5504.654041	32854.066864	3606.260923	17450.985954
111.537500	0.011815	0.011169	0.001187	0.026380	5513.101009	32862.947488	3600.228237	17477.365792
112.035500	0.006307	0.011848	0.000023	0.033261	5438.731505	32438.067183	3586.322472	17247.607162
112.536000	0.011166	0.012462	0.004300	0.027709	5501.087343	32860.517331	3603.346304	17432.701715
113.036000	0.012339	0.012453	0.004772	0.027900	5507.049857	32846.742061	3603.841132	17426.325735
113.536500	0.010754	0.011699	0.009176	0.027720	5498.525070	32807.110850	3611.917729	17432.338163
114.036500	0.007023	0.012074	0.000040	0.033669	5440.548649	32425.668162	3585.651909	17234.085377
114.537000	0.010808	0.011731	0.010138	0.027721	5498.845435	32809.306007	3613.621961	17432.316533
115.037500	0.012894	0.012374	0.009937	0.028320	5507.867369	32812.301469	3612.203237	17412.221680
115.537500	0.011749	0.012235	0.003158	0.028264	5501.252615	32806.586707	3600.379322	17414.090921
116.038000	0.009754	0.013411	0.000588	0.029052	5484.443909	32833.374094	3594.543836	17387.726602
116.538000	0.010658	0.012365	0.009669	0.028900	5490.810188	32771.770069	3610.702317	17392.811103
117.049500	0.011042	0.012415	0.009164	0.028337	5496.533811	32813.990849	3610.803516	17411.650117
117.536000	0.009702	0.012163	-0.001076	0.029033	5484.243953	32748.770282	3591.701654	17388.373700
118.036500	0.009160	0.012011	0.007103	0.032994	5457.257303	32467.328636	3599.011980	17256.454894
118.536500	0.008339	0.013422	0.002391	0.029790	5471.503736	32783.278202	3596.388877	17363.061420
119.036500	0.009061	0.012626	0.009977	0.029367	5478.374080	32757.596542	3610.420182	17377.194506
119.537000	0.008092	0.011269	0.008786	0.028683	5476.664449	32711.390149	3609.524602	17400.068206
120.119500	0.011995	0.012451	0.009868	0.030342	5490.176327	32678.686893	3608.507389	17344.644676
120.534500	0.010310	0.011861	0.003770	0.031262	5474.496851	32575.299767	3596.229151	17313.988457
121.040500	0.009601	0.012747	0.006842	0.029915	5478.325759	32728.274627	3603.935497	17358.888187
121.535500	0.010214	0.012650	0.001843	0.029729	5483.133448	32734.379773	3595.544387	17365.086118
122.038500	0.006306	0.011235	0.002874	0.033043	5440.014495	32411.237919	3591.597304	17254.834180
122.536000	0.011140	0.013068	0.008630	0.031878	5475.784485	32615.713686	3603.629849	17293.504993
123.036000	0.011883	0.012648	0.005900	0.030680	5487.459455	32669.017298	3600.949132	17333.377289
123.536500	0.008638	0.013597	0.002877	0.031175	5465.001979	32700.114579	3594.831307	17316.886366
124.037000	0.009996	0.012195	0.007804	0.033386	5459.908166	32453.223518	3599.550530	17243.472577
124.537000	0.012047	0.013186	0.008716	0.033064	5474.104795	32542.712417	3601.703836	17254.134444
125.037500	0.011550	0.012463	0.007315	0.030567	5486.135061	32664.033736	3603.623102	17337.136585
125.537500	0.013022	0.013759	0.008734	0.031829	5487.396706	32666.325866	3603.897558	17295.115479
126.035000	0.010671	0.012379	0.004695	0.033430	5463.674720	32462.674666	3594.074349	17242.007588
126.535500	0.008253	0.012168	0.010949	0.031976	5457.922390	32547.404968	3607.531041	17290.227952
127.036000	0.011158	0.012032	0.005053	0.030633	5483.374413	32629.993525	3599.553388	17334.926529
127.536000	0.012627	0.013386	0.007294	0.031692	5485.843255	32650.185992	3601.615477	17299.664843
128.036500	0.006063	0.012456	0.003407	0.032319	5442.864769	32543.683030	3593.767651	17278.851669
128.536500	0.008415	0.012565	0.012361	0.032944	5453.121322	32508.493916	3608.312873	17258.102408
129.040000	0.011974	0.012756	0.007585	0.031124	5485.333409	32645.930169	3603.118652	17318.569586
129.537000	0.011088	0.013595	0.004213	0.031826	5475.778901	32655.285717	3596.017800	17295.215495
130.034500	0.007931	0.012733	0.006679	0.034845	5438.966443	32390.537588	3595.059406	17195.230077
130.538000	0.011208	0.013213	0.008868	0.031966	5475.663137	32619.633472	3603.893496	17290.584950
131.038000	0.015194	0.013866	0.006732	0.032787	5494.727537	32608.040908	3598.725802	17263.302840
131.535500	0.013097	0.013518	0.011602	0.032199	5485.620966	32624.506108	3608.288825	17282.825468
132.036000	0.011935	0.012501	0.009767	0.034434	5465.229802	32402.733232	3601.146195	17208.787989
132.536500	0.011102	0.012946	0.004133	0.031879	5475.546138	32607.243826	3595.787067	17293.465858
133.036500	0.014231	0.012087	0.004849	0.031495	5496.718500	32574.756764	3597.698295	17306.228135
133.537000	0.010056	0.012818	0.010393	0.032604	5464.934932	32548.932866	3605.448743	17269.379218
134.037000	0.010088	0.012692	0.009505	0.034184	5455.699850	32432.706018	3601.125539	17217.057093
134.535000	0.011081	0.013249	0.010569	0.032289	5472.962323	32599.953631	3606.312237	17279.845080
135.036000	0.012978	0.014083	0.009577	0.032968	5480.273243	32610.505470	3603.377789	17257.305062
135.535000	0.010700	0.013170	0.013800	0.032656	5468.479000	32569.420831	3611.364306	17267.653190
136.035000	0.010154	0.013470	0.009264	0.032729	5464.775046	32585.011421	3603.249391	17265.250468
136.536000	0.010905	0.013230	0.005348	0.032664	5469.657244	32572.971436	3596.532010	17267.380060
137.036000	0.012487	0.013401	0.011300	0.033116	5476.436627	32553.810409	3606.142509	17252.411821
137.535500	0.013574	0.013146	0.005826	0.033174	5482.622516	32532.411818	3596.478131	17250.479500
138.036500	0.013585	0.014379	0.012791	0.034177	5476.656890	32548.100865	3606.898125	17217.280952
138.536500	0.011527	0.012505	0.008694	0.032551	5474.061513	32531.238489	3602.562441	17271.143595
139.037500	0.014982	0.012725	0.010029	0.032950	5492.464432	32518.965994	3604.202139	17257.905502
139.535000	0.014989	0.013637	0.004269	0.033796	5487.402141	32523.535204	3592.704528	17229.892737
140.038000	0.013694	0.013780	0.011456	0.034959	5472.617106	32454.023365	3603.182894	17191.466298
140.535500	0.015179	0.013644	0.011287	0.034033	5487.113546	32507.800637	3604.508837	17222.048461
141.035500	0.011946	0.013367	0.001827	0.033171	5472.855403	32547.719582	3589.572552	17250.573260
141.536000	0.012002	0.013216	0.016205	0.033855	5469.095223	32490.738967	3613.503702	17227.939542
142.036000	0.011492	0.013795	0.003356	0.035519	5456.109792	32416.883083	3588.165998	17172.990087
142.536500	0.012371	0.013892	0.013180	0.034220	5469.118296	32511.964321	3607.508353	17215.865928
143.037000	0.015128	0.014446	0.010744	0.034378	5484.728007	32538.945105	3602.952384	17210.633494
143.537000	0.014426	0.013212	0.009940	0.034010	5482.719010	32479.959360	3602.190692	17222.807817
144.034000	0.014299	0.014430	0.012171	0.036073	5469.565492	32422.387017	3602.484463	17154.738515
144.537500	0.011674	0.013628	0.010204	0.036913	5448.898035	32310.969267	3597.588367	17127.115445
145.035000	0.012140	0.013328	0.008284	0.034269	5467.443350	32470.229579	3598.847589	17214.251775
145.535500	0.013432	0.013079	0.010080	0.033972	5476.967866	32473.465258	3602.502193	17224.069639
146.036000	0.010815	0.014096	0.014357	0.035824	5450.265069	32416.675257	3606.757626	17162.947067
146.536000	0.011061	0.013068	0.003331	0.036253	5449.177490	32317.790398	3586.863345	17148.826048
147.035500	0.016154	0.014438	0.010517	0.035970	5481.317737	32429.979521	3599.773828	17158.122162
147.536500	0.012907	0.014450	0.012375	0.035210	5466.398213	32482.494455	3604.352329	17183.165070
148.037000	0.013588	0.013103	0.009726	0.034923	5472.201384	32410.383012	3600.222143	17192.654095
148.537500	0.012417	0.013720	0.012070	0.037872	5447.616874	32252.323698	3599.166010	17095.651708
149.037500	0.015589	0.014299	0.009667	0.035759	5479.196089	32434.916227	3598.662162	17165.096419
149.537500	0.013633	0.014051	0.014519	0.035066	5471.606950	32465.151808	3608.376357	17187.916785
150.035000	0.011812	0.013494	0.010343	0.036114	5454.467504	32356.038969	3599.220474	17153.382361
150.535000	0.011228	0.013991	0.009572	0.037248	5444.262436	32312.902252	3595.908183	17116.120073
151.036000	0.013924	0.013532	0.011151	0.035672	5469.724093	32388.681526	3601.402095	17167.950136
151.536500	0.015492	0.013938	0.011497	0.035690	5479.026420	32415.026032	3601.974608	17167.351292
152.036500	0.016274	0.013178	0.010193	0.035340	5485.835547	32387.189095	3600.309228	17178.891907
152.536500	0.011052	0.014303	0.006347	0.038642	5434.970386	32239.697368	3587.939395	17070.445979
153.037500	0.014784	0.015356	0.013065	0.036381	5470.623228	32464.462447	3603.509043	17144.593341
153.537500	0.012290	0.014600	0.020839	0.036184	5456.906256	32426.467002	3617.605640	17151.105529
154.040000	0.012620	0.014805	0.008502	0.036774	5455.353694	32400.283611	3594.876303	17131.687071
154.535500	0.010874	0.014469	0.013471	0.039008	5431.752611	32226.212286	3599.628819	17058.472777
155.035500	0.014747	0.014570	0.010697	0.036854	5467.574134	32378.865372	3598.548637	17129.051944
155.535500	0.013808	0.014503	0.009432	0.036815	5462.193010	32376.956099	3596.418106	17130.346645
156.036000	0.014388	0.015297	0.016101	0.037575	5461.117042	32379.281116	3606.743648	17105.377919
156.536000	0.013001	0.014207	0.018089	0.039615	5440.736599	32167.505687	3606.652209	17038.620403
157.036500	0.014728	0.013931	0.013699	0.035960	5472.819483	32396.253668	3605.361434	17158.477990
157.536500	0.014218	0.014728	0.013246	0.036847	5464.451816	32390.034337	3603.010464	17129.282814
158.037000	0.013776	0.015821	0.016451	0.037703	5456.703237	32406.200835	3607.134866	17101.196110
158.534500	0.015238	0.013902	0.006886	0.036620	5471.917137	32349.466223	3592.347050	17136.760017
159.035000	0.017088	0.015720	0.011938	0.037575	5477.290899	32407.997424	3599.453910	17105.393050
159.535500	0.013174	0.015145	0.012297	0.037152	5456.397893	32397.668388	3600.816672	17119.257001
160.035500	0.014893	0.013775	0.011981	0.036592	5470.017629	32342.764844	3601.245450	17137.685958
160.536000	0.012258	0.013739	0.011187	0.039703	5435.822089	32130.074010	3594.451657	17035.745811
161.035500	0.014496	0.014973	0.011790	0.037009	5465.143090	32395.658809	3600.182551	17123.953129
161.536000	0.012947	0.013903	0.010708	0.036237	5460.506156	32375.492344	3599.642573	17149.348699
162.036000	0.014384	0.015669	0.009817	0.037954	5458.829085	32378.788596	3595.108465	17092.950828
162.537000	0.015235	0.015376	0.013125	0.037445	5466.960432	32393.474236	3601.752895	17109.669612
163.037500	0.014425	0.014696	0.011474	0.037593	5461.235919	32337.310935	3598.614532	17104.814751
163.537500	0.013716	0.014483	0.016391	0.037170	5459.526683	32351.521139	3607.968839	17118.682582
164.035000	0.013379	0.014430	0.001682	0.037687	5454.438057	32312.861437	3581.597533	17101.719875
164.535500	0.011880	0.014643	0.015346	0.037214	5448.336212	32359.434483	3606.051380	17117.240094
165.035500	0.015246	0.014517	0.015197	0.037897	5464.322317	32304.594679	3604.591032	17094.845609
165.536000	0.014704	0.015050	0.015213	0.038321	5458.552990	32311.908458	3603.874716	17080.935091
166.036500	0.014254	0.015587	0.007697	0.038082	5457.297077	32364.553801	3591.224265	17088.783942
166.536500	0.011350	0.015121	0.013160	0.040987	5422.900000	32136.725071	3595.647997	16993.923628
167.037000	0.014734	0.016010	0.004237	0.038949	5454.992074	32334.432698	3583.802221	17060.398629
167.537500	0.013572	0.014439	0.012933	0.038251	5452.229697	32275.319804	3600.009742	17083.231658
168.038000	0.017152	0.016428	0.008242	0.039750	5464.635863	32308.529479	3589.290125	17034.229894
168.535000	0.012886	0.014064	0.010340	0.040636	5434.016308	32089.153983	3591.376107	17005.324215
169.035000	0.016750	0.015551	0.014678	0.039190	5465.584258	32287.043436	3601.417123	17052.521473
169.535000	0.017528	0.015494	0.013181	0.038184	5476.271800	32351.269605	3600.558518	17085.416807
170.036000	0.015346	0.014905	0.014009	0.037854	5465.170759	32333.738650	3602.583115	17096.226944
170.536500	0.013358	0.015068	0.007675	0.038192	5451.303140	32321.885599	3590.995494	17085.152217
171.036000	0.016029	0.015664	0.019241	0.039038	5462.180065	32304.985117	3609.702145	17057.487874
171.536500	0.014192	0.015064	0.010918	0.040049	5445.229260	32196.031967	3593.388311	17024.458713
172.037000	0.017471	0.015659	0.012067	0.039554	5467.715491	32269.663233	3596.236277	17040.615741
172.537500	0.016622	0.016192	0.012086	0.040114	5459.301133	32267.877411	3595.298868	17022.351688
173.037500	0.016339	0.015665	0.009027	0.038791	5465.513357	32321.790713	3592.295736	17065.569367
173.535000	0.014228	0.015481	0.011307	0.040212	5444.475040	32213.198136	3593.779150	17019.147228
174.035000	0.015811	0.015419	0.014347	0.039824	5456.191514	32235.241904	3599.732876	17031.811202
174.536000	0.017383	0.014436	0.014333	0.038479	5473.632401	32259.743679	3602.058009	17075.783875
175.035500	0.016813	0.016288	0.016167	0.040079	5460.645883	32276.714364	3602.465975	17023.485938
175.536500	0.017491	0.015829	0.010607	0.041243	5457.747040	32167.116036	3590.792182	16985.580798
176.036500	0.015590	0.015263	0.007286	0.039183	5458.695040	32267.960267	3588.621147	17052.729063
176.537000	0.012796	0.015664	0.013294	0.043267	5417.997100	32019.964228	3591.935469	16919.904075
177.037500	0.015685	0.016171	0.012229	0.040195	5453.236345	32261.008398	3595.406746	17019.710970
177.540000	0.017824	0.015023	0.014766	0.039034	5472.952293	32261.864953	3601.844024	17057.621403
178.035000	0.016599	0.015444	0.018804	0.039581	5462.341729	32253.322729	3607.971696	17039.730830
178.535500	0.016212	0.016143	0.018932	0.044293	5432.061414	31983.290594	3599.934690	16886.706764
179.035500	0.013637	0.015698	0.015394	0.039989	5442.293064	32242.913602	3601.272200	17026.433476
179.536000	0.016219	0.014931	0.011766	0.039024	5463.397292	32256.262911	3596.633433	17057.923715
180.036500	0.017377	0.015400	0.017528	0.039376	5468.218816	32264.207932	3606.086995	17046.440734
180.536500	0.018375	0.015904	0.014393	0.040374	5468.222867	32230.824141	3598.854957	17013.883869
181.036500	0.014809	0.015840	0.016776	0.040378	5446.943190	32226.282709	3603.008966	17013.756206
181.537000	0.014285	0.015596	0.012490	0.043618	5424.686165	31991.887330	3589.945281	16908.549811
182.037000	0.015079	0.015709	0.012598	0.040328	5448.839832	32220.759970	3595.815693	17015.380593
182.537500	0.013376	0.015720	0.013394	0.043905	5417.658653	31980.999855	3591.008180	16899.271081
183.035000	0.015050	0.015555	0.014316	0.039800	5451.800782	32246.007356	3599.720482	17032.585298
183.535000	0.014004	0.014749	0.008733	0.042860	5427.497308	31985.956263	3584.801256	16933.089530
184.035000	0.015163	0.015425	0.012030	0.040393	5448.952582	32197.234648	3594.718987	17013.262525
184.535500	0.017636	0.015807	0.011952	0.040048	5465.753976	32246.340610	3595.180678	17024.513009
185.036000	0.017556	0.014815	0.016375	0.040179	5464.489910	32170.514864	3602.655688	17020.245230
185.536500	0.013912	0.015041	0.017550	0.044149	5419.371446	31919.242039	3597.780112	16891.382743
186.037000	0.015920	0.015783	0.017214	0.040570	5452.399514	32209.438496	3603.440447	17007.487253
