sample name	sample
index	414
start time	 03-08-2021  11:15:39 AM
880	0.054694
Peak Time (s)	91.038
Peak Height 	0.05469
calc peak height	90,93
Baseline Time (s)	9.537
Baseline Value 	-0.002802
subtract baseline	10,4
Abs	0.042829
Peak Time (s)	90.537
Peak Height 	0.04283
calc peak height	90,93
Baseline Time (s)	8.537
Baseline Value 	0.002485
subtract baseline	10,3
PK_550	0.021843
Peak Time (s)	90.037
Peak Height 	0.02184
calc peak height	90,93
Baseline Time (s)	10.035
Baseline Value 	6.0234E-4
subtract baseline	10,2
PK_880	0.041068
Peak Time (s)	92.538
Peak Height 	0.04107
calc peak height	90,93
Baseline Time (s)	11.036
Baseline Value 	0.00127
subtract baseline	10,1


Time (s)	A880-A510	A880-A775	A880-A975	A880	I510	I775	I975	I880	
0.034500	-0.004092	-0.001469	-0.007844	0.006578	6880.178626	46388.704068	3948.851725	24510.633073
0.535000	-0.002451	0.000220	-0.000837	0.005023	6909.915102	46714.892635	3971.138754	24588.357504
1.035500	-0.001628	0.000108	0.000688	0.003867	6928.435811	46820.350846	3978.208656	24646.297032
1.536000	-0.000488	-0.000237	-0.003157	0.000776	6968.329233	47099.122612	3976.214940	24802.041713
2.039000	-0.003820	-0.001004	-0.004568	0.006118	6886.964234	46481.340445	3958.522042	24533.567446
2.536500	-0.000747	-0.000361	-0.001047	0.000178	6971.533470	47147.285940	3983.387918	24832.269101
3.039000	0.002090	0.000031	-0.000295	-0.001259	7012.264859	47334.210574	3989.219186	24905.186322
3.537000	0.001649	0.000143	0.005382	0.001292	6983.708651	47085.181868	3997.596834	24775.951578
4.034500	-0.000701	0.000715	-0.004050	0.001943	6955.275668	47077.197131	3970.790210	24743.129946
4.537500	-0.001583	-0.000100	0.000814	0.000380	6961.710230	47153.394272	3987.806090	24822.067890
5.035000	0.000290	0.000868	0.004406	0.001321	6970.535074	47156.101506	3994.898301	24774.498985
5.535000	0.001274	-0.000167	0.002473	0.000612	6986.613918	47122.880296	3991.617408	24810.322817
6.035500	-0.000344	-0.000028	-0.002273	0.000558	6971.761045	47142.563267	3979.130453	24813.072761
6.536000	0.001580	-0.000691	0.002826	0.000329	6992.220542	47098.327525	3993.320142	24824.637617
7.036000	-0.001346	0.000059	0.001611	-0.000139	6968.865414	47222.560955	3991.318835	24848.327734
7.536000	0.000620	0.000384	-0.002867	0.000584	6980.662571	47181.886804	3977.487829	24811.741568
8.037000	-0.000966	0.000525	-0.001090	0.000626	6965.214475	47192.015942	3982.084818	24809.610477
8.536500	0.000186	0.000795	0.000000	0.000573	6976.640229	47224.956486	3985.120931	24812.278661
9.037000	-0.001219	0.000132	0.002478	0.000206	6966.806712	47194.829341	3992.717282	24830.888943
9.537500	-0.000111	-0.000323	-0.000882	0.000000	6979.259865	47169.413497	3984.301160	24841.299517
10.035000	-0.000486	0.000000	0.000507	-0.000253	6978.096790	47228.105227	3988.673268	24854.093772
10.535000	0.001278	0.000613	-0.000445	0.000502	6987.696655	47213.690384	3984.126698	24815.904008
11.035500	0.000000	-0.000597	0.000767	-0.000118	6981.439025	47153.501390	3989.009040	24847.275818
11.535500	0.001093	-0.000153	-0.000451	-0.000125	6991.901462	47199.470915	3985.777516	24847.618496
12.036500	-0.000503	0.000190	-0.002837	-0.000087	6976.368532	47230.590829	3979.342251	24845.696463
12.539000	-0.000161	0.000486	-0.007052	-0.000012	6978.896416	47253.094451	3968.040896	24841.889218
13.037500	0.000248	0.000759	-0.001010	0.000422	6978.672892	47236.774381	3982.839676	24819.957911
13.538500	-0.000317	-0.000340	-0.002363	-0.000878	6985.644969	47257.204210	3982.695494	24885.795085
14.034500	-0.001707	0.000254	0.002584	0.003016	6935.694308	46921.393142	3985.497035	24689.084291
14.537500	0.001336	0.000718	0.000127	0.001851	6975.431797	47086.828401	3982.063559	24747.750179
15.035500	-0.000572	0.000178	-0.001264	-0.000427	6978.940390	47264.099608	3984.420916	24862.950263
15.535500	-0.000522	-0.000507	0.001198	-0.000928	6984.178872	47245.357512	3992.325617	24888.358465
16.035500	0.000935	-0.000150	-0.001651	-0.001103	6999.724648	47299.680479	3985.187944	24897.243980
16.536000	0.001504	0.000976	0.002480	-0.000073	6995.327889	47309.431501	3993.468301	24844.982711
17.036500	0.002082	0.001193	0.007529	-0.001361	7013.154705	47463.701183	4010.579287	24910.336996
17.536000	0.001621	0.001249	0.004086	0.001684	6979.719709	47157.931915	3993.066050	24756.163879
18.036500	-0.000645	0.000345	0.001704	0.001138	6963.416452	47121.480627	3988.157182	24783.739091
18.537000	0.000011	0.000041	-0.000679	0.001089	6970.087186	47095.456960	3981.946574	24786.202785
19.037500	0.000649	-0.000005	-0.005026	0.001331	6973.844550	47066.214532	3969.835362	24774.009244
19.535000	-0.000546	0.000255	-0.003637	0.001346	6962.380653	47091.129707	3973.447431	24773.235208
20.035500	0.000157	-0.000069	0.000616	0.000861	6973.631501	47107.470175	3985.994633	24797.725955
20.535500	0.000771	0.000820	0.000574	0.001447	6973.906558	47138.461547	3984.325277	24768.146170
21.036000	-0.000659	-0.000260	-0.002552	0.000856	6965.951056	47088.631709	3977.603006	24798.004561
21.535500	-0.000687	0.000280	-0.001546	0.001148	6962.920391	47113.856134	3979.491168	24783.239215
22.039000	-0.000903	0.000306	-0.005222	0.001334	6959.117422	47097.544981	3969.310548	24773.849908
22.537000	0.001194	0.000665	0.001076	0.001312	6979.191533	47136.306198	3986.019817	24774.941501
23.037000	-0.000922	0.000605	0.006191	0.001785	6954.679160	47082.065024	3998.447487	24751.073458
23.540000	-0.002363	0.001257	-0.003329	0.001832	6940.649778	47143.669251	3972.976204	24748.685476
24.035000	0.001524	0.000975	-0.002164	0.001796	6977.735268	47118.621488	3976.144691	24750.527582
24.535000	0.001518	0.000478	0.000268	0.001333	6982.076492	47115.208158	3983.815869	24773.910910
25.035000	0.000647	0.000638	-0.002381	0.001518	6972.044650	47112.602200	3976.305020	24764.531409
25.535500	-0.000931	0.000015	-0.002191	0.000801	6963.886474	47122.183886	3978.702123	24800.743912
26.036000	-0.000941	-0.000533	-0.001091	0.000662	6965.115757	47080.531853	3981.985495	24807.787711
26.539000	-0.000886	0.000440	0.001831	0.001343	6959.185754	47110.209489	3987.948241	24773.358869
27.036500	0.003181	0.000558	0.004933	-0.000794	7018.260822	47340.538799	4002.006744	24881.551700
27.537000	-0.002540	0.000065	-0.006254	0.001123	6945.657424	47094.472853	3967.156659	24784.481965
28.037000	0.001115	0.000684	0.001073	0.000023	6990.710125	47269.916581	3989.450366	24840.153658
28.535000	0.002103	0.000243	0.002889	-0.000545	7005.555537	47282.805981	3995.832802	24868.918499
29.034500	0.001612	0.000244	0.000694	-0.000294	6998.461274	47257.199980	3989.282222	24856.173186
29.535500	0.001106	0.000355	0.000061	0.002312	6968.875345	47002.975693	3980.664062	24724.489221
30.035500	0.000470	-0.000055	-0.002188	-0.000500	6989.541220	47247.803398	3982.157546	24866.639048
30.535500	0.000389	0.000544	-0.000959	0.003339	6952.386558	46918.053916	3975.251433	24672.830554
31.036000	-0.000328	-0.000326	0.004517	0.001483	6963.141148	47018.067995	3994.759454	24766.292448
31.536500	0.000102	0.000780	0.000478	0.002729	6955.430564	47003.824869	3980.664510	24703.483526
32.036500	0.002732	0.000308	-0.000587	-0.000196	7008.230659	47253.818858	3985.606204	24851.251213
32.537000	0.001811	0.000479	-0.001745	-0.000192	6999.397663	47270.912920	3982.518261	24851.031532
33.037000	-0.000963	0.000264	-0.002000	0.000510	6966.350474	47177.258744	3979.979454	24815.489888
33.537500	-0.001794	0.000644	0.001356	0.002562	6939.130172	47006.955061	3983.437958	24711.891543
34.034500	-0.003041	0.000212	0.004883	0.001836	6934.243726	47036.947366	3994.794243	24748.503341
34.535500	-0.001097	-0.000683	0.000207	0.001311	6957.503891	46999.340492	3983.710091	24775.002564
35.035500	-0.001144	0.000157	-0.000307	0.001646	6953.899890	47050.625058	3981.455965	24758.090036
35.536000	-0.002899	0.000480	0.001200	0.002871	6925.865930	46959.008238	3982.205555	24696.378993
36.039000	-0.000876	0.000422	-0.006253	0.001895	6954.075438	47052.254965	3965.141305	24745.525116
36.536500	-0.001329	0.000331	-0.002170	0.001788	6950.809243	47053.858175	3976.149872	24750.903620
37.036500	0.000464	0.001268	0.002768	0.003094	6955.397905	47016.287501	3985.777516	24685.118763
37.536500	-0.002804	0.000086	-0.001226	0.002544	6929.821323	46952.203569	3976.647625	24712.829849
38.034500	-0.001148	0.000749	0.000177	0.001972	6950.781426	47077.701773	3981.876635	24741.661772
38.535000	0.000505	0.001056	-0.000204	0.002429	6962.075754	47062.398807	3979.652254	24718.588065
39.035000	-0.000789	-0.000238	-0.003498	0.001860	6955.225074	46988.721672	3972.460186	24747.298459
39.535500	-0.000531	-0.000108	-0.001008	0.002722	6949.523882	46914.446657	3976.749427	24703.835529
40.035500	-0.001709	0.000579	-0.002600	0.002291	6942.479670	47027.923864	3973.687855	24725.541168
40.536000	-0.000702	0.000660	-0.002854	0.001844	6956.196543	47081.651386	3974.198071	24748.085846
41.036000	0.000060	0.000807	0.001199	0.002634	6955.930676	47016.245460	3982.828556	24708.264722
41.537000	0.000261	0.000453	0.002222	0.001908	6964.703937	47054.180992	3987.486172	24744.891558
42.037000	-0.000751	0.000863	0.002959	0.002453	6949.989161	47040.396622	3987.996474	24717.405952
42.534500	-0.000430	0.000324	-0.000417	0.002035	6956.958224	47028.043231	3980.132725	24738.445428
43.035000	-0.001125	0.000475	0.000374	0.002146	6949.356832	47032.121422	3981.936057	24732.871308
43.535000	0.000249	0.001256	-0.002137	0.002199	6961.827031	47106.225250	3975.150613	24730.196900
44.035000	0.001365	0.001397	0.002632	0.000208	6991.323630	47323.817927	3993.123372	24830.744706
44.535500	0.000551	0.000043	0.003193	-0.000652	6991.764304	47273.364152	3996.937099	24874.359931
45.035500	0.000330	0.000891	0.002692	0.001375	6970.400979	47152.986731	3990.161794	24771.764506
45.538500	0.001901	0.001193	0.006055	0.000222	6996.302026	47301.481774	4002.291873	24830.036911
46.036500	0.002786	0.000504	0.002107	-0.000243	7009.192246	47278.580627	3992.924501	24853.606858
46.536500	0.001174	-0.000391	0.003583	-0.000899	7000.057118	47254.186848	3998.650731	24886.865835
47.036500	0.001517	0.000181	0.003235	0.000650	6988.564020	47154.553448	3993.556057	24808.415195
47.537500	-0.001877	0.001033	-0.001968	0.005047	6915.048443	46794.505653	3968.104827	24587.125462
48.037500	-0.000117	0.001119	0.000545	0.000633	6973.191618	47251.900064	3986.412532	24809.249599
48.535500	0.000669	0.001095	0.003384	0.000340	6983.453210	47279.443060	3994.787410	24824.106061
49.035500	-0.000617	0.000941	0.001232	0.001315	6962.008212	47164.197792	3986.426578	24774.803940
49.535500	-0.000860	0.000641	-0.003944	0.004963	6925.364187	46763.397348	3963.157573	24591.353022
50.036000	0.002326	0.000723	0.004385	-0.000376	7006.067755	47314.608021	3999.401371	24860.335924
50.536000	0.000255	0.000367	-0.000220	0.003334	6951.165478	46900.493590	3977.215938	24673.062777
51.036000	-0.012390	-0.010915	-0.005612	0.200891	5379.131078	30095.950888	3548.758049	16694.916773
51.536500	-0.045631	-0.028416	-0.016428	-0.031718	6850.223763	47540.635860	4028.112837	26507.978006
52.036500	-0.027490	-0.027967	-0.004694	-0.104714	7783.308754	55769.269419	4286.330502	30839.196189
52.534500	-0.020411	-0.030501	0.005558	-0.135432	8231.530125	59315.378921	4430.455302	32891.010436
53.035000	-0.032553	-0.024560	-0.002349	-0.096094	7630.424675	55138.212633	4265.432831	30288.993865
53.535500	-0.036176	-0.023525	-0.012760	-0.104635	7684.818143	56303.252509	4259.260163	30834.066091
54.035500	-0.016779	-0.024585	-0.006565	-0.139456	8327.166855	60621.868422	4400.874850	33170.709404
54.535500	-0.000421	-0.027208	-0.000181	-0.155954	8757.304584	62496.474845	4485.889166	34344.944917
55.038500	0.007080	-0.021402	0.003145	-0.147864	8749.291423	62183.753928	4467.819786	33763.567597
55.536000	0.004423	-0.011532	-0.000552	-0.119107	8337.930337	59660.021302	4349.851946	31782.532353
56.036500	0.012205	-0.004383	0.005906	-0.093545	8117.957585	57303.101318	4284.425524	30128.420045
56.537000	0.010261	0.000023	0.010113	-0.062185	7729.379428	54028.030012	4196.243237	28227.657117
57.037000	0.013257	0.001007	0.008854	-0.062188	7763.158109	54144.459211	4192.295931	28227.859682
57.537500	0.008326	0.002930	0.009636	-0.032385	7385.822648	50956.863509	4104.204326	26544.319524
58.035000	0.012956	0.005667	0.013047	-0.011950	7223.876170	49037.168120	4055.205572	25454.993116
58.535500	0.013713	0.006279	0.017027	-0.005278	7164.752139	48397.603827	4047.629947	25110.258414
59.036000	0.020104	0.009533	0.016716	0.004602	7130.261482	47708.359642	4019.379276	24609.429799
59.539000	0.017797	0.010514	0.015927	0.016802	6989.782630	46565.282491	3984.319561	24006.525157
60.036500	0.020665	0.012006	0.021554	0.016350	7021.519013	46761.172271	4000.596506	24028.546703
60.536500	0.024648	0.014161	0.024925	0.012605	7096.343963	47361.404989	4019.943372	24212.037811
61.036500	0.024783	0.015407	0.022989	0.006857	7154.195331	48083.485914	4030.438865	24496.700987
61.537000	0.021999	0.014453	0.024198	-0.002608	7220.862007	48978.068006	4060.319163	24973.770936
62.035000	0.026213	0.016968	0.025144	-0.005938	7297.381519	49602.702597	4072.499593	25144.120116
62.535000	0.026790	0.017997	0.025394	0.003193	7210.718106	48739.195063	4047.340171	24680.169746
63.035000	0.025431	0.017395	0.020725	0.007823	7151.051373	48190.027531	4021.539639	24448.603120
63.535500	0.023563	0.018109	0.022737	0.016250	7050.383085	47392.465063	4004.061018	24033.422049
64.036000	0.028510	0.019994	0.027999	0.017225	7088.947122	47485.780254	4015.714310	23985.926212
64.536000	0.027460	0.019893	0.026464	0.020212	7049.761526	47169.808276	4003.427052	23841.004214
65.036500	0.028684	0.020229	0.027374	0.025595	7009.768744	46658.053818	3991.396899	23582.344113
65.537000	0.025668	0.019613	0.022464	0.030303	6936.514143	46124.665404	3965.948820	23358.745966
66.037000	0.030297	0.020085	0.031142	0.026517	7016.387253	46550.728230	3999.036457	23538.368553
66.536500	0.027519	0.020376	0.025423	0.026630	6988.768867	46568.682564	3983.435927	23532.992125
67.034500	0.029119	0.020270	0.027524	0.026458	7005.675995	46575.294807	3989.491163	23541.197157
67.535000	0.023300	0.019722	0.025961	0.031792	6900.424826	45987.559383	3971.216216	23288.554234
68.035000	0.031001	0.021447	0.030728	0.026675	7021.621684	46671.913134	3997.496014	23530.837175
68.536000	0.031475	0.021018	0.035252	0.025603	7036.491108	46736.915694	4012.643494	23581.978186
69.038500	0.030017	0.020720	0.034132	0.026758	7011.393442	46590.332341	4006.462787	23526.878537
69.536500	0.027516	0.020808	0.033509	0.030031	6956.489881	46270.989770	3995.952421	23371.616744
70.036500	0.033943	0.020841	0.031804	0.023814	7077.686442	46900.017220	4008.135690	23667.599897
70.537000	0.034205	0.021329	0.031522	0.023642	7081.914126	46966.948719	4007.837030	23675.843248
71.037000	0.029947	0.021878	0.032221	0.025874	7019.192171	46796.343275	4003.683176	23569.035302
71.537000	0.030303	0.021804	0.032075	0.029212	6990.691844	46452.667534	3994.301448	23410.350757
72.035000	0.035073	0.022687	0.030629	0.023943	7087.432654	47074.332644	4004.600549	23661.395223
72.535500	0.034878	0.022891	0.037562	0.023946	7085.501920	47094.786789	4023.502628	23661.252461
73.035500	0.035530	0.022830	0.031873	0.026980	7062.354703	46780.821625	3999.756905	23516.311903
73.535500	0.034213	0.021934	0.032817	0.029242	7027.826051	46462.788157	3996.213123	23408.956248
74.036000	0.039143	0.022873	0.036831	0.025429	7112.693368	46942.240216	4017.430712	23590.283958
74.536000	0.037426	0.022490	0.038287	0.025903	7091.270160	46855.368883	4020.118883	23567.667028
75.036500	0.036625	0.022336	0.034586	0.027951	7063.556415	46632.933270	4004.460429	23470.157120
75.536500	0.036372	0.021984	0.034146	0.030839	7033.225950	46307.768324	3995.493656	23333.458324
76.037000	0.038131	0.022448	0.037467	0.027666	7080.957430	46673.017103	4013.058225	23483.691508
76.537500	0.039431	0.022911	0.039056	0.028508	7085.412393	46634.722919	4015.094993	23443.705060
77.035000	0.036483	0.022318	0.033962	0.030933	7033.381785	46331.787265	3994.745339	23329.003683
77.535000	0.038189	0.022738	0.041653	0.029478	7063.923421	46519.838537	4019.545544	23397.779758
78.035500	0.040177	0.022353	0.040347	0.029840	7079.707248	46444.809891	4014.984549	23380.625262
78.538500	0.039548	0.022652	0.044194	0.030880	7063.497867	46370.557508	4022.671134	23331.511477
79.036500	0.038090	0.022414	0.038630	0.031440	7043.987309	46290.634400	4005.963381	23305.103662
79.536500	0.036501	0.021915	0.028944	0.036973	6975.835760	45691.953329	3965.450154	23046.081903
80.037000	0.040431	0.022704	0.040301	0.033491	7046.784370	46115.058468	4004.935942	23208.733090
80.537000	0.039075	0.021328	0.034434	0.033598	7032.682062	45967.667394	3988.878009	23203.699219
81.034500	0.039413	0.021725	0.037958	0.034548	7026.801320	45912.841671	3995.770746	23159.223508
81.534500	0.035694	0.021159	0.034504	0.039559	6943.762857	45363.812806	3973.257494	22926.175648
82.035500	0.038747	0.021606	0.039979	0.036411	7002.571464	45716.898277	3996.194945	23072.271993
82.535500	0.038754	0.021961	0.038703	0.037827	6989.133057	45612.433110	3988.983495	23006.422941
83.035500	0.038995	0.022358	0.039948	0.039367	6976.788948	45500.057639	3988.197376	22935.038004
83.536500	0.038720	0.021763	0.036360	0.039508	6972.834740	45427.896445	3978.288889	22928.502628
84.036500	0.040358	0.022263	0.040181	0.041241	6971.935210	45307.284409	3983.825715	22848.532886
84.536500	0.038677	0.022046	0.040737	0.042613	6943.092285	45152.303267	3981.659569	22785.443518
85.037000	0.038552	0.021552	0.039198	0.042540	6942.592963	45111.335376	3977.775592	22788.769568
85.537500	0.037228	0.021613	0.034578	0.043801	6918.339540	44994.812279	3962.332086	22730.969940
86.035000	0.039834	0.021122	0.037265	0.044232	6938.746614	44905.562279	3968.233603	22711.257594
86.535000	0.038663	0.021330	0.039708	0.045337	6917.385413	44818.746427	3971.746125	22660.734535
87.035000	0.038285	0.020783	0.036765	0.048375	6885.562961	44474.090149	3956.123286	22522.628865
87.535000	0.036962	0.021617	0.039448	0.050112	6857.255031	44387.719282	3958.579743	22444.069878
88.039000	0.039423	0.020800	0.039347	0.047405	6905.178512	44568.758334	3965.375257	22566.624009
88.536500	0.037894	0.022080	0.042540	0.049212	6874.180242	44518.128557	3969.007466	22484.738344
89.036000	0.036903	0.020462	0.036897	0.051877	6840.473499	44109.524248	3947.415339	22364.583293
89.537000	0.039572	0.020971	0.036052	0.052368	6860.513172	44111.209160	3943.980504	22342.515631
90.037000	0.040025	0.021843	0.040813	0.051238	6875.142373	44301.686670	3959.200265	22393.299071
90.537000	0.039007	0.021256	0.042829	0.051840	6860.175663	44188.453728	3962.886335	22366.223345
91.037500	0.038532	0.021309	0.038213	0.054694	6829.587484	43922.947700	3943.557286	22238.372707
91.535000	0.038712	0.020949	0.041263	0.054420	6833.739968	43914.818620	3952.117659	22250.609087
92.035500	0.039132	0.020808	0.039553	0.052973	6850.888011	44038.445655	3951.437492	22315.375748
92.538500	0.041068	0.020770	0.038998	0.053087	6867.689058	44023.976923	3949.710417	22310.255931
93.036000	0.037722	0.020372	0.035553	0.056236	6808.114027	43689.348891	3932.830233	22169.630925
93.536000	0.038657	0.020474	0.039095	0.054597	6831.617183	43853.256581	3946.072872	22242.700800
94.037000	0.039610	0.020575	0.040744	0.055083	6835.901933	43816.984409	3949.067138	22221.013812
94.536500	0.040002	0.019911	0.040748	0.055187	6838.535700	43744.645730	3948.808071	22216.353086
95.040000	0.038508	0.020559	0.040862	0.059372	6786.771255	43413.148274	3938.366370	22030.582893
95.534500	0.041353	0.020448	0.037209	0.058587	6819.788602	43476.143581	3931.067766	22065.301889
96.035000	0.040079	0.021105	0.042071	0.057729	6815.984002	43617.966780	3945.670310	22103.287827
