sample name	sample
index	943
start time	 04-12-2021  02:21:23 PM
880	0.020957
Peak Time (s)	122.537
Peak Height 	0.02096
calc peak height	120,123
Baseline Time (s)	10.534
Baseline Value 	-0.005415
subtract baseline	10,4
Abs	0.048750
Peak Time (s)	122.537
Peak Height 	0.04875
calc peak height	120,123
Baseline Time (s)	9.538
Baseline Value 	0.002826
subtract baseline	10,3
PK_550	0.024747
Peak Time (s)	122.537
Peak Height 	0.02475
calc peak height	120,123
Baseline Time (s)	10.534
Baseline Value 	3.169E-4
subtract baseline	10,2
PK_880	0.039709
Peak Time (s)	121.536
Peak Height 	0.03971
calc peak height	120,123
Baseline Time (s)	11.035
Baseline Value 	0.002968
subtract baseline	10,1


Time (s)	A880-A510	A880-A775	A880-A975	A880	I510	I775	I975	I880	
0.034000	-0.001887	-0.001050	-0.001405	0.002157	7163.506354	43313.070437	3949.800875	23295.285646
0.537500	-0.005074	-0.000515	-0.005652	0.007179	7083.507252	42898.551431	3926.530441	23060.730659
1.037500	-0.001282	0.000252	-0.005255	0.004351	7147.901139	43230.308404	3934.570149	23192.474152
1.535500	-0.002631	-0.000566	-0.005204	0.001334	7164.282709	43434.664804	3942.274619	23334.000260
2.037000	-0.001298	-0.000755	-0.005104	0.001026	7180.459530	43445.748990	3943.303865	23348.496776
2.536000	-0.005126	-0.000704	-0.004749	0.004799	7106.043237	43100.428840	3934.715158	23171.561949
3.036500	-0.000035	0.000381	0.001440	-0.000760	7210.688955	43719.006605	3964.519646	23432.792649
3.536500	-0.001079	0.000564	0.000231	0.000799	7184.868691	43590.109537	3957.423976	23359.187460
4.037000	-0.001462	-0.000510	0.002930	0.000621	7182.849565	43506.394946	3964.802141	23367.597462
4.537000	-0.002443	-0.000854	-0.003527	0.000949	7169.930441	43443.734266	3947.483110	23352.116976
5.037000	-0.000855	0.000383	-0.002834	0.000375	7191.282995	43612.818751	3950.697661	23379.197063
5.535000	0.000531	0.000249	-0.000983	0.000469	7204.097275	43591.548939	3955.168576	23374.774881
6.035000	0.000963	0.000448	-0.004755	0.000200	7211.058333	43635.250046	3946.269574	23387.421349
6.535000	0.000233	0.000246	0.002475	0.000448	7201.344829	43593.164893	3964.074636	23375.742302
7.038500	-0.001929	-0.000374	-0.002513	-0.000001	7184.380980	43577.185255	3952.469285	23396.925863
7.536000	-0.001144	0.000058	-0.001135	-0.000291	7195.021239	43644.728917	3956.718934	23410.625964
8.036000	0.000934	-0.000557	-0.001512	-0.000527	7218.017810	43609.318885	3956.361146	23421.795986
8.536500	-0.000896	-0.000064	0.001181	-0.000351	7198.069444	43638.915844	3962.804139	23413.445968
9.033500	-0.000428	0.000427	0.001656	0.000170	7197.548975	43636.180229	3962.687017	23388.866870
9.538000	-0.001038	-0.000353	0.000000	-0.000454	7197.690530	43621.591782	3960.040692	23418.350971
10.034500	0.001147	-0.000463	-0.001749	-0.000206	7216.931269	43588.052570	3954.936035	23406.604094
10.534000	0.000456	0.000000	-0.000512	0.000000	7208.007460	43612.080538	3957.567332	23396.883237
11.035000	0.000000	0.000061	-0.003358	0.000046	7203.024519	43613.538800	3950.202834	23394.716806
11.535000	0.000067	0.000736	0.002536	0.000603	7198.164703	43624.480676	3963.833385	23368.431988
12.035000	-0.000193	0.000158	0.001571	-0.000214	7203.685258	43646.916842	3963.453667	23406.973091
12.536000	-0.001847	0.000107	0.002133	0.001671	7168.686139	43465.991994	3960.059628	23318.141420
13.036500	-0.001312	-0.000446	0.001240	-0.002231	7212.617762	43779.428768	3967.792501	23502.486636
13.536500	0.000526	0.001168	-0.003020	0.000799	7200.764774	43646.541894	3949.148577	23359.175942
14.058500	-0.000901	0.000349	-0.002845	0.000005	7194.494396	43644.275819	3951.608493	23396.649754
14.534500	-0.002573	0.000364	-0.002016	0.002809	7150.369931	43383.940086	3946.601954	23264.698732
15.037000	-0.002583	-0.000182	-0.002639	0.001216	7165.924502	43481.471769	3949.058118	23339.565657
15.573000	-0.001522	0.000562	-0.003924	0.000271	7185.713477	43639.320510	3948.195295	23384.094580
16.038500	-0.000359	0.000674	0.002782	0.000495	7195.009134	43628.860187	3964.743770	23373.516696
16.535500	-0.001351	0.000647	-0.000182	0.003136	7159.152876	43379.808831	3950.418092	23249.332526
17.036000	-0.000869	0.000523	-0.000440	0.000618	7188.737373	43603.199401	3956.173017	23367.735833
17.545500	-0.000563	0.000020	0.000814	0.000176	7196.155064	43597.516023	3960.510577	23388.588265
18.036000	0.001157	0.000380	0.001823	-0.003441	7249.374983	43971.182605	3972.426671	23559.973183
18.537000	-0.003076	-0.000492	-0.002139	0.000509	7168.030044	43518.593502	3952.125182	23372.884254
19.037000	-0.002467	-0.000247	0.002927	0.000731	7171.833655	43520.658104	3964.509508	23362.388551
19.537500	-0.000585	-0.000459	-0.001326	0.000896	7188.806891	43485.491713	3953.208668	23354.646398
20.035000	-0.002809	-0.000444	-0.003303	0.000755	7168.227233	43500.022994	3948.541498	23361.248612
20.535000	-0.004433	-0.000424	-0.001928	0.000882	7151.025532	43490.125963	3951.711122	23355.297796
21.035000	-0.002723	0.000152	-0.001411	0.001077	7165.906864	43525.578073	3952.528414	23346.087767
21.535500	-0.000716	0.000022	-0.004216	0.000727	7189.170290	43546.142759	3946.302176	23362.574207
22.036000	-0.000688	0.000186	-0.001012	0.001415	7182.642692	43497.222321	3952.684164	23330.170874
22.536500	-0.002165	-0.000505	-0.003057	0.001020	7171.969182	43469.627635	3948.495142	23348.793941
23.036500	-0.002277	-0.001015	-0.001791	0.000336	7177.608514	43485.839598	3953.448645	23381.032462
23.537000	-0.003253	-0.000139	-0.006739	0.001117	7160.307354	43494.721101	3938.958197	23344.232182
24.037000	-0.001051	-0.000125	-0.003543	0.000940	7183.754481	43512.469806	3947.464398	23352.527788
24.537000	-0.001615	0.000109	0.002039	0.001571	7171.963698	43475.533250	3960.076084	23322.848164
25.035500	-0.000381	0.000140	-0.002995	0.000934	7190.447992	43537.883032	3948.872158	23352.847034
25.535000	-0.001786	-0.000302	-0.001798	0.000622	7179.634310	43525.658146	3952.703702	23367.531551
26.035500	0.000130	0.000221	-0.000278	0.001324	7191.641799	43509.016888	3954.784571	23334.455318
26.536000	-0.001025	-0.000448	-0.002712	0.000943	7183.983786	43482.113283	3949.564358	23352.405120
27.036500	0.000542	0.000562	-0.003124	0.001618	7192.807938	43513.347272	3946.810602	23320.623223
27.536500	-0.000212	0.000006	0.000285	0.001265	7188.835399	43494.395153	3956.371750	23337.234529
28.037500	-0.001370	-0.000428	-0.003530	0.000167	7188.242597	43556.422393	3949.457151	23388.977868
28.536500	0.000053	-0.000482	0.003763	-0.000551	7209.482895	43618.597565	3969.969320	23422.924193
29.037500	-0.000544	0.000159	0.000794	0.000070	7197.388151	43620.393018	3960.731464	23393.570399
29.548500	-0.001918	-0.000104	0.002055	-0.000201	7186.463942	43621.149524	3964.665258	23406.383061
30.038000	-0.000454	-0.000413	0.003452	0.001169	7187.392129	43464.333084	3964.733321	23341.756818
30.535500	-0.000103	-0.000791	0.002241	-0.000448	7206.908369	43580.023411	3965.779023	23418.047038
31.036000	-0.000652	-0.000267	0.000691	-0.000488	7201.851068	43632.774699	3961.897749	23419.925209
31.553000	0.001472	0.000467	0.003770	0.000425	7213.894675	43616.067248	3967.469346	23376.837234
32.036000	-0.000358	0.000848	0.002896	0.004198	7158.474153	43299.810741	3955.551445	23199.626573
32.536500	-0.000933	0.000476	0.001081	0.001892	7175.514979	43479.813774	3956.803006	23307.739508
33.092000	0.000292	-0.000328	0.001626	0.000037	7206.009530	43577.886811	3962.948856	23395.121028
33.537000	-0.004000	-0.000663	0.000295	-0.000918	7172.981018	43635.923055	3961.984299	23440.253522
34.037500	-0.000915	0.000285	0.002464	0.002578	7168.928536	43398.091439	3958.584098	23275.515392
34.538500	-0.000135	0.000175	0.001590	0.000299	7199.173031	43600.449430	3962.183927	23382.754817
35.035500	-0.002328	-0.000071	-0.002476	0.001454	7166.091108	43469.699303	3948.867579	23328.369347
35.536000	-0.003106	-0.000134	0.000391	0.001243	7160.509386	43483.505609	3956.700670	23338.291142
36.036000	-0.001738	0.000241	0.000069	0.002521	7161.402443	43399.294341	3952.623159	23278.221480
36.536500	-0.001088	-0.000323	0.001478	0.001407	7178.774406	43450.560066	3959.060213	23330.576241
37.036500	-0.000659	-0.000919	-0.003447	0.001291	7184.165263	43405.861173	3946.821275	23336.034009
37.537000	-0.000624	0.000613	-0.000209	0.002391	7173.645413	43446.053387	3952.243888	23284.298065
38.037000	-0.002521	0.000213	0.000008	0.003029	7148.721616	43349.438337	3951.173777	23254.360983
38.537000	-0.001767	0.000854	-0.000359	0.001827	7167.937798	43521.068153	3953.296269	23310.783218
39.035000	-0.002701	-0.000229	0.000025	0.001594	7161.032819	43441.806518	3954.868643	23321.745260
39.535000	-0.001967	-0.000583	-0.006406	0.001160	7172.545285	43449.373882	3939.687287	23342.208989
40.035500	-0.002200	0.000109	-0.002085	0.001914	7162.819824	43443.556891	3948.691241	23306.710634
40.536000	-0.004038	0.000643	0.001582	0.001764	7146.254701	43507.350141	3958.412494	23313.781111
41.036000	-0.001993	-0.000183	-0.003746	0.001345	7170.453578	43469.283797	3945.926968	23333.457965
41.536500	-0.002124	0.000546	-0.000211	0.001872	7163.975685	43488.159304	3953.561189	23308.677424
42.036500	-0.001307	0.000339	0.002284	0.001869	7172.058216	43469.123486	3959.938219	23308.821989
42.537000	-0.002797	0.000177	0.002293	0.001451	7161.497011	43492.999091	3961.033497	23328.477634
43.037000	-0.003842	-0.000265	-0.000955	0.001444	7151.303306	43452.471683	3952.756066	23328.812223
43.535000	-0.002210	-0.000647	0.000950	0.001508	7166.721313	43411.010118	3957.451707	23325.825878
44.035000	0.000085	0.000268	0.002472	0.001884	7185.653149	43461.134867	3960.382851	23308.136091
44.535500	-0.001638	0.000811	0.004256	0.003193	7155.781688	43389.822117	3961.602326	23246.698995
45.035000	-0.000456	0.000019	0.003006	-0.001906	7217.902589	43792.622124	3971.518473	23487.091644
45.536000	0.001442	0.000052	0.001716	-0.000582	7223.627646	43671.482210	3964.774273	23424.394591
46.036000	-0.003219	0.000501	-0.002338	0.005038	7122.269566	43189.828512	3940.166552	23160.412084
46.535500	-0.004379	-0.000187	-0.003663	0.006198	7099.712779	43018.940406	3933.931673	23106.312796
47.036500	-0.000525	-0.000407	0.002663	-0.000139	7199.641324	43587.016442	3966.068731	23403.430230
47.536500	-0.000827	0.000497	-0.000452	0.000086	7194.431104	43650.586979	3957.502643	23392.838989
48.037500	-0.002391	0.000297	-0.001528	0.003647	7143.938186	43299.775291	3945.714188	23225.396257
48.567000	-0.004412	-0.000563	-0.005548	0.006438	7097.070860	42962.231796	3928.628282	23095.149664
49.035000	-0.000926	0.000142	0.003872	0.002762	7167.013959	43367.648545	3961.720584	23266.878978
49.535500	-0.002507	-0.000069	-0.004446	0.002334	7155.674571	43387.882650	3941.664391	23286.973497
50.068500	-0.003223	0.000679	0.000480	0.005802	7114.790065	43135.533138	3945.343404	23124.770241
50.536500	-0.002482	-0.000563	0.001778	0.006163	7118.482013	42987.546712	3947.713688	23107.944912
51.036500	0.000148	-0.000397	0.003207	-0.000367	7208.591171	43609.242932	3968.058247	23414.199543
51.536500	0.000181	0.001005	0.003611	-0.002120	7226.390862	43905.526554	3973.639467	23497.234710
52.037000	-0.005147	-0.000866	0.001982	0.005917	7095.002326	42982.340052	3948.854651	23119.406684
52.537000	-0.049487	-0.011583	0.009118	0.106190	5904.330670	33960.010838	3736.314069	18949.158209
53.040000	-0.067673	-0.014992	-0.004083	0.053025	6157.077234	37721.092612	3821.963245	21040.157672
53.535000	-0.054788	-0.019220	-0.006180	-0.086428	7529.393234	50413.384373	4184.386496	27911.820633
54.035000	-0.042346	-0.046961	0.003007	-0.216125	9325.406721	62965.696124	4688.097305	36619.184316
54.536000	-0.031308	-0.021342	-0.001155	-0.149907	8557.678529	57611.890639	4412.766915	31849.631945
55.035500	-0.017416	-0.015984	0.001231	-0.151035	8757.074588	58433.965137	4425.480092	31924.921950
55.536000	-0.000266	-0.013368	-0.004308	-0.153490	9027.972435	59085.338719	4414.319596	32089.531479
56.036500	-0.001220	-0.009140	-0.004499	-0.131627	8713.865958	56852.658336	4336.750925	30656.080944
56.537000	0.004380	-0.007036	-0.002748	-0.121920	8659.055038	55917.650825	4309.721003	30042.414383
57.037000	0.006263	-0.005516	-0.001485	-0.110958	8539.722015	54778.942218	4277.430829	29365.669296
57.537500	0.005919	-0.004593	-0.002831	-0.100600	8402.228471	53665.716453	4239.418264	28741.763625
58.035000	-0.001380	-0.003241	-0.010430	-0.066015	7895.530714	49931.433529	4110.594956	26763.044372
58.535000	0.007641	0.000326	0.002999	-0.051631	7834.108795	48776.397087	4107.820544	25985.391984
59.035000	0.000858	-0.000969	0.001715	-0.043542	7667.697768	47797.334213	4080.917435	25559.236329
59.535500	-0.003994	-0.002495	-0.000302	-0.017223	7336.868557	45013.737098	4003.023820	24226.377335
60.036000	-0.002236	0.000141	-0.001267	-0.016784	7350.383349	45226.966669	3999.294388	24204.804531
60.536500	0.002078	0.000351	0.004831	-0.007794	7302.631909	44381.322044	3991.651904	23768.165508
61.036500	-0.003033	-0.000477	0.000796	0.001545	7158.262141	43423.321504	3956.961683	23324.064205
61.537000	0.001028	0.000624	0.008107	0.008239	7132.466087	42905.737878	3958.539170	23011.560715
62.034000	0.000059	0.000674	0.004047	0.013793	7069.231717	42402.898615	3934.218678	22755.883980
62.537500	0.000981	0.001023	0.005296	0.017597	7041.603697	42090.546237	3927.846089	22582.678013
63.035000	0.000761	0.002439	0.007898	0.017984	7035.797116	42183.229709	3933.369006	22565.112667
63.535000	0.000492	0.001852	0.010771	0.014396	7067.598916	42455.171482	3949.641820	22728.347032
64.035500	0.002371	0.001868	0.015361	0.010345	7125.020826	42826.633752	3971.786698	22914.240916
64.535500	0.005723	0.004132	0.011939	0.020506	7059.156444	42108.494858	3937.173646	22451.234511
65.036000	0.009460	0.002487	0.011675	-0.010301	7404.233127	44826.346787	4016.550538	23889.025084
65.536500	0.009259	0.001375	0.010379	-0.025934	7567.491894	46249.373849	4055.779961	24658.614721
66.036500	0.006850	0.002999	0.012055	-0.011959	7394.356526	45036.066109	4022.048357	23969.342766
66.537000	0.016635	0.005094	0.011438	-0.040499	7809.831211	48110.160343	4100.032294	25400.986900
67.037500	0.013497	0.003814	0.009260	-0.052133	7907.004592	49199.139364	4127.595740	26012.082011
67.537500	0.015636	0.004194	0.014513	-0.056559	7983.412540	49713.494011	4156.442213	26248.930768
68.037500	0.015554	0.004734	0.004635	-0.050474	7911.601406	49120.535247	4109.210797	25923.937230
68.535000	0.017532	0.005514	0.014760	-0.050568	7935.618706	49213.515059	4139.247827	25928.933501
69.035500	0.017649	0.006134	0.018178	-0.048847	7917.024774	49096.395163	4144.304009	25837.834323
69.572000	0.018646	0.005650	0.015984	-0.046475	7901.132002	48794.055979	4130.741539	25712.841344
70.036500	0.013152	0.005886	0.014769	-0.038326	7746.187887	47966.842718	4103.376671	25288.655366
70.536000	0.015105	0.006941	0.018943	-0.039197	7777.867154	48166.883437	4118.048862	25333.622505
71.036000	0.014081	0.006519	0.016052	-0.036381	7734.833232	47831.107252	4101.462225	25188.539369
71.540000	0.012068	0.006729	0.020502	-0.033110	7676.259710	47516.078695	4104.870689	25021.248725
72.037500	0.008259	0.006048	0.017587	-0.024936	7546.036125	46617.173251	4073.179691	24608.666228
72.535000	0.011090	0.005788	0.022561	-0.028943	7619.910210	46995.285464	4098.784192	24809.947411
73.035000	0.010666	0.006001	0.025849	-0.026876	7592.864617	46807.859740	4102.307231	24705.905380
73.535500	0.012191	0.005876	0.024417	-0.025481	7594.270534	46654.707504	4094.166995	24635.943136
74.036000	0.010461	0.005491	0.025944	-0.024077	7560.447484	46475.013116	4094.518913	24565.730737
74.536000	0.012195	0.006927	0.021653	-0.021502	7551.420263	46361.135437	4074.962435	24437.624621
75.036500	0.010176	0.006219	0.023611	-0.020289	7516.858014	46169.682590	4077.068918	24377.523078
75.537500	0.010176	0.006017	0.026146	-0.018800	7501.025075	46001.807709	4080.033130	24303.969291
76.042500	0.007398	0.006849	0.021359	-0.011445	7394.710933	45360.418372	4046.056901	23944.423189
76.538000	0.009851	0.007977	0.026712	-0.014034	7447.295558	45724.682165	4068.173979	24070.290341
77.037500	0.012015	0.007695	0.022614	-0.013692	7466.451955	45663.290214	4055.757721	24053.606453
77.535500	0.011706	0.008423	0.026153	-0.012064	7446.089695	45574.908890	4061.086123	23974.444833
78.035000	0.009098	0.007890	0.026942	-0.005754	7353.512140	44909.053612	4045.761031	23670.377659
78.535500	0.012925	0.009180	0.028338	-0.007840	7414.685979	45236.225628	4055.402722	23770.391717
79.035500	0.013201	0.008886	0.028292	-0.008544	7424.907353	45276.242169	4057.235506	23804.289697
79.536500	0.014422	0.008189	0.026853	-0.008312	7435.242366	45185.795658	4052.590129	23793.111136
80.036500	0.011591	0.009394	0.031709	-0.002651	7347.242454	44754.841409	4050.360120	23522.421100
80.538000	0.012784	0.009860	0.034231	-0.004338	7376.900075	44962.535863	4062.069752	23602.709782
81.037500	0.013087	0.010044	0.029450	-0.006221	7399.540213	45162.905204	4053.997217	23692.726966
81.537500	0.017686	0.010651	0.030971	-0.004959	7434.311165	45099.213175	4054.714497	23632.351776
82.034500	0.016338	0.011894	0.028584	-0.000038	7369.205697	44744.041093	4034.574697	23398.687505
82.535000	0.017936	0.011650	0.037061	-0.002751	7413.873951	44982.136071	4065.550876	23527.172303
83.035000	0.017980	0.012223	0.033273	-0.003199	7418.997262	45081.030342	4056.221288	23548.461629
83.536000	0.018801	0.011990	0.033384	-0.003867	7434.549659	45123.205529	4058.392839	23580.275621
84.035500	0.018892	0.012942	0.030898	0.000604	7388.964878	44783.157975	4039.152665	23368.409396
84.536000	0.018296	0.013097	0.032294	-0.000899	7398.361772	44943.013970	4047.132727	23439.368543
85.037000	0.020512	0.013227	0.035583	-0.002422	7437.340397	45103.054939	4060.497309	23511.564069
85.537500	0.021826	0.013868	0.034645	-0.002299	7449.829272	45153.353201	4057.536936	23505.731675
86.037000	0.021113	0.013781	0.036766	0.001372	7404.034752	44789.982878	4053.227555	23332.227696
86.537500	0.021771	0.014416	0.033272	0.000180	7423.301726	44966.224842	4046.855035	23388.396170
87.035000	0.025695	0.013919	0.036656	-0.002374	7491.415971	45165.568950	4063.361887	23509.290307
87.535500	0.026043	0.014707	0.038260	-0.001773	7488.733339	45183.752919	4066.172895	23480.776277
88.035500	0.022791	0.014873	0.031857	0.002743	7407.223228	44763.106739	4035.919488	23267.795264
88.536000	0.024693	0.014884	0.032645	-0.001753	7474.248313	45199.024720	4050.464022	23479.813570
89.036000	0.027268	0.015026	0.037667	-0.001568	7499.542328	45194.805116	4063.937102	23471.061347
89.536500	0.025576	0.015046	0.040900	-0.001349	7479.314754	45175.493063	4072.404693	23460.681874
90.039500	0.025258	0.015284	0.033114	0.001771	7443.121532	44896.305627	4042.033407	23313.419874
90.536000	0.025482	0.015196	0.032237	-0.001169	7476.412946	45172.565643	4047.720337	23452.156123
91.034500	0.028054	0.015399	0.038796	-0.001748	7509.801054	45248.556515	4067.605752	23479.577261
91.535000	0.027926	0.015633	0.033508	-0.001543	7506.267608	45251.413146	4052.275771	23469.867715
92.035000	0.027383	0.016058	0.038152	0.002427	7458.551297	44907.706587	4054.146805	23282.615777
92.534500	0.028966	0.017046	0.037327	-0.000773	7509.133397	45314.113944	4060.760645	23433.415169
93.035500	0.028166	0.016787	0.039973	-0.001321	7506.460252	45342.257640	4069.714577	23459.346686
93.536500	0.029985	0.016550	0.040236	-0.001155	7524.049661	45302.873275	4069.986486	23451.468239
94.035500	0.027224	0.016838	0.037876	0.002149	7459.803258	45010.011296	4054.152365	23295.672576
94.539500	0.031823	0.017444	0.034960	-0.000693	7538.760681	45345.082959	4053.947177	23429.638696
95.036500	0.030210	0.017693	0.036774	-0.000299	7517.323095	45330.936111	4057.896222	23410.989309
95.537500	0.030944	0.017700	0.039446	-0.000761	7530.085249	45376.668605	4066.661112	23432.833380
96.034500	0.030751	0.017736	0.038788	0.000693	7512.532057	45238.515123	4060.747046	23364.189627
96.535000	0.030720	0.018116	0.036994	-0.000339	7523.201812	45376.162296	4058.621249	23412.916398
97.035500	0.032210	0.017159	0.034970	-0.000661	7542.556733	45314.123905	4053.883314	23428.099049
97.535500	0.033038	0.017870	0.039289	-0.000084	7545.257300	45327.299134	4064.322604	23400.871089
98.036000	0.030504	0.018304	0.040354	0.002420	7491.568001	45125.823004	4060.296631	23282.945097
98.536500	0.030331	0.017516	0.039505	0.000848	7506.415587	45201.974223	4062.317321	23356.874922
99.039000	0.031873	0.017816	0.040921	0.000009	7531.780947	45312.822163	4068.640782	23396.448121
99.539500	0.033112	0.018655	0.043153	0.001074	7533.641274	45290.831184	4071.926030	23346.234739
100.037000	0.033394	0.018866	0.038677	0.002754	7518.730841	45148.020307	4054.695649	23267.282688
100.540000	0.031414	0.019738	0.037823	0.003404	7490.787743	45169.561191	4050.522635	23236.789565
101.034500	0.034406	0.018421	0.038699	0.001443	7543.547866	45232.171297	4058.406301	23328.880565
101.537500	0.033823	0.019300	0.038828	0.001889	7532.544456	45274.335167	4057.523182	23307.911721
102.035000	0.033132	0.019068	0.039565	0.002978	7513.544683	45145.826267	4056.541653	23256.744001
102.535500	0.033758	0.020620	0.042776	0.004369	7505.404640	45161.418084	4061.616703	23191.620914
103.036000	0.033773	0.018892	0.038484	0.002146	7529.253655	45209.566910	4055.850434	23295.809113
103.536000	0.033916	0.020106	0.040937	0.002489	7527.120742	45294.391055	4061.733395	23279.716486
104.036500	0.033567	0.019890	0.038156	0.004701	7499.857356	45058.439726	4047.855723	23176.122325
104.537000	0.033061	0.019841	0.043251	0.004745	7494.021279	45049.374970	4061.896048	23174.063426
105.037500	0.035072	0.020102	0.042256	0.004320	7519.919411	45115.925570	4060.304067	23193.926898
105.535000	0.034676	0.020757	0.042389	0.005003	7508.432143	45113.258583	4058.768737	23162.037609
106.037500	0.035177	0.020154	0.040555	0.006379	7499.145528	44921.685033	4049.850799	23097.916992
106.538000	0.033671	0.020551	0.045620	0.006884	7477.847817	44911.162966	4062.539034	23074.415570
107.035000	0.034540	0.021530	0.038870	0.006512	7490.975100	45041.804603	4044.828337	23091.703419
107.546500	0.038275	0.021380	0.042411	0.007388	7521.362681	44942.603060	4052.198241	23051.034678
108.179500	0.035343	0.021331	0.040066	0.007425	7489.806985	44934.284519	4045.608741	23049.280796
108.537500	0.035880	0.020860	0.045858	0.007137	7498.558062	44916.634453	4062.495380	23062.672756
109.037000	0.035101	0.021203	0.043619	0.007961	7481.580478	44870.247627	4053.960999	23024.461814
109.564500	0.035627	0.020863	0.044653	0.007871	7488.096217	44846.088316	4057.085987	23028.601723
110.045500	0.036940	0.022086	0.045546	0.009693	7482.706941	44788.372069	4054.500599	22944.298565
110.672500	0.035435	0.020610	0.041878	0.008955	7474.604548	44717.322993	4046.385908	22978.399980
111.038500	0.037667	0.022311	0.041042	0.010673	7480.041306	44715.755709	4039.358008	22899.117611
111.538500	0.033968	0.021593	0.046568	0.010304	7444.986503	44682.243762	4055.643060	22916.124752
112.039000	0.038459	0.021724	0.046392	0.011034	7484.601508	44624.760628	4053.126356	22882.502064
112.535000	0.036764	0.022057	0.045700	0.011855	7458.066402	44577.993288	4048.934252	22844.752716
113.042000	0.037111	0.021656	0.047205	0.011778	7462.518845	44546.993931	4053.318461	22848.280179
113.536500	0.038040	0.022205	0.046455	0.012581	7463.838149	44522.591144	4049.012471	22811.387193
114.554000	0.040871	0.023574	0.040582	0.014721	7471.127724	44448.895424	4027.053623	22713.492014
115.161000	0.038224	0.023763	0.045732	0.015156	7438.739941	44425.448802	4039.926837	22693.646559
115.253500	0.038561	0.023109	0.045532	0.014471	7449.452977	44428.338812	4041.256377	22724.892272
115.538000	0.038705	0.022486	0.047033	0.014139	7454.452520	44400.680020	4046.307843	22740.093939
116.035000	0.039448	0.022865	0.044087	0.014705	7456.315614	44382.860288	4036.654517	22714.239096
116.536000	0.040402	0.023940	0.049268	0.016326	7449.306679	44330.839687	4046.439030	22640.390374
117.035500	0.040030	0.023715	0.047767	0.016376	7444.875828	44304.555129	4042.165333	22638.099795
117.539000	0.037195	0.023032	0.049376	0.016224	7416.827391	44254.122522	4047.018445	22645.014487
118.036500	0.038753	0.023786	0.045201	0.018097	7413.546275	44147.857049	4030.434063	22560.015235
118.537000	0.037248	0.023342	0.042884	0.018924	7389.331686	44027.546755	4021.900198	22522.582482
119.040000	0.039168	0.023455	0.044199	0.017588	7423.174845	44164.700767	4029.090614	22583.059375
119.536500	0.036924	0.023904	0.045178	0.017999	7395.564266	44168.348548	4030.638269	22564.454624
120.038000	0.037965	0.023586	0.048246	0.019495	7390.846994	43996.678631	4034.927666	22496.817763
120.538000	0.039295	0.023297	0.044165	0.018296	7417.131006	44082.747408	4027.075484	22551.017218
121.038000	0.039325	0.023933	0.048533	0.019421	7405.723138	44036.413738	4035.912878	22500.131716
121.536000	0.039709	0.023846	0.045106	0.019919	7404.543412	43981.270946	4025.225572	22477.695836
122.039000	0.038293	0.024409	0.046331	0.020573	7383.078009	43972.611625	4026.772246	22448.192878
122.536500	0.039082	0.024747	0.048750	0.020957	7387.279358	43968.327476	4032.313049	22430.938360
123.036000	0.038881	0.024477	0.051253	0.021209	7382.576414	43919.018851	4038.466024	22419.570111
123.537000	0.040161	0.024853	0.052453	0.021736	7390.375440	43904.731853	4040.313768	22395.893735
124.037000	0.038303	0.024533	0.049205	0.022156	7366.846690	43835.135784	4030.284854	22377.072196
124.534500	0.040142	0.025000	0.047503	0.022240	7384.954147	43871.073035	4025.428195	22373.265134
125.037500	0.040324	0.025272	0.049462	0.022694	7382.146067	43854.020630	4029.519770	22352.932582
125.535500	0.040745	0.024855	0.047110	0.022525	7388.262389	43830.739317	4023.593087	22360.520813
126.038500	0.040993	0.025400	0.047940	0.024041	7375.143901	43739.419844	4021.737459	22292.664607
126.536000	0.040916	0.025569	0.044194	0.023791	7376.925915	43778.794394	4012.325384	22303.829450
127.036000	0.043021	0.026385	0.051665	0.024717	7389.121750	43768.441609	4030.008659	22262.472796
127.536500	0.039925	0.025254	0.046628	0.024468	7359.739284	43685.710394	4017.046483	22273.609579
128.039000	0.041539	0.025579	0.050889	0.024832	7372.618734	43682.091435	4027.587215	22257.370881
128.537000	0.037898	0.025706	0.048173	0.026900	7314.088098	43500.534595	4014.661929	22165.382485
129.037500	0.041490	0.025154	0.043114	0.025057	7369.783874	43621.142090	4006.051360	22247.332825
129.539000	0.040691	0.025232	0.050320	0.025448	7357.530578	43591.827334	4024.369806	22229.910699
130.034500	0.040419	0.025141	0.049092	0.025466	7354.550211	43581.715427	4021.000126	22229.124329
130.538000	0.040899	0.026804	0.045761	0.027776	7335.784288	43521.237325	4005.858411	22126.530676
131.035500	0.042607	0.026578	0.046753	0.027113	7360.110589	43562.051553	4010.278993	22155.897524
131.538500	0.043582	0.026717	0.050893	0.027723	7363.876106	43518.027335	4019.768618	22128.883433
132.036000	0.040035	0.025715	0.049567	0.026867	7336.242552	43504.439548	4018.499257	22166.829786
132.536500	0.041675	0.027046	0.049226	0.029410	7327.015325	43391.505821	4010.753456	22054.316689
