sample name	sample
index	1214
start time	 04-29-2021  09:57:00 AM
880	0.019834
Peak Time (s)	92.537
Peak Height 	0.01983
calc peak height	90,93
Baseline Time (s)	9.036
Baseline Value 	-0.002947
subtract baseline	10,4
Abs	-0.009001
Peak Time (s)	92.04
Peak Height 	-0.009001
calc peak height	90,93
Baseline Time (s)	10.536
Baseline Value 	0.003748
subtract baseline	10,3
PK_550	-0.000409
Peak Time (s)	91.537
Peak Height 	-4.0949E-4
calc peak height	90,93
Baseline Time (s)	9.036
Baseline Value 	-1.6461E-5
subtract baseline	10,2
PK_880	-0.013367
Peak Time (s)	92.04
Peak Height 	-0.01337
calc peak height	90,93
Baseline Time (s)	10.036
Baseline Value 	-7.6785E-5
subtract baseline	10,1


Time (s)	A880-A510	A880-A775	A880-A975	A880	I510	I775	I975	I880	
0.035500	-0.002971	-0.000954	-0.011135	0.007182	6098.421151	43818.766184	3759.963774	22504.201742
0.536000	-0.002119	-0.000282	-0.007759	0.004491	6125.567686	44137.597246	3774.121532	22626.855620
1.036500	-0.000476	-0.000174	-0.003997	0.003764	6143.851184	44217.033547	3784.723785	22660.092250
1.536000	-0.001347	-0.000454	-0.006125	-0.000429	6169.652920	44591.984349	3789.641586	22853.070098
2.037500	-0.005008	0.000034	-0.004377	0.007064	6083.804945	43923.311570	3776.025460	22509.547038
2.537000	-0.000027	0.000417	-0.003477	-0.000781	6182.708709	44709.846413	3796.824566	22869.359838
3.037500	-0.000584	-0.000327	-0.000589	-0.000628	6177.158608	44623.323294	3803.415339	22862.279913
3.534000	-0.001537	0.001013	-0.003529	0.001755	6151.192688	44522.996414	3790.624923	22752.336422
4.035500	0.000276	0.000617	-0.006877	0.002211	6161.734426	44441.257179	3781.581291	22731.385084
4.538000	-0.000800	0.000207	-0.000990	0.000468	6166.920732	44569.223681	3799.802066	22811.642787
5.036000	0.000134	0.000238	-0.006798	0.000549	6173.577039	44564.480684	3785.709600	22807.902020
5.536000	-0.001607	-0.000220	-0.001273	0.000590	6159.697612	44516.525182	3798.826320	22806.017466
6.036000	0.000854	0.000754	-0.000430	0.000838	6176.940766	44586.272058	3800.260675	22794.570977
6.537000	-0.000052	-0.000053	-0.004119	0.000582	6171.863307	44533.339603	3792.018791	22806.389563
7.037000	0.001488	0.000756	-0.002556	0.001219	6178.911669	44549.790466	3794.233618	22776.997603
7.534500	-0.001723	0.000872	-0.001474	0.000841	6156.848622	44597.397058	3797.741182	22794.449722
8.035000	0.000196	0.000296	-0.003566	0.000061	6177.867471	44616.962677	3794.590046	22830.428918
8.535000	-0.000616	-0.000377	0.001801	-0.000229	6173.796066	44580.216845	3808.241030	22843.855799
9.035500	0.001676	0.000000	0.000046	0.000000	6189.933559	44594.381125	3803.432019	22833.252558
9.536000	-0.002656	0.000497	-0.002875	0.000598	6151.493733	44584.712574	3794.958576	22805.653822
10.036000	0.000000	0.000184	-0.004592	0.000278	6174.643026	44585.302892	3791.614199	22820.406054
10.536000	0.000119	0.000548	0.000000	0.000487	6173.944242	44600.280716	3802.143947	22810.759648
11.037000	-0.000659	-0.000091	0.002728	-0.000106	6172.498650	44595.741810	3810.192831	22838.133081
11.539500	0.000650	-0.000170	-0.001134	-0.000537	6186.103712	44629.785847	3801.880009	22858.099425
12.037500	0.002021	0.001231	0.003365	0.000389	6189.587205	44675.474596	3810.538363	22815.277789
12.537500	0.000027	0.000362	-0.000129	-0.000410	6180.230381	44668.701202	3804.001003	22852.193190
13.035000	0.000378	0.001237	-0.002167	-0.001413	6190.834620	44850.254490	3801.499395	22898.647063
13.537000	0.001365	0.000868	-0.003178	-0.001349	6198.083730	44808.311336	3798.909187	22895.675666
14.036000	-0.000183	-0.000085	-0.005773	0.001080	6166.961889	44482.330009	3786.882426	22783.398221
14.536000	-0.002493	-0.000099	-0.009270	0.003111	6133.315969	44286.549031	3773.812355	22690.026505
15.036500	0.001307	0.001293	-0.002112	-0.001416	6198.151469	44855.914046	3801.638310	22898.769908
15.537000	0.001990	0.000683	0.002797	-0.001632	6205.234911	44817.786123	3814.084468	22908.808688
16.037000	0.001353	0.001270	0.003267	-0.001006	6195.294425	44813.937347	3813.700395	22879.764217
16.536500	-0.002826	0.000066	-0.001062	0.003296	6129.318825	44284.650927	3792.838252	22681.541180
17.037000	0.002365	0.001483	0.003130	-0.002506	6215.088093	44980.078207	3817.034770	22949.364171
17.535000	-0.000283	0.000762	-0.002744	0.000298	6172.279869	44639.048725	3795.992469	22819.472980
18.035500	-0.001347	0.000223	-0.002418	0.000293	6164.027669	44587.669767	3796.787814	22819.725602
18.535500	-0.003297	-0.000007	-0.002032	0.001624	6138.582860	44437.656952	3794.518368	22758.346651
19.035000	0.001474	0.001239	0.000238	0.000952	6180.894727	44622.017432	3801.597737	22789.327742
19.536000	0.000214	0.001243	-0.000986	0.001255	6168.687726	44593.191480	3797.917364	22775.337754
20.036500	0.000347	0.000675	-0.001366	0.001052	6171.313539	44558.156579	3797.492494	22784.726038
20.537000	0.001014	0.000940	-0.005643	0.001838	6170.383968	44508.010991	3785.391713	22748.513444
21.039500	-0.000493	0.000670	-0.000945	0.000974	6165.373160	44565.117878	3798.691382	22788.286382
21.537000	-0.000621	-0.000022	-0.000767	0.000456	6168.409063	44548.416085	3800.367590	22812.181439
22.034500	-0.001460	0.000691	-0.005636	0.000553	6161.129271	44607.723201	3788.465766	22807.726317
22.534500	-0.002116	0.000289	0.002859	0.000370	6157.447205	44586.609487	3809.355019	22816.158126
23.035500	-0.001713	0.000762	0.000834	0.001026	6155.480452	44568.936075	3802.854773	22785.889976
23.536000	-0.000296	0.000980	0.003616	0.001082	6166.068584	44584.592382	3809.464413	22783.329574
24.035500	-0.001410	0.001036	-0.002062	0.000472	6162.147579	44648.721963	3797.212168	22811.464678
24.536500	-0.001402	0.000427	-0.003210	0.000828	6159.440342	44555.862086	3793.605660	22795.041677
25.036500	-0.002251	0.001443	-0.002490	0.000970	6151.743345	44639.898670	3794.990352	22788.481607
25.536500	0.000600	0.000543	0.001352	0.000674	6176.237091	44581.776951	3804.960895	22802.130446
26.037500	0.000910	0.001029	-0.004014	0.001108	6175.265820	44586.826945	3791.012904	22782.132635
26.537500	-0.002733	0.001087	-0.000084	0.002883	6133.217102	44421.823636	3796.171354	22700.486861
27.038000	0.001348	0.000620	-0.002840	-0.001045	6195.556043	44754.880483	3798.990557	22881.567639
27.535000	-0.002379	0.000858	-0.002670	-0.001776	6172.107829	44848.608690	3801.160766	22915.446669
28.035500	0.001338	0.000670	0.002583	-0.002099	6203.771137	44861.697089	3814.700704	22930.459099
28.536000	0.001899	0.000218	-0.001856	-0.002436	6210.854332	44850.641724	3804.725583	22946.127648
29.036000	0.002965	0.000819	0.001357	-0.001761	6213.941718	44843.491478	3810.887578	22914.790490
29.536500	0.000508	0.000309	0.000933	-0.000784	6186.929228	44699.695303	3807.480543	22869.518754
30.037000	0.001655	0.000312	0.003425	-0.001992	6205.427160	44816.634601	3816.496531	22925.477659
30.539500	-0.001038	0.001286	-0.003472	0.003545	6141.193800	44377.488392	3786.492414	22670.127388
31.035000	-0.002218	0.000172	-0.000093	0.000962	6152.060300	44518.382782	3800.772182	22788.838239
31.537500	-0.001830	0.000669	-0.004661	-0.000587	6167.112931	44715.425512	3793.517680	22860.367328
32.037500	-0.000879	0.001338	0.002512	-0.001482	6181.530910	44866.632256	3813.020296	22901.844573
32.535500	-0.004127	0.000598	-0.000193	0.002314	6126.867425	44429.522763	3797.277236	22726.634362
33.036000	0.000833	0.000372	0.001709	-0.002368	6201.911699	44858.845933	3813.223005	22942.944305
33.536000	-0.000815	0.000206	-0.002887	0.001278	6160.497189	44491.291621	3793.299943	22774.284571
34.036500	-0.001919	0.000261	-0.001488	0.000678	6156.585225	44554.282973	3798.098057	22801.944668
34.536500	0.000637	0.001698	-0.001177	0.002725	6160.543929	44495.692611	3793.930001	22707.759337
35.037500	-0.002626	-0.000218	0.001811	0.000355	6153.608711	44539.250126	3806.846267	22816.867310
35.536500	-0.001426	0.000584	-0.003144	0.001314	6155.477487	44524.158904	3792.598275	22772.637446
36.037500	-0.000515	0.000419	0.001854	0.001065	6164.494233	44532.303311	3805.231599	22784.132999
36.538000	-0.002384	-0.000023	0.000774	0.001481	6146.755512	44449.900570	3801.615244	22764.965804
37.035500	-0.001988	0.000138	-0.001230	0.000320	6158.835681	44576.859124	3799.579595	22818.476352
37.535500	-0.000315	0.000376	-0.004797	0.000369	6171.474759	44595.040675	3790.906368	22816.208694
38.036000	-0.000584	0.000149	-0.000450	0.000748	6166.425758	44536.804954	3800.428216	22798.721709
38.536000	0.000125	0.001310	0.002777	0.002970	6154.661457	44434.989306	3802.855307	22696.525335
39.036500	0.000556	0.000770	0.000970	0.000681	6175.843652	44602.958140	3804.019491	22801.828377
39.536500	-0.002196	0.000122	0.000487	0.000608	6154.984144	44547.663498	3803.029992	22805.194068
40.039500	0.000553	0.001058	0.002255	0.001085	6172.659474	44591.817153	3806.153551	22783.184887
40.537500	0.002001	0.000176	-0.001668	0.002526	6172.717183	44368.896747	3793.232396	22716.906013
41.035000	0.000401	0.000965	-0.000581	0.001230	6170.343107	44568.806875	3798.950965	22776.489723
41.535000	-0.000821	0.001105	0.001667	0.001383	6159.641187	44567.676996	3804.007303	22769.476422
42.035500	0.000488	0.001430	0.003722	0.001739	6167.053690	44564.653226	3808.124958	22753.051289
42.535500	0.001965	0.000804	-0.001797	0.001186	6182.908269	44557.629030	3796.133192	22778.529910
43.036000	0.000190	0.001048	0.000181	0.001340	6167.847931	44566.322024	3800.523942	22771.459067
43.535500	0.001749	0.001245	0.002678	-0.003169	6215.459398	45021.380103	3817.551390	22980.190257
44.036000	0.002266	0.001393	0.002310	-0.001465	6206.092593	44870.404384	3812.487822	22901.069965
44.539000	0.000408	0.001074	-0.002638	0.004309	6146.478183	44284.174996	3786.660626	22635.162599
45.037500	0.001630	0.001125	0.004639	-0.001828	6203.943325	44879.596583	3819.071469	22917.902542
45.537000	-0.002625	0.000131	-0.003374	0.001685	6143.309915	44445.101030	3791.161597	22755.562779
46.034500	0.000591	0.000924	-0.001071	-0.001617	6194.102199	44839.598829	3804.640306	22908.072825
46.535000	-0.000705	0.001495	0.002955	0.003758	6142.129053	44377.135838	3801.382411	22660.390980
47.038000	-0.001296	0.000648	0.001064	0.001443	6155.487616	44517.926645	3802.404736	22766.710897
47.535500	0.000102	0.001097	-0.003382	0.002842	6155.473584	44426.731080	3788.382520	22702.369789
48.036500	0.001944	0.000918	0.004001	-0.001460	6203.515892	44823.865506	3816.606819	22900.822009
48.536000	-0.000787	0.000879	0.000621	0.002727	6149.473273	44416.957243	3798.243290	22707.677095
49.036500	0.002570	0.000689	0.000896	-0.001844	6211.476780	44838.816798	3809.966074	22918.613712
49.537000	-0.001085	0.000839	0.000568	0.001957	6153.137701	44486.970118	3799.968333	22743.062053
50.037000	0.002587	0.000117	-0.000533	0.000140	6195.991825	44592.227075	3801.696235	22826.802639
50.534500	0.017101	-0.010527	0.033063	0.336806	4408.947702	21583.427857	3275.113043	12008.042839
51.035000	0.014418	-0.020627	0.001348	0.090122	5634.058383	35186.753086	3609.229868	19073.342623
51.535500	-0.005366	-0.024212	-0.007545	-0.078365	6797.857919	50144.733322	3989.274252	26800.831687
52.035500	-0.019695	-0.035284	-0.017396	-0.154380	7410.465015	57781.443878	4192.647557	31397.644520
52.536000	-0.015460	-0.043764	-0.014510	-0.197309	7941.209520	62320.320735	4352.773330	34372.065430
53.036000	-0.004042	-0.030013	-0.005966	-0.156756	7606.572991	58758.140060	4239.134030	31554.685279
53.536000	-0.013366	-0.025368	-0.005073	-0.092234	6852.467451	51551.173216	4036.659543	27580.658187
54.039500	-0.013509	-0.022985	-0.010142	-0.112076	7041.267621	54111.066155	4081.059966	28740.524213
54.536500	-0.017495	-0.017286	-0.013239	-0.099665	6883.517599	53324.014382	4034.487320	28008.801299
55.037000	-0.009958	-0.012386	-0.011396	-0.091377	6876.432675	52931.402950	4015.617155	27531.711712
55.538000	-0.012738	-0.015045	-0.019014	-0.117025	7097.712478	55656.753614	4069.121631	29038.173349
56.035000	-0.010044	-0.029450	-0.016391	-0.184477	7853.887146	62523.777092	4299.497642	33451.967517
56.535500	-0.013127	-0.017419	-0.014378	-0.153493	7471.386773	59973.448297	4199.728871	31339.231101
57.035000	-0.008396	-0.014980	-0.014407	-0.139943	7377.153293	58529.291810	4155.206350	30461.613262
57.536500	-0.007557	-0.011690	-0.012850	-0.126765	7248.489583	57274.645223	4118.195816	29633.937057
58.036000	-0.006979	-0.010636	-0.014253	-0.114892	7133.875315	55934.414380	4077.105136	28909.442398
58.537000	-0.007432	-0.010374	-0.011524	-0.101886	7001.134716	54397.906448	4046.152093	28138.248431
59.037000	-0.006329	-0.008887	-0.009994	-0.085823	6858.339744	52694.819280	4003.610379	27217.080554
59.537000	-0.007386	-0.009414	-0.013330	-0.073619	6735.805548	51253.399086	3959.665931	26539.635067
60.034500	-0.010881	-0.003416	-0.014905	-0.046810	6469.453081	48986.226750	3883.353848	25116.673858
60.535000	-0.014593	-0.002596	-0.019220	-0.050047	6465.415027	49419.707580	3880.550809	25283.823097
61.035000	-0.010116	-0.013088	-0.010820	-0.049906	6502.361383	48292.150066	3902.190187	25276.522584
61.535500	-0.010570	-0.001086	-0.011178	-0.007944	6156.361306	45259.608548	3795.531760	23203.631236
62.038500	-0.012068	-0.001184	-0.015432	-0.042831	6425.871812	48800.859788	3871.691175	24912.856277
62.536000	-0.013952	0.001952	-0.020935	-0.040328	6389.267017	48868.000706	3851.265023	24785.615703
63.052500	-0.010046	0.003534	-0.020719	-0.046450	6473.479277	49692.394635	3867.403052	25098.137363
63.539000	-0.013651	0.003076	-0.018840	-0.044095	6423.190910	49389.612553	3866.183354	24977.371645
64.048000	-0.011501	0.003385	-0.013752	-0.052427	6512.102012	50325.949583	3901.105651	25407.577176
64.537000	-0.012057	0.003758	-0.017213	-0.055798	6536.336957	50737.385858	3900.866879	25583.954815
65.035000	-0.011012	0.003811	-0.017377	-0.059229	6575.217258	51123.492788	3909.528917	25764.915178
65.535000	-0.016326	0.003394	-0.016179	-0.056330	6504.194634	50756.003387	3905.009837	25611.923358
66.035500	-0.013487	0.003481	-0.018862	-0.064527	6599.945151	51679.519152	3919.724030	26047.161348
66.535500	-0.013375	0.003309	-0.018227	-0.065688	6611.140513	51790.919836	3924.558810	26109.471266
67.035500	-0.012816	0.003623	-0.020322	-0.065580	6615.121402	51814.291183	3918.634760	26103.697048
67.536500	-0.017064	0.003461	-0.017622	-0.059396	6524.184948	51103.125949	3909.323126	25773.757769
68.036500	-0.013472	0.002471	-0.019978	-0.064877	6603.155613	51605.382694	3917.671253	26065.948991
68.537000	-0.018598	0.002426	-0.020216	-0.057155	6491.819151	50740.184462	3896.525721	25655.350460
69.037000	-0.015222	0.002613	-0.016850	-0.061548	6558.747445	51248.479684	3917.133014	25888.067014
69.534500	-0.019454	0.002347	-0.020671	-0.054035	6458.020113	50388.386671	3887.154132	25491.528325
70.035000	-0.015296	0.001914	-0.019485	-0.058137	6528.574296	50792.052608	3901.042391	25707.156251
70.535500	-0.017070	0.002433	-0.021027	-0.050958	6452.167534	50061.777159	3878.228913	25331.114292
71.035500	-0.016038	0.001393	-0.019261	-0.054106	6487.650659	50291.796304	3891.029468	25495.274835
71.535500	-0.020671	0.001261	-0.024082	-0.046535	6385.015568	49456.769035	3859.028038	25102.537196
72.036000	-0.016661	0.001713	-0.019584	-0.049057	6439.589822	49777.330786	3877.041885	25232.579032
72.539000	-0.019849	0.001421	-0.018411	-0.040140	6339.094315	48791.633146	3857.183444	24776.044199
73.040000	-0.017352	0.000868	-0.021326	-0.043392	6386.469807	49078.394704	3858.041086	24941.462355
73.536500	-0.022263	0.001192	-0.018661	-0.033456	6265.394099	48065.353344	3839.702344	24439.956558
74.037500	-0.018884	0.002138	-0.020133	-0.035482	6308.997651	48376.261779	3841.091100	24541.322110
74.534500	-0.019987	0.002041	-0.024730	-0.026780	6230.299078	47462.133752	3808.287989	24109.385891
75.035000	-0.018015	0.001481	-0.018534	-0.029597	6268.515626	47694.794139	3830.408527	24248.247695
75.535000	-0.019259	0.001400	-0.017254	-0.026714	6235.564092	47389.486666	3826.440099	24106.157280
76.036000	-0.019878	0.002164	-0.022397	-0.022916	6200.631971	47079.080402	3804.577803	23920.380252
76.536000	-0.020892	0.002265	-0.018711	-0.014589	6127.928224	46248.173657	3793.402571	23518.674254
77.041500	-0.019097	0.002026	-0.016332	-0.017016	6160.599365	46467.704849	3804.977196	23634.996916
77.539500	-0.022816	0.002174	-0.022670	-0.008049	6063.387149	45589.914015	3768.563601	23208.572012
78.036500	-0.018729	0.002514	-0.020478	-0.011446	6120.387457	45959.646200	3781.710601	23369.050537
78.537000	-0.022351	0.001517	-0.023695	-0.004242	6038.247931	45152.282246	3757.331582	23030.168018
79.037500	-0.019340	0.002030	-0.021302	-0.007571	6086.106094	45528.650861	3770.647242	23186.092338
79.537500	-0.020040	0.001580	-0.018234	-0.005817	6067.494968	45312.306772	3773.728214	23103.796823
80.035500	-0.020610	0.002201	-0.013856	-0.004015	6049.614839	45196.932689	3779.798236	23019.613567
80.538000	-0.018267	0.001776	-0.020895	-0.002048	6052.441200	44964.027305	3758.735124	22928.112872
81.035500	-0.019095	0.002331	-0.020896	-0.000549	6034.976004	44872.504253	3755.266859	22858.631371
81.536500	-0.017729	0.001611	-0.015929	0.000706	6035.804436	44681.490424	3763.866531	22800.645308
82.036500	-0.019496	0.002394	-0.018422	0.002444	6009.663462	44589.547655	3754.070743	22720.642991
82.536500	-0.017290	0.002211	-0.019799	0.003778	6016.148519	44443.847353	3747.843455	22659.456226
83.036500	-0.018665	0.000722	-0.019512	0.003797	6005.790086	44299.483914	3748.456988	22658.578295
83.537500	-0.019984	0.001556	-0.016300	0.004878	5988.038321	44275.946891	3753.352258	22609.166230
84.034500	-0.016648	0.001651	-0.021043	0.005550	6007.747698	44220.766105	3740.962061	22578.463056
84.534000	-0.015888	0.001571	-0.022505	0.006549	6005.977097	44118.044829	3735.381599	22532.958915
85.035500	-0.018424	0.000644	-0.019240	0.005883	5992.134578	44093.183506	3744.309899	22563.287555
85.536000	-0.021137	0.000510	-0.023198	0.010857	5935.843529	43610.381050	3724.139957	22337.869980
86.038500	-0.015878	0.001069	-0.011005	0.007980	5995.450577	43934.502782	3758.413037	22467.934553
86.536000	-0.016890	0.000633	-0.014737	0.008029	5987.615286	43888.614464	3749.702990	22465.729163
87.042500	-0.016183	0.000502	-0.014098	0.008434	5989.844101	43837.916956	3750.240714	22447.373421
87.537000	-0.018592	-0.000162	-0.017278	0.012620	5941.525550	43382.215806	3733.476241	22258.597660
88.037000	-0.014575	-0.000139	-0.019791	0.008836	5998.758127	43739.494570	3736.348479	22429.164322
88.540500	-0.015356	-0.000920	-0.017124	0.008947	5992.167978	43655.528353	3742.152394	22424.160382
89.037500	-0.015903	-0.000204	-0.015714	0.010215	5978.782487	43603.558657	3742.472449	22366.823395
89.537000	-0.017113	-0.000492	-0.014096	0.014024	5942.071167	43220.462551	3737.495226	22195.694192
90.035500	-0.014722	-0.001250	-0.011217	0.011345	5979.153248	43399.652388	3750.170775	22315.892892
90.535500	-0.013968	-0.001042	-0.010290	0.011878	5980.782097	43369.299784	3751.075737	22291.942455
91.036500	-0.014569	-0.000949	-0.012906	0.012811	5969.508422	43290.847151	3742.956466	22250.029765
91.536500	-0.013899	-0.000409	-0.013141	0.018619	5932.042981	42802.638724	3729.281795	21991.237762
92.039500	-0.013367	-0.001102	-0.009001	0.013762	5971.354470	43188.130398	3749.709532	22207.423861
92.536500	-0.017508	-0.001272	-0.017243	0.019834	5897.274253	42611.765612	3717.409958	21937.560561
93.068000	-0.011848	-0.000256	-0.013075	0.014950	5973.786799	43156.367706	3737.712653	22154.332038
93.534500	-0.014176	-0.000710	-0.013850	0.018664	5929.716238	42770.840418	3727.589665	21989.262395
94.035000	-0.012870	-0.000097	-0.005645	0.015487	5962.354918	43121.232224	3753.458794	22130.381119
94.535000	-0.014119	-0.000562	-0.014403	0.021641	5908.633207	42511.296293	3719.705328	21857.958380
95.035000	-0.010420	-0.000361	-0.008167	0.015093	5983.231768	43133.279368	3748.569687	22147.938729
95.535500	-0.012374	-0.000462	-0.014313	0.018272	5945.649575	42829.854416	3727.431212	22006.633899
96.036000	-0.012431	-0.000155	-0.010941	0.015304	5966.914725	43132.830189	3741.754722	22138.559289
