sample name	sample
index	338
start time	 03-01-2021  10:58:55 AM


Wavelength (nm)	Absorbance
494.344910	0.403080
494.563924	0.403080
494.782919	0.403080
495.001897	-0.155644
495.220856	-0.105493
495.439797	-0.152784
495.658719	-0.270883
495.877624	-0.333194
496.096510	-0.330642
496.315378	-0.329894
496.534227	-0.306129
496.753059	-0.267871
496.971872	-0.164174
497.190667	0.121786
497.409444	0.150475
497.628203	0.159810
497.846943	0.162145
498.065665	0.160761
498.284369	0.160500
498.503055	0.160901
498.721723	0.161765
498.940372	0.160954
499.159003	0.160180
499.377616	0.158131
499.596210	0.157434
499.814787	0.155301
500.033345	0.153951
500.251885	0.153077
500.470406	0.151277
500.688910	0.148976
500.907395	0.149318
501.125862	0.149398
501.344311	0.148835
501.562742	0.146747
501.781154	0.146406
501.999548	0.146613
502.217924	0.146143
502.436282	0.145331
502.654621	0.145199
502.872942	0.143476
503.091245	0.141673
503.309530	0.140484
503.527797	0.139833
503.746045	0.138064
503.964275	0.136702
504.182487	0.134782
504.400681	0.134379
504.618856	0.132601
504.837013	0.131977
505.055152	0.131508
505.273273	0.130869
505.491376	0.130093
505.709460	0.129694
505.927526	0.129087
506.145574	0.127811
506.363604	0.125825
506.581615	0.125426
506.799608	0.124825
507.017583	0.123905
507.235540	0.122908
507.453478	0.121493
507.671399	0.121893
507.889301	0.120920
508.107185	0.121768
508.325050	0.121843
508.542898	0.121045
508.760727	0.119400
508.978538	0.118618
509.196330	0.117570
509.414105	0.116854
509.631861	0.115014
509.849599	0.114059
510.067319	0.111455
510.285021	0.110045
510.502704	0.109550
510.720369	0.109893
510.938016	0.108735
511.155645	0.108154
511.373255	0.107637
511.590848	0.106215
511.808422	0.106061
512.025977	0.105964
512.243515	0.105236
512.461034	0.103959
512.678536	0.101478
512.896018	0.100673
513.113483	0.099986
513.330930	0.099407
513.548358	0.099298
513.765768	0.097996
513.983160	0.097734
514.200533	0.096626
514.417889	0.096134
514.635226	0.096195
514.852545	0.095554
515.069845	0.094703
515.287128	0.094076
515.504392	0.093941
515.721638	0.092701
515.938866	0.091628
516.156075	0.091341
516.373267	0.090573
516.590440	0.090514
516.807594	0.089969
517.024731	0.089571
517.241850	0.088712
517.458950	0.087848
517.676032	0.087530
517.893095	0.087622
518.110141	0.086683
518.327168	0.086819
518.544177	0.085405
518.761168	0.085226
518.978141	0.084825
519.195095	0.084208
519.412031	0.083479
519.628949	0.082910
519.845849	0.081932
520.062731	0.081741
520.279594	0.080473
520.496439	0.079942
520.713266	0.078948
520.930074	0.078101
521.146865	0.077061
521.363637	0.076390
521.580391	0.076211
521.797127	0.075469
522.013844	0.075012
522.230543	0.074742
522.447224	0.074037
522.663887	0.073603
522.880532	0.072684
523.097158	0.072700
523.313766	0.072007
523.530356	0.071643
523.746928	0.071267
523.963481	0.069798
524.180017	0.069307
524.396534	0.069102
524.613032	0.068335
524.829513	0.068130
525.045975	0.067968
525.262420	0.067627
525.478845	0.066876
525.695253	0.066272
525.911643	0.066614
526.128014	0.066024
526.344367	0.065488
526.560702	0.064927
526.777018	0.064624
526.993316	0.063580
527.209597	0.063495
527.425858	0.062866
527.642102	0.062834
527.858328	0.062243
528.074535	0.061554
528.290724	0.060880
528.506894	0.060568
528.723047	0.060032
528.939181	0.060167
529.155297	0.059687
529.371395	0.059473
529.587475	0.058710
529.803536	0.057941
530.019579	0.057643
530.235604	0.058001
530.451611	0.058081
530.667600	0.057905
530.883570	0.056979
531.099522	0.056378
531.315456	0.056269
531.531372	0.055734
531.747269	0.055704
531.963148	0.055260
532.179009	0.054255
532.394852	0.053508
532.610676	0.052616
532.826482	0.051904
533.042271	0.051666
533.258040	0.051367
533.473792	0.050812
533.689525	0.050322
533.905240	0.049901
534.120937	0.049199
534.336616	0.048816
534.552277	0.048634
534.767919	0.048693
534.983543	0.048091
535.199149	0.047087
535.414736	0.047002
535.630306	0.047027
535.845857	0.047098
536.061390	0.047075
536.276904	0.047059
536.492401	0.046657
536.707879	0.046539
536.923339	0.046083
537.138781	0.046031
537.354204	0.045779
537.569610	0.045106
537.784997	0.044573
538.000366	0.044547
538.215716	0.044064
538.431049	0.043522
538.646363	0.043144
538.861659	0.043094
539.076937	0.042343
539.292196	0.041937
539.507438	0.041737
539.722661	0.041495
539.937866	0.040965
540.153052	0.040748
540.368221	0.041084
540.583371	0.040596
540.798503	0.039895
541.013617	0.039824
541.228712	0.039401
541.443789	0.038811
541.658848	0.038545
541.873889	0.038105
542.088912	0.037736
542.303916	0.036994
542.518902	0.036969
542.733870	0.037061
542.948820	0.036973
543.163752	0.036475
543.378665	0.036334
543.593560	0.035694
543.808437	0.035652
544.023295	0.035452
544.238136	0.035262
544.452958	0.034832
544.667762	0.034480
544.882548	0.034262
545.097315	0.034350
545.312064	0.034103
545.526795	0.033872
545.741508	0.033322
545.956203	0.032833
546.170879	0.032601
546.385537	0.032575
546.600177	0.032153
546.814799	0.031737
547.029402	0.031554
547.243988	0.031476
547.458555	0.031390
547.673103	0.031460
547.887634	0.031003
548.102146	0.030883
548.316640	0.030265
548.531116	0.030380
548.745574	0.030167
548.960013	0.030113
549.174435	0.030014
549.388838	0.029711
549.603222	0.029240
549.817589	0.028967
550.031937	0.028358
550.246267	0.028085
550.460579	0.027760
550.674873	0.027889
550.889148	0.027363
551.103405	0.027019
551.317644	0.027242
551.531865	0.027140
551.746068	0.027224
551.960252	0.027518
552.174418	0.027237
552.388566	0.026665
552.602696	0.025879
552.816807	0.025328
553.030900	0.025012
553.244975	0.024488
553.459032	0.024075
553.673070	0.023838
553.887091	0.023278
554.101093	0.023427
554.315077	0.023504
554.529042	0.023550
554.742990	0.023754
554.956919	0.023782
555.170830	0.023576
555.384722	0.023719
555.598597	0.023305
555.812453	0.023093
556.026291	0.022780
556.240111	0.022352
556.453913	0.021953
556.667696	0.021838
556.881461	0.021237
557.095208	0.020794
557.308937	0.020373
557.522647	0.020270
557.736339	0.020239
557.950013	0.019736
558.163669	0.019781
558.377307	0.019699
558.590926	0.019307
558.804527	0.019326
559.018110	0.019399
559.231675	0.019515
559.445221	0.019455
559.658749	0.019277
559.872259	0.019515
560.085751	0.019374
560.299225	0.019124
560.512680	0.019160
560.726117	0.018990
560.939536	0.018911
561.152937	0.018485
561.366319	0.018135
561.579683	0.017946
561.793029	0.017479
562.006357	0.017403
562.219667	0.017284
562.432958	0.016967
562.646231	0.016629
562.859486	0.016301
563.072723	0.016260
563.285941	0.016385
563.499141	0.016167
563.712323	0.016005
563.925487	0.015702
564.138632	0.015791
564.351760	0.015878
564.564869	0.015662
564.777960	0.015604
564.991032	0.015498
565.204087	0.015112
565.417123	0.015111
565.630141	0.015015
565.843140	0.014703
566.056122	0.014494
566.269085	0.014258
566.482030	0.014325
566.694957	0.014040
566.907866	0.013668
567.120756	0.013668
567.333628	0.013534
567.546482	0.013686
567.759318	0.013752
567.972135	0.013484
568.184935	0.013300
568.397716	0.013040
568.610478	0.012885
568.823223	0.012712
569.035949	0.012665
569.248657	0.012420
569.461347	0.012048
569.674019	0.011613
569.886672	0.011334
570.099308	0.011063
570.311925	0.011096
570.524523	0.011278
570.737104	0.011213
570.949666	0.011147
571.162210	0.010916
571.374736	0.010858
571.587244	0.011038
571.799733	0.011244
572.012205	0.011447
572.224658	0.011526
572.437092	0.011163
572.649509	0.011279
572.861907	0.010996
573.074287	0.011131
573.286649	0.011007
573.498993	0.010936
573.711318	0.010507
573.923625	0.010038
574.135914	0.009543
574.348185	0.009444
574.560438	0.009396
574.772672	0.008991
574.984888	0.008838
575.197086	0.008414
575.409266	0.008313
575.621427	0.008472
575.833570	0.008225
576.045695	0.008026
576.257802	0.007823
576.469890	0.007519
576.681961	0.007591
576.894013	0.007384
577.106046	0.007587
577.318062	0.007440
577.530059	0.007383
577.742039	0.007350
577.954000	0.007375
578.165942	0.007431
578.377867	0.007200
578.589773	0.007332
578.801661	0.007528
579.013531	0.007456
579.225382	0.007244
579.437216	0.007131
579.649031	0.007005
579.860828	0.006812
580.072606	0.006690
580.284367	0.006615
580.496109	0.006337
580.707833	0.005716
580.919539	0.005660
581.131227	0.005676
581.342896	0.005512
581.554547	0.005718
581.766180	0.005643
581.977795	0.005660
582.189391	0.005586
582.400969	0.005285
582.612529	0.005187
582.824071	0.005025
583.035595	0.004781
583.247100	0.004563
583.458587	0.004316
583.670056	0.004293
583.881506	0.004196
584.092939	0.004462
584.304353	0.004520
584.515749	0.004638
584.727127	0.004379
584.938486	0.004341
585.149828	0.004310
585.361151	0.004214
585.572456	0.004335
585.783742	0.004213
585.995011	0.003532
586.206261	0.003421
586.417493	0.003654
586.628706	0.003653
586.839902	0.003506
587.051079	0.003307
587.262238	0.003235
587.473379	0.003003
587.684502	0.003053
587.895606	0.003011
588.106692	0.002984
588.317760	0.002356
588.528810	0.002337
588.739841	0.002208
588.950855	0.002090
589.161850	0.002023
589.372827	0.001884
589.583785	0.001589
589.794726	0.001634
590.005648	0.001435
590.216552	0.001556
590.427437	0.001536
590.638305	0.001318
590.849154	0.001273
591.059985	0.001245
591.270798	0.001126
591.481592	0.001015
591.692369	0.000804
591.903127	0.000921
592.113867	0.000685
592.324588	0.000409
592.535292	0.000575
592.745977	0.000610
592.956644	0.000391
593.167293	0.000304
593.377923	0.000171
593.588536	0.000404
593.799130	0.000398
594.009706	0.000526
594.220263	0.000740
594.430803	0.000739
594.641324	0.000803
594.851827	0.000797
595.062312	0.000955
595.272778	0.000929
595.483227	0.000701
595.693657	0.000324
595.904069	0.000518
596.114462	0.000266
596.324838	0.000095
596.535195	-0.000119
596.745534	-0.000019
596.955855	-0.000303
597.166157	-0.000499
597.376441	-0.000429
597.586707	0.000009
597.796955	-0.000135
598.007185	-0.000272
598.217396	-0.000388
598.427589	-0.000602
598.637764	-0.000763
598.847921	-0.000722
599.058060	-0.000605
599.268180	-0.000894
599.478282	-0.001196
599.688366	-0.001408
599.898431	-0.001318
600.108479	-0.001345
600.318508	-0.001363
600.528519	-0.001583
600.738511	-0.001572
600.948486	-0.001623
601.158442	-0.001559
601.368380	-0.001852
601.578300	-0.001965
601.788202	-0.002257
601.998085	-0.002245
602.207950	-0.002135
602.417797	-0.001987
602.627626	-0.002160
602.837436	-0.002430
603.047228	-0.002482
603.257002	-0.002488
603.466758	-0.002609
603.676496	-0.002360
603.886215	-0.002419
604.095916	-0.002598
604.305599	-0.002579
604.515264	-0.002852
604.724910	-0.002807
604.934538	-0.002811
605.144148	-0.002820
605.353740	-0.002787
605.563314	-0.003004
605.772869	-0.003227
605.982406	-0.003121
606.191925	-0.003443
606.401425	-0.003116
606.610908	-0.003134
606.820372	-0.003082
607.029818	-0.002916
607.239246	-0.002891
607.448655	-0.002701
607.658047	-0.002759
607.867420	-0.002815
608.076775	-0.002614
608.286111	-0.002629
608.495430	-0.002549
608.704730	-0.002645
608.914012	-0.002855
609.123275	-0.002838
609.332521	-0.003056
609.541748	-0.002930
609.750957	-0.002917
609.960148	-0.003148
610.169321	-0.003192
610.378475	-0.003276
610.587611	-0.003361
610.796729	-0.003490
611.005829	-0.003621
611.214910	-0.003786
611.423974	-0.003998
611.633019	-0.004089
611.842045	-0.003996
612.051054	-0.004193
612.260044	-0.004188
612.469017	-0.004246
612.677970	-0.004075
612.886906	-0.004192
613.095824	-0.004084
613.304723	-0.003930
613.513604	-0.003900
613.722467	-0.003837
613.931311	-0.003816
614.140138	-0.003970
614.348946	-0.003960
614.557736	-0.004043
614.766507	-0.004051
614.975261	-0.004109
615.183996	-0.004276
615.392713	-0.004365
615.601412	-0.004518
615.810092	-0.004553
616.018754	-0.004449
616.227399	-0.004551
616.436024	-0.004595
616.644632	-0.004484
616.853222	-0.004469
617.061793	-0.004193
617.270346	-0.004341
617.478880	-0.004323
617.687397	-0.004343
617.895895	-0.004481
618.104375	-0.004504
618.312837	-0.004586
618.521281	-0.004875
618.729706	-0.005049
618.938113	-0.005496
619.146502	-0.005312
619.354873	-0.005504
619.563226	-0.005466
619.771560	-0.005450
619.979876	-0.005556
620.188174	-0.005416
620.396453	-0.005219
620.604715	-0.005157
620.812958	-0.005106
621.021183	-0.005370
621.229390	-0.005315
621.437578	-0.005403
621.645748	-0.005642
621.853900	-0.005529
622.062034	-0.005746
622.270150	-0.005974
622.478247	-0.005937
622.686326	-0.005914
622.894387	-0.006016
623.102430	-0.006048
623.310454	-0.006022
623.518461	-0.005667
623.726449	-0.005485
623.934418	-0.005464
624.142370	-0.005209
624.350303	-0.005358
624.558218	-0.005245
624.766115	-0.004964
624.973994	-0.005015
625.181855	-0.005014
625.389697	-0.005200
625.597521	-0.005609
625.805327	-0.005554
626.013114	-0.005688
626.220883	-0.005654
626.428634	-0.005700
626.636367	-0.005943
626.844082	-0.005949
627.051778	-0.006042
627.259457	-0.006162
627.467117	-0.005842
627.674758	-0.005858
627.882382	-0.005888
628.089987	-0.005962
628.297574	-0.006058
628.505143	-0.006022
628.712694	-0.006005
628.920226	-0.006131
629.127740	-0.006117
629.335236	-0.006305
629.542714	-0.006436
629.750174	-0.006508
629.957615	-0.006620
630.165038	-0.006612
630.372443	-0.006681
630.579829	-0.006781
630.787198	-0.006836
630.994548	-0.006743
631.201880	-0.006797
631.409194	-0.006850
631.616489	-0.006857
631.823766	-0.006630
632.031025	-0.006545
632.238266	-0.006505
632.445489	-0.006546
632.652693	-0.006374
632.859879	-0.006438
633.067047	-0.006357
633.274197	-0.006322
633.481329	-0.006438
633.688442	-0.006600
633.895537	-0.006645
634.102614	-0.006584
634.309672	-0.006542
634.516713	-0.006609
634.723735	-0.006580
634.930739	-0.006625
635.137724	-0.006501
635.344692	-0.006368
635.551641	-0.006420
635.758572	-0.006722
635.965485	-0.006838
636.172379	-0.006961
636.379256	-0.007052
636.586114	-0.007286
636.792954	-0.007433
636.999775	-0.007652
637.206579	-0.007878
637.413364	-0.007910
637.620131	-0.007779
637.826880	-0.007908
638.033610	-0.007790
638.240323	-0.007803
638.447017	-0.007643
638.653692	-0.007582
638.860350	-0.007636
639.066990	-0.007589
639.273611	-0.007617
639.480214	-0.007570
639.686798	-0.007522
639.893365	-0.007690
640.099913	-0.007570
640.306443	-0.007675
640.512955	-0.007723
640.719449	-0.007776
640.925924	-0.007625
641.132381	-0.007568
641.338820	-0.007488
641.545241	-0.007324
641.751644	-0.007179
641.958028	-0.007120
642.164394	-0.007118
642.370742	-0.007087
642.577071	-0.006877
642.783383	-0.006859
642.989676	-0.006941
643.195951	-0.007081
643.402207	-0.007247
643.608446	-0.007192
643.814666	-0.007361
644.020868	-0.007271
644.227052	-0.007256
644.433218	-0.007282
644.639365	-0.007474
644.845494	-0.007418
645.051605	-0.007564
645.257698	-0.007818
645.463772	-0.007929
645.669828	-0.008012
645.875866	-0.008053
646.081886	-0.008036
646.287888	-0.008186
646.493871	-0.008230
646.699836	-0.008251
646.905783	-0.008053
647.111712	-0.007910
647.317622	-0.008071
647.523514	-0.008047
647.729388	-0.008136
647.935244	-0.008330
648.141082	-0.008522
648.346901	-0.008375
648.552702	-0.008387
648.758485	-0.008624
648.964250	-0.008603
649.169996	-0.008560
649.375724	-0.008572
649.581434	-0.008590
649.787126	-0.008745
649.992800	-0.008468
650.198455	-0.008541
650.404092	-0.008547
650.609711	-0.008370
650.815311	-0.008289
651.020894	-0.008243
651.226458	-0.008207
651.432004	-0.008228
651.637532	-0.008066
651.843041	-0.008071
652.048532	-0.008142
652.254006	-0.008179
652.459460	-0.008258
652.664897	-0.008416
652.870315	-0.008454
653.075716	-0.008574
653.281097	-0.008611
653.486461	-0.008579
653.691807	-0.008637
653.897134	-0.008535
654.102443	-0.008496
654.307734	-0.008355
654.513006	-0.008181
654.718261	-0.008160
654.923497	-0.008273
655.128715	-0.008246
655.333915	-0.008202
655.539096	-0.008283
655.744259	-0.008424
655.949404	-0.008654
656.154531	-0.008947
656.359640	-0.009210
656.564730	-0.009305
656.769802	-0.009159
656.974856	-0.009160
657.179892	-0.009298
657.384909	-0.009377
657.589908	-0.009270
657.794889	-0.009210
657.999852	-0.009134
658.204797	-0.008893
658.409723	-0.008910
658.614631	-0.008947
658.819521	-0.008921
659.024393	-0.008858
659.229246	-0.008787
659.434081	-0.008878
659.638898	-0.008660
659.843697	-0.008546
660.048478	-0.008631
660.253240	-0.008696
660.457984	-0.008814
660.662710	-0.008870
660.867417	-0.008824
661.072107	-0.008793
661.276778	-0.008900
661.481431	-0.009035
661.686066	-0.009182
661.890682	-0.009229
662.095281	-0.009037
662.299861	-0.008943
662.504422	-0.008906
662.708966	-0.008906
662.913491	-0.008837
663.117999	-0.008829
663.322488	-0.008719
663.526958	-0.008461
663.731411	-0.008447
663.935845	-0.008449
664.140261	-0.008349
664.344659	-0.008343
664.549038	-0.008414
664.753400	-0.008530
664.957743	-0.008507
665.162068	-0.008550
665.366375	-0.008792
665.570663	-0.008736
665.774933	-0.008884
665.979185	-0.008880
666.183419	-0.008831
666.387635	-0.008894
666.591832	-0.008961
666.796011	-0.008819
667.000172	-0.008884
667.204315	-0.008813
667.408439	-0.008883
667.612545	-0.008850
667.816634	-0.008924
668.020703	-0.009086
668.224755	-0.009020
668.428788	-0.008930
668.632803	-0.009040
668.836800	-0.008993
669.040779	-0.009064
669.244739	-0.008959
669.448681	-0.008875
669.652605	-0.008814
669.856511	-0.008770
670.060399	-0.008712
670.264268	-0.008666
670.468119	-0.008564
670.671952	-0.008507
670.875767	-0.008506
671.079563	-0.008573
671.283341	-0.008573
671.487101	-0.008724
671.690843	-0.008619
671.894567	-0.008648
672.098272	-0.008653
672.301959	-0.008542
672.505628	-0.008564
672.709278	-0.008581
672.912911	-0.008527
673.116525	-0.008382
673.320121	-0.008333
673.523699	-0.008448
673.727258	-0.008549
673.930799	-0.008589
674.134322	-0.008903
674.337827	-0.009003
674.541314	-0.009029
674.744782	-0.009081
674.948232	-0.009175
675.151664	-0.009181
675.355078	-0.009151
675.558474	-0.009027
675.761851	-0.009045
675.965210	-0.008895
676.168551	-0.008940
676.371873	-0.008808
676.575178	-0.008849
676.778464	-0.008945
676.981732	-0.008957
677.184981	-0.008860
677.388213	-0.008927
677.591426	-0.008851
677.794621	-0.008897
677.997798	-0.008872
678.200956	-0.008831
678.404097	-0.008786
678.607219	-0.008882
678.810323	-0.008840
679.013408	-0.008809
679.216476	-0.008732
679.419525	-0.008764
679.622556	-0.008673
679.825569	-0.008667
680.028563	-0.008698
680.231540	-0.008779
680.434498	-0.008558
680.637438	-0.008385
680.840359	-0.008408
681.043263	-0.008421
681.246148	-0.008380
681.449015	-0.008429
681.651864	-0.008417
681.854694	-0.008440
682.057506	-0.008408
682.260301	-0.008425
682.463076	-0.008544
682.665834	-0.008525
682.868573	-0.008470
683.071295	-0.008456
683.273998	-0.008503
683.476682	-0.008430
683.679349	-0.008441
683.881997	-0.008393
684.084627	-0.008381
684.287239	-0.008451
684.489833	-0.008534
684.692408	-0.008613
684.894965	-0.008603
685.097504	-0.008523
685.300025	-0.008475
685.502527	-0.008415
685.705012	-0.008271
685.907478	-0.008307
686.109925	-0.008257
686.312355	-0.008239
686.514766	-0.008190
686.717159	-0.008316
686.919534	-0.008358
687.121891	-0.008354
687.324230	-0.008495
687.526550	-0.008635
687.728852	-0.008579
687.931136	-0.008589
688.133401	-0.008615
688.335649	-0.008630
688.537878	-0.008378
688.740089	-0.008316
688.942281	-0.008316
689.144456	-0.008110
689.346612	-0.008065
689.548750	-0.007979
689.750870	-0.007884
689.952971	-0.007702
690.155055	-0.007694
690.357120	-0.007739
690.559167	-0.007770
690.761195	-0.007719
690.963206	-0.007643
691.165198	-0.007550
691.367172	-0.007580
691.569128	-0.007456
691.771065	-0.007563
691.972984	-0.007540
692.174885	-0.007633
692.376768	-0.007442
692.578633	-0.007511
692.780479	-0.007597
692.982308	-0.007647
693.184118	-0.007726
693.385909	-0.007795
693.587683	-0.007757
693.789438	-0.007765
693.991175	-0.007722
694.192894	-0.007737
694.394595	-0.007796
694.596277	-0.007809
694.797941	-0.007755
694.999587	-0.007737
695.201215	-0.007745
695.402824	-0.007767
695.604416	-0.007834
695.805989	-0.007711
696.007543	-0.007821
696.209080	-0.007679
696.410598	-0.007570
696.612099	-0.007703
696.813580	-0.007702
697.015044	-0.007682
697.216490	-0.007705
697.417917	-0.007623
697.619326	-0.007772
697.820717	-0.007700
698.022089	-0.007719
698.223444	-0.007846
698.424780	-0.007809
698.626098	-0.007968
698.827397	-0.008175
699.028679	-0.008168
699.229942	-0.008209
699.431187	-0.008204
699.632414	-0.008311
699.833622	-0.008369
700.034813	-0.008387
700.235985	-0.008414
700.437139	-0.008333
700.638274	-0.008206
700.839392	-0.008324
701.040491	-0.008325
701.241572	-0.008358
701.442635	-0.008342
701.643679	-0.008390
701.844706	-0.008414
702.045714	-0.008356
702.246704	-0.008306
702.447675	-0.008338
702.648629	-0.008377
702.849564	-0.008436
703.050481	-0.008404
703.251380	-0.008379
703.452260	-0.008312
703.653122	-0.008293
703.853966	-0.008317
704.054792	-0.008356
704.255600	-0.008325
704.456389	-0.008197
704.657160	-0.008147
704.857913	-0.008100
705.058648	-0.008075
705.259365	-0.008162
705.460063	-0.008076
705.660743	-0.008126
705.861405	-0.008244
706.062048	-0.008348
706.262674	-0.008423
706.463281	-0.008512
706.663870	-0.008669
706.864441	-0.008839
707.064993	-0.008821
707.265527	-0.009040
707.466043	-0.009056
707.666541	-0.008991
707.867021	-0.008990
708.067482	-0.008998
708.267925	-0.008849
708.468350	-0.008857
708.668757	-0.008862
708.869145	-0.008957
709.069516	-0.008963
709.269868	-0.008959
709.470201	-0.009100
709.670517	-0.009200
709.870814	-0.009253
710.071093	-0.009511
710.271354	-0.009483
710.471597	-0.009414
710.671821	-0.009415
710.872028	-0.009215
711.072216	-0.009388
711.272385	-0.009253
711.472537	-0.009153
711.672670	-0.009126
711.872785	-0.008998
712.072882	-0.008991
712.272961	-0.008973
712.473021	-0.009007
712.673063	-0.009147
712.873087	-0.008969
713.073093	-0.008905
713.273081	-0.008935
713.473050	-0.008941
713.673001	-0.008838
713.872934	-0.008912
714.072849	-0.009067
714.272745	-0.009131
714.472623	-0.009175
714.672483	-0.009266
714.872325	-0.009443
715.072148	-0.009522
715.271954	-0.009605
715.471741	-0.009838
715.671509	-0.009899
715.871260	-0.009740
716.070992	-0.009687
716.270707	-0.009709
716.470403	-0.009822
716.670080	-0.009707
716.869740	-0.009695
717.069381	-0.009824
717.269004	-0.009722
717.468609	-0.009634
717.668195	-0.009817
717.867764	-0.010001
718.067314	-0.009985
718.266846	-0.009958
718.466360	-0.010129
718.665855	-0.010259
718.865332	-0.010128
719.064791	-0.010311
719.264232	-0.010494
719.463655	-0.010615
719.663059	-0.010482
719.862445	-0.010540
720.061813	-0.010570
720.261163	-0.010602
720.460494	-0.010615
720.659807	-0.010752
720.859102	-0.010834
721.058379	-0.010794
721.257638	-0.010682
721.456878	-0.010739
721.656100	-0.010803
721.855304	-0.010964
722.054490	-0.010987
722.253657	-0.010888
722.452806	-0.010978
722.651937	-0.010962
722.851050	-0.010995
723.050145	-0.011077
723.249221	-0.011077
723.448279	-0.011058
723.647319	-0.010960
723.846340	-0.010890
724.045344	-0.010920
724.244329	-0.010815
724.443296	-0.010777
724.642245	-0.010772
724.841175	-0.010800
725.040088	-0.010812
725.238982	-0.010870
725.437857	-0.010958
725.636715	-0.011092
725.835554	-0.011245
726.034376	-0.011353
726.233179	-0.011523
726.431963	-0.011766
726.630730	-0.011835
726.829478	-0.011943
727.028208	-0.012116
727.226920	-0.012194
727.425614	-0.012315
727.624289	-0.012293
727.822946	-0.012319
728.021585	-0.012316
728.220206	-0.012236
728.418808	-0.012272
728.617392	-0.012359
728.815958	-0.012449
729.014506	-0.012393
729.213036	-0.012432
729.411547	-0.012433
729.610040	-0.012344
729.808515	-0.012261
730.006972	-0.012135
730.205410	-0.012070
730.403831	-0.012033
730.602233	-0.012034
730.800616	-0.012011
730.998982	-0.011795
731.197329	-0.011761
731.395658	-0.011878
731.593969	-0.011926
731.792262	-0.011942
731.990536	-0.012034
732.188793	-0.012040
732.387031	-0.011827
732.585250	-0.011919
732.783452	-0.012165
732.981635	-0.012179
733.179800	-0.012141
733.377947	-0.012141
733.576076	-0.012246
733.774186	-0.012146
733.972278	-0.012183
734.170352	-0.012317
734.368408	-0.012321
734.566446	-0.012230
734.764465	-0.012283
734.962466	-0.012342
735.160449	-0.012249
735.358413	-0.012472
735.556360	-0.012718
735.754288	-0.012713
735.952198	-0.012856
736.150090	-0.012887
736.347963	-0.012959
736.545818	-0.013104
736.743655	-0.013154
736.941474	-0.013409
737.139275	-0.013274
737.337057	-0.013265
737.534821	-0.013502
737.732567	-0.013564
737.930295	-0.013487
738.128005	-0.013646
738.325696	-0.013496
738.523369	-0.013501
738.721024	-0.013433
738.918660	-0.013523
739.116279	-0.013472
739.313879	-0.013322
739.511461	-0.013173
739.709024	-0.013386
739.906570	-0.013224
740.104097	-0.013380
740.301606	-0.013416
740.499097	-0.013359
740.696569	-0.013311
740.894024	-0.013295
741.091460	-0.013342
741.288878	-0.013448
741.486277	-0.013416
741.683659	-0.013504
741.881022	-0.013557
742.078367	-0.013644
742.275694	-0.013814
742.473002	-0.013924
742.670293	-0.013924
742.867565	-0.013984
743.064819	-0.013990
743.262054	-0.013824
743.459272	-0.013856
743.656471	-0.013790
743.853652	-0.013559
744.050815	-0.013507
744.247959	-0.013402
744.445085	-0.013456
744.642194	-0.013195
744.839283	-0.013070
745.036355	-0.013190
745.233408	-0.013088
745.430444	-0.012964
745.627461	-0.013135
745.824459	-0.012974
746.021440	-0.013129
746.218402	-0.013018
746.415346	-0.013192
746.612272	-0.013329
746.809180	-0.013292
747.006069	-0.013318
747.202940	-0.013491
747.399793	-0.013416
747.596628	-0.013558
747.793444	-0.013436
747.990243	-0.013592
748.187023	-0.013680
748.383784	-0.013652
748.580528	-0.013664
748.777253	-0.013807
748.973960	-0.013786
749.170649	-0.013807
749.367320	-0.013764
749.563973	-0.013778
749.760607	-0.013957
749.957223	-0.013927
750.153821	-0.013955
750.350400	-0.013965
750.546962	-0.013807
750.743505	-0.013771
750.940030	-0.013991
751.136536	-0.014022
751.333025	-0.014014
751.529495	-0.013778
751.725947	-0.013754
751.922381	-0.013597
752.118796	-0.013558
752.315194	-0.013614
752.511573	-0.013574
752.707934	-0.013307
752.904276	-0.013188
753.100601	-0.012928
753.296907	-0.012817
753.493195	-0.012495
753.689465	-0.012410
753.885716	-0.012528
754.081949	-0.012337
754.278164	-0.012389
754.474361	-0.012422
754.670540	-0.012353
754.866700	-0.012451
755.062843	-0.012540
755.258967	-0.012691
755.455072	-0.012739
755.651160	-0.012632
755.847229	-0.012814
756.043280	-0.012762
756.239313	-0.012600
756.435328	-0.012871
756.631324	-0.012844
756.827302	-0.012729
757.023262	-0.012771
757.219204	-0.012656
757.415127	-0.012656
757.611033	-0.012440
757.806920	-0.012335
758.002788	-0.012472
758.198639	-0.012231
758.394471	-0.012141
758.590286	-0.012155
758.786081	-0.012036
758.981859	-0.012143
759.177619	-0.011935
759.373360	-0.011983
759.569083	-0.011894
759.764788	-0.011734
759.960474	-0.011806
760.156143	-0.011859
760.351793	-0.011749
760.547425	-0.011666
760.743038	-0.011494
760.938634	-0.011502
761.134211	-0.011513
761.329770	-0.011737
761.525311	-0.011833
761.720833	-0.011836
761.916338	-0.011778
762.111824	-0.011787
762.307292	-0.011891
762.502741	-0.011939
762.698173	-0.011948
762.893586	-0.011984
763.088981	-0.011958
763.284358	-0.012006
763.479716	-0.012040
763.675057	-0.012077
763.870379	-0.012104
764.065683	-0.012049
764.260968	-0.012173
764.456236	-0.012150
764.651485	-0.012211
764.846716	-0.012081
765.041929	-0.011992
765.237123	-0.011902
765.432299	-0.011931
765.627457	-0.011962
765.822597	-0.011953
766.017719	-0.011844
766.212822	-0.011873
766.407907	-0.011905
766.602974	-0.011809
766.798023	-0.011861
766.993054	-0.011723
767.188066	-0.011567
767.383060	-0.011547
767.578036	-0.011513
767.772993	-0.011519
767.967933	-0.011661
768.162854	-0.011546
768.357757	-0.011691
768.552642	-0.011606
768.747508	-0.011730
768.942356	-0.011752
769.137186	-0.011679
769.331998	-0.011655
769.526792	-0.011685
769.721567	-0.011501
769.916324	-0.011376
770.111063	-0.011343
770.305784	-0.011313
770.500486	-0.011218
770.695171	-0.011380
770.889837	-0.011525
771.084484	-0.011660
771.279114	-0.011562
771.473725	-0.011685
771.668318	-0.011859
771.862893	-0.011892
772.057450	-0.011882
772.251988	-0.011957
772.446509	-0.011995
772.641011	-0.011881
772.835494	-0.011772
773.029960	-0.011671
773.224407	-0.011543
773.418836	-0.011538
773.613247	-0.011434
773.807640	-0.011495
774.002014	-0.011352
774.196370	-0.011072
774.390708	-0.010972
774.585028	-0.011021
774.779330	-0.011068
774.973613	-0.011100
775.167878	-0.010842
775.362125	-0.010851
775.556354	-0.010740
775.750564	-0.010605
775.944756	-0.010659
776.138930	-0.010768
776.333086	-0.010661
776.527223	-0.010694
776.721343	-0.010753
776.915444	-0.010960
777.109526	-0.010820
777.303591	-0.010932
777.497637	-0.011173
777.691666	-0.011399
777.885676	-0.011429
778.079667	-0.011493
778.273641	-0.011415
778.467596	-0.011402
778.661533	-0.011411
778.855452	-0.011588
779.049352	-0.011665
779.243235	-0.011605
779.437099	-0.011444
779.630945	-0.011459
779.824773	-0.011553
780.018582	-0.011623
780.212373	-0.011476
780.406146	-0.011272
780.599901	-0.011233
780.793638	-0.011181
780.987356	-0.011346
781.181056	-0.011427
781.374738	-0.011160
781.568402	-0.010968
781.762047	-0.011039
781.955674	-0.011072
782.149283	-0.011118
782.342874	-0.011115
782.536447	-0.011011
782.730001	-0.010865
782.923537	-0.010857
783.117055	-0.010964
783.310555	-0.010931
783.504036	-0.010882
783.697499	-0.010719
783.890944	-0.010640
784.084371	-0.010668
784.277780	-0.010663
784.471170	-0.010579
784.664542	-0.010475
784.857896	-0.010494
785.051231	-0.010529
785.244549	-0.010331
785.437848	-0.010426
785.631129	-0.010333
785.824392	-0.010326
786.017636	-0.010234
786.210863	-0.010227
786.404071	-0.010194
786.597260	-0.010148
786.790432	-0.010312
786.983585	-0.010429
787.176721	-0.010544
787.369838	-0.010728
787.562936	-0.010645
787.756017	-0.010778
787.949079	-0.011002
788.142123	-0.011196
788.335149	-0.011230
788.528156	-0.011236
788.721146	-0.011274
788.914117	-0.011047
789.107070	-0.010906
789.300005	-0.010814
789.492921	-0.010607
789.685819	-0.010368
789.878699	-0.010227
790.071561	-0.010200
790.264405	-0.009994
790.457230	-0.009980
790.650037	-0.009988
790.842826	-0.010054
791.035597	-0.009996
791.228349	-0.010238
791.421084	-0.010291
791.613800	-0.010224
791.806497	-0.010240
791.999177	-0.010400
792.191838	-0.010384
792.384481	-0.010537
792.577106	-0.010409
792.769713	-0.010458
792.962301	-0.010274
793.154871	-0.010247
793.347423	-0.010155
793.539957	-0.010214
793.732473	-0.010101
793.924970	-0.010279
794.117449	-0.010195
794.309910	-0.010499
794.502353	-0.010587
794.694777	-0.010709
794.887183	-0.010729
795.079571	-0.010716
795.271941	-0.010638
795.464293	-0.010580
795.656626	-0.010467
795.848941	-0.010647
796.041238	-0.010556
796.233516	-0.010581
796.425777	-0.010451
796.618019	-0.010289
796.810243	-0.010463
797.002449	-0.010525
797.194636	-0.010672
797.386805	-0.010675
797.578956	-0.010434
797.771089	-0.010365
797.963204	-0.010332
798.155300	-0.010325
798.347378	-0.010487
798.539438	-0.010287
798.731480	-0.010244
798.923503	-0.010088
799.115509	-0.010166
799.307496	-0.010303
799.499465	-0.010478
799.691415	-0.010522
799.883348	-0.010653
800.075262	-0.010836
800.267158	-0.011058
800.459035	-0.011210
800.650895	-0.011452
800.842736	-0.011427
801.034559	-0.011615
801.226364	-0.011522
801.418150	-0.011574
801.609919	-0.011576
801.801669	-0.011403
801.993401	-0.011443
802.185114	-0.011290
802.376810	-0.011136
802.568487	-0.011000
802.760146	-0.010903
802.951787	-0.010789
803.143409	-0.010695
803.335014	-0.010630
803.526600	-0.010698
803.718168	-0.010737
803.909717	-0.010895
804.101249	-0.010958
804.292762	-0.011138
804.484257	-0.011105
804.675734	-0.011134
804.867192	-0.011224
805.058632	-0.011124
805.250054	-0.011014
805.441458	-0.010856
805.632844	-0.010866
805.824211	-0.010642
806.015561	-0.010520
806.206891	-0.010362
806.398204	-0.010332
806.589499	-0.010259
806.780775	-0.010392
806.972033	-0.010203
807.163273	-0.010159
807.354495	-0.009988
807.545698	-0.010159
807.736883	-0.010057
807.928050	-0.009981
808.119199	-0.009972
808.310329	-0.009955
808.501441	-0.009936
808.692535	-0.009946
808.883611	-0.009922
809.074669	-0.009965
809.265708	-0.009906
809.456729	-0.009981
809.647732	-0.010065
809.838717	-0.010160
810.029683	-0.010198
810.220632	-0.010155
810.411562	-0.010391
810.602474	-0.010449
810.793367	-0.010541
810.984242	-0.010517
811.175100	-0.010536
811.365938	-0.010465
811.556759	-0.010411
811.747562	-0.010300
811.938346	-0.010369
812.129112	-0.010368
812.319860	-0.010399
812.510589	-0.010351
812.701300	-0.010343
812.891994	-0.010326
813.082668	-0.010422
813.273325	-0.010419
813.463964	-0.010405
813.654584	-0.010376
813.845186	-0.010556
814.035769	-0.010623
814.226335	-0.010521
814.416882	-0.010690
814.607411	-0.010823
814.797922	-0.010901
814.988415	-0.010837
815.178889	-0.010931
815.369345	-0.010791
815.559783	-0.010538
815.750203	-0.010623
815.940605	-0.010653
816.130988	-0.010532
816.321353	-0.010488
816.511700	-0.010664
816.702028	-0.010923
816.892339	-0.011124
817.082631	-0.011281
817.272905	-0.011412
817.463161	-0.011084
817.653398	-0.011175
817.843617	-0.011262
818.033819	-0.011195
818.224001	-0.011302
818.414166	-0.011048
818.604312	-0.010824
818.794440	-0.010864
818.984550	-0.010806
819.174642	-0.010996
819.364716	-0.010887
819.554771	-0.010888
819.744808	-0.010891
819.934827	-0.010713
820.124827	-0.010805
820.314810	-0.010923
820.504774	-0.010940
820.694720	-0.010963
820.884647	-0.010893
821.074557	-0.011078
821.264448	-0.011290
821.454321	-0.011267
821.644176	-0.011327
821.834012	-0.011466
822.023831	-0.011537
822.213631	-0.011464
822.403413	-0.011521
822.593176	-0.011823
822.782922	-0.011820
822.972649	-0.011729
823.162358	-0.011885
823.352049	-0.011744
823.541721	-0.011632
823.731376	-0.011621
823.921012	-0.011912
824.110629	-0.011905
824.300229	-0.011697
824.489811	-0.011644
824.679374	-0.011716
824.868919	-0.011821
825.058445	-0.012002
825.247954	-0.012175
825.437444	-0.012108
825.626916	-0.011991
825.816370	-0.012136
826.005806	-0.012440
826.195223	-0.012665
826.384622	-0.012736
826.574003	-0.012788
826.763366	-0.012571
826.952711	-0.012395
827.142037	-0.012400
827.331345	-0.012379
827.520635	-0.012194
827.709906	-0.011897
827.899160	-0.011733
828.088395	-0.011624
828.277612	-0.011590
828.466810	-0.011736
828.655991	-0.011841
828.845153	-0.011938
829.034297	-0.012050
829.223423	-0.012263
829.412531	-0.012398
829.601620	-0.012431
829.790691	-0.012231
829.979744	-0.012178
830.168779	-0.012227
830.357795	-0.012338
830.546793	-0.012303
830.735773	-0.012173
830.924735	-0.012079
831.113679	-0.012170
831.302604	-0.012282
831.491511	-0.012512
831.680400	-0.012487
831.869271	-0.012440
832.058123	-0.012149
832.246957	-0.012171
832.435773	-0.012131
832.624571	-0.012070
832.813351	-0.012031
833.002112	-0.011863
833.190855	-0.011811
833.379580	-0.011757
833.568287	-0.011884
833.756975	-0.011990
833.945645	-0.011972
834.134297	-0.012117
834.322931	-0.012086
834.511547	-0.012077
834.700144	-0.012076
834.888723	-0.012087
835.077284	-0.012068
835.265826	-0.011806
835.454351	-0.011960
835.642857	-0.012196
835.831345	-0.012257
836.019815	-0.012411
836.208266	-0.012528
836.396699	-0.012681
836.585114	-0.012608
836.773511	-0.012814
836.961890	-0.012990
837.150250	-0.012996
837.338592	-0.012903
837.526916	-0.013037
837.715222	-0.013105
837.903510	-0.013214
838.091779	-0.013273
838.280030	-0.013240
838.468263	-0.013233
838.656477	-0.013073
838.844674	-0.013181
839.032852	-0.013180
839.221012	-0.013075
839.409153	-0.013072
839.597277	-0.012783
839.785382	-0.012785
839.973469	-0.013199
840.161538	-0.013215
840.349589	-0.013645
840.537621	-0.013784
840.725635	-0.013738
840.913631	-0.013638
841.101609	-0.013752
841.289568	-0.013934
841.477509	-0.014016
841.665432	-0.013840
841.853337	-0.013879
842.041224	-0.013631
842.229092	-0.013637
842.416942	-0.013650
842.604774	-0.013708
842.792588	-0.013538
842.980383	-0.013780
843.168160	-0.013705
843.355919	-0.013617
843.543660	-0.013575
843.731382	-0.013828
843.919087	-0.013647
844.106773	-0.013746
844.294441	-0.013862
844.482090	-0.013865
844.669722	-0.013465
844.857335	-0.013501
845.044930	-0.013526
845.232507	-0.013359
845.420065	-0.013046
845.607605	-0.012927
845.795127	-0.012844
845.982631	-0.012798
846.170117	-0.012909
846.357584	-0.013125
846.545033	-0.012973
846.732464	-0.012947
846.919877	-0.013146
847.107272	-0.013280
847.294648	-0.013210
847.482006	-0.013061
847.669346	-0.012883
847.856667	-0.012678
848.043971	-0.012563
848.231256	-0.012513
848.418523	-0.012542
848.605771	-0.012510
848.793002	-0.012454
848.980214	-0.012484
849.167408	-0.012469
849.354584	-0.012453
849.541742	-0.012371
849.728881	-0.012420
849.916002	-0.012482
850.103105	-0.012395
850.290190	-0.012361
850.477256	-0.012370
850.664304	-0.012560
850.851334	-0.012660
851.038346	-0.012732
851.225340	-0.012829
851.412315	-0.012660
851.599272	-0.012645
851.786211	-0.012622
851.973132	-0.012582
852.160034	-0.012628
852.346918	-0.012571
852.533784	-0.012450
852.720632	-0.012228
852.907462	-0.012182
853.094273	-0.012299
853.281066	-0.012085
853.467841	-0.011992
853.654598	-0.011982
853.841336	-0.011759
854.028056	-0.011427
854.214758	-0.011367
854.401442	-0.011365
854.588107	-0.011438
854.774755	-0.011198
854.961384	-0.011189
855.147995	-0.011270
855.334587	-0.011210
855.521162	-0.011190
855.707718	-0.011374
855.894256	-0.011488
856.080775	-0.011411
856.267277	-0.011363
856.453760	-0.011328
856.640225	-0.011392
856.826672	-0.011360
857.013101	-0.011151
857.199511	-0.011200
857.385903	-0.011137
857.572277	-0.011020
857.758633	-0.010927
857.944970	-0.010600
858.131290	-0.010655
858.317591	-0.010685
858.503873	-0.010665
858.690138	-0.010743
858.876384	-0.010858
859.062612	-0.010762
859.248822	-0.010709
859.435014	-0.010977
859.621188	-0.011226
859.807343	-0.011057
859.993480	-0.010998
860.179599	-0.011111
860.365699	-0.011160
860.551781	-0.010960
860.737846	-0.011149
860.923891	-0.011127
861.109919	-0.011160
861.295929	-0.011004
861.481920	-0.011019
861.667893	-0.010934
861.853848	-0.010675
862.039784	-0.010720
862.225702	-0.010896
862.411603	-0.010650
862.597484	-0.010731
862.783348	-0.010540
862.969193	-0.010754
863.155021	-0.010718
863.340830	-0.010682
863.526620	-0.011021
863.712393	-0.010817
863.898147	-0.010617
864.083883	-0.010791
864.269601	-0.010825
864.455301	-0.010964
864.640982	-0.010832
864.826645	-0.010961
865.012290	-0.011038
865.197917	-0.011217
865.383526	-0.011286
865.569116	-0.011243
865.754688	-0.011339
865.940242	-0.011460
866.125777	-0.011537
866.311295	-0.011526
866.496794	-0.011529
866.682275	-0.011425
866.867737	-0.011125
867.053182	-0.011261
867.238608	-0.011387
867.424016	-0.011506
867.609406	-0.011409
867.794778	-0.011153
867.980131	-0.011133
868.165466	-0.011152
868.350783	-0.011232
868.536082	-0.011021
868.721362	-0.011061
868.906625	-0.010974
869.091869	-0.010779
869.277094	-0.010754
869.462302	-0.010714
869.647491	-0.010615
869.832662	-0.010477
870.017815	-0.010588
870.202950	-0.010718
870.388066	-0.010505
870.573165	-0.010554
870.758245	-0.010434
870.943306	-0.010420
871.128350	-0.010424
871.313375	-0.010338
871.498382	-0.010594
871.683371	-0.010249
871.868342	-0.010260
872.053294	-0.010192
872.238229	-0.010084
872.423144	-0.010103
872.608042	-0.010068
872.792922	-0.010113
872.977783	-0.010060
873.162626	-0.010027
873.347451	-0.010379
873.532258	-0.010163
873.717046	-0.010313
873.901816	-0.010409
874.086568	-0.010313
874.271302	-0.010214
874.456017	-0.010262
874.640715	-0.010391
874.825394	-0.010167
875.010055	-0.009769
875.194697	-0.009930
875.379322	-0.009668
875.563928	-0.009387
875.748516	-0.009420
875.933085	-0.009482
876.117637	-0.009428
876.302170	-0.009294
876.486685	-0.009356
876.671182	-0.009707
876.855661	-0.009197
877.040121	-0.009212
877.224563	-0.009337
877.408987	-0.009301
877.593393	-0.009238
877.777780	-0.009268
877.962150	-0.009438
878.146501	-0.009598
878.330833	-0.009480
878.515148	-0.010126
878.699444	-0.010099
878.883722	-0.010140
879.067982	-0.010182
879.252224	-0.010335
879.436447	-0.010294
879.620653	-0.010353
879.804840	-0.010111
879.989008	-0.009883
880.173159	-0.009541
880.357291	-0.009723
880.541405	-0.009802
880.725501	-0.009663
880.909579	-0.009398
881.093638	-0.009357
881.277680	-0.009481
881.461703	-0.009507
881.645707	-0.009804
881.829694	-0.009900
882.013662	-0.009754
882.197612	-0.009624
882.381544	-0.009461
882.565458	-0.009491
882.749353	-0.009331
882.933230	-0.009189
883.117089	-0.009134
883.300930	-0.008898
883.484753	-0.008847
883.668557	-0.008726
883.852343	-0.008773
884.036111	-0.008993
884.219861	-0.009205
884.403592	-0.009191
884.587305	-0.008950
884.771000	-0.008814
884.954677	-0.008908
885.138335	-0.008855
885.321976	-0.008940
885.505598	-0.008805
885.689201	-0.008878
885.872787	-0.008752
886.056354	-0.008794
886.239904	-0.008873
886.423434	-0.008571
886.606947	-0.008496
886.790442	-0.008379
886.973918	-0.008328
887.157376	-0.008256
887.340816	-0.007816
887.524237	-0.007840
887.707641	-0.007826
887.891026	-0.007758
888.074393	-0.008054
888.257741	-0.007966
888.441072	-0.007991
888.624384	-0.007861
888.807678	-0.007763
888.990954	-0.007778
889.174211	-0.007330
889.357451	-0.007342
889.540672	-0.007219
889.723875	-0.007245
889.907059	-0.007187
890.090226	-0.007073
890.273374	-0.007297
890.456504	-0.007441
890.639616	-0.007726
890.822709	-0.007905
891.005785	-0.008001
891.188842	-0.007693
891.371881	-0.007484
891.554901	-0.007576
891.737904	-0.007637
891.920888	-0.007466
892.103854	-0.007522
892.286802	-0.007423
892.469731	-0.007393
892.652643	-0.007148
892.835536	-0.007582
893.018410	-0.007671
893.201267	-0.007675
893.384106	-0.007739
893.566926	-0.007589
893.749728	-0.007195
893.932511	-0.007027
894.115277	-0.006763
894.298024	-0.006628
894.480753	-0.006528
894.663464	-0.006475
894.846157	-0.006005
895.028831	-0.005904
895.211487	-0.005975
895.394125	-0.006413
895.576745	-0.006540
895.759346	-0.006797
895.941930	-0.006889
896.124495	-0.006911
896.307041	-0.006880
896.489570	-0.007066
896.672080	-0.006985
896.854573	-0.006687
897.037046	-0.006476
897.219502	-0.006476
897.401940	-0.006188
897.584359	-0.006096
897.766760	-0.006201
897.949143	-0.006113
898.131507	-0.006381
898.313854	-0.006511
898.496182	-0.006825
898.678492	-0.006852
898.860783	-0.006446
899.043057	-0.006713
899.225312	-0.006748
899.407549	-0.006582
899.589768	-0.006679
899.771968	-0.006617
899.954151	-0.006384
900.136315	-0.006285
900.318461	-0.006049
900.500588	-0.006376
900.682698	-0.006236
900.864789	-0.006149
901.046862	-0.005919
901.228917	-0.005924
901.410953	-0.005768
901.592971	-0.006006
901.774972	-0.005986
901.956953	-0.006095
902.138917	-0.006124
902.320862	-0.006202
902.502790	-0.006399
902.684699	-0.006573
902.866589	-0.006508
903.048462	-0.006429
903.230316	-0.006344
903.412152	-0.006201
903.593970	-0.006050
903.775770	-0.005931
903.957551	-0.005731
904.139314	-0.005565
904.321059	-0.005521
904.502786	-0.005194
904.684494	-0.005173
904.866185	-0.004813
905.047857	-0.005074
905.229510	-0.005162
905.411146	-0.004944
905.592763	-0.004765
905.774363	-0.004762
905.955943	-0.004828
906.137506	-0.005080
906.319051	-0.005000
906.500577	-0.005242
906.682085	-0.004972
906.863575	-0.004679
907.045046	-0.004639
907.226500	-0.004601
907.407935	-0.004541
907.589352	-0.004419
907.770750	-0.004338
907.952131	-0.003929
908.133493	-0.003672
908.314837	-0.003765
908.496163	-0.003943
908.677470	-0.003936
908.858760	-0.004224
909.040031	-0.004091
909.221284	-0.003820
909.402518	-0.003675
909.583735	-0.004457
909.764933	-0.004692
909.946113	-0.004633
910.127275	-0.004796
910.308418	-0.004958
910.489544	-0.005045
910.670651	-0.005380
910.851740	-0.005334
911.032810	-0.005455
911.213863	-0.005298
911.394897	-0.005452
911.575913	-0.005452
911.756911	-0.005282
911.937890	-0.005144
912.118851	-0.004878
912.299794	-0.004570
912.480719	-0.004856
912.661626	-0.004645
912.842514	-0.004062
913.023384	-0.003528
913.204236	-0.003602
913.385070	-0.003418
913.565886	-0.003198
913.746683	-0.003420
913.927462	-0.002982
914.108223	-0.002875
914.288965	-0.002926
914.469690	-0.003203
914.650396	-0.003236
914.831084	-0.003261
915.011754	-0.002977
915.192405	-0.003044
915.373038	-0.002886
915.553653	-0.003260
915.734250	-0.003347
915.914829	-0.003375
916.095389	-0.003422
916.275931	-0.003904
916.456455	-0.003759
916.636961	-0.004193
916.817448	-0.004492
916.997917	-0.004318
917.178368	-0.004586
917.358801	-0.004688
917.539216	-0.005174
917.719612	-0.005545
917.899990	-0.005395
918.080350	-0.005230
918.260692	-0.005701
918.441015	-0.005680
918.621320	-0.005684
918.801607	-0.005432
918.981876	-0.005416
919.162127	-0.005271
919.342359	-0.005377
919.522573	-0.005161
919.702769	-0.005305
919.882947	-0.005296
920.063106	-0.005145
920.243247	-0.005206
920.423370	-0.005399
920.603475	-0.005139
920.783562	-0.005076
920.963630	-0.004799
921.143680	-0.005100
921.323712	-0.005310
921.503725	-0.005196
921.683721	-0.005637
921.863698	-0.005959
922.043657	-0.006549
922.223598	-0.006818
922.403520	-0.006948
922.583424	-0.006951
922.763311	-0.006768
922.943178	-0.006855
923.123028	-0.006535
923.302859	-0.006082
923.482673	-0.006230
923.662467	-0.005747
923.842244	-0.006002
924.022003	-0.006022
924.201743	-0.006197
924.381465	-0.006600
924.561169	-0.006614
924.740854	-0.006936
924.920522	-0.007408
925.100171	-0.007489
925.279802	-0.007703
925.459414	-0.007033
925.639009	-0.006759
925.818585	-0.006623
925.998143	-0.006151
926.177683	-0.005871
926.357205	-0.005561
926.536708	-0.005152
926.716193	-0.004629
926.895660	-0.004463
927.075109	-0.004514
927.254539	-0.004568
927.433951	-0.004464
927.613345	-0.004471
927.792721	-0.004397
927.972079	-0.004483
928.151418	-0.004478
928.330739	-0.004186
928.510042	-0.003663
928.689327	-0.003867
928.868593	-0.003065
929.047841	-0.002451
929.227071	-0.002211
929.406283	-0.001784
929.585476	-0.001384
929.764652	-0.001024
929.943809	-0.001259
930.122948	-0.001107
930.302068	-0.000735
930.481171	-0.001710
930.660255	-0.002099
930.839321	-0.002285
931.018369	-0.002926
931.197398	-0.003113
931.376409	-0.003522
931.555402	-0.003761
931.734377	-0.003966
931.913334	-0.004146
932.092272	-0.004227
932.271192	-0.004309
932.450094	-0.004145
932.628978	-0.003872
932.807844	-0.003737
932.986691	-0.003093
933.165520	-0.002655
933.344331	-0.002560
933.523123	-0.002514
933.701898	-0.001995
933.880654	-0.001670
934.059392	-0.001441
934.238111	-0.001176
934.416813	-0.000911
934.595496	-0.000928
934.774161	-0.000749
934.952808	-0.000625
935.131437	-0.000500
935.310047	-0.000311
935.488639	0.000050
935.667213	-0.000231
935.845769	-0.000071
936.024306	-0.000067
936.202825	-0.000373
936.381326	-0.000197
936.559809	0.000296
936.738274	0.000669
936.916720	0.001568
937.095148	0.001303
937.273558	0.001724
937.451950	0.001704
937.630323	0.002087
937.808678	0.002288
937.987015	0.002344
938.165334	0.001855
938.343635	0.001956
938.521917	0.002283
938.700181	0.002919
938.878427	0.003030
939.056655	0.003221
939.234864	0.003962
939.413055	0.004192
939.591228	0.003964
939.769383	0.004387
939.947519	0.004311
940.125638	0.003001
940.303738	0.003097
940.481820	0.004128
940.659883	0.004652
940.837929	0.003990
941.015956	0.005089
941.193965	0.005997
941.371955	0.006464
941.549928	0.007607
941.727882	0.008381
941.905818	0.009293
942.083736	0.010203
942.261636	0.010497
942.439517	0.011772
942.617380	0.011845
942.795225	0.012457
942.973052	0.012649
943.150860	0.012687
943.328651	0.012436
943.506423	0.011980
943.684176	0.011320
943.861912	0.011637
944.039629	0.011621
944.217328	0.010412
944.395009	0.010732
944.572672	0.012137
944.750317	0.012951
944.927943	0.015292
945.105551	0.016039
945.283141	0.017428
945.460712	0.018861
945.638265	0.019730
945.815801	0.022652
945.993317	0.023833
946.170816	0.024228
946.348297	0.025000
946.525759	0.026026
946.703203	0.028133
946.880629	0.029049
947.058036	0.029632
947.235425	0.031082
947.412797	0.031174
947.590149	0.032690
947.767484	0.034256
947.944800	0.034728
948.122099	0.035554
948.299379	0.035691
948.476640	0.036237
948.653884	0.036768
948.831109	0.037282
949.008316	0.039195
949.185505	0.039881
949.362676	0.040712
949.539828	0.041471
949.716962	0.041865
949.894078	0.043324
950.071176	0.044453
950.248256	0.045390
950.425317	0.046096
950.602360	0.047160
950.779385	0.047944
950.956391	0.049651
951.133380	0.052421
951.310350	0.054600
951.487302	0.056396
951.664235	0.059196
951.841151	0.062153
952.018048	0.063153
952.194927	0.064307
952.371788	0.065828
952.548631	0.066251
952.725455	0.067159
952.902261	0.068140
953.079049	0.069603
953.255819	0.070541
953.432570	0.072215
953.609303	0.075291
953.786018	0.078102
953.962715	0.079736
954.139394	0.083416
954.316054	0.086532
954.492696	0.088380
954.669320	0.090991
954.845926	0.092482
955.022513	0.093412
955.199083	0.095778
955.375634	0.097551
955.552166	0.100582
955.728681	0.101808
955.905177	0.101964
956.081655	0.105110
956.258115	0.105206
956.434557	0.108185
956.610980	0.110238
956.787385	0.111122
956.963772	0.113052
957.140141	0.115344
957.316492	0.117741
957.492824	0.121009
957.669138	0.121420
957.845434	0.122326
958.021712	0.121622
958.197971	0.123338
958.374212	0.126817
958.550435	0.128840
958.726640	0.128667
958.902826	0.129486
959.078995	0.129755
959.255145	0.130606
959.431277	0.134796
959.607390	0.139456
959.783486	0.142740
959.959563	0.144151
960.135622	0.143822
960.311662	0.146752
960.487685	0.148442
960.663689	0.150579
960.839675	0.153839
961.015643	0.156929
961.191593	0.157462
961.367524	0.157847
961.543437	0.157263
961.719332	0.161204
961.895209	0.161177
962.071067	0.163963
962.246907	0.166299
962.422730	0.168143
962.598533	0.169605
962.774319	0.171666
962.950086	0.174004
963.125835	0.177524
963.301566	0.178984
963.477279	0.181793
963.652973	0.180849
963.828650	0.182990
964.004308	0.182964
964.179947	0.184185
964.355569	0.185166
964.531172	0.184814
964.706757	0.185577
964.882324	0.187205
965.057873	0.190279
965.233403	0.192230
965.408916	0.192195
965.584410	0.194636
965.759885	0.193869
965.935343	0.192995
966.110782	0.195342
966.286203	0.195821
966.461606	0.197615
966.636991	0.197342
966.812357	0.199044
966.987705	0.200043
967.163035	0.199118
967.338347	0.200155
967.513641	0.200553
967.688916	0.199871
967.864173	0.199608
968.039412	0.198063
968.214632	0.198239
968.389835	0.195726
968.565019	0.197931
968.740185	0.199650
968.915333	0.199247
969.090462	0.200094
969.265573	0.201322
969.440667	0.202827
969.615741	0.202441
969.790798	0.201096
969.965836	0.202297
970.140856	0.203005
970.315858	0.204573
970.490842	0.204739
970.665808	0.205638
970.840755	0.204795
971.015684	0.203345
971.190595	0.201696
971.365487	0.204397
971.540362	0.202810
971.715218	0.199112
971.890056	0.198137
972.064875	0.198805
972.239677	0.196558
972.414460	0.195571
972.589225	0.194707
972.763972	0.197773
972.938700	0.193794
973.113411	0.196290
973.288103	0.196445
973.462777	0.196367
973.637432	0.193478
973.812070	0.195848
973.986689	0.196158
974.161290	0.199568
974.335873	0.197143
974.510437	0.198012
974.684984	0.198969
974.859512	0.200461
975.034022	0.199571
975.208513	0.203603
975.382987	0.202793
975.557442	0.204878
975.731879	0.201664
975.906298	0.202130
976.080698	0.200656
976.255080	0.199778
976.429445	0.199734
976.603790	0.200054
976.778118	0.198640
976.952427	0.196929
977.126719	0.196203
977.300992	0.196978
977.475246	0.196830
977.649483	0.198271
977.823701	0.197528
977.997901	0.195768
978.172083	0.194713
978.346247	0.193950
978.520392	0.196339
978.694519	0.194571
978.868628	0.195264
979.042719	0.193853
979.216791	0.193541
979.390845	0.194739
979.564882	0.195206
979.738899	0.198733
979.912899	0.196304
980.086880	0.196035
980.260843	0.197335
980.434788	0.195471
980.608715	0.194476
980.782623	0.193778
980.956514	0.191576
981.130386	0.191061
981.304240	0.185653
981.478075	0.187343
981.651892	0.186116
981.825692	0.186946
981.999472	0.187869
982.173235	0.188942
982.346980	0.191165
982.520706	0.190306
982.694414	0.190368
982.868104	0.191520
983.041775	0.191209
983.215428	0.190167
983.389064	0.189355
983.562680	0.188321
983.736279	0.191285
983.909860	0.189239
984.083422	0.191275
984.256966	0.191313
984.430491	0.190225
984.603999	0.191158
984.777488	0.191010
984.950959	0.188005
985.124412	0.187618
985.297847	0.184907
985.471263	0.185868
985.644661	0.184207
985.818041	0.185151
985.991403	0.184457
986.164747	0.180260
986.338072	0.180273
986.511379	0.180780
986.684668	0.180260
986.857938	0.179705
987.031191	0.177254
987.204425	0.176128
987.377641	0.173857
987.550839	0.173585
987.724018	0.174321
987.897179	0.174135
988.070322	0.175878
988.243447	0.175362
988.416554	0.175055
988.589642	0.176280
988.762712	0.176283
988.935764	0.174726
989.108798	0.174719
989.281813	0.174504
989.454811	0.173582
989.627790	0.171824
989.800751	0.170954
989.973693	0.171275
990.146617	0.172856
990.319524	0.171871
990.492412	0.171066
990.665281	0.171014
990.838133	0.172227
991.010966	0.170703
991.183781	0.169483
991.356578	0.168987
991.529356	0.168020
991.702117	0.163481
991.874859	0.163949
992.047583	0.163246
992.220288	0.164214
992.392976	0.162457
992.565645	0.163937
992.738296	0.166061
992.910929	0.167044
993.083543	0.168160
993.256139	0.170543
993.428718	0.169970
993.601277	0.169440
993.773819	0.167493
993.946342	0.166481
994.118848	0.164735
994.291335	0.163575
994.463803	0.160193
994.636254	0.159224
994.808686	0.156367
994.981100	0.155230
995.153496	0.155647
995.325874	0.155460
995.498233	0.154828
995.670574	0.154222
995.842897	0.151459
996.015202	0.152367
996.187488	0.149918
996.359757	0.149737
996.532007	0.148243
996.704239	0.147935
996.876452	0.147140
997.048648	0.147481
997.220825	0.147686
997.392984	0.147462
997.565124	0.148933
997.737247	0.148086
997.909351	0.150340
998.081437	0.151642
998.253505	0.152718
998.425554	0.152393
998.597586	0.152685
998.769599	0.153412
998.941594	0.154524
999.113571	0.152159
999.285529	0.152864
999.457469	0.150748
999.629391	0.151062
999.801295	0.148811
999.973181	0.147801
1000.145048	0.147590
1000.316897	0.145421
1000.488728	0.146634
1000.660541	0.145902
1000.832335	0.145021
1001.004111	0.145145
1001.175869	0.143578
1001.347609	0.142573
1001.519331	0.143934
1001.691034	0.143001
1001.862719	0.142532
1002.034386	0.139569
1002.206035	0.139761
1002.377665	0.141481
1002.549277	0.140127
1002.720871	0.139056
1002.892447	0.140908
1003.064004	0.137624
1003.235544	0.136816
1003.407065	0.136865
1003.578568	0.137886
1003.750052	0.138934
1003.921519	0.135977
1004.092967	0.135139
1004.264397	0.135763
1004.435809	0.134484
1004.607202	0.137024
1004.778577	0.135967
1004.949934	0.134635
1005.121273	0.131521
1005.292594	0.130109
1005.463896	0.129840
1005.635180	0.130032
1005.806446	0.128420
1005.977694	0.128521
1006.148923	0.126826
1006.320135	0.126029
1006.491328	0.127207
1006.662503	0.126356
1006.833659	0.124742
1007.004798	0.124993
1007.175918	0.123579
1007.347020	0.124086
1007.518103	0.123216
1007.689169	0.122278
1007.860216	0.123208
1008.031245	0.123095
1008.202256	0.123552
1008.373248	0.124426
1008.544223	0.123114
1008.715179	0.123741
1008.886117	0.123679
1009.057036	0.123918
1009.227938	0.124218
1009.398821	0.122549
1009.569686	0.122096
1009.740533	0.121509
1009.911361	0.120334
1010.082172	0.120208
1010.252964	0.120550
1010.423738	0.121222
1010.594493	0.120701
1010.765231	0.120335
1010.935950	0.119876
1011.106651	0.117810
1011.277334	0.119299
1011.447998	0.119278
1011.618645	0.120690
1011.789273	0.118293
1011.959882	0.116523
1012.130474	0.114980
1012.301048	0.113117
1012.471603	0.115960
1012.642140	0.116697
1012.812658	0.115322
1012.983159	0.114310
1013.153641	0.112337
1013.324105	0.112912
1013.494551	0.113596
1013.664979	0.112905
1013.835388	0.115644
1014.005779	0.112785
1014.176152	0.112425
1014.346507	0.114107
1014.516843	0.115085
1014.687162	0.114472
1014.857462	0.115158
1015.027744	0.114163
1015.198007	0.114094
1015.368252	0.111702
1015.538480	0.111416
1015.708689	0.111228
1015.878879	0.107072
1016.049052	0.104341
1016.219206	0.105009
1016.389342	0.103294
1016.559460	0.103244
1016.729559	0.103880
1016.899641	0.103973
1017.069704	0.103718
1017.239749	0.102887
1017.409775	0.105321
1017.579784	0.106625
1017.749774	0.106852
1017.919746	0.105458
1018.089700	0.103645
1018.259635	0.103065
1018.429553	0.102784
1018.599452	0.101609
1018.769333	0.102164
1018.939195	0.100988
1019.109040	0.101108
1019.278866	0.100055
1019.448674	0.100760
1019.618464	0.102854
1019.788235	0.101782
1019.957989	0.101311
1020.127724	0.102024
1020.297441	0.101630
1020.467139	0.099613
1020.636820	0.099182
1020.806482	0.097197
1020.976126	0.098479
1021.145752	0.095928
1021.315359	0.095783
1021.484948	0.094744
1021.654519	0.094392
1021.824072	0.091258
1021.993607	0.092720
1022.163123	0.092853
1022.332621	0.095277
1022.502101	0.092726
1022.671563	0.092535
1022.841007	0.092608
1023.010432	0.092007
1023.179839	0.092711
1023.349228	0.095625
1023.518598	0.095854
1023.687951	0.094870
1023.857285	0.093060
1024.026601	0.093592
1024.195899	0.093185
1024.365178	0.091737
1024.534439	0.091533
1024.703682	0.089951
1024.872907	0.089546
1025.042114	0.089283
1025.211302	0.089414
1025.380472	0.088485
1025.549624	0.089684
1025.718758	0.088027
1025.887873	0.088311
1026.056970	0.089555
1026.226049	0.089696
1026.395110	0.087454
1026.564153	0.085504
1026.733177	0.084909
1026.902183	0.085248
1027.071171	0.082917
1027.240141	0.082887
1027.409092	0.083070
1027.578026	0.081104
1027.746940	0.080875
1027.915837	0.081588
1028.084716	0.081070
1028.253576	0.078677
1028.422418	0.077638
1028.591242	0.076977
1028.760048	0.078320
1028.928835	0.077228
1029.097604	0.077961
1029.266355	0.078501
1029.435088	0.077005
1029.603803	0.078353
1029.772499	0.079863
1029.941177	0.079992
1030.109837	0.081018
1030.278478	0.079885
1030.447102	0.080107
1030.615707	0.079595
1030.784294	0.079368
1030.952863	0.078172
1031.121413	0.077382
1031.289945	0.075389
1031.458460	0.074007
1031.626955	0.073376
1031.795433	0.074475
1031.963892	0.074526
1032.132334	0.072634
1032.300756	0.071439
1032.469161	0.073014
1032.637548	0.072510
1032.805916	0.074247
1032.974266	0.075053
1033.142598	0.075179
1033.310911	0.074273
1033.479207	0.072706
1033.647484	0.073111
1033.815743	0.072831
1033.983983	0.071848
1034.152206	0.072111
1034.320410	0.070891
1034.488596	0.070855
1034.656764	0.070733
1034.824914	0.070274
1034.993045	0.070077
1035.161158	0.071114
1035.329253	0.071853
1035.497330	0.072666
1035.665388	0.073106
1035.833428	0.072612
1036.001450	0.071959
1036.169454	0.072781
1036.337440	0.073001
1036.505407	0.073396
1036.673356	0.071409
1036.841287	0.070415
1037.009200	0.067366
1037.177094	0.065901
1037.344970	0.065096
1037.512828	0.064632
1037.680668	0.061636
1037.848489	0.060280
1038.016293	0.059889
1038.184078	0.060425
1038.351845	0.058950
1038.519593	0.060722
1038.687324	0.060463
1038.855036	0.061581
1039.022730	0.060631
1039.190406	0.063351
1039.358063	0.063584
1039.525702	0.063029
1039.693323	0.062650
1039.860926	0.062904
1040.028511	0.063727
1040.196077	0.063660
1040.363625	0.064741
1040.531155	0.066732
1040.698667	0.064015
1040.866161	0.065510
1041.033636	0.065714
1041.201093	0.066940
1041.368532	0.066659
1041.535952	0.066170
1041.703355	0.065476
1041.870739	0.063930
1042.038105	0.062970
1042.205452	0.063538
1042.372782	0.062084
1042.540093	0.062293
1042.707386	0.062177
1042.874661	0.061816
1043.041918	0.061328
1043.209156	0.062253
1043.376376	0.062724
1043.543578	0.062351
1043.710762	0.062378
1043.877927	0.062741
1044.045074	0.062989
1044.212203	0.061812
1044.379314	0.062291
1044.546407	0.061630
1044.713481	0.061117
1044.880537	0.061203
1045.047575	0.061518
1045.214595	0.059803
1045.381596	0.059216
1045.548579	0.060042
1045.715544	0.058799
1045.882491	0.059121
1046.049420	0.058591
1046.216330	0.059818
1046.383222	0.059927
1046.550096	0.059538
1046.716951	0.060284
1046.883789	0.059748
1047.050608	0.058751
1047.217409	0.061043
1047.384192	0.059609
1047.550956	0.061167
1047.717703	0.058617
1047.884431	0.058964
1048.051140	0.058614
1048.217832	0.058084
1048.384505	0.058036
1048.551161	0.057391
1048.717798	0.054976
1048.884416	0.054068
1049.051017	0.050596
1049.217599	0.051181
1049.384163	0.050057
1049.550709	0.050697
1049.717237	0.052055
1049.883746	0.053620
1050.050237	0.052440
1050.216710	0.053481
1050.383165	0.054632
1050.549601	0.053963
1050.716019	0.054735
1050.882420	0.054417
1051.048801	0.053169
1051.215165	0.052714
1051.381510	0.051991
1051.547837	0.053110
1051.714146	0.052534
1051.880437	0.053624
1052.046709	0.056382
1052.212964	0.056488
1052.379200	0.055706
1052.545417	0.055287
1052.711617	0.055258
1052.877798	0.055245
1053.043961	0.053809
1053.210106	0.054283
1053.376233	0.053944
1053.542341	0.053085
1053.708432	0.051278
1053.874504	0.051529
1054.040557	0.051639
1054.206593	0.051856
1054.372610	0.050940
1054.538609	0.052153
1054.704590	0.050748
1054.870553	0.049585
1055.036497	0.048265
1055.202424	0.049135
1055.368331	0.047510
1055.534221	0.049285
1055.700093	0.049050
1055.865946	0.047316
1056.031781	0.045982
1056.197598	0.045820
1056.363397	0.045619
1056.529177	0.047132
1056.694939	0.046581
1056.860683	0.047654
1057.026409	0.047014
1057.192116	0.046121
1057.357806	0.046173
1057.523477	0.046601
1057.689130	0.047478
1057.854764	0.047185
1058.020381	0.046384
1058.185979	0.046264
1058.351559	0.047017
1058.517120	0.046775
1058.682664	0.046884
1058.848189	0.047967
1059.013696	0.048074
1059.179185	0.048756
1059.344656	0.047477
1059.510108	0.047539
1059.675542	0.046611
1059.840958	0.045442
1060.006356	0.043776
1060.171735	0.042491
1060.337096	0.041237
1060.502439	0.041580
1060.667764	0.039388
1060.833071	0.040110
1060.998359	0.041224
1061.163629	0.042623
1061.328881	0.042119
1061.494115	0.042695
1061.659330	0.044891
1061.824527	0.045892
1061.989706	0.044600
1062.154867	0.046742
1062.320010	0.047066
1062.485134	0.044811
1062.650240	0.044786
1062.815328	0.044310
1062.980398	0.045206
1063.145449	0.042591
1063.310482	0.043692
1063.475497	0.044734
1063.640494	0.042080
1063.805473	0.041728
1063.970433	0.040825
1064.135375	0.040714
1064.300299	0.040235
1064.465204	0.038887
1064.630092	0.039954
1064.794961	0.038613
1064.959812	0.037782
1065.124645	0.039065
1065.289459	0.038891
1065.454256	0.040617
1065.619034	0.038381
1065.783793	0.039501
1065.948535	0.039333
1066.113258	0.038216
1066.277964	0.036467
1066.442651	0.036425
1066.607319	0.035083
1066.771970	0.035168
1066.936602	0.035662
1067.101216	0.037288
1067.265812	0.036975
1067.430389	0.037568
1067.594949	0.037572
1067.759490	0.039250
1067.924013	0.038540
1068.088518	0.040437
1068.253004	0.039812
1068.417472	0.038810
1068.581922	0.038155
1068.746354	0.038157
1068.910768	0.038256
1069.075163	0.038597
1069.239540	0.036895
1069.403899	0.036802
1069.568240	0.036944
1069.732562	0.037979
1069.896866	0.038392
1070.061152	0.038459
1070.225420	0.039371
1070.389670	0.037837
1070.553901	0.039352
1070.718114	0.040349
1070.882309	0.039314
1071.046486	0.036522
1071.210644	0.035212
1071.374784	0.038738
1071.538906	0.036271
1071.703010	0.034430
1071.867096	0.034678
1072.031163	0.032881
1072.195212	0.034205
1072.359243	0.034607
1072.523256	0.036848
1072.687250	0.037010
1072.851226	0.032088
1073.015184	0.033952
1073.179124	0.035209
1073.343045	0.035919
1073.506949	0.036791
1073.670834	0.035412
1073.834701	0.036691
1073.998549	0.036099
1074.162380	0.036644
1074.326192	0.038439
1074.489986	0.039958
1074.653761	0.040123
1074.817519	0.039932
1074.981258	0.038483
1075.144979	0.037486
1075.308682	0.038592
1075.472367	0.038401
1075.636033	0.038307
1075.799681	0.037380
1075.963311	0.035067
1076.126923	0.032906
1076.290516	0.033251
1076.454092	0.033053
1076.617649	0.034102
1076.781187	0.032652
1076.944708	0.033298
1077.108210	0.033842
1077.271695	0.035396
1077.435160	0.036809
1077.598608	0.038883
1077.762038	0.037757
1077.925449	0.038778
1078.088842	0.038320
1078.252217	0.039887
1078.415573	0.038356
1078.578912	0.037492
1078.742232	0.036035
1078.905534	0.033718
1079.068817	0.033300
1079.232083	0.033153
1079.395330	0.033975
1079.558559	0.034921
1079.721770	0.034218
1079.884962	0.034972
1080.048136	0.032872
1080.211293	0.031281
1080.374430	0.032652
1080.537550	0.031656
1080.700651	0.034522
1080.863735	0.034609
1081.026800	0.033810
1081.189846	0.031641
1081.352875	0.028813
1081.515885	0.029235
1081.678877	0.028950
1081.841851	0.029343
1082.004807	0.030039
1082.167744	0.027450
1082.330663	0.026022
1082.493564	0.027030
1082.656447	0.027379
1082.819312	0.030513
1082.982158	0.031558
1083.144986	0.033034
1083.307796	0.033448
1083.470587	0.032317
1083.633361	0.030965
1083.796116	0.030961
1083.958853	0.028928
1084.121571	0.028799
1084.284272	0.030736
1084.446954	0.029605
1084.609618	0.030889
1084.772264	0.028983
1084.934892	0.028838
1085.097501	0.031149
1085.260092	0.030943
1085.422665	0.033520
1085.585220	0.034213
1085.747756	0.031047
1085.910274	0.029717
1086.072774	0.028645
1086.235256	0.029185
1086.397720	0.029814
1086.560165	0.028139
1086.722592	0.026332
1086.885001	0.023994
1087.047392	0.023468
1087.209764	0.026002
1087.372119	0.028890
1087.534455	0.029320
1087.696772	0.030486
1087.859072	0.029628
1088.021353	0.030095
1088.183616	0.030530
1088.345861	0.029801
1088.508088	0.030980
1088.670296	0.029983
1088.832486	0.030190
1088.994658	0.028678
1089.156812	0.028358
1089.318948	0.027206
1089.481065	0.025827
1089.643164	0.027920
1089.805245	0.027992
1089.967308	0.024953
1090.129352	0.023049
1090.291378	0.023841
1090.453386	0.025069
1090.615376	0.026528
1090.777347	0.028455
1090.939301	0.029930
1091.101236	0.028062
1091.263153	0.029747
1091.425051	0.033359
1091.586932	0.032630
1091.748794	0.031907
1091.910638	0.029800
1092.072463	0.026154
1092.234271	0.025463
1092.396060	0.025464
1092.557831	0.026888
1092.719584	0.024264
1092.881319	0.020041
1093.043035	0.020888
1093.204733	0.018996
1093.366413	0.020113
1093.528075	0.021654
1093.689718	0.022646
1093.851343	0.021277
1094.012950	0.019213
1094.174539	0.019499
1094.336110	0.021774
1094.497662	0.022926
1094.659196	0.023063
1094.820712	0.023402
1094.982210	0.023392
1095.143689	0.021848
1095.305151	0.022813
1095.466594	0.024219
1095.628018	0.023115
1095.789425	0.022725
1095.950813	0.021877
1096.112183	0.023441
1096.273535	0.023353
1096.434869	0.025970
1096.596184	0.025434
1096.757482	0.024219
1096.918761	0.025417
1097.080021	0.026633
1097.241264	0.025827
1097.402488	0.025409
1097.563694	0.024166
1097.724882	0.024942
1097.886052	0.020524
1098.047203	0.021841
1098.208336	0.021505
1098.369451	0.020541
1098.530548	0.021681
1098.691627	0.022367
1098.852687	0.021068
1099.013729	0.020310
1099.174753	0.017408
1099.335758	0.017027
1099.496746	0.017171
1099.657715	0.016942
1099.818666	0.015941
1099.979599	0.016524
1100.140513	0.016972
1100.301409	0.019361
1100.462287	0.019470
1100.623147	0.022719
1100.783989	0.024573
1100.944812	0.024037
1101.105617	0.023125
1101.266404	0.022340
1101.427173	0.022751
1101.587923	0.021970
1101.748656	0.020935
1101.909370	0.022009
1102.070066	0.023089
1102.230743	0.021384
1102.391403	0.020971
1102.552044	0.022355
1102.712667	0.021843
1102.873271	0.019023
1103.033858	0.021066
1103.194426	0.020734
1103.354976	0.018340
1103.515508	0.011934
1103.676021	0.011120
1103.836517	0.012133
1103.996994	0.014299
1104.157453	0.015710
1104.317893	0.019465
1104.478316	0.016824
1104.638720	0.017596
1104.799106	0.018596
1104.959474	0.023779
1105.119823	0.025474
1105.280155	0.022749
1105.440468	0.022419
1105.600763	0.024077
1105.761039	0.020821
1105.921298	0.021689
1106.081538	0.019344
1106.241760	0.019515
1106.401964	0.017758
1106.562149	0.018554
1106.722316	0.022260
1106.882465	0.020993
1107.042596	0.017658
1107.202709	0.018169
1107.362803	0.019196
1107.522879	0.021558
1107.682937	0.022461
1107.842977	0.024091
1108.002999	0.023221
1108.163002	0.021386
1108.322987	0.021333
1108.482954	0.024844
1108.642902	0.023149
1108.802833	0.020223
1108.962745	0.018483
1109.122639	0.018275
1109.282515	0.017871
1109.442372	0.019288
1109.602211	0.019406
1109.762032	0.019205
1109.921835	0.019586
1110.081620	0.021577
1110.241386	0.023174
1110.401134	0.025296
1110.560864	0.025975
1110.720576	0.024445
1110.880269	0.020269
1111.039945	0.021378
1111.199602	0.021162
1111.359240	0.015818
1111.518861	0.017114
1111.678463	0.015416
1111.838047	0.011199
1111.997613	0.009756
1112.157161	0.010103
1112.316690	0.011909
1112.476202	0.011401
1112.635695	0.009920
1112.795169	0.014448
1112.954626	0.011452
1113.114064	0.012048
1113.273484	0.013313
1113.432886	0.013048
1113.592270	0.010412
1113.751635	0.010141
1113.910983	0.009409
1114.070312	0.009492
1114.229622	0.009269
1114.388915	0.009002
1114.548189	0.010561
1114.707445	0.010743
1114.866683	0.013258
1115.025903	0.014130
1115.185104	0.013774
1115.344287	0.014708
1115.503452	0.012634
1115.662599	0.010675
1115.821727	0.010660
1115.980838	0.012168
1116.139930	0.010138
1116.299004	0.010116
1116.458059	0.010130
1116.617097	0.012937
1116.776116	0.012705
1116.935117	0.014164
1117.094099	0.018093
1117.253064	0.020002
1117.412010	0.014918
1117.570938	0.019404
1117.729848	0.020044
1117.888740	0.023184
1118.047613	0.018491
1118.206468	0.016628
1118.365305	0.015982
1118.524124	0.011354
1118.682924	0.012298
1118.841707	0.015362
1119.000471	0.012963
1119.159216	0.011077
1119.317944	0.007454
1119.476653	0.007498
1119.635344	0.008545
1119.794017	0.012252
1119.952672	0.013072
1120.111308	0.011874
1120.269927	0.009148
1120.428527	0.014337
1120.587108	0.012512
1120.745672	0.012014
1120.904217	0.011970
1121.062744	0.011080
1121.221253	0.007102
1121.379744	0.008158
1121.538216	0.008648
1121.696671	0.010779
1121.855107	0.004627
1122.013524	0.007563
1122.171924	0.007690
1122.330305	0.014067
1122.488668	0.018155
1122.647013	0.022154
1122.805340	0.021571
1122.963648	0.019935
1123.121938	0.019719
1123.280210	0.021104
1123.438464	0.017495
1123.596700	0.017828
1123.754917	0.014134
1123.913116	0.012074
1124.071297	0.016118
1124.229459	0.017664
1124.387604	0.016830
1124.545730	0.014392
1124.703838	0.014032
1124.861928	0.017266
1125.019999	0.018379
1125.178052	0.017910
1125.336088	0.018873
1125.494104	0.012687
1125.652103	0.009276
1125.810083	0.009234
1125.968045	0.013887
1126.125989	0.012765
1126.283915	0.012444
1126.441823	0.012775
1126.599712	0.013394
1126.757583	0.007561
1126.915436	0.010716
1127.073270	0.011552
1127.231087	0.009826
1127.388885	0.008912
1127.546665	0.010979
1127.704426	0.009113
1127.862170	0.009664
1128.019895	0.009768
1128.177602	0.014844
1128.335291	0.011833
1128.492961	0.012054
1128.650614	0.014174
1128.808248	0.014993
1128.965864	0.014806
1129.123461	0.015620
1129.281041	0.013149
1129.438602	0.013621
1129.596145	0.012466
1129.753670	0.012900
1129.911176	0.007923
1130.068665	0.007104
1130.226135	0.004913
1130.383587	0.001394
1130.541020	-0.005976
1130.698436	-0.006707
1130.855833	-0.006328
1131.013212	-0.010287
1131.170573	-0.010521
1131.327915	-0.003334
1131.485239	-0.001657
1131.642545	-0.004061
1131.799833	0.001579
1131.957103	0.007943
1132.114354	0.010882
1132.271588	0.010550
1132.428803	0.016432
1132.585999	0.014039
1132.743178	0.010022
1132.900338	0.009575
1133.057480	0.012967
1133.214604	0.012198
1133.371710	0.011740
1133.528797	0.009595
1133.685866	0.006503
1133.842917	-0.000519
1133.999950	0.002637
1134.156964	0.002171
1134.313960	0.003153
1134.470938	0.003854
1134.627898	-0.000932
1134.784840	0.002237
1134.941763	0.005851
1135.098668	0.004821
1135.255555	0.004679
1135.412424	0.002157
1135.569274	0.003643
1135.726107	0.004862
1135.882921	0.002008
1136.039716	0.004721
1136.196494	0.000992
1136.353253	-0.008343
1136.509995	-0.003215
1136.666717	0.000881
1136.823422	0.003683
1136.980109	0.004255
1137.136777	0.004927
1137.293427	0.009467
1137.450059	0.009825
1137.606672	0.008345
1137.763267	0.019671
1137.919844	0.020815
1138.076403	0.021341
1138.232944	0.015977
1138.389466	0.017923
1138.545971	0.013536
1138.702457	0.009008
1138.858924	0.008012
1139.015374	0.011904
1139.171805	0.011480
1139.328218	0.009363
1139.484613	0.007124
1139.640990	0.009020
1139.797348	0.002555
1139.953688	0.003509
1140.110010	0.003841
1140.266314	0.008648
1140.422600	0.009318
1140.578867	0.002755
1140.735116	-0.000075
1140.891347	0.002889
1141.047559	0.004455
1141.203754	0.005319
1141.359930	0.005806
1141.516088	0.000992
1141.672228	-0.001011
1141.828349	-0.004382
1141.984452	-0.000195
1142.140537	0.002566
1142.296604	0.006548
1142.452653	0.007924
1142.608683	0.016358
1142.764695	0.016230
1142.920689	0.024801
1143.076665	0.024493
1143.232622	0.024511
1143.388562	0.022665
1143.544483	0.020823
1143.700385	0.017199
1143.856270	0.017972
1144.012136	0.012456
1144.167985	0.014047
1144.323814	0.009179
1144.479626	0.005108
1144.635420	0.006071
1144.791195	0.009574
1144.946952	0.007840
1145.102691	0.006865
1145.258411	0.007274
1145.414113	0.005365
1145.569798	0.007107
1145.725463	0.009744
1145.881111	0.015342
1146.036741	0.011064
1146.192352	0.008974
1146.347945	0.010024
1146.503519	0.008639
1146.659076	0.011554
1146.814614	0.018092
1146.970134	0.013460
1147.125636	0.013958
1147.281120	0.012844
1147.436585	0.016313
1147.592032	0.011555
1147.747461	0.014709
1147.902872	0.014976
1148.058265	0.011643
1148.213639	0.008448
1148.368995	0.010371
1148.524333	0.013260
1148.679653	0.010667
1148.834954	0.006143
1148.990237	0.011826
1149.145502	0.016630
1149.300749	0.021068
1149.455977	0.015640
1149.611188	0.013175
1149.766380	0.012626
1149.921553	0.009865
1150.076709	0.009520
1150.231846	0.013026
1150.386966	0.016251
1150.542066	0.010156
1150.697149	0.007634
1150.852214	0.009233
1151.007260	0.014711
1151.162288	0.014689
1151.317298	0.009517
1151.472289	0.013215
1151.627263	0.011312
1151.782218	0.011592
1151.937155	0.011278
1152.092073	0.007918
1152.246974	0.004087
1152.401856	0.000723
1152.556720	0.003604
1152.711566	0.006276
1152.866393	0.003668
1153.021203	0.012683
1153.175994	0.010999
1153.330767	0.008491
1153.485521	0.009432
1153.640258	0.012187
1153.794976	0.006664
1153.949676	0.002680
1154.104358	-0.001320
1154.259021	-0.001744
1154.413667	-0.010182
1154.568294	-0.006496
1154.722903	-0.003926
1154.877493	0.001295
1155.032066	0.005268
1155.186620	0.008021
1155.341156	0.007870
1155.495674	0.013063
1155.650173	0.007996
1155.804654	0.010828
1155.959118	0.000470
1156.113562	0.001693
1156.267989	-0.000597
1156.422397	-0.001741
1156.576788	0.003331
1156.731160	0.005361
1156.885513	0.004518
1157.039849	0.009951
1157.194166	0.014925
1157.348465	0.016138
1157.502746	0.011217
1157.657009	0.006308
1157.811253	-0.007198
1157.965479	-0.008783
1158.119687	-0.009464
1158.273877	-0.013523
1158.428048	-0.014881
1158.582201	-0.009904
1158.736337	-0.007882
1158.890453	-0.006861
1159.044552	-0.009241
1159.198632	0.003768
1159.352694	0.002831
1159.506738	-0.002513
1159.660764	0.005038
1159.814771	0.004463
1159.968761	-0.010259
1160.122732	-0.008723
1160.276685	-0.007472
1160.430619	0.001362
1160.584535	-0.005589
1160.738434	-0.014499
1160.892313	-0.012746
1161.046175	-0.012543
1161.200019	-0.013693
1161.353844	-0.002582
1161.507651	-0.003791
1161.661440	-0.011789
1161.815210	-0.013429
1161.968962	-0.003428
1162.122697	0.003891
1162.276412	0.008786
1162.430110	0.002918
1162.583789	0.015339
1162.737451	0.005131
1162.891094	0.003382
1163.044718	0.015307
1163.198325	0.016074
1163.351913	0.013394
1163.505483	0.014812
1163.659035	0.011466
1163.812569	0.012524
1163.966084	0.002969
1164.119581	0.006393
1164.273060	-0.001013
1164.426521	0.001362
1164.579964	0.002940
1164.733388	-0.005399
1164.886794	-0.005038
1165.040182	-0.001931
1165.193551	0.006127
1165.346903	0.007122
1165.500236	0.003630
1165.653551	0.010696
1165.806848	-0.000372
1165.960126	-0.008638
1166.113386	-0.001676
1166.266628	-0.002517
1166.419852	-0.012324
1166.573058	-0.024728
1166.726245	-0.026449
1166.879414	-0.019311
1167.032565	-0.015167
1167.185698	-0.011918
1167.338812	-0.006144
1167.491909	-0.001916
1167.644987	-0.004871
1167.798046	-0.002467
1167.951088	0.011400
1168.104111	0.011093
1168.257117	0.003604
1168.410103	0.006243
1168.563072	0.012556
1168.716023	0.011019
1168.868955	0.001004
1169.021869	0.002133
1169.174765	0.007562
1169.327642	0.001414
1169.480501	-0.001433
1169.633343	-0.000238
1169.786165	-0.010684
1169.938970	-0.008684
1170.091757	-0.010706
1170.244525	-0.008160
1170.397275	-0.004470
1170.550007	-0.008271
1170.702720	-0.004525
1170.855415	0.004620
1171.008092	0.012305
1171.160751	0.021610
1171.313392	0.020336
1171.466014	0.054686
1171.618619	0.050889
1171.771205	0.050889
1171.923772	0.050889
