sample name	sample
index	498
start time	 03-11-2021  02:37:42 PM
880	0.030399
Peak Time (s)	92.535
Peak Height 	0.0304
calc peak height	90,93
Baseline Time (s)	8.537
Baseline Value 	-0.006051
subtract baseline	10,4
Abs	0.036922
Peak Time (s)	92.535
Peak Height 	0.03692
calc peak height	90,93
Baseline Time (s)	9.038
Baseline Value 	0.00416
subtract baseline	10,3
PK_550	0.023201
Peak Time (s)	90.034
Peak Height 	0.0232
calc peak height	90,93
Baseline Time (s)	9.038
Baseline Value 	2.9991E-4
subtract baseline	10,2
PK_880	0.038585
Peak Time (s)	90.034
Peak Height 	0.03859
calc peak height	90,93
Baseline Time (s)	11.537
Baseline Value 	0.002554
subtract baseline	10,1


Time (s)	A880-A510	A880-A775	A880-A975	A880	I510	I775	I975	I880	
0.034500	0.000571	-0.000130	0.002740	0.002257	7062.251736	45425.798792	3983.208051	24132.366142
0.535500	-0.001482	0.000395	-0.003478	0.005578	7011.064530	45153.358639	3958.887491	23970.654460
1.035500	-0.003638	-0.000990	-0.004451	0.005625	6990.270439	45014.503619	3956.319609	23968.382203
1.549000	-0.000245	-0.000798	0.004300	0.001832	7058.507218	45402.026716	3988.334725	24153.155975
2.036500	0.000081	0.000402	0.004319	0.000851	7071.046737	45615.676975	3990.929133	24201.227583
2.537000	0.001251	0.000213	0.002343	0.000865	7082.169518	45595.821443	3985.777206	24200.543854
3.037000	-0.003835	0.000140	0.001804	0.005023	6994.088033	45182.570415	3973.707685	23997.617172
3.536500	-0.001069	-0.000175	0.005099	0.001061	7057.999595	45538.429405	3992.408707	24190.912036
4.034500	-0.000223	-0.000015	-0.002762	0.001196	7064.817369	45540.971147	3971.820505	24184.323143
4.535000	-0.003864	-0.001026	-0.004076	-0.000318	7044.467510	45590.260838	3972.329155	24258.632406
5.035000	-0.001220	-0.000080	-0.000438	0.000522	7061.720002	45600.630468	3979.493268	24217.356879
5.535500	0.001277	0.000245	0.001767	0.000611	7084.863217	45623.875472	3984.944283	24212.991216
6.038500	-0.000647	-0.000903	-0.004513	-0.000243	7074.562543	45594.924714	3971.023577	24254.938832
6.535500	0.000506	0.000685	0.001880	0.000335	7080.089175	45694.216547	3985.949034	24226.528796
7.037000	0.000339	0.000562	-0.003354	0.000223	7079.564655	45693.125120	3972.792722	24232.048766
7.537000	-0.000963	-0.000838	0.005103	-0.000341	7072.461745	45610.952106	3996.068045	24259.741749
8.037000	0.001773	-0.000241	-0.000127	-0.000007	7095.608914	45636.790487	3981.654388	24243.318717
8.537500	-0.000001	0.000132	0.004640	0.000000	7078.438834	45672.819073	3993.975901	24242.998869
9.038000	0.000889	0.000000	0.000000	-0.000358	7090.467964	45695.008228	3982.886033	24260.596851
9.535500	-0.000313	0.000647	0.007491	0.000116	7074.326618	45712.040528	4001.114692	24237.319739
10.035500	0.000448	-0.000319	0.003917	-0.000631	7088.836793	45690.454398	3993.733221	24274.007395
10.538500	-0.003638	-0.000532	-0.001866	0.003009	7014.981632	45313.248545	3969.482152	24095.674698
11.036000	0.001531	0.000289	-0.001683	0.000133	7091.922895	45675.177873	3977.299700	24236.473719
11.536500	0.000000	-0.000387	-0.000511	-0.000471	7082.982435	45668.018507	3981.860626	24266.145339
12.036000	-0.001462	0.000544	0.000167	-0.000140	7065.741702	45727.044224	3982.753194	24249.859540
12.536500	-0.002083	0.000355	0.003249	0.003533	7024.753685	45348.546150	3981.232134	24070.076258
13.034000	-0.000768	0.000212	0.006461	-0.001329	7083.857212	45811.511018	4002.201036	24308.408833
13.534000	0.000916	0.000148	0.000723	-0.000597	7093.032609	45733.070598	3985.366606	24272.342972
14.035000	-0.001035	-0.000758	0.001080	0.002259	7046.870391	45364.218150	3978.931875	24132.266212
14.535500	-0.003007	-0.000958	-0.000094	0.002873	7022.252284	45284.878859	3974.350224	24102.296494
15.035500	-0.004127	-0.000243	0.001610	0.005109	6990.519261	45136.891901	3972.991214	23993.403988
15.535500	-0.001708	-0.000818	-0.002337	-0.000980	7071.447785	45675.676619	3978.473421	24291.186110
16.035500	0.000137	-0.000985	-0.002200	-0.001523	7094.453744	45712.678472	3980.221307	24317.949266
16.536500	-0.002041	-0.000057	-0.000871	0.002515	7034.839185	45407.722912	3973.278684	24119.758176
17.037000	-0.004304	-0.001127	-0.002742	0.001986	7018.363097	45354.880509	3969.856019	24145.610162
17.537000	-0.000164	0.000109	-0.000357	0.000510	7071.977839	45620.405616	3979.734071	24217.975068
18.034000	-0.000178	0.000665	0.002813	0.001161	7065.593575	45611.108150	3986.226658	24186.043245
18.535000	-0.001855	0.000403	0.002367	0.002079	7040.767113	45495.371991	3982.705185	24141.075807
19.035500	-0.001401	-0.000386	-0.001406	0.000509	7060.115117	45571.981452	3977.044248	24218.019917
19.538000	-0.000513	0.000193	0.004076	0.000876	7065.106655	45592.714506	3990.234143	24200.011366
20.035500	0.001904	-0.000470	0.000158	0.000961	7087.532509	45519.430428	3979.898910	24195.846794
20.536000	0.000793	-0.000243	0.001679	0.001694	7069.790280	45469.857159	3981.925763	24159.936207
21.036500	0.001154	0.000209	0.003757	0.001240	7077.626312	45558.643039	3988.464998	24182.178579
21.536500	0.000183	0.000327	-0.000232	0.001098	7069.656432	45584.044876	3978.545099	24189.109815
22.037000	-0.000720	-0.000252	-0.000038	0.000622	7065.560225	45574.051548	3980.267509	24212.469290
22.537000	-0.000135	-0.000270	-0.000054	0.002033	7057.635603	45433.984251	3976.602921	24143.325717
23.037500	0.000215	-0.000153	0.003166	0.000668	7074.087777	45579.157572	3988.413839	24210.192726
23.534500	-0.001058	-0.000495	0.004102	0.000667	7061.885471	45545.700392	3990.844303	24210.249398
24.038000	0.000616	-0.000023	0.005522	0.000876	7075.952502	45571.543259	3993.990481	24200.007876
24.535500	-0.000413	0.001030	0.000620	0.001791	7057.293005	45585.055570	3978.953065	24155.163886
25.035500	-0.001025	-0.000038	0.001874	0.000956	7059.434466	45562.177403	3984.328805	24196.064849
25.536000	0.001002	0.000252	0.002382	0.001050	7077.988674	45581.352510	3985.397643	24191.447381
26.036500	-0.001260	0.000287	-0.000318	0.001051	7056.272028	45584.795632	3978.444794	24191.404969
26.537000	-0.000566	-0.000075	-0.000521	0.001229	7061.212083	45531.758880	3977.465744	24182.673467
27.037000	-0.000030	0.000240	0.005490	-0.000976	7087.562698	45779.486538	3998.734647	24290.998163
27.537000	0.000394	0.000058	0.002529	-0.002044	7101.979195	45866.904848	3993.801663	24343.689079
28.037500	0.001722	0.000077	0.000860	-0.000332	7098.266248	45700.081787	3985.038804	24259.328531
28.537500	0.000414	0.000901	0.000302	0.000363	7078.933709	45712.637254	3981.806523	24225.151732
29.035500	-0.004043	-0.000679	-0.004166	0.004677	6995.385054	45136.611180	3959.424680	24014.411157
29.535500	-0.000855	0.000463	0.002713	0.000325	7067.111650	45673.340304	3988.129158	24227.030116
30.035500	0.000624	-0.000788	0.005049	-0.001115	7095.215919	45692.029043	3997.949063	24297.876194
30.536000	0.000092	0.000409	0.001992	0.002825	7052.235012	45422.983763	3979.819727	24104.612790
31.036500	-0.000465	-0.000633	0.006978	0.001986	7054.928810	45403.093533	3994.889883	24145.618373
31.537000	0.000293	0.000107	0.004054	-0.000593	7086.984718	45728.595432	3993.991444	24272.138306
32.037000	-0.000041	-0.000066	-0.002161	-0.000547	7083.325528	45707.097780	3977.815339	24269.896875
32.537500	0.001836	0.000991	0.001136	0.000175	7094.461254	45740.062805	3984.439920	24234.404416
33.038000	-0.001637	-0.000333	-0.001267	0.002727	7036.676686	45360.137285	3971.729221	24109.429333
33.535000	0.001924	-0.000261	0.000899	-0.002615	7122.357711	45891.800394	3991.047839	24371.892280
34.035500	0.000396	0.000544	0.002988	0.001714	7065.791506	45544.942605	3985.248502	24158.948752
34.535500	-0.000618	-0.000567	0.004417	0.002306	7050.411050	45378.371462	3987.413823	24130.006587
35.036000	-0.000184	0.000376	0.003471	0.001768	7059.714513	45523.231762	3986.356931	24156.300030
35.536500	0.000733	0.000070	0.001279	0.001846	7067.752280	45485.637375	3980.506436	24152.491195
36.037000	0.000865	-0.000128	0.000182	0.001322	7074.053785	45517.526832	3979.032937	24178.121363
36.536500	-0.000614	0.000271	-0.002048	0.001860	7054.712451	45503.925000	3971.946579	24151.806047
37.037000	-0.000268	-0.000278	0.000219	0.001198	7064.369481	45514.936512	3979.446464	24184.218797
37.540500	-0.001240	0.000499	-0.000939	0.002220	7045.288777	45490.952965	3973.859597	24134.171640
38.035000	-0.001892	-0.000163	0.003074	0.001377	7047.115358	45508.691362	3986.342506	24175.445450
38.535500	-0.000897	0.000142	-0.000436	0.002725	7043.739624	45406.612589	3973.853365	24109.511032
39.036000	0.000130	0.000366	0.000312	0.001380	7066.440634	45560.181648	3979.215954	24175.281813
39.535500	-0.001687	0.000452	-0.002167	0.001438	7048.496028	45563.025297	3972.720373	24172.466055
40.036000	-0.001143	0.000312	0.000903	0.001600	7052.142025	45533.378331	3980.171490	24164.537887
40.536500	-0.002470	0.000357	-0.001250	0.002783	7028.208374	45422.059093	3971.627264	24106.690279
41.037000	-0.001865	0.000414	0.002987	0.001761	7043.704742	45527.664722	3985.126784	24156.656638
41.539500	-0.001818	0.000629	-0.002169	0.001610	7045.599902	45563.493409	3972.277841	24164.041762
42.040000	-0.000496	0.000336	-0.003144	0.001426	7059.994857	45552.771115	3970.259922	24173.046431
42.534500	-0.001724	0.000113	-0.000225	0.002452	7038.459442	45430.445713	3975.091707	24122.832476
43.035000	-0.002218	-0.000372	0.001527	0.001114	7046.509363	45513.950646	3983.026222	24188.309222
43.535500	0.000002	-0.000406	0.002532	0.000464	7074.006352	45574.406501	3987.303224	24220.228437
44.035500	-0.001264	-0.000345	0.000121	-0.001560	7081.295631	45779.378926	3986.299007	24319.776394
44.536000	-0.001720	-0.000104	0.001878	0.002660	7036.523273	45389.030565	3979.954666	24112.712751
45.036000	0.000993	-0.000297	-0.000338	0.000800	7080.309043	45552.139031	3979.038498	24203.737362
45.536500	0.001037	0.000413	0.009136	-0.000724	7095.426300	45771.672786	4007.641844	24278.602721
46.037000	-0.000052	-0.000363	-0.002105	-0.001372	7091.167983	45759.063650	3980.078174	24310.528497
46.539500	-0.000826	0.000145	0.003274	0.002739	7044.287070	45405.557674	3983.341785	24108.836683
47.035000	-0.002859	0.001076	0.001263	0.003608	7016.695611	45411.647916	3975.944839	24066.466133
47.535000	-0.000851	-0.000500	0.000676	0.001862	7052.429138	45428.262073	3978.914455	24151.715984
48.035500	0.000286	-0.000151	0.002371	-0.000503	7086.047390	45694.406868	3989.386503	24267.711245
48.535000	-0.000664	0.000255	-0.000102	0.003091	7042.475064	45382.005454	3973.774630	24091.663200
49.035500	-0.000428	0.000293	0.000859	0.001036	7064.381191	45586.792796	3981.507727	24192.145132
49.536000	0.002927	0.000174	0.006262	-0.003004	7135.917317	45973.376554	4006.077732	24391.142381
50.036500	0.002846	0.000710	0.006930	-0.001150	7117.076194	45843.079140	4002.963485	24299.591148
50.536500	-0.000212	-0.001264	-0.000556	-0.000055	7076.940967	45541.165203	3980.674133	24245.708563
51.039500	0.005763	0.001458	0.001527	-0.010907	7241.961047	46892.631864	4014.440663	24785.724508
51.537000	-0.025074	-0.008968	0.002837	0.061305	6324.760578	39282.220368	3841.117919	21433.557241
52.037500	-0.020891	-0.005208	-0.009690	0.150959	5712.898413	32766.375706	3636.218235	17977.200423
52.535000	-0.048832	-0.021652	-0.015366	-0.051014	7099.498643	48645.740271	4077.618296	26902.858680
53.035500	-0.052853	-0.099751	-0.009386	-0.265560	9719.175235	65505.994842	4880.696510	42235.954864
53.535500	-0.020415	-0.074443	0.002287	-0.237100	9781.918485	65053.581191	4804.221842	39740.983760
54.036000	-0.022910	-0.026334	0.000629	-0.148695	8482.209984	59552.384982	4440.799556	32956.155932
54.536000	-0.022370	-0.030209	-0.000759	-0.167719	8739.435425	61560.862991	4506.157226	34301.877493
55.036500	-0.014410	-0.022211	-0.002473	-0.152918	8648.178755	60650.350938	4444.877980	33249.870099
55.539500	-0.002157	-0.013568	-0.002457	-0.133516	8554.322410	59238.956393	4375.850454	31923.909229
56.037000	0.007630	-0.008413	0.003940	-0.126726	8593.470061	59027.548734	4374.481839	31473.703810
56.537500	0.009024	-0.005145	0.004446	-0.121010	8537.092843	58712.480700	4356.468196	31100.160441
57.034500	0.019424	0.001142	0.003490	-0.105244	8467.877037	57509.056459	4300.086009	30094.876596
57.535000	0.019940	0.007004	0.010551	-0.067538	8010.895349	53653.194073	4202.229498	27833.585197
58.035000	0.013089	0.007436	0.011817	-0.052560	7760.350029	51983.839441	4160.632355	26988.438583
58.535500	0.019831	0.004374	0.016562	-0.082701	8191.181010	55137.186759	4269.103581	28719.434412
59.036000	0.024375	0.005176	0.013544	-0.098258	8441.842982	57139.608640	4310.272567	29660.994224
59.536000	0.021479	0.008618	0.019399	-0.066389	8015.501896	53707.494280	4226.171407	27767.752988
60.039500	0.023077	0.012720	0.014395	-0.043839	7774.552934	51597.419032	4142.416761	26509.603294
60.537000	0.022350	0.012580	0.018244	-0.037914	7700.454386	50923.146958	4136.320883	26189.734713
61.036500	0.017639	0.012368	0.022317	-0.032947	7594.659279	50354.685226	4133.704993	25924.944091
61.534500	0.015748	0.012265	0.018624	-0.031072	7554.123696	50139.390430	4117.527595	25825.763268
62.035000	0.025733	0.019700	0.018529	-0.006618	7401.607908	48326.612613	4048.620583	24570.662967
62.535500	0.030811	0.020902	0.014658	-0.012045	7511.842315	49024.312650	4052.876911	24843.169934
63.036000	0.031414	0.021933	0.021161	-0.007117	7466.134061	48612.948538	4057.195157	24595.594817
63.535500	0.033158	0.022265	0.023421	-0.002333	7434.284435	48147.501328	4050.280024	24357.958367
64.036500	0.032991	0.022472	0.018342	0.002168	7385.794239	47702.955080	4024.392804	24136.726237
64.539500	0.030111	0.022387	0.026361	0.011904	7257.353311	46702.663538	4019.812651	23665.985318
65.036500	0.035212	0.024190	0.025632	0.012529	7302.499543	46821.550360	4016.214163	23636.152253
65.537000	0.035220	0.023622	0.026301	0.014511	7282.531957	46564.784239	4012.734779	23541.734128
66.037000	0.035975	0.024129	0.024142	0.018238	7252.649281	46242.773527	3997.269859	23365.386085
66.537500	0.034147	0.024752	0.016662	0.026489	7152.786301	45489.457386	3956.946741	22980.294731
67.035000	0.035622	0.024890	0.026591	0.025301	7178.953314	45619.418066	3985.291846	23035.302271
67.535500	0.035616	0.025550	0.025243	0.027420	7158.060555	45476.407603	3976.372566	22937.299675
68.035500	0.036289	0.025475	0.023882	0.028719	7151.922098	45342.134812	3969.579084	22877.455925
68.536000	0.031418	0.024696	0.020329	0.033136	7061.954692	44838.198410	3949.470371	22675.332334
69.039000	0.034757	0.025523	0.020087	0.031247	7112.364456	45100.887303	3953.595599	22761.533934
69.537000	0.034032	0.024967	0.028674	0.030512	7112.458233	45118.235609	3977.242894	22795.190128
70.037000	0.034636	0.024960	0.027529	0.031421	7109.504645	45029.448447	3971.987978	22753.598907
70.537000	0.030582	0.024990	0.020579	0.037511	7012.306609	44446.594541	3939.207711	22477.156435
71.037500	0.032785	0.024814	0.027616	0.033374	7072.783098	44826.646954	3967.236444	22664.489318
71.535000	0.033430	0.025320	0.028096	0.033882	7074.101167	44826.414189	3967.165592	22641.405110
72.035500	0.035054	0.024422	0.025862	0.034216	7086.522255	44707.833411	3960.659493	22626.225164
72.536000	0.029651	0.023991	0.020096	0.039418	6985.523424	44170.059516	3933.307175	22391.412415
73.035500	0.031880	0.024195	0.028234	0.035648	7042.359251	44548.810369	3963.038264	22561.323202
73.539000	0.034102	0.024356	0.033482	0.035502	7064.993312	44578.086123	3976.773407	22567.895941
74.036500	0.034164	0.024295	0.031685	0.035232	7068.188013	44598.198205	3972.869581	22580.165676
74.536500	0.034551	0.024736	0.030595	0.035712	7067.299896	44594.432065	3968.867501	22558.415097
75.037000	0.032903	0.023308	0.026853	0.035157	7056.820561	44510.855446	3960.787667	22583.540241
75.537000	0.034230	0.023597	0.030884	0.034708	7073.847554	44581.488412	3972.160632	22603.880943
76.035000	0.035583	0.023699	0.034557	0.034290	7090.911998	44631.376624	3982.650187	22622.862001
76.535000	0.033688	0.024352	0.029852	0.033992	7075.525069	44722.697251	3971.354391	22636.394793
77.035500	0.033349	0.023633	0.029757	0.032984	7081.959384	44750.397187	3973.685221	22682.240472
77.535500	0.035691	0.023609	0.032349	0.032610	7108.202930	44784.175500	3981.292623	22699.325183
78.038500	0.035021	0.024000	0.033409	0.032381	7103.923269	44843.867195	3984.613332	22709.732626
78.536000	0.035616	0.023328	0.032592	0.030953	7123.558534	44916.800879	3986.190664	22774.960455
79.036500	0.035411	0.023721	0.031683	0.030743	7123.612043	44975.165086	3984.388158	22784.598315
79.540000	0.035635	0.023785	0.033631	0.029429	7138.595057	45108.664910	3992.837640	22844.854358
80.034500	0.036920	0.024944	0.029979	0.030352	7142.133048	45131.539360	3981.004034	22802.513617
80.537500	0.037444	0.024893	0.034221	0.028915	7161.318054	45266.210133	3995.708381	22868.429658
81.035000	0.035224	0.024514	0.030376	0.027869	7149.817594	45331.215422	3988.437577	22916.579628
81.535000	0.033083	0.023973	0.031016	0.026832	7139.030840	45379.667528	3992.788736	22964.424160
82.035500	0.036773	0.024141	0.031560	0.026424	7179.220959	45436.057863	3995.268259	22983.318256
82.538500	0.034848	0.023668	0.039126	0.025940	7165.049775	45437.109811	4016.435429	23005.689247
83.036000	0.034472	0.023422	0.027878	0.025020	7170.384801	45502.982129	3989.346688	23048.301765
83.536500	0.037265	0.023724	0.033676	0.024485	7203.239100	45585.097098	4005.880738	23073.146860
84.037000	0.035118	0.023701	0.031309	0.023781	7188.964553	45651.921461	4001.514706	23105.872058
84.537000	0.031634	0.022000	0.029123	0.026292	7130.166766	45240.002810	3989.277041	22989.420618
85.036500	0.035313	0.022415	0.030771	0.022613	7202.444315	45640.275485	4003.165592	23160.261049
85.535000	0.035297	0.021899	0.031096	0.021986	7208.508215	45651.331254	4005.668561	23189.568454
86.035500	0.034587	0.022240	0.034567	0.021774	7203.569691	45705.556460	4015.390639	23199.436465
86.535000	0.032926	0.023594	0.029338	0.027466	7131.312449	45280.909342	3986.794127	22935.179896
87.038500	0.036242	0.022858	0.036023	0.022319	7214.584170	45712.753637	4017.808933	23173.982238
87.536000	0.035656	0.023665	0.033609	0.022318	7208.772006	45792.379947	4011.415825	23174.034487
88.036000	0.034959	0.021874	0.032483	0.021834	7206.660240	45663.735804	4009.720011	23196.656894
88.536500	0.035327	0.021763	0.031470	0.023561	7193.209431	45483.423578	4002.514946	23116.108914
89.037000	0.036186	0.022906	0.032084	0.023609	7201.234500	45590.768703	4003.999789	23113.878947
89.537000	0.037716	0.022837	0.028925	0.023638	7216.125614	45581.156311	3995.659321	23112.527307
90.034000	0.038585	0.023201	0.031809	0.024710	7214.113060	45511.797072	4000.393349	23062.726212
90.534500	0.035239	0.021983	0.029811	0.025753	7170.726856	45290.780958	3992.461674	23014.335986
91.034500	0.037042	0.022986	0.029613	0.025541	7190.589202	45409.416283	3992.497737	23024.183628
91.537500	0.036471	0.022706	0.036230	0.026088	7179.551107	45328.652092	4008.382724	22998.832219
92.035500	0.034885	0.022534	0.032247	0.026680	7158.147365	45254.194080	3996.390511	22971.473252
92.535500	0.035123	0.022372	0.036922	0.030399	7124.147334	44877.996230	3998.885664	22800.342758
93.036000	0.036313	0.022832	0.030487	0.028920	7150.189096	45065.565656	3986.005684	22868.215124
93.539000	0.035373	0.022364	0.029526	0.029542	7134.934830	44960.029534	3981.923732	22839.652031
94.036500	0.037857	0.023135	0.034758	0.032042	7134.780922	44793.250345	3988.978985	22725.220117
94.534000	0.032539	0.022680	0.028442	0.037062	7035.155499	44269.313739	3959.987571	22497.404455
95.034000	0.036165	0.022448	0.032067	0.033505	7104.118334	44586.660904	3978.266959	22658.548753
95.535500	0.035432	0.021856	0.032912	0.034090	7091.380983	44474.002916	3978.933838	22631.935279
96.035000	0.036810	0.021635	0.034764	0.034973	7096.162436	44368.691796	3981.425978	22591.901905
