sample name	sample
index	28
start time	 02-11-2021  12:35:07 PM
880	0.084007
Peak Time (s)	82.534
Peak Height 	0.08401
calc peak height	80,83
Baseline Time (s)	10.536
Baseline Value 	0.006064
subtract baseline	10,4
Abs	0.004571
Peak Time (s)	80.038
Peak Height 	0.004571
calc peak height	80,83
Baseline Time (s)	10.037
Baseline Value 	0.01721
subtract baseline	10,3
PK_550	0.002178
Peak Time (s)	82.534
Peak Height 	0.002178
calc peak height	80,83
Baseline Time (s)	8.536
Baseline Value 	-0.001774
subtract baseline	10,2
PK_880	0.000508
Peak Time (s)	82.534
Peak Height 	5.0799E-4
calc peak height	80,83
Baseline Time (s)	8.536
Baseline Value 	1.3077E-4
subtract baseline	10,1


Time (s)	A880-A510	A880-A775	A880-A975	A880	I510	I775	I975	I880	
0.042000	0.009171	0.003123	-0.006883	-0.005782	3602.503689	10441.211508	3079.456397	6657.177854
0.909000	-0.009366	0.000347	-0.023126	-0.005914	3574.454906	10395.839277	3072.601064	6658.317549
1.377500	0.002237	-0.000231	-0.006551	-0.008690	3596.266169	10433.532614	3080.866101	6682.313920
1.579000	-0.005424	0.003061	-0.031907	-0.005961	3580.433131	10443.235974	3068.989667	6658.720358
2.037500	-0.004455	-0.002401	-0.025561	-0.009379	3587.072441	10408.129276	3073.032028	6688.299364
2.535500	-0.007086	0.002881	-0.029561	-0.005034	3576.547008	10424.194809	3069.571492	6650.742706
3.035000	0.001451	0.000032	-0.011637	-0.008244	3594.370317	10430.397386	3078.465916	6678.452287
3.535500	-0.014735	-0.001524	-0.027046	-0.005384	3565.712377	10354.863787	3070.751978	6653.750558
4.038500	-0.006059	0.000076	-0.013675	-0.003434	3575.688240	10348.908697	3075.536201	6637.001934
4.535500	0.000927	0.001272	-0.005437	-0.001698	3583.586280	10339.751398	3078.316776	6622.164184
5.036000	-0.003675	0.002167	-0.032322	-0.001365	3576.160140	10349.292598	3066.950042	6619.320091
5.536500	-0.000561	0.000686	-0.001027	-0.001940	3581.703324	10333.902327	3080.331682	6624.226933
6.037000	0.004225	0.004221	-0.018385	-0.001825	3588.787903	10392.163500	3072.874023	6623.248170
6.536500	-0.001148	0.002009	-0.022059	-0.002005	3580.915901	10357.488092	3071.417807	6624.779875
7.037500	-0.004676	-0.001646	-0.023675	-0.002059	3575.701778	10296.462153	3070.771069	6625.244350
7.535000	-0.001779	0.001762	-0.000213	0.000439	3576.298780	10311.832997	3079.651204	6603.966487
8.035500	0.006567	0.001286	-0.017827	-0.001625	3592.061954	10338.742828	3073.023610	6621.539861
8.535500	0.000000	0.000000	0.006845	-0.002372	3583.202673	10329.603675	3083.982826	6627.919239
9.036000	0.009456	0.001454	-0.003662	-0.001909	3596.941780	10346.409454	3079.174194	6623.958042
9.535500	0.006498	0.001598	0.000913	0.000824	3588.215259	10302.558950	3079.973377	6600.700842
10.036500	-0.006892	-0.000146	0.000000	-0.004080	3575.410811	10356.141433	3081.715927	6642.547901
10.536000	-0.001183	-0.000436	0.011615	0.000000	3577.848526	10282.142086	3085.050011	6607.696966
11.037000	0.002092	-0.000035	-0.012979	0.001929	3579.870913	10256.442774	3073.566068	6591.334608
11.534500	-0.001060	0.000648	-0.016646	0.001679	3575.517781	10272.111294	3072.136447	6593.447383
12.035000	0.009915	-0.000416	0.007891	0.001493	3592.414038	10257.353492	3082.734948	6595.022614
12.535000	0.006586	0.000894	-0.011607	0.003142	3584.826531	10251.685220	3073.632789	6581.086891
13.035500	0.002327	0.001003	-0.008064	0.001740	3580.507985	10277.074825	3075.721697	6592.934447
13.539000	-0.000902	-0.001170	-0.007862	0.000137	3578.064045	10267.479773	3076.490309	6606.533388
14.036000	-0.002201	-0.001797	0.007996	0.001812	3573.617136	10228.862095	3082.640582	6592.321252
14.536500	0.000442	-0.001101	-0.017797	0.001472	3578.077830	10246.207471	3071.743801	6595.201174
15.036500	-0.000509	-0.000773	-0.009656	0.002410	3575.249493	10236.000128	3074.763010	6587.265422
15.537000	0.006128	0.001020	0.000153	0.004984	3581.349065	10222.936155	3077.846978	6565.571844
16.037500	0.005204	0.001607	0.005997	0.004865	3580.136187	10234.747916	3080.427253	6566.573680
16.537500	0.001943	-0.000430	0.004552	0.002785	3578.359310	10235.461831	3080.703740	6584.094232
17.035000	0.003526	-0.001317	0.003968	0.002722	3580.835909	10221.695423	3080.476915	6584.632104
17.535000	0.001644	-0.001653	-0.012012	0.002696	3578.045270	10216.505866	3073.649916	6584.846187
18.035000	0.000508	-0.001101	0.001831	0.004127	3574.205492	10201.856536	3078.939329	6572.781058
18.536000	0.003885	0.000441	0.005892	0.004212	3579.133837	10226.152096	3080.665870	6572.060386
19.035500	-0.000891	-0.002637	-0.006055	0.002474	3574.583566	10203.793311	3076.264309	6586.722647
19.536000	0.001874	-0.002205	-0.002748	0.002694	3578.393946	10207.343440	3077.584537	6584.869138
20.037000	0.006350	-0.001259	-0.016366	0.004148	3582.946193	10198.864772	3071.227044	6572.603643
20.537000	0.001229	0.001285	-0.003133	0.003533	3576.169478	10251.668978	3077.060033	6577.786533
21.034500	-0.001692	-0.001976	-0.005010	0.002642	3573.139801	10212.023503	3076.638468	6585.305339
21.537500	0.009125	-0.002051	-0.012092	0.002284	3589.995198	10216.745388	3073.789813	6588.334638
22.035000	0.003814	-0.003193	-0.003286	0.006595	3575.457601	10126.265496	3075.689318	6552.060017
22.535500	-0.007157	-0.001901	-0.006045	0.002750	3564.895556	10211.464625	3076.151077	6584.392603
23.038500	0.009089	0.000420	-0.011385	0.004491	3586.576776	10221.154416	3073.159909	6569.716985
23.536000	0.000565	-0.002293	-0.009617	0.004267	3574.082663	10179.697392	3073.996585	6571.604634
24.036000	-0.004501	-0.002165	-0.017092	0.008737	3560.016373	10107.913142	3069.037452	6534.163488
24.539500	0.004480	-0.000405	0.001284	0.004784	3579.167929	10202.495743	3078.419783	6567.252329
25.036500	0.004176	-0.002825	-0.010719	0.003574	3580.531257	10182.350152	3073.824447	6577.436577
25.536500	-0.002756	-0.000130	-0.005253	0.005462	3567.382827	10195.789146	3075.335213	6561.554396
26.037000	0.000679	-0.002801	-0.008186	0.006449	3571.005653	10135.143776	3073.680798	6553.278854
26.534500	0.007676	-0.001894	0.000117	0.002359	3587.670679	10218.116308	3078.962464	6587.697170
27.035500	0.005445	-0.002461	0.007587	0.006380	3578.219633	10141.890199	3080.459563	6553.852883
27.534500	0.001151	-0.000523	-0.020312	0.007579	3570.029095	10154.108036	3068.194993	6543.822618
28.036000	0.000530	-0.001013	-0.026692	0.007866	3568.685630	10141.262820	3065.499162	6541.430969
28.536000	-0.004525	-0.003604	-0.012258	0.005894	3564.143263	10131.039309	3072.208728	6557.929560
29.036500	0.001129	-0.003741	-0.012823	0.005870	3572.533955	10129.171492	3071.983400	6558.130499
29.536500	0.005365	-0.000846	-0.002984	0.008430	3575.032442	10134.719994	3075.039343	6536.727410
30.037000	0.000229	-0.004018	-0.005716	0.007717	3568.460821	10094.218165	3074.186366	6542.671222
30.537500	-0.000223	-0.000455	0.002367	0.008265	3566.984546	10143.884049	3077.388592	6538.097464
31.034500	-0.001373	-0.002289	-0.014811	0.007744	3566.057199	10122.223633	3070.383001	6542.448386
31.535000	0.007146	-0.001674	-0.017072	0.008078	3578.224969	10126.847373	3069.315524	6539.657114
32.035500	0.006944	-0.002122	-0.017204	0.007904	3578.183169	10122.331263	3069.333099	6541.112503
32.538500	0.005566	0.001575	0.003712	0.011059	3571.416385	10131.262242	3076.768518	6514.866644
33.036000	-0.006976	-0.001926	0.002766	0.007901	3557.631131	10125.626233	3077.716239	6541.140991
33.536000	0.000992	-0.000948	-0.020497	0.008491	3568.444862	10132.011387	3067.748554	6536.216552
34.036500	0.001904	-0.001149	0.007728	0.010180	3567.296807	10100.899457	3078.872006	6522.164386
34.536500	0.003454	-0.003399	-0.005594	0.008083	3572.700758	10098.373425	3074.083583	6539.614367
35.034000	0.006411	-0.002429	-0.003158	0.007974	3577.278698	10116.125463	3075.158583	6540.529271
35.534500	0.009816	-0.000435	0.010311	0.011185	3577.569912	10096.118648	3079.554962	6513.828292
36.034500	0.001905	-0.003447	-0.004052	0.009158	3568.807421	10079.958999	3074.280130	6530.655515
36.535000	0.006595	-0.004071	-0.017601	0.004992	3582.040240	10138.229290	3070.367526	6565.502387
37.040500	0.007723	-0.004147	0.000549	0.004804	3584.029820	10140.068030	3078.094460	6567.081742
37.536000	0.003029	-0.005591	-0.003953	0.003443	3579.004140	10138.702640	3076.747930	6578.546401
38.035500	0.003222	-0.001418	-0.005674	0.013282	3564.669315	10045.724567	3071.874075	6496.492555
38.536500	-0.002115	-0.004322	-0.011022	0.005734	3567.927407	10121.851249	3072.791827	6559.274884
39.037000	0.005732	-0.002208	0.008415	0.006838	3577.963153	10138.497890	3080.620718	6550.020098
39.537000	-0.000359	-0.000827	-0.029336	0.008692	3566.153298	10130.691864	3064.111612	6534.536036
40.037000	0.002673	-0.002993	0.003253	0.010668	3567.711888	10062.681445	3076.739444	6518.113516
40.538000	0.002316	-0.003036	-0.019752	0.009498	3568.912958	10081.127238	3067.642242	6527.828867
41.037500	0.002719	-0.000884	0.000397	0.008487	3571.008123	10133.131817	3076.451233	6536.245789
41.543000	0.005402	-0.000738	-0.007807	0.007981	3575.758499	10143.922868	3073.197091	6540.473080
42.035500	-0.006732	-0.001258	-0.000744	0.013805	3549.458231	10039.803077	3073.716413	6492.182151
42.536000	-0.000480	-0.001276	-0.005832	0.008149	3566.777673	10132.253124	3073.955857	6539.070781
43.036000	0.006978	-0.002992	-0.008965	0.005372	3582.046021	10149.779849	3073.806114	6562.312278
43.536500	0.139889	0.026436	0.199085	0.250019	3433.334634	7342.264447	3059.049180	4991.782365
44.037000	0.193485	0.006240	0.291028	0.438489	3298.028353	5672.385544	3025.599555	4260.870605
44.537500	0.145914	0.028081	0.155352	0.277494	3408.909813	7089.525504	3033.667218	4864.511378
45.042500	0.129475	0.037623	0.110049	0.086030	3648.342380	9516.964817	3090.666399	5944.233525
45.548000	0.112827	0.030128	0.123080	0.034392	3708.903901	10217.918297	3122.691585	6326.602947
46.035000	0.109226	0.024495	0.110690	0.032293	3706.203285	10159.151493	3117.270917	6343.129844
46.538000	0.113947	0.027908	0.123673	0.055821	3673.159505	9833.548427	3111.847770	6162.387353
47.036500	0.115735	0.031795	0.132698	0.066503	3658.024560	9726.926775	3111.008014	6083.509448
47.536000	0.107688	0.030551	0.101381	0.058581	3657.813931	9831.699268	3099.480727	6141.823303
48.036500	0.140627	-0.043376	0.240502	0.445038	3250.529488	5343.973071	3009.049272	4240.738663
48.536500	0.147260	-0.001606	0.203929	0.349853	3336.141637	6225.879651	3026.076049	4565.428300
49.036500	0.151582	-0.010223	0.227692	0.363704	3327.250438	6061.475906	3029.189538	4513.642573
49.537000	0.152399	-0.010401	0.231784	0.381360	3312.009907	5936.905358	3024.946722	4449.984835
50.034000	0.160922	-0.016198	0.248603	0.418088	3287.768045	5659.717173	3018.954299	4325.566305
50.534500	0.160989	-0.004395	0.216104	0.373313	3327.064020	6034.635601	3022.616563	4478.675829
51.035000	0.008621	-0.002676	0.001176	0.034219	3542.242226	9692.957701	3066.108030	6327.964814
51.535500	-0.010523	0.001350	-0.026293	-0.001090	3565.593006	10330.752597	3069.293955	6616.978194
52.036500	-0.010968	0.002890	-0.036809	-0.006982	3573.658096	10457.893910	3067.407980	6667.533292
52.538000	-0.004056	0.002849	-0.015053	-0.002953	3577.967897	10387.985314	3074.748809	6632.886213
53.036000	-0.000289	0.002298	-0.045560	0.004169	3572.954915	10257.998046	3059.515449	6572.423762
53.536500	-0.012950	0.002971	-0.020914	0.008940	3547.520432	10189.508840	3067.396928	6532.473257
54.037000	-0.013288	0.000330	-0.033526	0.017490	3534.940744	10005.736114	3059.017696	6461.968328
54.537000	-0.009397	0.003533	-0.006571	0.018503	3538.985468	10041.315374	3069.346921	6453.702501
55.035000	-0.008150	0.005977	-0.028640	0.024921	3531.737199	9976.865430	3058.036993	6401.803310
55.535000	-0.014775	0.004397	0.000393	0.026781	3520.027099	9921.549548	3068.808750	6386.906032
56.035000	-0.008962	0.006878	-0.021258	0.031341	3521.741523	9888.317790	3058.406796	6350.647443
56.536000	-0.001076	0.006166	-0.012191	0.033579	3529.533137	9841.466312	3061.056942	6332.995409
57.039000	-0.009241	0.003952	-0.028225	0.036362	3514.521663	9762.790289	3053.854890	6311.166018
57.536000	-0.007962	0.003498	-0.013859	0.038176	3513.799065	9727.398971	3058.624378	6297.018588
58.036500	-0.004566	0.006101	-0.030233	0.042537	3512.494336	9700.076106	3050.819156	6263.232446
58.536500	0.000998	0.004538	-0.011209	0.044171	3517.820913	9650.684314	3057.339990	6250.662385
59.038000	-0.007816	0.004661	-0.033326	0.045935	3503.592366	9625.463351	3048.451126	6237.139668
59.540000	-0.009712	0.002371	-0.031654	0.043351	3504.506620	9629.968656	3049.999453	6256.960125
60.040000	-0.004116	0.005624	-0.021794	0.047985	3505.789510	9608.811876	3051.922025	6221.499967
60.544000	-0.008266	0.002720	-0.041483	0.048668	3499.378269	9554.157046	3044.557303	6216.302757
61.035500	-0.003863	0.001779	-0.015538	0.048797	3505.043442	9537.944936	3053.949101	6215.322940
61.535500	-0.007005	0.002193	-0.020259	0.050335	3498.843126	9520.977694	3051.620973	6203.664561
62.036000	-0.013157	0.000777	0.007239	0.056022	3483.451504	9414.614552	3059.882550	6160.888796
62.536000	-0.006022	0.000925	-0.010329	0.053122	3496.470582	9460.042741	3054.280810	6182.629269
63.037000	-0.008513	0.001693	-0.012484	0.055181	3490.530451	9440.763098	3052.706336	6167.175437
63.537000	-0.007152	0.002451	-0.016809	0.057246	3489.616246	9421.295862	3050.347103	6151.750331
64.037000	-0.016316	-0.000893	-0.040547	0.062381	3471.377264	9296.474037	3040.111485	6113.713678
64.534500	-0.003499	0.003734	0.006224	0.061172	3489.263025	9382.137780	3057.505432	6122.635502
65.035000	-0.001316	0.000748	-0.010304	0.061681	3491.436206	9330.707004	3051.107814	6118.877680
65.541000	-0.004999	0.003321	-0.035736	0.065162	3482.193763	9317.405815	3040.809091	6093.303581
66.035500	-0.011398	0.001178	-0.050340	0.068264	3470.168635	9241.142499	3034.832677	6070.686017
66.536000	-0.004075	0.002680	-0.029219	0.067538	3480.338871	9273.431183	3042.242550	6075.970342
67.036500	-0.014169	0.001178	-0.012978	0.067981	3467.063412	9245.239916	3047.837370	6072.743832
67.536500	-0.015746	0.002987	-0.025761	0.069835	3462.809789	9244.600269	3042.646988	6059.300530
68.036500	-0.000998	0.005096	-0.013310	0.075290	3474.408671	9196.395266	3045.105923	6020.058576
68.537500	-0.006376	0.002665	-0.012164	0.071264	3472.705858	9219.326809	3046.949604	6048.970121
69.036500	-0.007767	0.002504	-0.003560	0.071834	3470.244921	9208.803424	3049.857681	6044.860655
69.534500	-0.002324	0.003377	-0.031037	0.073946	3474.430805	9191.015552	3039.408544	6029.677547
70.037500	0.000737	0.003394	-0.013432	0.077851	3473.367931	9135.541850	3044.158425	6001.808538
70.535500	0.002813	0.004146	-0.009162	0.075091	3479.490873	9185.621794	3046.653802	6021.478472
71.035500	-0.009015	0.001614	-0.030211	0.074275	3465.647218	9161.103301	3039.578495	6027.325966
71.535500	-0.002678	0.004857	0.001111	0.077136	3469.977721	9166.545472	3049.627102	6006.888885
72.036000	-0.010693	0.000238	-0.009014	0.075164	3462.468426	9128.869164	3046.681224	6020.961596
72.536500	0.000107	0.003738	0.010375	0.075843	3475.105824	9169.032758	3053.525126	6016.106674
73.037000	-0.003251	0.001127	-0.019252	0.074380	3472.717518	9152.652172	3043.333094	6026.569076
73.536500	0.002076	0.003365	-0.026057	0.075223	3478.385705	9172.556264	3040.677457	6020.534843
74.037500	-0.000850	0.002424	-0.019081	0.075800	3473.952581	9150.910094	3042.896122	6016.414157
74.534500	-0.005478	0.003218	-0.017348	0.077596	3465.913381	9136.655780	3042.874261	6003.617137
75.038000	-0.004586	0.002880	-0.015578	0.077692	3466.903872	9130.493706	3043.460149	6002.940022
75.535500	-0.011215	0.002236	-0.012428	0.076852	3459.748244	9133.277808	3044.865498	6008.916439
76.036000	-0.006338	0.002249	-0.020254	0.077643	3464.788252	9122.234693	3041.846599	6003.284113
76.536000	-0.007982	0.001560	-0.027357	0.077777	3462.590613	9110.579415	3039.357385	6002.335550
77.036000	-0.003385	0.003524	-0.009868	0.080739	3464.612061	9096.467100	3044.396371	5981.353531
77.536500	0.004836	0.002526	-0.039406	0.079507	3476.452550	9099.776096	3034.730564	5990.059316
78.040000	-0.002457	0.000503	0.023643	0.081124	3465.285400	9048.568581	3056.538018	5978.636046
78.537000	-0.007958	-0.000917	-0.031226	0.077389	3463.099224	9081.097776	3038.174575	6005.094125
79.038000	-0.003211	0.002202	-0.007963	0.080423	3465.218353	9082.288648	3045.181732	5983.583017
79.537500	-0.008557	0.000497	-0.014845	0.079231	3460.090892	9075.053147	3043.177499	5992.014046
80.038000	-0.007030	-0.000455	0.004571	0.081957	3458.619557	9023.544695	3049.131535	5972.767228
80.535500	-0.013220	0.000349	-0.021256	0.081069	3452.162614	9047.186693	3040.318326	5979.021411
81.123500	0.000266	-0.000667	-0.003568	0.081197	3468.582525	9031.179791	3046.471009	5978.120735
81.539500	-0.004790	0.001886	-0.004675	0.082578	3460.606815	9047.579493	3045.583915	5968.396632
82.051500	-0.002533	0.000861	-0.023887	0.083680	3462.029482	9017.861629	3038.529575	5960.662391
82.533500	0.000508	0.002178	-0.013360	0.084007	3465.386045	9031.672073	3042.030373	5958.367780
83.034000	-0.010033	0.000702	-0.004071	0.083733	3452.795635	9014.910368	3045.388349	5960.290202
83.592500	-0.003523	0.002003	0.003191	0.085020	3459.164434	9015.115814	3047.524440	5951.285266
84.059000	0.004679	0.000850	-0.007402	0.084453	3470.029204	9006.958663	3043.957145	5955.250556
84.535000	-0.007455	0.002931	-0.013655	0.085591	3453.670115	9020.075829	3041.379348	5947.293084
85.035500	-0.014648	0.000645	-0.018652	0.085481	3445.141228	8989.817122	3039.699009	5948.062247
85.535500	0.000295	0.001363	-0.010579	0.084683	3464.284533	9010.886761	3042.763215	5953.636610
86.036000	0.000055	0.001000	-0.013023	0.087498	3460.515211	8966.815687	3040.939296	5934.014052
