sample name	sample
index	416
start time	 03-08-2021  11:20:23 AM
880	0.061590
Peak Time (s)	91.037
Peak Height 	0.06159
calc peak height	90,93
Baseline Time (s)	11.035
Baseline Value 	-0.004674
subtract baseline	10,4
Abs	0.044795
Peak Time (s)	90.537
Peak Height 	0.04479
calc peak height	90,93
Baseline Time (s)	10.535
Baseline Value 	0.003295
subtract baseline	10,3
PK_550	0.021711
Peak Time (s)	92.035
Peak Height 	0.02171
calc peak height	90,93
Baseline Time (s)	9.037
Baseline Value 	6.0442E-4
subtract baseline	10,2
PK_880	0.040417
Peak Time (s)	90.537
Peak Height 	0.04042
calc peak height	90,93
Baseline Time (s)	11.536
Baseline Value 	0.002995
subtract baseline	10,1


Time (s)	A880-A510	A880-A775	A880-A975	A880	I510	I775	I975	I880	
0.034000	-0.000916	-0.000343	0.002424	0.002261	6961.526282	46943.961640	3989.279812	24715.229471
0.540000	-0.004711	-0.000610	-0.006876	0.005097	6899.280773	46630.207176	3957.317440	24572.835842
1.035000	-0.005153	-0.001048	-0.002634	0.004943	6896.603428	46601.637079	3968.793412	24580.562530
1.535500	-0.000849	-0.000914	-0.006551	0.000674	6977.196963	47047.085128	3969.715141	24795.275016
2.035500	-0.001351	-0.000091	0.003240	0.001071	6968.666495	47090.425222	3994.648184	24775.214394
2.535500	-0.001324	-0.000573	-0.005273	0.002786	6952.712407	46867.459735	3967.530525	24688.816210
3.036000	0.000787	-0.000448	-0.000256	-0.001079	7009.498480	47273.374352	3991.042950	24884.079588
3.539000	-0.000672	-0.000973	-0.005226	-0.000008	6985.359240	47110.546644	3974.997118	24829.778698
4.036500	-0.000183	-0.000086	-0.003432	0.000536	6984.837832	47145.475984	3978.298891	24802.269154
4.537000	-0.002892	-0.000445	-0.001584	0.002862	6937.222017	46872.657642	3977.037035	24684.975069
5.037000	-0.001165	0.000093	-0.001590	0.000193	6978.769338	47198.698443	3984.095077	24819.634907
5.534500	-0.001662	-0.000216	-0.002407	0.000439	6971.712971	47142.088197	3981.271365	24807.149884
6.035000	0.000920	-0.001116	0.003348	-0.000618	7006.353583	47158.037640	3999.477559	24860.670331
6.535000	-0.000995	-0.000107	-0.000929	0.000354	6978.856544	47161.916410	3985.426114	24811.489465
7.035500	-0.000814	0.000318	0.002471	-0.000066	6984.559465	47248.045721	3995.636031	24832.708043
7.536000	-0.000925	-0.001111	-0.002017	-0.001393	6996.139077	47237.736626	3987.180163	24900.012721
8.036500	0.000009	-0.000465	0.002365	-0.000694	6998.388989	47232.283413	3997.038231	24864.546009
8.536500	-0.001113	0.000002	-0.001879	0.000014	6980.951956	47207.615139	3983.801152	24828.651124
9.037000	0.001170	0.000000	0.002964	-0.000508	7007.697245	47260.785925	3998.150120	24855.110104
9.537500	-0.003060	-0.001059	-0.004352	-0.000828	6970.475240	47185.301948	3979.474264	24871.342845
10.035000	0.000037	0.000641	-0.002282	0.000476	6987.498675	47225.809014	3981.505093	24805.303265
10.535000	-0.001520	0.000803	0.000000	0.000366	6973.747561	47253.550497	3987.866424	24810.842580
11.035000	0.000877	-0.000107	0.001327	0.000000	7000.049311	47197.973340	3992.391511	24829.378448
11.536000	0.000000	-0.000428	0.000556	-0.000285	6994.397972	47194.365147	3991.090891	24843.813060
12.035500	-0.001713	-0.000070	0.002248	-0.000163	6976.939940	47218.374988	3995.295749	24837.610914
12.536500	-0.001257	-0.000048	0.001310	0.000111	6978.663653	47192.693785	3992.047098	24823.744641
13.036500	-0.002757	-0.000243	-0.002817	0.000686	6959.012677	47114.183694	3979.531741	24794.691570
13.537000	-0.000683	-0.000421	0.002875	-0.000290	6987.945722	47195.517640	3997.323428	24844.076682
14.037000	-0.003424	-0.000774	-0.002400	0.001802	6942.189840	46946.692128	3977.679642	24738.323936
14.537500	-0.001702	-0.000070	-0.003690	0.001523	6961.067376	47046.567302	3975.011543	24752.411594
15.034500	-0.002876	-0.001003	-0.000257	-0.000100	6965.315812	47116.792581	3988.423083	24834.430459
15.535500	-0.001700	0.000340	0.000688	-0.000454	6979.829446	47290.031905	3991.896150	24852.387449
16.035000	-0.001576	-0.000305	-0.001034	-0.000885	6985.097622	47268.107633	3988.445616	24874.213021
16.536000	-0.000237	-0.000411	0.001855	-0.001252	7001.361007	47294.813446	3997.168212	24892.864752
17.036000	-0.000281	-0.000416	-0.003497	-0.001763	7005.825110	47346.590387	3984.222562	24918.793833
17.539000	-0.000555	-0.000244	-0.003427	0.000366	6982.915201	47146.710838	3978.762991	24810.871641
18.036500	-0.001672	0.000192	-0.000375	0.001009	6966.218306	47125.577751	3985.153758	24778.357188
18.537000	0.001406	0.000243	-0.004143	0.001632	6989.525360	47067.309328	3973.528042	24746.895345
19.037000	-0.000376	0.000514	0.001220	0.001777	6971.223679	47080.188986	3987.359048	24739.601429
19.537000	-0.003035	-0.000019	0.000155	0.001170	6951.814606	47087.671113	3986.137094	24770.233313
20.035000	-0.001738	0.000584	-0.001734	0.002214	6954.198317	47042.780032	3978.352684	24717.574858
20.535000	-0.002431	0.000070	-0.001461	0.001389	6955.449438	47074.463291	3981.261294	24759.177926
21.035500	-0.001471	0.000626	-0.000992	0.001963	6959.095633	47072.613290	3980.982775	24730.234080
21.535500	-0.001454	0.000205	-0.001841	0.001526	6963.392094	47074.253487	3979.889822	24752.276263
22.036500	-0.000597	0.000486	-0.002251	0.001503	6971.722507	47105.303582	3978.866670	24753.439749
22.536000	-0.000293	-0.000059	-0.000583	0.000790	6981.374843	47122.317864	3985.182384	24789.405984
23.036500	-0.001112	0.000726	0.000957	0.001860	6963.462155	47093.253764	3986.435667	24735.404818
23.537000	-0.003425	0.000285	-0.000311	0.001385	6946.106052	47096.777178	3984.325500	24759.369454
24.037000	-0.002233	0.000042	0.000278	0.001429	6956.936978	47067.520779	3985.773677	24757.144628
24.535000	-0.001135	0.000084	-0.003020	0.001067	6970.756769	47108.691754	3977.984533	24775.448060
25.035000	-0.002667	-0.000102	0.000989	0.001179	6955.199876	47078.345301	3988.336756	24769.753617
25.535500	-0.001450	-0.000195	-0.003267	0.001176	6966.734872	47069.186355	3977.044248	24769.913587
26.035500	-0.002174	-0.000068	0.002246	0.001048	6961.091735	47095.145331	3992.045067	24776.376199
26.535500	-0.001421	0.000201	-0.000856	0.001066	6968.049532	47120.650861	3983.724808	24775.462922
27.039000	0.000391	0.000154	-0.000550	-0.001487	7009.620370	47376.726302	3991.350388	24904.807877
27.536500	0.000922	0.000347	0.003511	-0.001011	7010.135552	47347.644276	4000.978256	24880.595554
28.037000	-0.000267	-0.000257	-0.000326	-0.000901	6997.724248	47274.710738	3990.378705	24875.026819
28.537000	0.000207	-0.000296	-0.001480	-0.000486	6998.280884	47228.281047	3986.193521	24853.973059
29.034000	-0.001474	-0.000195	0.003135	-0.000439	6981.828709	47233.830391	3998.424576	24851.606524
29.534500	-0.002667	-0.000262	-0.002999	-0.000996	6975.797123	47283.950068	3983.509258	24879.865472
30.035000	0.000193	0.000335	0.000710	-0.000397	6997.303782	47283.704211	3991.803368	24849.480665
30.535500	-0.001407	-0.000105	-0.000692	0.004649	6934.385478	46726.343365	3974.674944	24595.304236
31.036000	-0.004022	0.000239	-0.001160	0.003493	6920.698695	46878.012216	3976.488862	24653.265935
31.536000	-0.000998	-0.000352	-0.000952	-0.000438	6986.345136	47217.700185	3987.473778	24851.560622
32.036500	-0.001437	-0.001010	-0.000338	-0.000984	6987.368829	47206.239165	3990.570587	24879.249359
32.536500	-0.004409	-0.000841	-0.003344	0.004093	6911.472062	46708.139584	3969.159687	24623.169937
33.037000	-0.001636	-0.000027	-0.003769	-0.000776	6983.493972	47285.342376	3980.881868	24868.683390
33.534000	0.000669	0.000141	0.001354	-0.001822	7015.489255	47409.807528	3997.353638	24921.829540
34.037500	-0.000899	-0.000299	-0.006174	0.001125	6972.445945	47063.797596	3969.521073	24772.497872
34.537000	-0.001506	-0.000259	-0.005294	0.002565	6953.071854	46921.584764	3968.053737	24699.909557
35.035000	-0.002583	-0.000093	-0.003218	0.001744	6950.656225	47021.811906	3975.671122	24741.248943
35.536000	-0.002160	0.000036	-0.001132	0.002035	6951.913077	47005.342256	3980.422140	24726.616432
36.036000	-0.001587	0.000133	0.000794	0.002114	6956.571356	47007.173141	3985.325362	24722.625242
36.538500	0.000159	-0.000162	-0.000038	0.002178	6972.494020	46970.744559	3982.945162	24719.410257
37.035000	-0.002705	0.000175	-0.001530	0.002074	6946.395537	47015.435120	3979.262534	24724.614356
37.536500	0.000187	0.000889	-0.005465	0.002598	6968.769759	47034.845007	3967.518113	24698.248113
38.037000	-0.001327	0.000419	0.002705	0.002178	6958.421999	47029.720545	3990.251203	24719.380118
38.534500	-0.002917	0.000636	-0.001639	0.002047	6944.660015	47065.166758	3979.047518	24726.019573
39.035000	-0.002514	0.000085	0.002647	0.002550	6943.715622	46958.058939	3989.104232	24700.674962
39.535000	-0.001190	0.000939	-0.002580	0.002698	6954.805201	47029.776813	3974.841660	24693.240110
40.035500	-0.002773	0.000211	-0.000055	0.002192	6944.648552	47007.098909	3982.860488	24718.672798
40.536000	-0.000063	0.000700	0.001274	0.002705	6965.398274	47004.790446	3985.032194	24692.887686
41.036500	-0.002883	-0.000221	0.001218	0.001964	6945.755500	46986.425348	3986.852964	24730.178852
41.536000	-0.000394	0.000055	-0.002304	0.002383	6965.307313	46971.965186	3976.400814	24709.079787
42.036000	-0.001168	0.000932	-0.004969	0.002929	6952.827035	47005.484109	3967.949077	24681.587176
42.537000	-0.002327	-0.000281	-0.002975	0.002468	6946.252400	46929.271953	3974.404172	24704.811046
43.037000	-0.002161	0.000121	0.002967	0.002383	6948.607899	46978.617638	3990.401995	24709.059662
43.534500	-0.000116	0.001007	-0.002237	0.002251	6969.197587	47082.167381	3976.925163	24715.741566
44.037500	0.002457	0.000615	0.001835	-0.002771	7041.791449	47555.816291	4001.203429	24970.092286
44.535000	-0.003923	0.000380	0.000301	0.005535	6902.549389	46685.926973	3974.956768	24550.982324
45.035500	-0.000488	0.000025	0.000621	0.002200	6966.149629	46987.463545	3984.636845	24718.276336
45.535500	-0.000333	-0.000246	0.001986	0.000403	6984.677699	47142.735370	3993.078444	24809.010793
46.038500	-0.001671	0.000537	-0.001293	0.000224	6973.670979	47240.886996	3984.800858	24818.054590
46.541500	-0.003384	0.000571	-0.004939	0.003558	6926.066775	46905.068715	3966.380455	24649.986902
47.036500	-0.002545	-0.000053	-0.003798	0.002148	6947.207564	46984.854805	3973.077627	24720.900932
47.539500	-0.000999	0.000334	0.005377	0.003617	6947.933226	46875.089007	3993.551857	24647.041227
48.037500	-0.000198	-0.000011	-0.004831	0.000539	6984.661147	47152.794634	3974.595985	24802.107680
48.534500	-0.004068	0.000697	0.000538	0.004820	6907.861539	46790.073370	3977.468223	24586.717238
49.035000	-0.000931	0.000163	0.000312	0.002270	6961.298015	46994.335341	3983.627671	24714.749415
49.535500	0.001930	0.001147	0.001130	-0.000884	7018.585732	47416.777268	3994.232558	24874.196684
50.035500	0.002652	0.000414	0.005446	-0.000594	7022.714697	47311.820276	4005.080194	24859.447943
50.539000	-0.002606	-0.000116	-0.002508	0.005013	6919.726633	46688.509182	3968.940297	24577.087766
51.035500	-0.020407	-0.012539	-0.008574	0.149290	5653.381140	33419.571146	3635.522662	18433.931863
51.542000	-0.029922	-0.020782	-0.007749	0.033363	6430.625498	42013.050557	3884.130878	23203.702709
52.037000	-0.040586	-0.025945	-0.014153	-0.063361	7214.458030	51197.266182	4127.935712	28282.702951
52.537500	-0.028212	-0.046626	-0.001617	-0.176351	8673.613584	62639.670741	4563.088568	35841.745316
53.037500	-0.035049	-0.031346	-0.005163	-0.126810	7965.129683	58106.600804	4363.619829	32284.393814
53.534500	-0.033489	-0.025066	-0.005538	-0.115060	7846.606712	57415.375879	4321.380750	31498.533592
54.035500	-0.014869	-0.022992	-0.003829	-0.135980	8322.484564	60380.596394	4401.178467	32912.624057
54.534500	-0.006989	-0.022852	-0.001133	-0.142301	8504.258011	61242.382175	4434.153474	33353.489409
55.036000	0.002386	-0.013853	0.000404	-0.125277	8405.610677	60173.863799	4377.935075	32180.660412
55.536000	0.007849	-0.006922	0.003980	-0.104869	8217.820070	58423.371329	4319.071265	30834.004187
56.036500	0.009120	-0.005514	0.003630	-0.099321	8165.257926	57896.300136	4298.977511	30478.690426
56.536500	0.005874	-0.002843	0.001736	-0.072539	7810.443727	54925.343214	4205.086949	28826.037302
57.037000	0.008817	0.001160	0.009370	-0.051203	7604.906099	52889.074009	4162.361908	27580.429638
57.537500	0.012017	0.002825	0.014005	-0.040905	7527.888994	51904.759027	4145.096067	27000.755456
58.034500	0.013642	0.004675	0.012545	-0.026360	7390.889881	50492.458763	4097.492592	26205.113673
58.535000	0.015336	0.006741	0.012962	-0.008240	7222.498119	48764.646905	4046.845499	25250.485185
59.035500	0.019144	0.008980	0.016426	-0.001584	7193.953423	48300.364566	4037.933190	24909.715499
59.535500	0.020898	0.010289	0.020607	0.005420	7141.797565	47708.645380	4030.101819	24556.687719
60.038500	0.021869	0.011748	0.016762	0.011079	7095.768947	47277.241841	4004.114898	24275.610603
60.541500	0.021475	0.012689	0.021573	0.011668	7086.184745	47313.326970	4015.589889	24246.589832
61.036500	0.027732	0.015418	0.027408	0.006340	7200.588435	48145.207495	4046.470651	24510.747110
61.536500	0.028766	0.014935	0.027363	-0.010478	7382.988530	49880.203876	4094.391342	25366.273916
62.037000	0.029239	0.019003	0.028450	0.002459	7254.847759	48930.088133	4060.344864	24705.224234
62.537500	0.028066	0.019389	0.023860	0.010148	7165.958347	48162.249536	4026.030092	24321.599970
63.034500	0.028043	0.018707	0.022601	0.010432	7162.915972	48061.676029	4021.787879	24307.573764
63.538000	0.030789	0.019199	0.025033	0.013828	7156.468071	47760.570582	4019.146219	24140.396914
64.035500	0.028882	0.019361	0.026541	0.016519	7111.154492	47499.877535	4015.907931	24008.824069
64.536000	0.028072	0.020106	0.028941	0.020863	7060.938805	47131.689178	4010.609876	23798.203183
65.035500	0.028173	0.020027	0.028188	0.023626	7035.227585	46843.013972	4001.084947	23665.287055
65.542000	0.029920	0.020325	0.028941	0.021016	7077.388460	47138.399548	4010.193716	23790.806931
66.036500	0.030778	0.020362	0.032020	0.021443	7081.577506	47098.748799	4017.427028	23770.229913
66.542000	0.032308	0.020356	0.029670	0.022437	7086.810158	46997.071176	4008.315109	23722.407820
67.037000	0.030737	0.020684	0.032697	0.024345	7053.027573	46836.784167	4011.355335	23630.860857
67.537500	0.033854	0.020377	0.033470	0.021227	7113.744780	47122.204668	4021.990278	23780.631765
68.034500	0.031704	0.020482	0.029309	0.020332	7101.454576	47224.123882	4013.055368	23823.807902
68.535000	0.031951	0.020765	0.030543	0.022171	7085.911862	47065.612788	4011.409507	23735.177559
69.035500	0.032119	0.021062	0.027994	0.023901	7070.720542	46919.997741	3999.821662	23652.108160
69.538500	0.034721	0.021568	0.037147	0.021304	7121.507045	47235.843247	4031.918974	23776.936510
70.036000	0.035112	0.022220	0.033084	0.021861	7119.875924	47245.547083	4019.195278	23750.112620
70.536500	0.034565	0.021951	0.033248	0.021494	7118.108040	47255.521184	4020.650065	23767.765410
71.036500	0.035798	0.020980	0.033394	0.021602	7129.166838	47145.563399	4020.754433	23762.592923
71.537000	0.035527	0.022478	0.036760	0.023328	7109.556969	47122.258630	4025.261256	23679.611839
72.037000	0.038753	0.022429	0.035829	0.023824	7136.390650	47066.819388	4021.340768	23655.837166
72.537500	0.037893	0.021859	0.037228	0.025782	7108.685898	46810.249174	4019.803699	23562.190846
73.035500	0.037316	0.022612	0.033575	0.025494	7105.861118	46915.753179	4010.617468	23575.947260
73.535000	0.039458	0.022081	0.040310	0.026340	7118.573912	46776.346129	4026.743396	23535.607754
74.035500	0.038788	0.022904	0.037249	0.027388	7101.735364	46753.607892	4015.469754	23485.734132
74.538500	0.037804	0.021829	0.036345	0.029461	7071.939103	46436.685113	4007.368661	23387.436205
75.036500	0.036863	0.021946	0.030955	0.032261	7035.759072	46168.538247	3985.364730	23255.422438
75.536500	0.039013	0.022146	0.038853	0.029641	7081.940016	46450.490284	4013.698354	23378.911385
76.034500	0.040919	0.021700	0.040271	0.030546	7091.689094	46315.068590	4015.096043	23336.154119
76.534000	0.039420	0.022282	0.035585	0.032584	7057.318203	46169.731334	3996.882033	23240.211659
77.034500	0.038182	0.022595	0.034732	0.035943	7013.066906	45867.287981	3985.617256	23083.106103
77.537500	0.039357	0.021902	0.041056	0.033148	7051.263790	46075.765473	4010.146309	23213.757308
78.035000	0.040670	0.022046	0.037368	0.034323	7052.598708	45973.341324	3997.000136	23158.724198
78.538000	0.040368	0.021876	0.038206	0.035898	7034.490757	45800.533381	3995.021069	23085.180224
79.038000	0.036519	0.021359	0.037444	0.040267	6956.129496	45320.494721	3981.333644	22882.604851
79.536000	0.039880	0.021619	0.037395	0.037052	7018.716615	45661.348495	3989.761041	23031.476467
80.036500	0.039007	0.022473	0.038819	0.038665	6994.947740	45586.681723	3989.256522	22956.649250
80.537000	0.039239	0.021769	0.037613	0.040293	6981.651975	45357.984535	3981.711107	22881.379065
81.037000	0.040322	0.021764	0.041168	0.040579	6989.232813	45329.491967	3990.417470	22868.197765
81.536500	0.039763	0.021179	0.038873	0.041564	6974.557366	45176.300619	3981.682859	22822.840870
82.037500	0.037140	0.020865	0.037045	0.042181	6943.936132	45085.791448	3975.214028	22794.469213
82.538000	0.037937	0.021398	0.040619	0.044513	6929.501354	44911.344846	3978.494456	22687.632030
83.035000	0.037848	0.021475	0.038058	0.044192	6931.685751	44949.884045	3972.584831	22702.307855
83.536000	0.039715	0.021854	0.046166	0.046050	6931.768609	44806.845969	3989.155167	22617.529666
84.036000	0.039402	0.022302	0.040548	0.047412	6916.063342	44718.607799	3970.663620	22555.587608
84.536000	0.036824	0.021255	0.036771	0.048629	6880.727158	44501.084483	3957.616168	22500.430897
85.036500	0.037801	0.021525	0.041003	0.048879	6887.467459	44502.980829	3968.008430	22489.123376
85.536500	0.038265	0.021171	0.037928	0.048736	6893.113907	44482.769575	3960.346788	22495.583735
86.037500	0.038292	0.021039	0.035911	0.050644	6875.662545	44287.890892	3950.175791	22409.476370
86.537000	0.038879	0.021075	0.038352	0.051376	6874.317153	44221.587596	3954.593808	22376.523829
87.035000	0.038465	0.021563	0.037321	0.052428	6860.762092	44167.833688	3949.209135	22329.239517
87.538000	0.037179	0.021742	0.037755	0.053410	6839.894926	44091.603276	3947.796642	22285.224248
88.035500	0.040000	0.021596	0.039779	0.054121	6859.314770	44010.379029	3951.182865	22253.447644
88.535500	0.039084	0.021293	0.039938	0.054883	6843.867267	43909.689231	3949.629047	22219.432228
89.035500	0.036164	0.021804	0.037126	0.059827	6772.274025	43493.078762	3929.800214	22000.114462
89.536500	0.039213	0.020711	0.040368	0.055925	6835.489916	43756.494002	3948.049081	22172.984671
90.036500	0.037056	0.020432	0.035123	0.055674	6818.057824	43753.924245	3935.261970	22184.174184
90.537000	0.040417	0.021254	0.044795	0.057549	6831.637341	43654.852360	3955.289916	22100.821307
91.036500	0.035749	0.020819	0.035302	0.061590	6752.666725	43236.875547	3920.750866	21922.488664
91.535000	0.038654	0.021242	0.039371	0.058772	6804.383787	43539.137478	3938.193045	22046.679997
92.035000	0.039699	0.021711	0.042513	0.059807	6804.473464	43486.203230	3943.584931	22000.989086
92.535500	0.039223	0.020417	0.040167	0.060394	6794.818015	43310.664139	3936.085804	21975.102149
93.038500	0.039170	0.021915	0.037011	0.064511	6757.162302	43067.607150	3917.710329	21794.617390
93.535500	0.041004	0.021046	0.042224	0.061260	6803.123872	43288.637455	3939.124086	21936.977542
94.036500	0.041101	0.020902	0.044422	0.061306	6803.583519	43270.925261	3944.635281	21934.950468
94.537000	0.039006	0.020685	0.036985	0.062446	6774.284010	43144.927835	3922.830461	21884.928669
95.039500	0.037867	0.021304	0.036869	0.067042	6722.853666	42777.902884	3911.031421	21684.488120
95.534500	0.040307	0.021071	0.043241	0.063280	6778.494352	43103.387809	3936.563641	21848.374511
96.035000	0.041376	0.021033	0.041212	0.063673	6784.609339	43063.522294	3930.408566	21831.191496
