sample name	sample
index	496
start time	 03-11-2021  02:32:22 PM
880	-0.003006
Peak Time (s)	92.536
Peak Height 	-0.003006
calc peak height	90,93
Baseline Time (s)	10.536
Baseline Value 	-0.005122
subtract baseline	10,4
Abs	-0.016605
Peak Time (s)	91.035
Peak Height 	-0.01661
calc peak height	90,93
Baseline Time (s)	11.038
Baseline Value 	0.004117
subtract baseline	10,3
PK_550	0.001217
Peak Time (s)	91.535
Peak Height 	0.001217
calc peak height	90,93
Baseline Time (s)	9.536
Baseline Value 	2.4083E-4
subtract baseline	10,2
PK_880	-0.007837
Peak Time (s)	91.535
Peak Height 	-0.007837
calc peak height	90,93
Baseline Time (s)	11.537
Baseline Value 	0.001602
subtract baseline	10,1


Time (s)	A880-A510	A880-A775	A880-A975	A880	I510	I775	I975	I880	
0.038000	-0.000569	-0.000887	-0.002403	0.001770	7060.951948	45504.516234	3977.106458	24227.559327
0.535500	-0.002232	-0.000774	-0.004086	0.004561	7018.503812	45243.096454	3965.695399	24090.975950
1.036000	-0.003468	-0.000084	-0.007297	0.006242	6990.923026	45146.660959	3953.352248	24009.094525
1.536500	0.001583	0.000543	-0.002072	0.001639	7082.889547	45657.687824	3978.290473	24234.001601
2.039000	0.000135	-0.000035	-0.000806	0.000718	7077.817078	45691.432189	3983.917224	24279.305345
2.537000	0.001741	-0.000336	-0.004177	0.000882	7091.714836	45645.667450	3974.837684	24271.217445
3.037000	0.001126	0.000090	-0.001232	0.001167	7083.036933	45659.539674	3981.661669	24257.191239
3.537500	0.002624	-0.000232	0.000688	0.000967	7099.420232	45647.492457	3987.133427	24267.034795
4.035000	0.001506	0.000377	-0.001578	0.001640	7082.136612	45641.250914	3979.556839	24233.946587
4.535000	0.000013	-0.000908	-0.001237	0.000134	7082.269126	45663.031575	3984.312056	24308.069072
5.035000	0.002746	0.001084	-0.001326	0.001381	7096.599306	45736.220108	3980.869698	24246.663832
5.536000	-0.001028	0.000039	-0.004692	0.000611	7067.675549	45709.257726	3974.213254	24284.577037
6.036000	-0.000034	0.000458	-0.001498	0.000475	7078.529301	45763.817578	3982.758531	24291.238061
6.539000	0.001846	0.000016	-0.000253	0.000379	7097.577741	45729.768945	3986.219582	24295.967939
7.036500	0.003236	0.000769	0.000498	0.001249	7102.619577	45718.212160	3985.913952	24253.172920
7.537000	0.000711	-0.000194	-0.000917	-0.000005	7090.334611	45746.963349	3985.497258	24314.928269
8.037000	0.001593	0.000014	-0.004497	0.000055	7098.276673	45761.533431	3976.134397	24311.952724
8.535000	0.000540	-0.000694	-0.003882	-0.000407	7092.557793	45737.220731	3978.896794	24334.713983
9.035000	-0.000045	0.001144	-0.000056	0.000712	7076.139315	45808.055060	3985.868491	24279.572853
9.535500	0.000067	0.000000	0.001132	-0.000359	7087.533201	45800.887473	3991.719675	24332.357559
10.036000	-0.000349	0.000037	-0.001661	-0.000075	7080.784797	45776.511749	3983.756895	24318.342688
10.535500	0.001257	-0.000406	0.000735	0.000000	7095.553280	45725.549780	3989.758941	24314.661845
11.038000	-0.001574	-0.000294	0.000000	0.003509	7034.745260	45392.381841	3978.809193	24142.350292
11.536500	0.000000	0.000049	0.001577	0.000145	7082.037005	45756.127624	3991.567522	24307.533369
12.036500	0.001104	0.000419	0.002260	0.000366	7090.551168	45770.761921	3992.770248	24296.642976
12.537000	0.001276	-0.000174	-0.002760	-0.000215	7097.815396	45769.580315	3981.286684	24325.258587
13.037000	-0.002985	-0.000240	0.000475	0.003745	7019.093601	45374.688159	3979.423018	24130.816956
13.534500	0.001891	0.000308	0.003185	-0.000121	7102.852242	45807.744493	3996.442806	24320.611973
14.035000	-0.000525	0.000284	-0.001547	0.002915	7050.417917	45507.047155	3976.365578	24171.426046
14.535500	-0.000489	-0.000848	-0.000149	0.000783	7071.190466	45605.064289	3985.443999	24276.068249
15.035500	-0.000893	-0.000346	-0.002064	0.002517	7050.704832	45484.336054	3976.060016	24190.916909
15.539000	0.001190	0.000164	-0.004082	-0.000443	7099.190631	45825.369033	3978.477105	24336.520023
16.036000	0.000695	0.000306	-0.001131	-0.000705	7096.931182	45865.222097	3986.751385	24349.437428
16.564500	0.002680	0.000724	0.002161	0.000133	7108.043045	45823.815208	3993.117588	24308.123246
17.087000	-0.001277	-0.000252	-0.001724	0.002393	7048.217562	45505.610279	3977.248386	24196.985856
17.557500	-0.000214	-0.000721	-0.003210	-0.000047	7081.820200	45699.165813	3979.696425	24316.966684
18.035000	-0.000642	0.000355	-0.000769	0.001073	7066.935954	45694.766819	3983.097005	24261.803475
18.535000	0.000837	-0.000172	0.000058	0.000845	7083.351813	45665.442964	3985.819518	24273.031038
19.035000	-0.001972	0.000408	-0.003671	0.002543	7040.164774	45555.688757	3971.886021	24189.652140
19.535000	0.000572	0.000307	-0.004341	0.001173	7077.646817	45680.236783	3973.674101	24256.911732
20.038500	0.001449	0.000605	-0.000368	0.001526	7082.687418	45674.935439	3982.963495	24239.575423
20.536000	0.000849	0.000910	-0.001691	0.001757	7074.688041	45682.097222	3978.966440	24228.212046
21.036000	-0.000147	0.000339	-0.000127	0.002599	7057.066072	45543.470554	3980.821689	24186.922893
21.536500	0.000821	-0.000096	0.000392	0.001179	7079.981959	45640.005220	3985.819431	24256.594289
22.037000	0.001488	-0.000466	-0.000293	0.000654	7091.469374	45655.301851	3985.405303	24282.434185
22.537000	-0.000422	-0.000164	-0.001786	0.001248	7067.366894	45626.597519	3980.027239	24253.197796
23.037500	0.000145	0.000483	-0.001805	0.001513	7070.269542	45664.170060	3979.299802	24240.202572
23.535000	-0.001803	-0.000150	-0.000279	0.000916	7057.321217	45660.606436	3984.766156	24269.547010
24.035500	0.000334	0.000134	-0.001359	0.001312	7074.022064	45649.575223	3980.961809	24250.074073
24.538500	-0.000617	-0.000479	-0.000092	0.000756	7070.222357	45643.996564	3985.660600	24277.397304
25.036000	-0.001671	0.000583	-0.003397	0.001125	7056.587847	45712.167054	3976.212909	24259.280521
25.536500	-0.000757	0.000675	-0.000186	0.001660	7060.218084	45668.578301	3983.088519	24232.988911
26.036500	0.000881	0.000601	-0.004298	0.001623	7076.289665	45664.972416	3972.634872	24234.799916
26.533000	0.000546	0.000525	-0.004088	0.001334	7075.838615	45685.787574	3973.907537	24248.968823
27.037000	0.001015	0.001116	0.000354	-0.000736	7100.337352	45948.386928	3990.679309	24350.985767
27.537500	0.003279	0.001486	0.007629	-0.000193	7117.014532	45931.370210	4008.285122	24324.198819
28.035000	0.000838	0.000087	0.003498	-0.000733	7098.590565	45846.333661	3998.858174	24350.807749
28.534500	0.000923	0.000900	-0.003908	0.001194	7080.821310	45736.616516	3974.728066	24255.889710
29.038000	0.002471	0.000623	0.000088	-0.000146	7108.708280	45841.360353	3988.459972	24321.842151
29.536000	0.000157	-0.000091	-0.002323	-0.000695	7091.649666	45825.077344	3983.650204	24348.956677
30.036000	0.000087	-0.000131	-0.002230	-0.001360	7097.390286	45886.804344	3985.605757	24381.810830
30.536500	-0.000417	0.000173	-0.001116	0.002413	7056.258095	45545.373894	3978.759307	24196.036482
31.036500	-0.000472	0.000427	-0.003114	0.004603	7034.826142	45355.939123	3968.056216	24088.902701
31.537000	0.002741	-0.000106	-0.001252	-0.000485	7114.616790	45802.816173	3985.870522	24338.565327
32.037500	0.001688	0.000245	0.001738	-0.000498	7104.539886	45838.754322	3993.655312	24339.207850
32.535000	-0.001059	0.000417	-0.000767	0.001757	7056.388830	45633.617357	3981.339651	24228.187828
33.035500	-0.002725	0.000306	-0.000008	0.004731	7012.213129	45331.720980	3975.655268	24082.667772
33.538000	0.000171	0.000185	0.001640	0.001465	7070.979689	45639.528208	3988.308198	24242.547362
34.035000	-0.001510	0.000063	-0.003021	0.001902	7050.690751	45584.728706	3975.185626	24221.092803
34.535500	0.000394	0.000179	-0.002313	0.002770	7060.595713	45510.963296	3974.774113	24178.508743
35.036000	-0.001723	-0.000189	0.001933	0.002664	7041.380766	45485.292438	3985.966006	24183.728392
35.536000	-0.000979	0.000464	0.003438	0.002139	7053.504019	45600.800263	3991.223264	24209.471153
36.036500	-0.000974	-0.000003	-0.002239	0.002172	7053.234644	45551.751229	3976.495404	24207.844605
36.537000	-0.001939	0.000637	-0.000604	0.002577	7040.159982	45574.806296	3979.652770	24188.004924
37.034500	-0.000491	0.000141	-0.000401	0.003616	7044.055789	45424.529258	3977.508193	24137.145681
37.538000	0.001002	0.000383	-0.002570	0.002244	7071.479604	45582.467758	3975.463387	24204.302218
38.038000	0.000124	-0.000437	-0.001734	0.001709	7068.190978	45554.627855	3978.978834	24230.569524
38.535500	-0.001014	-0.000217	0.000135	0.001856	7055.875526	45561.773432	3983.409711	24223.372461
39.036000	0.000023	0.000951	-0.002218	0.003669	7048.458082	45498.509141	3972.721199	24134.541509
39.536000	0.002307	0.000574	0.001925	0.002744	7079.230308	45552.269678	3985.739646	24179.821607
40.036000	0.001080	0.000044	0.001726	0.002223	7072.433286	45551.407538	3986.570158	24205.363490
40.536500	0.002452	0.000785	0.004284	0.002566	7082.328959	45590.445483	3992.309987	24188.531516
41.037000	-0.001206	-0.000206	-0.002285	0.003099	7042.162704	45441.077625	3974.003934	24162.393554
41.537000	-0.001649	0.000494	0.001006	0.002245	7046.081189	45593.286989	3984.652699	24204.257095
42.037500	0.000013	0.000815	-0.002839	0.002319	7061.274980	45617.524687	3974.584107	24200.619170
42.537500	0.000897	0.000373	-0.000325	0.002647	7066.600569	45542.017052	3980.188394	24184.534644
43.035500	-0.001778	-0.001217	-0.001451	0.002545	7041.986859	45396.391696	3977.559886	24189.548153
43.535500	0.005200	0.001012	0.005776	-0.001789	7151.296043	46042.344988	4007.605626	24403.033976
44.036000	0.002481	0.000799	-0.003289	-0.000207	7109.404840	45864.801390	3979.905452	24324.872443
44.536000	0.002155	0.000558	0.001519	0.000335	7100.995077	45787.477373	3990.921679	24298.129741
45.036500	-0.003026	0.000864	-0.003459	0.004481	7011.740833	45410.631343	3967.493170	24094.893109
45.537000	0.001752	-0.000195	0.000354	-0.000814	7108.229413	45826.569280	3990.883068	24354.849324
46.037000	-0.000108	0.000393	-0.002270	-0.000313	7085.402412	45835.079296	3982.801203	24330.085776
46.537500	-0.002155	0.000684	-0.000808	0.005281	7012.405723	45314.915568	3972.206318	24055.885210
47.037000	-0.000224	-0.000265	0.000887	0.003978	7043.140201	45349.445790	3979.882162	24119.415559
47.535000	-0.000924	-0.000171	-0.001150	0.001965	7055.695382	45555.616888	3979.822430	24218.006169
48.038000	0.001626	0.000945	-0.001015	0.000524	7094.063368	45807.049694	3983.879664	24288.856937
48.535500	-0.002568	-0.000414	-0.003553	0.003559	7024.820238	45375.754225	3969.595385	24139.895686
49.039000	-0.001477	-0.000240	-0.006324	0.003205	7038.569524	45427.459663	3963.461705	24157.249830
49.536500	0.002616	0.000215	0.005057	-0.002207	7130.150609	46004.892070	4006.815307	24423.760974
50.036500	0.001928	-0.000746	0.004751	-0.000744	7109.256862	45765.339781	4002.169707	24351.395166
50.537000	-0.002175	0.000317	0.000465	0.007337	6992.793087	45079.330544	3970.207937	23955.944343
51.037000	-0.037243	-0.011252	-0.015028	0.226764	5177.743611	27709.504844	3507.952654	15605.330678
51.540000	-0.054155	-0.016804	-0.018132	0.101379	5824.073458	35570.129710	3717.438137	19856.917589
52.035000	-0.052139	-0.014022	-0.030409	0.050210	6205.044590	39882.047522	3797.413604	21976.917064
52.535500	-0.041938	-0.035255	-0.030020	-0.169804	8515.714201	61307.090721	4414.667986	34558.994846
53.035500	-0.031217	-0.095103	-0.009962	-0.260036	9985.345780	65534.410360	4863.042688	41869.197324
53.535500	-0.032941	-0.035332	-0.007719	-0.169309	8626.742503	61230.266915	4494.522733	34522.924234
54.036000	-0.038946	-0.041989	-0.016745	-0.182950	8728.327318	62174.727880	4511.947095	35531.865459
54.536500	-0.036963	-0.030871	-0.023231	-0.162776	8489.226972	60952.884655	4413.813357	34050.817263
55.036500	-0.023504	-0.037025	-0.017292	-0.181320	8916.662060	62630.857738	4503.703696	35409.579280
55.537000	-0.013470	-0.024389	-0.017231	-0.159821	8759.894575	61425.665547	4424.718555	33839.584627
56.040000	-0.013694	-0.019600	-0.015701	-0.144158	8549.400637	59980.272632	4374.738857	32743.697150
56.534500	-0.017766	-0.015614	-0.022442	-0.126584	8274.710741	58224.105920	4292.467487	31560.273993
57.035000	-0.010284	-0.015249	-0.020566	-0.135349	8479.613570	59398.166698	4327.908057	32144.564558
57.535500	-0.004885	-0.013343	-0.015028	-0.132030	8506.389443	59214.759509	4335.406357	31921.914433
58.035500	-0.001601	-0.010833	-0.018644	-0.127387	8488.869650	58939.149540	4307.685819	31613.329873
58.536000	-0.010824	-0.003026	-0.020689	-0.057205	7554.956772	51451.496512	4086.455312	27329.181377
59.036500	-0.013798	-0.006922	-0.019234	-0.073219	7696.861750	52823.264148	4136.640112	28246.708265
59.536500	-0.009789	-0.007559	-0.017236	-0.088530	7915.077488	54536.422024	4188.394671	29156.111249
60.037000	-0.012132	-0.007855	-0.022484	-0.100282	8024.912675	55914.677830	4208.378584	29876.214949
60.539500	-0.019610	-0.008816	-0.024692	-0.079612	7703.279512	53342.405885	4139.381784	28622.516588
61.037500	-0.017295	-0.006388	-0.022826	-0.058898	7504.024959	51265.513413	4085.206539	27424.611236
61.534500	-0.013399	-0.000741	-0.027474	-0.020147	7148.948944	47721.173088	3969.050896	25331.377049
62.035000	-0.001949	-0.000439	-0.025355	-0.040196	7468.582596	49867.942771	4026.931078	26391.033670
62.535500	-0.000960	0.000302	-0.024917	-0.053818	7624.910543	51444.824027	4065.205344	27139.431811
63.049000	0.003660	0.001287	-0.021492	-0.054058	7678.077990	51581.849700	4075.385877	27152.850237
63.536000	0.003437	0.001492	-0.020051	-0.050368	7635.225150	51193.345609	4069.130565	26947.693259
64.038500	0.004048	0.003213	-0.020192	-0.044066	7573.564638	50687.247210	4051.375835	26601.248737
64.536500	0.004035	0.002550	-0.017212	-0.040712	7537.482485	50248.091736	4050.357417	26418.978123
65.039500	-0.001318	0.002471	-0.023536	-0.031452	7384.022600	49242.175684	4008.531038	25922.849333
65.537000	0.002823	0.003441	-0.015319	-0.032897	7442.084053	49500.306170	4034.286401	25999.596804
66.035000	0.000286	0.003115	-0.016562	-0.030668	7392.493876	49227.231827	4024.965317	25881.320564
66.535000	0.002462	0.003282	-0.015471	-0.028316	7390.682118	48995.131179	4021.599147	25757.225457
67.035500	-0.001867	0.003379	-0.025269	-0.022005	7281.986340	48341.351866	3979.439027	25427.503965
67.535500	0.001358	0.002948	-0.018924	-0.025867	7354.080633	48701.123317	4005.969612	25628.690816
68.036000	-0.000069	0.003660	-0.014938	-0.024333	7323.832038	48614.734452	4012.438529	25548.607281
68.536000	0.000599	0.003010	-0.028069	-0.024234	7329.616384	48536.090399	3977.971089	25543.413951
69.037000	-0.000931	0.002374	-0.016386	-0.019615	7267.341378	47988.038482	3996.244986	25303.903387
69.539500	0.001843	0.002921	-0.017447	-0.023703	7336.898597	48471.115890	4004.165609	25515.761163
70.037500	0.001884	0.003270	-0.016907	-0.023799	7338.307479	48517.757711	4005.836791	25520.779783
70.537500	-0.004413	0.002761	-0.021439	-0.019210	7228.425947	47986.207194	3982.099175	25283.013417
71.038000	-0.004051	0.002425	-0.019883	-0.020204	7241.962529	48054.415827	3988.686488	25334.311534
71.543500	0.000091	0.003160	-0.020583	-0.025834	7340.776271	48720.040866	4001.529957	25626.988762
72.036000	-0.000327	0.003150	-0.016841	-0.026439	7342.689762	48782.754225	4012.974308	25658.664566
72.535500	-0.002998	0.002514	-0.018820	-0.022250	7273.061988	48276.642478	3996.768956	25440.251325
73.039000	-0.003266	0.002635	-0.018394	-0.023080	7278.720836	48375.967142	4000.050141	25483.355058
73.536500	-0.000446	0.002721	-0.018516	-0.028843	7366.121720	48991.494989	4014.904230	25784.958142
74.042000	-0.000536	0.001988	-0.017114	-0.030353	7380.756306	49073.950831	4022.650478	25864.688200
74.537000	-0.004828	0.001714	-0.023773	-0.026268	7295.153050	48613.523273	3994.332932	25649.712963
75.037000	-0.003249	0.001369	-0.021721	-0.032206	7371.889465	49205.159439	4015.324521	25962.855638
75.535500	-0.003688	0.001029	-0.018219	-0.032420	7369.570479	49191.716673	4025.216931	25974.208910
76.035000	-0.002021	0.001137	-0.018904	-0.032771	7390.396735	49240.716579	4024.326531	25992.901220
76.535000	-0.005794	0.000512	-0.023331	-0.027222	7295.029924	48587.511490	3997.973024	25699.750825
77.036000	-0.003877	0.000696	-0.019733	-0.033256	7376.235087	49245.262589	4023.407884	26018.678304
77.535500	-0.005477	0.000968	-0.024275	-0.032463	7351.644451	49189.856143	4009.249610	25976.525748
78.036500	-0.004981	0.001355	-0.018170	-0.031776	7349.690445	49157.992413	4023.630802	25940.060806
78.539000	-0.009212	0.001007	-0.021644	-0.026502	7253.346335	48563.854222	4000.497785	25661.950993
79.037000	-0.006338	0.000729	-0.016242	-0.032036	7338.457088	49119.013227	4029.488510	25953.853711
79.537000	-0.006054	0.000262	-0.018668	-0.031449	7335.367478	49007.170413	4021.427543	25922.718905
80.034500	-0.005387	-0.000108	-0.018425	-0.030691	7334.428520	48887.736907	4020.055244	25882.552782
80.538000	-0.007713	-0.000310	-0.019500	-0.030217	7305.934271	48816.377520	4015.938210	25857.492161
81.034500	-0.004891	0.000310	-0.016507	-0.028896	7321.181917	48742.381047	4020.382667	25787.748994
81.535500	-0.007127	-0.000221	-0.019402	-0.028382	7293.272218	48632.383987	4011.338966	25760.694416
82.036500	-0.007728	-0.000501	-0.021428	-0.027799	7281.319523	48541.693210	4004.467039	25730.041651
82.536000	-0.006932	-0.000636	-0.015532	-0.027298	7284.284969	48475.017731	4018.722915	25703.697251
83.042000	-0.010401	-0.001141	-0.022257	-0.020705	7183.884772	47737.432458	3983.847061	25360.214655
83.536500	-0.007512	-0.001247	-0.018043	-0.025118	7256.526313	48183.625093	4006.318535	25589.578480
84.037000	-0.008224	-0.000379	-0.018694	-0.023267	7230.880460	48081.411571	3999.753600	25493.086172
84.537000	-0.011477	-0.000655	-0.015641	-0.019024	7156.765905	47614.378254	3996.645963	25273.436613
85.037500	-0.010898	-0.000984	-0.021965	-0.016260	7135.403370	47297.578835	3973.185368	25131.502136
85.535000	-0.007576	-0.000378	-0.020561	-0.020292	7207.737146	47773.503323	3987.158594	25338.852382
86.035500	-0.009046	-0.000414	-0.020808	-0.019451	7184.875213	47683.132379	3984.349014	25295.454432
86.535500	-0.013004	-0.001292	-0.022004	-0.014815	7100.911725	47118.993872	3969.400714	25057.695314
87.036500	-0.008658	-0.000324	-0.020382	-0.016980	7164.372040	47438.616066	3979.083873	25168.410527
87.538500	-0.008862	-0.000171	-0.018556	-0.015585	7148.690291	47311.641399	3980.190873	25096.980162
88.036500	-0.008532	-0.000691	-0.017769	-0.015178	7147.947385	47217.152548	3981.168650	25076.206574
88.537000	-0.011157	0.000406	-0.018742	-0.010440	7076.529840	46847.725127	3966.571442	24835.616476
89.037500	-0.009032	-0.000843	-0.021551	-0.013093	7122.740478	46989.815900	3966.177230	24970.028214
89.534500	-0.007014	0.000842	-0.014857	-0.010289	7115.093680	46876.458774	3976.093221	24827.987216
90.035000	-0.009323	-0.000517	-0.020176	-0.010817	7097.841780	46792.562359	3963.889054	24854.644789
90.535000	-0.012863	-0.000230	-0.022077	-0.005365	7011.815835	46274.449518	3945.421555	24580.800502
91.035000	-0.008040	0.000039	-0.016605	-0.008405	7086.948056	46605.699578	3966.829820	24733.081213
91.535500	-0.007837	0.001217	-0.016917	-0.006721	7072.691989	46554.949885	3961.772880	24648.613937
92.039000	-0.008503	0.000711	-0.020549	-0.006662	7065.731573	46498.194472	3952.479958	24645.634841
92.536000	-0.011102	0.000948	-0.017840	-0.003006	7006.166917	46156.953062	3950.110344	24463.401315
93.057000	-0.010281	0.000297	-0.019561	-0.004819	7031.144668	46272.615557	3950.338667	24553.571726
93.533500	-0.009883	0.000369	-0.022202	-0.004180	7028.853796	46216.088258	3942.163126	24521.737938
94.037000	-0.009210	0.001053	-0.021333	-0.002849	7022.604467	46151.795731	3941.017050	24455.590485
94.537500	-0.010022	0.000635	-0.015307	-0.003014	7016.455190	46126.595752	3956.482193	24463.763819
95.034500	-0.010622	0.001496	-0.025028	0.002666	6957.362039	45650.406546	3918.413270	24183.644768
95.535000	-0.007554	0.000507	-0.014064	-0.001353	7024.122888	45949.144056	3955.432291	24381.472062
96.035500	-0.009344	0.001431	-0.016457	-0.000155	6995.840007	45922.135237	3946.442296	24322.311140
