sample name	sample
index	1120
start time	 04-22-2021  01:44:13 PM
880	0.014619
Peak Time (s)	101.04
Peak Height 	0.01462
calc peak height	100,103
Baseline Time (s)	8.536
Baseline Value 	-0.005104
subtract baseline	10,4
Abs	-0.015958
Peak Time (s)	101.04
Peak Height 	-0.01596
calc peak height	100,103
Baseline Time (s)	11.535
Baseline Value 	0.006064
subtract baseline	10,3
PK_550	0.001670
Peak Time (s)	101.537
Peak Height 	0.00167
calc peak height	100,103
Baseline Time (s)	8.536
Baseline Value 	4.8623E-4
subtract baseline	10,2
PK_880	-0.015191
Peak Time (s)	100.035
Peak Height 	-0.01519
calc peak height	100,103
Baseline Time (s)	10.037
Baseline Value 	0.001756
subtract baseline	10,1


Time (s)	A880-A510	A880-A775	A880-A975	A880	I510	I775	I975	I880	
0.036500	-0.001443	-0.000349	-0.006937	0.002552	6281.772458	43235.355725	3913.022727	22742.778154
0.539500	-0.001833	0.000360	0.000127	0.005026	6259.924485	43072.194103	3923.534453	22630.397167
1.037000	-0.001477	-0.000736	-0.007346	0.003882	6271.348114	43076.691792	3909.068879	22682.305714
1.539500	-0.001741	-0.001148	-0.007485	0.005614	6256.161389	42879.506769	3904.832002	22603.821713
2.034500	0.001435	0.000507	-0.001987	0.002138	6307.054960	43353.072165	3925.320278	22761.655822
2.535000	-0.001362	-0.000290	-0.004284	0.001482	6290.589396	43339.888238	3921.540582	22791.555005
3.035500	0.000634	0.000013	-0.000818	-0.000908	6324.407357	43590.646497	3935.087732	22900.985049
3.538000	0.001407	0.000225	-0.002792	0.001322	6313.134374	43402.660796	3925.343723	22798.863723
4.036500	0.000424	0.000050	-0.000027	0.000297	6313.455034	43481.727679	3934.122815	22845.719717
4.536500	-0.000980	-0.000543	-0.002803	0.000142	6303.826760	43440.942931	3928.043531	22852.837516
5.036500	0.000331	0.000192	-0.007131	0.000012	6314.941438	43521.510063	3918.380960	22858.798864
5.537000	0.001519	-0.000193	-0.001870	0.000086	6323.562769	43478.742306	3930.333427	22855.387088
6.040000	-0.000688	-0.000587	-0.007144	-0.000675	6312.379808	43512.934769	3919.925087	22890.286904
6.537500	0.002516	0.000076	0.001309	-0.000077	6332.564445	43518.928056	3938.111297	22862.853339
7.035500	0.000913	0.000318	-0.001714	0.000115	6318.647813	43523.723421	3930.630124	22854.081770
7.535500	-0.000707	0.000073	-0.003557	0.000133	6305.995742	43499.156002	3926.323221	22853.245167
8.036000	0.001459	-0.000238	-0.003365	-0.000142	6324.863298	43495.755471	3927.400253	22865.834245
8.536000	0.000695	0.000000	-0.000670	0.000000	6317.855154	43504.743780	3933.321066	22859.343924
9.036000	-0.000613	0.000379	-0.000852	-0.000151	6308.918103	43554.174867	3933.249095	22866.277145
9.536500	0.002933	-0.000025	0.002751	-0.000813	6341.533462	43578.307755	3943.213475	22896.636716
10.036500	0.000000	0.000830	0.001728	0.000932	6305.286286	43495.157225	3936.733145	22816.671634
10.537000	0.000932	0.000604	-0.008302	0.000202	6318.118945	43542.214405	3915.268142	22850.079812
11.037000	-0.001120	-0.000175	0.004857	0.000095	6303.109399	43479.645718	3946.030199	22855.007139
11.535000	-0.002231	-0.001056	0.000000	-0.000699	6300.669955	43471.466283	3936.508040	22891.394742
12.035000	0.000826	0.000099	-0.001918	0.000260	6316.854534	43489.713589	3929.819062	22847.440659
12.535000	0.000708	-0.000760	-0.005528	-0.000342	6320.598953	43465.766975	3922.873513	22874.997884
13.036000	0.002174	0.001139	-0.002409	-0.001320	6339.570415	43734.573849	3932.346749	22919.914455
13.536000	-0.000156	0.000558	-0.008713	0.001906	6296.589064	43379.348648	3910.449440	22772.212137
14.036000	0.000129	-0.000354	-0.005325	0.000566	6309.110944	43419.096241	3921.254782	22833.448173
14.537000	-0.000531	-0.000225	-0.000756	0.002198	6291.466198	43279.562444	3928.022048	22758.895651
15.036500	-0.000157	-0.000469	-0.002492	0.000654	6306.223119	43400.195520	3927.580119	22829.402176
15.571000	0.000205	0.000698	-0.002252	0.002112	6297.786478	43373.225795	3924.768577	22762.838021
16.035000	0.001075	-0.000060	0.001358	0.000572	6316.373098	43445.944200	3936.711886	22833.176274
16.535000	-0.001277	-0.000345	0.003646	0.000146	6301.508515	43459.095442	3943.062993	22852.677966
17.035500	-0.001506	0.000259	-0.002509	0.001047	6292.816333	43431.347568	3926.630435	22811.413543
17.535000	-0.000242	0.000188	-0.002025	0.000749	6304.834347	43452.457968	3928.439861	22825.058021
18.035500	-0.000302	0.000156	-0.004833	0.000694	6304.802033	43454.714191	3922.091302	22827.590423
18.536000	0.000815	-0.000306	-0.002908	0.001072	6310.496308	43376.553889	3925.654087	22810.297250
19.036000	-0.002071	-0.000569	-0.002694	0.000731	6290.910205	43383.836247	3926.935860	22825.901154
19.537000	-0.001429	0.000180	-0.002438	0.001630	6288.935646	43369.865730	3925.449812	22784.803468
20.037000	-0.002011	-0.000318	0.002212	0.001501	6285.468852	43335.608648	3936.536220	22790.691449
20.537000	-0.000684	-0.000351	-0.002268	0.001752	6293.719569	43309.263903	3925.561082	22779.234520
21.037500	-0.002327	-0.000272	-0.003354	0.001456	6283.389744	43343.999004	3923.740760	22792.754015
21.535500	0.000695	-0.000316	-0.001438	0.001150	6308.968500	43368.353579	3928.869017	22806.721204
22.035500	-0.001068	0.000356	-0.002601	0.001709	6291.100922	43378.843950	3924.893153	22781.220198
22.535500	-0.001838	-0.000533	-0.004980	0.001283	6288.462312	43335.867561	3920.399774	22800.650211
23.038500	-0.000480	0.000360	-0.005547	0.001710	6295.606280	43379.110975	3918.119724	22781.150053
23.539500	-0.001397	0.000146	-0.004691	0.001623	6289.236889	43367.330562	3920.280913	22785.117146
24.037000	0.000398	-0.000372	-0.005237	0.001537	6303.699237	43327.254474	3919.228755	22789.072179
24.536500	0.001107	0.000072	-0.002832	0.001722	6307.738427	43351.303610	3924.330934	22780.631886
25.037500	0.001564	0.001067	0.001671	0.002319	6306.652232	43388.231103	3933.369833	22753.376278
25.535000	-0.000391	0.000533	-0.001874	0.001996	6294.091516	43368.622765	3925.907664	22768.103092
26.035000	0.000971	0.000734	-0.006213	0.001903	6305.289102	43395.885149	3916.153206	22772.336249
26.534500	-0.002615	-0.000838	-0.003488	0.000879	6285.598401	43345.005926	3924.760246	22819.096284
27.035500	-0.001660	-0.000286	0.002627	0.001817	6285.730272	43309.165813	3936.764922	22776.256386
27.535500	-0.001395	0.000932	-0.001738	0.002169	6285.062220	43389.578567	3925.821113	22760.209423
28.038500	0.000851	-0.000186	-0.003151	-0.001717	6332.369479	43647.673915	3931.545087	22938.141602
28.539000	-0.000615	-0.000017	-0.004157	0.000605	6303.072688	43446.831444	3923.850687	22831.663671
29.037000	-0.000215	-0.000174	-0.002359	0.000791	6304.722436	43414.987765	3927.570428	22823.155967
29.539500	0.000881	-0.000342	-0.003916	0.000275	6317.164868	43447.292654	3925.167230	22846.755815
30.037000	-0.001238	0.000125	-0.003336	0.000566	6298.581905	43463.733153	3925.833662	22833.445767
30.537500	-0.000808	0.000244	-0.001205	0.000844	6299.746511	43448.873689	3930.118927	22820.724099
31.036000	0.002169	0.000322	-0.007457	0.001455	6318.001897	43399.288171	3914.337480	22792.802238
31.538500	-0.001872	0.000695	-0.003472	0.000995	6290.409944	43476.827613	3924.529736	22813.813731
32.035500	-0.003102	-0.000003	-0.004572	0.003103	6264.903918	43216.344919	3917.164411	22717.700265
32.552500	-0.001159	-0.000489	-0.003722	0.000102	6302.755535	43449.708436	3926.013976	22854.665003
33.036500	0.000499	-0.000314	-0.004986	0.001507	6304.703562	43335.367149	3919.872120	22790.423040
33.536500	-0.001580	-0.000510	0.000871	0.000553	6296.042310	43405.742154	3935.618399	22834.014259
34.037000	0.001285	0.001088	-0.002633	0.001091	6313.981086	43504.456303	3926.244485	22809.438628
34.538000	0.000030	0.000507	0.000426	0.000636	6307.805425	43492.706908	3934.390885	22830.233547
35.037000	0.000936	-0.000386	-0.001198	-0.000018	6319.853577	43470.446982	3932.133522	22860.158538
35.537500	-0.003179	0.000450	-0.001091	0.002355	6270.018039	43327.636362	3926.886111	22751.759146
36.035000	-0.001129	0.000221	-0.003709	0.002319	6285.959181	43309.708340	3920.939305	22753.384702
36.535500	-0.002232	0.000205	0.002735	0.001840	6281.173034	43352.648144	3936.963276	22775.211657
37.036000	-0.001842	-0.000308	-0.004226	0.002207	6281.356290	43271.040545	3920.008935	22758.492361
37.536500	-0.000172	0.000409	-0.001011	0.002551	6291.515261	43305.601438	3926.619091	22742.824958
38.036500	-0.001979	0.000103	-0.003605	0.002161	6280.663139	43313.417131	3921.542458	22760.610338
38.536500	-0.002181	0.000008	-0.000489	0.001639	6283.109253	43353.086337	3929.936650	22784.409229
39.040000	-0.002183	-0.000042	0.001654	0.001911	6281.013148	43323.161928	3934.279907	22771.978770
39.537000	-0.000554	0.000346	-0.002143	0.001850	6293.963449	43364.843715	3925.621864	22774.764328
40.034500	-0.000537	0.000061	-0.000727	0.001955	6293.293866	43328.620030	3928.653088	22769.990832
40.535000	-0.001242	0.000079	-0.003201	0.001473	6291.579442	43375.002553	3924.052415	22791.967651
41.035500	-0.001767	0.000933	-0.002371	0.003190	6274.420430	43295.013471	3922.013324	22713.750044
41.535500	-0.001168	-0.000015	-0.003343	0.001830	6289.403642	43333.153553	3922.904016	22775.681066
42.036000	-0.001052	0.000807	-0.002205	0.002423	6285.751716	43354.421753	3924.159932	22748.664149
42.536000	-0.003144	-0.000000	-0.003928	0.001501	6276.797619	43365.122147	3922.317233	22790.714851
43.036500	-0.000682	0.000213	-0.000322	0.001962	6292.127086	43342.086930	3929.573904	22769.676039
43.536500	-0.001606	-0.000415	-0.009146	0.001185	6290.995879	43355.876134	3911.105423	22805.120104
44.037000	0.001615	0.000658	0.002273	0.002076	6308.920623	43372.809062	3935.337780	22764.461018
44.537000	0.000412	0.000053	-0.004149	0.002205	6298.657796	43304.610043	3920.190007	22758.561337
45.037500	-0.000973	0.000190	-0.002082	0.000067	6304.453704	43516.120278	3929.885938	22856.252057
45.535500	0.000439	0.000010	-0.002984	0.000943	6308.593292	43417.892076	3925.776925	22816.208846
46.035000	-0.000160	-0.000067	0.000611	-0.000149	6312.394284	43512.455231	3936.651242	22866.184561
46.547000	0.001125	0.000821	-0.001599	0.000995	6313.489324	43488.522753	3928.856090	22813.825798
47.036000	-0.000409	0.000398	-0.003735	0.004543	6274.454522	43120.380521	3915.785502	22652.319569
47.536500	-0.000217	0.001464	-0.001906	0.002105	6294.595581	43445.022477	3925.580912	22763.137019
48.036500	-0.001857	-0.001260	-0.004515	-0.000568	6302.541448	43440.330275	3925.728331	22885.376242
48.548500	-0.000808	0.000003	0.001184	0.000173	6304.914289	43488.919088	3937.237198	22851.427755
49.040000	-0.001275	0.000118	0.000933	0.004184	6270.585396	43127.645594	3927.336837	22668.597730
49.537500	-0.000982	0.000910	-0.002601	0.003126	6280.909292	43298.761997	3921.632021	22716.668650
50.054500	-0.000514	-0.000196	0.000161	0.000376	6305.610158	43451.505373	3934.377665	22842.119550
50.535000	0.000930	0.000763	0.002042	0.000518	6315.667743	43527.611181	3938.433470	22835.637409
51.035000	-0.001993	-0.000612	-0.002376	0.003431	6270.853733	43129.713328	3921.446216	22702.792936
51.535500	0.000183	-0.000155	-0.001928	-0.000192	6315.377221	43508.217792	3930.843953	22868.144583
52.035500	0.002654	0.000103	-0.000505	-0.001528	6344.933307	43657.014778	3937.265085	22929.483437
52.536000	0.000824	-0.000034	-0.001515	0.003165	6294.448641	43207.653902	3924.038369	22714.857194
53.037000	-0.004709	-0.004922	0.003349	0.024378	6095.203721	40864.432430	3887.076067	21773.292242
53.539500	0.027598	-0.009848	0.006454	0.207978	5172.509279	27542.149143	3559.423202	15288.287388
54.034500	0.002328	-0.014693	-0.003926	-0.052908	6767.371916	47227.333597	4055.622938	25437.040999
54.535000	-0.015676	-0.019250	-0.016863	-0.062971	6698.358388	47791.181184	4048.154451	25963.837556
55.035000	-0.003374	-0.038053	-0.005318	-0.197226	8199.483013	61420.980412	4496.804348	34295.726274
55.535500	0.003838	-0.043525	0.001537	-0.211440	8464.537075	62608.248188	4575.013011	35338.202554
56.035500	0.000443	-0.032391	-0.000933	-0.186878	8121.251004	60794.402712	4475.349950	33557.963139
56.536000	-0.003191	-0.024099	-0.000280	-0.158827	7757.999324	58225.350167	4380.478169	31644.308078
57.036000	-0.008171	-0.016813	-0.008402	-0.111392	7212.339346	53351.714795	4205.531133	28676.679796
57.536500	-0.006171	-0.012485	-0.013776	-0.109298	7211.424153	53611.317844	4183.675068	28553.020981
58.039000	-0.010980	-0.008991	-0.011670	-0.110315	7174.452401	54139.356574	4192.770755	28613.013755
58.537000	-0.009995	-0.009439	-0.016726	-0.122658	7305.841580	55558.568058	4214.245983	29352.484055
59.035000	-0.010469	-0.010659	-0.019957	-0.124860	7323.180637	55677.483719	4211.192226	29486.636586
59.535000	-0.004886	-0.008548	-0.013837	-0.118154	7311.903454	55123.274068	4209.454926	29080.204711
60.035000	-0.003229	-0.005062	-0.009740	-0.096555	7116.520201	52995.453191	4158.661929	27813.055197
60.535500	-0.000554	-0.003317	-0.010004	-0.079208	6978.397539	51232.450883	4109.579395	26840.054119
61.036000	-0.006267	-0.003499	-0.017173	-0.047929	6650.164741	47864.278017	4009.094376	25180.834213
61.536500	-0.005058	-0.004314	-0.012926	-0.050750	6684.585881	48071.905051	4026.906203	25325.624881
62.036500	-0.007670	-0.004588	-0.012253	-0.059924	6741.316468	49004.362654	4052.211237	25803.061568
62.539500	-0.004473	-0.002644	-0.014161	-0.013765	6385.020756	44554.498508	3933.957373	23500.079858
63.034500	-0.013538	-0.006108	-0.026377	-0.024998	6402.160005	45303.887706	3931.672056	24038.159510
63.534500	-0.009466	-0.002084	-0.013954	0.000265	6238.170289	43286.446234	3902.304538	22847.224383
64.034500	-0.017345	-0.003098	-0.022867	0.013017	6086.011823	42030.590758	3854.676947	22271.858254
64.535000	-0.014947	-0.001537	-0.019176	0.007865	6140.856489	42638.000530	3873.830347	22502.273033
65.035500	-0.014992	-0.001857	-0.017047	0.003732	6170.948608	42987.252496	3887.630695	22689.096264
65.548500	-0.011244	-0.000825	-0.020334	-0.002987	6249.314563	43706.766228	3895.281751	22996.680339
66.042000	-0.012467	-0.000763	-0.016223	-0.004901	6254.556651	43892.210993	3908.855428	23085.149422
66.536000	-0.013627	0.000299	-0.018330	-0.006304	6256.397907	44124.827746	3907.258179	23150.262732
67.036000	-0.014229	0.000117	-0.014995	-0.007844	6263.527546	44253.472804	3918.363833	23221.969801
67.537000	-0.014749	0.000371	-0.021013	-0.008159	6261.972218	44307.523766	3905.386096	23236.668133
68.034500	-0.015907	0.000674	-0.018622	-0.007152	6245.547119	44240.679005	3908.519588	23189.712660
68.534500	-0.014148	0.000486	-0.019729	-0.005575	6246.925912	44073.575974	3902.451647	23116.414832
69.035000	-0.018904	0.000342	-0.018065	0.001846	6156.002699	43364.870467	3889.560927	22774.963342
69.535000	-0.015490	0.000051	-0.017757	-0.000550	6199.065673	43560.769219	3895.592649	22884.560513
70.035500	-0.016351	-0.000200	-0.012284	0.000734	6183.095972	43417.879149	3905.014950	22825.762875
70.536000	-0.016967	0.000350	-0.021311	0.002694	6164.029201	43286.924875	3880.496483	22736.318788
71.036000	-0.016144	0.000864	-0.018676	0.005218	6151.500651	43101.048785	3880.741107	22621.739605
71.536000	-0.015992	0.000152	-0.017593	0.006932	6140.030281	42877.813343	3879.351836	22544.295881
72.039500	-0.017319	0.000640	-0.021740	0.008682	6117.571125	42762.212500	3866.461046	22465.564260
72.534500	-0.019939	0.000224	-0.020299	0.009854	6090.104917	42617.198720	3867.043611	22412.975413
73.037500	-0.020349	-0.000165	-0.019297	0.016954	6036.416458	41940.462450	3853.888660	22097.589778
73.534500	-0.017502	-0.000555	-0.019409	0.012198	6090.777861	42333.617765	3863.892631	22308.304874
74.035000	-0.019025	0.000440	-0.014495	0.014526	6063.127508	42213.157177	3869.507746	22204.884577
74.535000	-0.017176	0.001195	-0.016454	0.016027	6065.616014	42145.898301	3862.000494	22138.472565
75.035500	-0.021343	0.000691	-0.020719	0.021829	5995.101901	41582.032696	3840.496347	21883.992982
75.535500	-0.016712	0.001658	-0.020052	0.018653	6050.186396	41951.568334	3848.648306	22022.889048
76.036500	-0.017488	0.001943	-0.019947	0.020434	6032.033632	41817.707149	3845.083421	21944.869827
76.536500	-0.016854	0.001611	-0.017245	0.021047	6032.181413	41733.475263	3849.527362	21918.109528
77.042000	-0.016386	0.002225	-0.020443	0.027134	5992.672932	41248.760789	3829.941363	21654.281095
77.537000	-0.015753	0.001832	-0.016934	0.023666	6021.459927	41520.346474	3844.619251	21804.132588
78.037000	-0.014531	0.002743	-0.018780	0.025303	6018.536725	41456.085057	3837.262189	21733.271288
78.534500	-0.014989	0.002391	-0.013836	0.025287	6015.421918	41426.310227	3847.757838	21733.940313
79.039500	-0.018222	0.001959	-0.023265	0.031213	5951.628936	40868.360950	3815.652711	21479.569560
79.535500	-0.017552	0.002084	-0.022239	0.027522	5981.833558	41202.263806	3825.393657	21637.595251
80.036000	-0.013989	0.002706	-0.022318	0.026795	6011.852207	41321.070006	3826.742579	21668.902928
80.536000	-0.013841	0.002031	-0.012762	0.026319	6016.241752	41303.533448	3847.847401	21689.424986
81.036500	-0.014667	0.002931	-0.010932	0.026878	6006.503396	41333.584000	3850.556229	21665.331664
81.539500	-0.013553	0.002619	-0.014999	0.027238	6011.799784	41274.321379	3841.154205	21649.823024
82.039000	-0.016109	0.002820	-0.020098	0.025748	6004.309660	41423.465590	3833.560489	21714.022521
82.537500	-0.014738	0.002565	-0.014958	0.025619	6014.854066	41412.454152	3844.670118	21719.630056
83.034500	-0.016163	0.002735	-0.014594	0.030239	5972.600601	41021.177806	3835.685615	21521.137379
83.535000	-0.013886	0.002076	-0.018983	0.025102	6024.500820	41414.821448	3837.258213	21741.944468
84.039500	-0.013195	0.002465	-0.013620	0.023868	6038.118184	41558.533522	3851.244522	21795.385559
84.535500	-0.016169	0.001647	-0.022140	0.022673	6025.532023	41592.012785	3835.727238	21847.269620
85.036000	-0.013815	0.002955	-0.015367	0.023488	6036.421399	41635.801362	3848.328474	21811.876750
85.536000	-0.013191	0.002953	-0.023177	0.023498	6040.771270	41634.792114	3831.824549	21811.437066
86.037000	-0.011455	0.002041	-0.017336	0.021770	6065.452916	41707.371579	3847.794435	21886.571194
86.536500	-0.013364	0.003381	-0.015447	0.022993	6043.133933	41717.743425	3849.212177	21833.363013
87.036500	-0.013350	0.003128	-0.015543	0.022557	6046.332982	41734.146716	3849.938788	21852.338236
87.537000	-0.012778	0.003063	-0.017786	0.022383	6051.640290	41743.857400	3845.536091	21859.911696
88.035000	-0.011686	0.002963	-0.013422	0.022641	6057.587437	41711.964941	3854.293992	21848.686928
88.534500	-0.012770	0.003314	-0.015313	0.023068	6046.817876	41705.112499	3849.338630	21830.105944
89.035500	-0.014415	0.003450	-0.014093	0.022420	6039.735273	41775.001777	3853.329746	21858.281024
89.536000	-0.011602	0.003291	-0.019196	0.021985	6062.872313	41799.631433	3843.390687	21877.240245
90.036000	-0.011464	0.003931	-0.015562	0.022207	6062.266961	41837.004078	3850.644656	21867.562702
90.536000	-0.013013	0.003657	-0.012474	0.022075	6052.156163	41824.268635	3857.541990	21873.283647
91.039500	-0.013612	0.004232	-0.017789	0.021939	6048.860916	41887.855340	3846.471040	21879.212840
91.540000	-0.012028	0.004249	-0.013924	0.021157	6065.750602	41959.461738	3856.400338	21913.334466
92.037500	-0.013620	0.004578	-0.017102	0.021187	6054.164123	41986.193717	3849.535177	21912.016577
92.535000	-0.013250	0.003147	-0.016543	0.019575	6068.319743	42002.438658	3854.174012	21982.466522
93.037500	-0.015818	0.003321	-0.016845	0.024127	6017.750835	41611.548375	3843.830809	21784.149602
93.535000	-0.017389	0.002948	-0.015007	0.019301	6040.769738	42009.159190	3858.061518	21994.488605
94.035500	-0.015900	0.003126	-0.015398	0.017796	6062.091017	42160.441209	3860.460653	22060.525359
94.536000	-0.015318	0.002702	-0.019623	0.017396	6069.111711	42158.333431	3852.245881	22078.121050
95.036500	-0.014759	0.004196	-0.019358	0.020854	6048.419254	41981.844766	3845.443601	21926.544918
95.539500	-0.017530	0.003444	-0.018556	0.017364	6053.540094	42228.152523	3854.600914	22079.562722
96.037000	-0.018294	0.002585	-0.016256	0.015649	6060.327679	42305.468905	3863.246943	22155.187651
96.537000	-0.017660	0.002527	-0.021381	0.015118	6068.656165	42348.216630	3853.359577	22178.667176
97.034500	-0.019406	0.002651	-0.016544	0.016937	6043.230773	42195.178617	3859.844573	22098.367060
97.535000	-0.016539	0.003783	-0.016164	0.014742	6079.396426	42496.265277	3865.411144	22195.324951
98.035000	-0.015933	0.001918	-0.015267	0.013779	6090.695250	42414.416838	3869.452971	22238.017786
98.535500	-0.017930	0.002117	-0.015123	0.013372	6079.245335	42469.384524	3870.652461	22256.063937
99.035500	-0.016811	0.002449	-0.019337	0.015445	6072.399843	42311.628929	3857.042877	22164.213882
99.536000	-0.016704	0.001680	-0.015970	0.012572	6093.836145	42502.290094	3870.549678	22291.627723
100.035500	-0.015191	0.001663	-0.018003	0.012442	6105.720311	42512.641322	3866.411453	22297.427030
100.536500	-0.017077	0.001152	-0.020918	0.011900	6095.995986	42515.428720	3861.274262	22321.577864
101.039500	-0.016817	0.001280	-0.015958	0.014619	6078.279202	42280.569404	3866.124827	22200.744882
101.536500	-0.015720	0.001670	-0.018245	0.012304	6102.889997	42525.826677	3866.185609	22303.574003
102.037500	-0.015757	0.001437	-0.024213	0.012470	6101.418514	42489.560346	3852.965347	22296.173389
102.535000	-0.015368	0.000469	-0.017718	0.012035	6107.383004	42441.101868	3867.913355	22315.539202
103.035000	-0.017836	0.001564	-0.023849	0.014585	6071.214633	42309.303637	3849.225105	22202.253184
103.535000	-0.016970	0.000465	-0.017781	0.011688	6098.298766	42472.283782	3868.530864	22331.020559
104.035500	-0.014805	0.000603	-0.018045	0.011589	6114.712847	42493.776435	3868.172404	22335.440037
104.536500	-0.015302	0.000795	-0.021249	0.011857	6109.157755	42486.909473	3860.653000	22323.507023
105.039500	-0.017518	-0.000352	-0.015011	0.011811	6093.460097	42387.026956	3874.308786	22325.552595
105.536500	-0.016141	0.000807	-0.016075	0.012737	6096.715521	42408.113533	3869.962069	22284.303089
106.039500	-0.016449	0.000398	-0.013981	0.011485	6103.538285	42484.580226	3877.281484	22340.064332
106.542000	-0.015758	0.000772	-0.018040	0.012060	6104.379464	42466.317485	3867.159701	22314.422702
107.035000	-0.016244	0.000372	-0.016231	0.011626	6104.000995	42469.458480	3872.045951	22333.779104
107.535000	-0.015173	0.001129	-0.015943	0.012536	6105.174397	42455.591090	3870.690624	22293.265101
108.035000	-0.017214	-0.000796	-0.016312	0.010680	6103.828757	42449.233714	3873.936436	22376.012940
108.536000	-0.017421	-0.000532	-0.018187	0.010336	6104.821225	42504.527678	3870.591232	22391.395390
109.036000	-0.014967	0.000092	-0.015071	0.010611	6120.643936	42536.229010	3876.807778	22379.095389
