sample name	sample
index	424
start time	 03-08-2021  11:48:22 AM
880	-0.026669
Peak Time (s)	92.536
Peak Height 	-0.02667
calc peak height	90,93
Baseline Time (s)	10.035
Baseline Value 	-0.001278
subtract baseline	10,4
Abs	-0.014791
Peak Time (s)	90.037
Peak Height 	-0.01479
calc peak height	90,93
Baseline Time (s)	9.537
Baseline Value 	0.001866
subtract baseline	10,3
PK_550	-0.003506
Peak Time (s)	92.536
Peak Height 	-0.003506
calc peak height	90,93
Baseline Time (s)	10.035
Baseline Value 	1.9716E-4
subtract baseline	10,2
PK_880	-0.011875
Peak Time (s)	90.037
Peak Height 	-0.01188
calc peak height	90,93
Baseline Time (s)	8.54
Baseline Value 	0.001522
subtract baseline	10,1


Time (s)	A880-A510	A880-A775	A880-A975	A880	I510	I775	I975	I880	
0.037000	-0.004536	-0.000494	-0.004969	0.006123	6890.470060	46453.019136	3973.234875	24491.837976
0.535500	-0.003754	-0.000642	-0.005243	0.004282	6914.767408	46623.044185	3977.289785	24583.666761
1.035500	-0.002215	0.000235	-0.004605	0.003181	6939.366147	46822.594599	3981.808709	24638.761957
1.535000	-0.001112	-0.000447	-0.004236	-0.000184	6981.347174	47094.839890	3991.570982	24808.069088
2.036000	-0.001252	0.000130	-0.001856	0.004172	6939.103294	46711.950164	3986.393597	24589.148175
2.536000	0.000359	0.000859	-0.003670	0.000499	6988.792732	47158.256837	3991.263768	24773.595033
3.036500	-0.000393	0.000297	-0.003825	-0.001259	6998.326043	47280.339477	3995.483741	24862.475287
3.537000	-0.000525	0.000630	-0.000561	0.000520	6980.240326	47132.757149	3999.400321	24772.537579
4.037000	-0.001297	0.000070	-0.001520	0.000575	6972.437892	47070.128604	3996.722151	24769.760597
4.537000	-0.002202	-0.000487	-0.001197	0.000456	6965.046190	47025.743447	3997.891965	24775.797962
5.035000	-0.002016	-0.000641	-0.000994	0.000157	6969.610246	47040.463932	3999.216478	24790.886097
5.535000	-0.000762	0.000316	-0.001892	0.000507	6978.126336	47102.191756	3995.921315	24773.220620
6.035500	-0.001732	-0.000106	0.001411	-0.000045	6974.178354	47115.356841	4006.127772	24801.045171
6.538500	-0.001478	-0.000215	-0.000686	-0.000338	6979.350678	47134.196496	4001.340778	24815.873145
7.039000	-0.002219	0.000343	-0.001491	0.000258	6966.739368	47130.244612	3997.635462	24785.746826
7.539500	-0.001111	-0.000027	-0.002995	-0.000457	6983.930347	47165.390549	3995.555109	24821.880249
8.036500	-0.000651	0.000404	-0.002700	-0.000003	6983.994380	47163.059453	3995.136402	24798.941331
8.539500	0.000000	-0.000504	0.003437	-0.000287	6992.841557	47099.541889	4012.178343	24813.314637
9.037500	-0.000850	-0.000485	0.002189	-0.000240	6984.355111	47096.691540	4008.720286	24810.940074
9.537500	0.000490	0.000235	0.000000	0.000161	6993.233366	47129.137073	4001.835674	24790.642838
10.035000	-0.001959	0.000000	-0.001537	0.000000	6971.618601	47121.606916	3998.197303	24798.794238
10.538000	0.000513	-0.000113	-0.001384	-0.000384	6998.617256	47149.268015	3999.616853	24818.199460
11.035500	-0.001420	0.000061	0.001052	0.000290	6973.971135	47098.309270	4004.284918	24784.158931
11.536000	0.000521	0.000613	-0.003575	0.000034	6994.729948	47180.613553	3992.736664	24797.068722
12.036000	0.000476	0.000634	-0.002122	0.000023	6994.408200	47183.904073	3996.592170	24797.642781
12.536500	-0.001518	-0.000364	-0.002014	-0.000987	6985.099055	47185.090239	3999.544349	24848.700137
13.039500	0.000369	0.000715	0.000185	-0.002117	7013.715392	47410.975090	4008.382793	24905.961649
13.537000	-0.000187	0.000340	0.000182	-0.000941	6997.260451	47252.195415	4005.243535	24846.357126
14.034500	0.000999	-0.000211	-0.001806	-0.001385	7012.750939	47241.372815	4001.148586	24868.848020
14.535500	-0.003267	0.000082	-0.002110	0.002253	6938.202429	46901.097110	3990.756702	24685.324574
15.035000	-0.002516	0.000072	-0.003624	-0.000043	6966.787887	47133.307348	3992.812250	24800.977188
15.590000	-0.000947	0.000377	-0.002548	-0.001009	6990.705580	47262.983426	3998.192414	24849.795069
16.036000	-0.000422	-0.000180	0.001630	-0.001550	7000.805261	47261.273300	4010.723711	24877.170518
16.540000	-0.002301	-0.000166	-0.000783	-0.001642	6983.887115	47272.208346	4004.542625	24881.872840
17.036000	-0.000441	0.000154	-0.005442	0.000046	6985.516507	47132.607642	3987.807364	24796.476194
17.536500	0.000928	-0.000368	0.004498	-0.003926	7036.315313	47485.382253	4024.811735	24997.926490
18.036500	0.000586	0.000204	0.001985	0.000086	6994.848479	47133.623958	4007.306382	24794.429477
18.537000	-0.000777	-0.000057	-0.000909	0.000874	6974.521743	47026.891599	3997.546346	24754.720794
19.037500	-0.001710	-0.000329	-0.004236	0.000464	6969.598388	47040.924830	3989.872689	24775.370484
19.534500	-0.001094	0.000786	0.000092	0.001577	6964.918420	47041.156186	3998.333894	24719.313397
20.035500	-0.001480	0.001085	-0.000161	0.001716	6959.987406	47057.438150	3997.301051	24712.345158
20.535500	-0.001525	0.000888	0.000286	0.001415	6962.389052	47067.896166	3999.274626	24727.447711
21.035500	-0.002862	-0.000400	0.002747	0.000618	6957.311790	47018.003102	4007.920363	24767.601890
21.536000	-0.001918	-0.000414	-0.003802	0.000597	6966.392274	47018.844221	3990.662181	24768.683981
22.039000	-0.000498	0.000131	-0.002552	0.001023	6975.743762	47030.825996	3992.825625	24747.187461
22.539500	-0.001584	0.000436	-0.000967	0.001356	6962.389942	47028.031439	3996.122665	24730.443863
23.036500	-0.001018	-0.000266	0.001171	0.000736	6973.553238	47019.685469	4003.418342	24761.670772
23.537500	-0.001172	0.000040	-0.000486	0.000902	6970.533048	47033.892962	3998.590844	24753.286668
24.035000	-0.003384	-0.000954	-0.003681	0.000062	6957.631908	47018.217538	3992.383317	24795.650872
24.534500	-0.000807	0.001467	0.002145	0.002114	6962.567911	47055.831004	4002.346716	24692.341512
25.034500	-0.002909	-0.000994	-0.002809	0.000157	6961.198408	47004.563668	3994.427229	24790.858517
25.535500	0.000322	0.000783	0.002173	0.001691	6977.191133	47029.310952	4003.544037	24713.601265
26.036000	-0.002857	0.000624	0.000815	0.001087	6952.959153	47074.487937	4001.541370	24743.960775
26.536500	-0.000157	0.000287	0.000460	0.000773	6981.320346	47072.061754	4001.433715	24759.778342
27.037000	-0.001776	0.000817	-0.000072	0.001598	6958.308211	47042.124545	3997.844850	24718.267766
27.536500	-0.001487	0.000350	-0.005207	0.001349	6963.367686	47019.993894	3985.017993	24730.805733
28.037500	0.000355	-0.000070	0.000944	-0.003005	7022.050598	47421.542914	4012.779930	24951.062737
28.535000	-0.001299	0.000805	-0.003088	-0.000602	6983.527915	47265.110870	3995.691700	24829.205754
29.043500	-0.000614	0.001105	-0.000060	-0.000342	6987.543192	47269.219201	4003.010668	24816.069058
29.535000	-0.000281	-0.000203	0.002445	-0.001157	6998.426145	47218.918558	4011.853020	24857.305663
30.035500	-0.001297	0.000105	-0.001413	-0.000630	6983.810581	47196.461720	4000.188316	24830.616867
30.535500	-0.001140	0.000222	-0.000762	-0.001002	6988.809926	47246.366522	4002.900001	24849.437833
31.043500	-0.001038	-0.000285	-0.002481	-0.000052	6980.789748	47097.821528	3995.840548	24801.396333
31.536500	-0.002691	0.000025	-0.003014	0.002607	6940.288751	46859.555912	3987.459577	24667.574986
32.039500	-0.001103	0.000831	0.000239	0.000770	6972.430134	47127.814419	4000.856090	24759.933646
32.592000	-0.000016	0.000450	-0.002238	-0.000951	6998.978729	47264.479464	3998.857416	24846.864555
33.037500	-0.002694	0.000219	0.000341	-0.000122	6965.849373	47156.287249	4003.490536	24804.936972
33.538000	-0.002135	0.000748	-0.000743	0.001720	6953.794897	47022.682414	3995.753308	24712.109208
34.035000	-0.000292	0.000908	0.002595	-0.000453	6991.642018	47260.446921	4010.372533	24821.678616
34.535000	-0.002139	0.000194	-0.003923	-0.000623	6975.794109	47204.853779	3993.548776	24830.253613
35.036000	-0.001594	-0.000081	-0.001796	0.001053	6965.141894	47006.262203	3994.735269	24745.686048
35.535500	-0.001686	0.000158	0.000471	0.002060	6954.822494	46928.338108	3998.059730	24695.033937
36.036000	-0.000832	0.000378	-0.004119	0.001801	6965.273271	46976.899639	3986.676402	24708.038725
36.536500	-0.001059	-0.000156	-0.002370	0.001562	6965.388096	46947.023093	3991.889093	24720.075250
37.037000	-0.001566	0.000037	0.000727	0.001592	6960.341764	46963.549726	3999.972834	24718.546433
37.537500	-0.000251	0.000948	-0.001093	0.002220	6966.792976	46992.277569	3993.513160	24686.974105
38.034500	-0.001088	0.000865	-0.000540	0.002255	6958.600956	46980.250841	3994.877644	24685.219022
38.535000	-0.001530	-0.000066	-0.002444	0.001323	6963.210271	46980.387658	3992.321933	24732.108828
39.035000	-0.001606	0.000486	0.002914	0.001911	6956.964499	46976.706333	4004.924220	24702.516885
39.535500	-0.001661	0.000940	-0.000317	0.002023	6955.405464	47011.481461	3996.077134	24696.899360
40.035500	-0.000478	0.000873	-0.003195	0.002006	6966.671580	47006.357364	3988.557867	24697.726966
40.536000	-0.002326	0.000700	-0.004056	0.001790	6951.352983	47010.772929	3986.872502	24708.620215
41.036000	-0.004191	0.000848	0.001504	0.002108	6930.935583	46993.507625	4000.662779	24692.620751
41.539500	-0.001914	-0.000028	-0.002351	0.001337	6959.466543	46982.757316	3992.527053	24731.373683
42.039500	-0.002398	0.000148	-0.000745	0.001724	6951.293643	46961.343527	3995.737162	24711.903938
42.537500	-0.000968	-0.000251	0.001039	0.001685	6965.093078	46924.926609	4000.554591	24713.903876
43.034500	-0.000806	-0.000012	-0.001576	0.002106	6962.646421	46906.428722	3992.545746	24692.711746
43.535000	-0.003743	-0.000314	-0.000365	0.002706	6929.537126	46815.111025	3994.152015	24662.579226
44.035500	-0.003949	-0.000021	-0.003255	0.001546	6938.444432	46962.370390	3989.607167	24720.882647
44.535500	0.002569	0.000957	0.001452	-0.001830	7031.962181	47406.264173	4010.995310	24891.389750
45.036000	-0.000440	0.000808	0.000839	0.000463	6981.581914	47156.775742	4003.263039	24775.449862
45.536500	-0.001512	-0.000206	-0.003921	0.003863	6939.565559	46709.219090	3981.815767	24604.626584
46.042000	0.000333	0.001232	0.000036	0.000078	6992.534681	47239.253446	4002.153337	24794.853160
46.536500	-0.000687	0.001076	0.002156	0.000098	6982.702152	47221.299038	4007.732147	24793.851117
47.036500	-0.000672	0.000270	-0.002202	-0.000112	6984.819106	47160.449139	3996.735371	24804.432728
47.537000	-0.003409	0.000184	-0.005685	0.003046	6929.476353	46831.145082	3979.349395	24645.529800
48.054500	0.000314	0.000180	0.000546	-0.000680	6999.540552	47209.214613	4005.519041	24833.151339
48.535000	-0.003879	-0.000413	-0.002093	0.001972	6935.122554	46879.398645	3991.538001	24699.464489
49.035000	-0.001664	0.000317	-0.001582	0.002009	6955.510111	46949.721721	3992.786171	24697.611638
49.546500	-0.002246	0.000602	-0.001013	0.003697	6934.264082	46807.627066	3989.846386	24612.949350
50.036500	-0.000772	0.000169	0.001198	-0.001102	6993.239443	47251.208305	4008.375357	24854.480397
50.536500	-0.001413	0.000122	0.000677	-0.001024	6986.438715	47238.504338	4006.781121	24850.573228
51.036000	-0.000095	-0.000060	0.003426	-0.001462	7003.069304	47264.535732	4015.293192	24872.714525
51.536000	-0.001835	-0.000581	-0.001333	0.003678	6938.267995	46690.059199	3989.057049	24613.857396
52.036500	-0.006124	-0.003105	0.001647	0.002991	6904.748411	46505.232456	3998.704902	24648.290897
52.537500	-0.022840	-0.010512	-0.012880	0.206229	5305.360059	29747.169562	3546.157342	16509.649764
53.034500	-0.045904	-0.025200	-0.012537	-0.009980	6663.811010	45598.730680	3995.507031	25308.517243
53.534500	-0.034967	-0.058926	-0.011523	-0.197917	8861.484826	63800.858636	4619.316658	37457.689758
54.035500	-0.033315	-0.036235	-0.007659	-0.147433	8225.344731	60025.637905	4439.333717	33662.139332
54.536000	-0.042019	-0.030938	-0.013595	-0.124235	7846.753356	57718.828151	4336.283227	32060.568677
55.035500	-0.035018	-0.030908	-0.019372	-0.143708	8158.951283	60236.713830	4383.866114	33399.153581
55.539000	-0.022970	-0.040842	-0.019162	-0.176236	8729.575968	63298.527384	4503.877934	35773.447579
56.036500	-0.014054	-0.040162	-0.013482	-0.177347	8866.207928	63548.194089	4529.927308	35857.725679
56.536000	-0.008254	-0.032583	-0.015407	-0.166431	8796.102720	63083.992005	4481.013211	35038.945429
57.035000	-0.003981	-0.021053	-0.012767	-0.144872	8565.241728	61710.040637	4411.532257	33481.090289
57.534500	-0.007096	-0.013584	-0.015739	-0.119691	8206.630588	59359.932336	4313.583876	31756.755239
58.035000	-0.007865	-0.015064	-0.014371	-0.121791	8222.979943	59440.495841	4325.311015	31896.755325
58.535500	-0.012298	-0.011261	-0.018779	-0.095299	7855.742236	56562.615890	4224.064838	30179.155323
59.035500	-0.013346	-0.009541	-0.020803	-0.070620	7569.534637	53799.350622	4142.185356	28670.617555
59.536000	-0.019990	-0.009149	-0.018319	-0.060457	7391.525570	52667.036104	4119.560076	28073.935727
60.036000	-0.015137	-0.007944	-0.019139	-0.054055	7375.457002	52075.133353	4098.638357	27705.147380
60.537000	-0.014579	-0.008439	-0.018376	-0.044715	7285.466474	50973.978244	4074.241987	27176.761448
61.036500	-0.017893	-0.007777	-0.021147	-0.044526	7250.067294	51026.279895	4065.932849	27166.156313
61.537000	-0.015727	-0.007247	-0.018592	-0.048120	7308.418626	51485.509677	4083.257975	27368.079478
62.034500	-0.017582	-0.007437	-0.020207	-0.059342	7404.963285	52735.503136	4110.816153	28009.291070
62.534500	-0.018934	-0.009089	-0.019427	-0.070340	7506.596224	53819.548747	4145.447227	28654.003635
63.035000	-0.020634	-0.008607	-0.023795	-0.079003	7581.372803	54903.115259	4158.314211	29173.472464
63.535500	-0.017782	-0.005052	-0.020881	-0.068848	7502.977351	54118.907996	4136.699999	28565.605539
64.035500	-0.014903	-0.004472	-0.027730	-0.067617	7520.548034	54042.076737	4112.999874	28492.847332
64.536000	-0.016542	-0.004584	-0.025032	-0.063866	7463.324647	53589.215244	4109.946788	28272.544244
65.052000	-0.015634	-0.005170	-0.020472	-0.059875	7430.897979	53057.868708	4111.594301	28040.168144
65.536500	-0.019770	-0.004227	-0.029976	-0.049441	7280.751425	51973.649604	4055.032987	27442.691314
66.036500	-0.017059	-0.004264	-0.019750	-0.049901	7312.993898	52021.420900	4085.026294	27468.723541
66.537500	-0.015357	-0.003777	-0.021109	-0.044939	7279.839197	51517.889127	4067.193723	27189.282780
67.034500	-0.017691	-0.003701	-0.021456	-0.040410	7210.857290	51021.971136	4053.618549	26937.021281
67.535500	-0.018357	-0.003115	-0.025828	-0.037454	7174.886850	50760.008006	4033.496014	26773.752538
68.035500	-0.016360	-0.003054	-0.021463	-0.034332	7163.785611	50423.893036	4036.887126	26602.579747
68.535500	-0.022180	-0.004296	-0.022727	-0.033322	7096.932665	50178.044877	4030.693268	26547.417141
69.036000	-0.022780	-0.004735	-0.026364	-0.032313	7081.339604	50020.741812	4018.141624	26492.491897
69.536500	-0.027984	-0.004672	-0.029925	-0.025901	6970.454587	49336.950144	3991.646121	26146.310589
70.037000	-0.023187	-0.005406	-0.021851	-0.032039	7074.753112	49918.291735	4029.588970	26477.580451
70.537000	-0.021559	-0.005457	-0.024502	-0.031416	7084.475905	49845.410547	4020.739026	26443.762362
71.037500	-0.024455	-0.006133	-0.025656	-0.030828	7050.872130	49708.973984	4016.055263	26411.842940
71.534500	-0.027203	-0.004955	-0.024050	-0.026052	6979.240101	49322.707586	4007.583231	26154.388439
72.038000	-0.022918	-0.005560	-0.024626	-0.031772	7074.779644	49872.765401	4021.362182	26463.093261
72.535000	-0.022242	-0.005073	-0.022138	-0.032158	7085.044003	49967.301566	4029.131411	26484.058974
73.036000	-0.022875	-0.004551	-0.017356	-0.031410	7071.689590	49942.817204	4040.124434	26443.421097
73.535500	-0.024656	-0.004657	-0.027308	-0.027000	7012.370198	49456.235938	4001.449414	26205.308082
74.036000	-0.020393	-0.004858	-0.022976	-0.033433	7115.401297	50128.963689	4030.318885	26553.475318
74.539000	-0.019305	-0.004100	-0.019384	-0.033551	7127.180470	50224.361152	4040.436381	26559.918647
75.036500	-0.019214	-0.004311	-0.022181	-0.034427	7136.650983	50296.952555	4035.188678	26607.775185
75.537000	-0.022619	-0.004137	-0.024780	-0.029781	7058.458303	49811.309875	4015.595604	26355.172238
76.037500	-0.017639	-0.003770	-0.020248	-0.035106	7158.797976	50430.233529	4042.330929	26644.902044
76.535000	-0.017065	-0.003942	-0.020663	-0.035487	7168.214584	50453.112374	4042.234911	26665.754420
77.035000	-0.016855	-0.003188	-0.015141	-0.036136	7176.712196	50606.974313	4059.281965	26701.326928
77.535500	-0.018039	-0.003128	-0.020316	-0.030798	7112.664909	50030.806405	4030.388532	26410.251251
78.035500	-0.015717	-0.003771	-0.018639	-0.037247	7199.016999	50665.017754	4052.658124	26762.360131
78.536000	-0.013893	-0.003877	-0.016456	-0.037365	7218.380320	50666.401107	4059.045000	26768.885281
79.039500	-0.016184	-0.003882	-0.016820	-0.038026	7202.120245	50738.511031	4059.867251	26805.247497
79.536500	-0.017033	-0.003975	-0.022650	-0.033852	7152.420777	50270.870806	4032.344757	26576.358794
80.037000	-0.012909	-0.003367	-0.015008	-0.037978	7234.366672	50790.034606	4064.791128	26802.654666
80.540000	-0.012273	-0.003158	-0.019229	-0.038031	7241.270317	50818.956653	4053.196226	26805.556814
81.037000	-0.012964	-0.003494	-0.020215	-0.038155	7235.587653	50795.588620	4050.814374	26812.392335
81.534500	-0.016961	-0.003599	-0.018337	-0.032979	7144.542748	50216.666931	4041.736108	26528.725817
82.035500	-0.013354	-0.004163	-0.016093	-0.038366	7233.781527	50744.997735	4062.842651	26823.993080
82.535500	-0.013323	-0.003173	-0.016295	-0.037763	7228.060226	50787.740333	4060.599869	26790.806958
83.038500	-0.014868	-0.004963	-0.020192	-0.038448	7219.449272	50666.019604	4051.687267	26828.523135
83.535000	-0.013763	-0.004012	-0.020507	-0.038183	7227.858788	50741.525591	4050.084080	26813.923649
84.036500	-0.011787	-0.004215	-0.013102	-0.037764	7243.474082	50673.098128	4069.528032	26790.849912
84.536500	-0.013789	-0.003532	-0.020443	-0.037399	7219.753183	50708.017837	4048.098179	26770.736743
85.036500	-0.013682	-0.004159	-0.020955	-0.036616	7213.006953	50553.137202	4044.534567	26727.718949
85.537500	-0.013556	-0.004198	-0.016443	-0.036427	7212.377045	50528.015500	4056.471249	26717.295858
86.034500	-0.012156	-0.003946	-0.016520	-0.036273	7224.822589	50538.836781	4055.832326	26708.879362
86.535000	-0.014654	-0.004636	-0.012303	-0.036202	7199.197192	50455.366217	4067.387413	26704.937413
87.038000	-0.012742	-0.003580	-0.015216	-0.034163	7197.938166	50347.891708	4053.597135	26593.324961
87.535500	-0.017556	-0.005318	-0.024647	-0.032232	7131.384635	49948.712840	4022.545663	26488.071007
88.035500	-0.012125	-0.004330	-0.016384	-0.034099	7203.435646	50258.994335	4050.192268	26589.823275
88.538500	-0.014276	-0.004472	-0.015574	-0.033235	7173.525054	50149.495178	4050.044420	26542.695022
89.036000	-0.014763	-0.005175	-0.018328	-0.032535	7161.806950	49997.079709	4040.544794	26504.548755
89.536000	-0.012913	-0.003975	-0.016043	-0.031409	7168.946521	50005.083142	4043.723885	26443.356246
90.036500	-0.011875	-0.003573	-0.014791	-0.030200	7167.265448	49917.755214	4043.843640	26377.866805
90.537000	-0.013827	-0.003514	-0.016383	-0.029509	7141.256839	49849.314549	4037.588329	26340.490907
91.037500	-0.012537	-0.003764	-0.019766	-0.028699	7145.966650	49734.915601	4026.188166	26296.755688
91.535000	-0.012265	-0.004346	-0.015348	-0.028664	7148.284203	49668.266398	4038.105310	26294.831340
92.038500	-0.012120	-0.003950	-0.019027	-0.027689	7140.138182	49606.069619	4025.453671	26242.332495
92.536000	-0.013705	-0.003506	-0.018096	-0.026669	7114.664172	49544.070284	4025.211818	26187.485942
93.036500	-0.013637	-0.003608	-0.013741	-0.025817	7107.032246	49441.797583	4034.722925	26141.826047
93.536500	-0.015528	-0.004057	-0.022292	-0.022445	7056.109475	49034.080665	4002.669268	25961.815179
94.036500	-0.012291	-0.003655	-0.016477	-0.024843	7110.647957	49332.497756	4024.653059	26089.660012
94.536500	-0.013723	-0.003417	-0.016958	-0.023830	7086.892027	49249.755920	4020.624675	26035.570196
95.091500	-0.012586	-0.003259	-0.016450	-0.023402	7093.768992	49220.855920	4020.838797	26012.752930
95.534500	-0.013499	-0.003354	-0.022891	-0.023231	7083.268609	49192.644420	4003.166642	26003.673634
96.060000	-0.013879	-0.003538	-0.014583	-0.022256	7070.179322	49069.286625	4022.785796	25951.808042
96.535000	-0.013629	-0.002590	-0.015237	-0.021640	7066.647062	49104.526697	4019.364025	25919.086455
97.035000	-0.012546	-0.002983	-0.016830	-0.020848	7069.439480	48978.559410	4012.961157	25877.051968
97.539000	-0.012885	-0.003425	-0.016792	-0.019205	7050.373894	48757.917072	4008.677768	25790.223816
98.089500	-0.012529	-0.002964	-0.015563	-0.020270	7064.042891	48919.330610	4014.809417	25846.478168
98.536500	-0.012555	-0.002804	-0.018754	-0.019945	7060.663995	48901.933799	4005.425054	25829.315905
