sample name	sample
index	476
start time	 03-11-2021  12:47:38 PM


Wavelength (nm)	Absorbance
494.344910	-0.184200
494.563924	-0.184200
494.782919	-0.184200
495.001897	0.024746
495.220856	-0.135329
495.439797	-0.109140
495.658719	-0.065989
495.877624	-0.020526
496.096510	0.029441
496.315378	-0.030377
496.534227	0.003160
496.753059	0.083679
496.971872	0.083348
497.190667	0.048406
497.409444	0.045089
497.628203	0.041639
497.846943	0.041991
498.065665	0.040154
498.284369	0.039722
498.503055	0.040417
498.721723	0.040621
498.940372	0.041277
499.159003	0.041768
499.377616	0.042024
499.596210	0.042121
499.814787	0.040865
500.033345	0.040533
500.251885	0.041533
500.470406	0.041402
500.688910	0.041060
500.907395	0.040071
501.125862	0.040045
501.344311	0.039577
501.562742	0.039759
501.781154	0.040536
501.999548	0.040914
502.217924	0.039808
502.436282	0.038942
502.654621	0.038385
502.872942	0.038796
503.091245	0.037909
503.309530	0.037083
503.527797	0.036496
503.746045	0.036742
503.964275	0.037252
504.182487	0.037619
504.400681	0.037538
504.618856	0.037886
504.837013	0.037923
505.055152	0.037878
505.273273	0.038693
505.491376	0.039829
505.709460	0.039443
505.927526	0.039128
506.145574	0.039160
506.363604	0.039071
506.581615	0.038568
506.799608	0.038891
507.017583	0.038170
507.235540	0.037566
507.453478	0.036805
507.671399	0.037105
507.889301	0.036898
508.107185	0.036863
508.325050	0.037796
508.542898	0.037840
508.760727	0.037630
508.978538	0.038202
509.196330	0.038909
509.414105	0.039115
509.631861	0.038952
509.849599	0.038685
510.067319	0.038703
510.285021	0.037973
510.502704	0.037971
510.720369	0.037678
510.938016	0.038104
511.155645	0.037181
511.373255	0.036907
511.590848	0.036328
511.808422	0.036548
512.025977	0.036822
512.243515	0.036821
512.461034	0.036961
512.678536	0.036774
512.896018	0.036642
513.113483	0.036783
513.330930	0.036719
513.548358	0.037671
513.765768	0.038420
513.983160	0.038106
514.200533	0.038461
514.417889	0.038103
514.635226	0.038231
514.852545	0.037680
515.069845	0.037711
515.287128	0.037505
515.504392	0.037382
515.721638	0.036639
515.938866	0.036453
516.156075	0.036417
516.373267	0.037609
516.590440	0.037712
516.807594	0.038533
517.024731	0.038705
517.241850	0.038871
517.458950	0.039024
517.676032	0.038876
517.893095	0.039245
518.110141	0.038676
518.327168	0.038026
518.544177	0.037434
518.761168	0.037303
518.978141	0.037725
519.195095	0.037988
519.412031	0.036780
519.628949	0.036505
519.845849	0.035983
520.062731	0.036448
520.279594	0.035762
520.496439	0.036138
520.713266	0.035869
520.930074	0.035256
521.146865	0.034860
521.363637	0.035024
521.580391	0.035564
521.797127	0.035569
522.013844	0.035428
522.230543	0.035454
522.447224	0.035301
522.663887	0.034869
522.880532	0.035107
523.097158	0.035439
523.313766	0.035663
523.530356	0.035465
523.746928	0.035750
523.963481	0.035346
524.180017	0.035426
524.396534	0.035608
524.613032	0.035687
524.829513	0.035440
525.045975	0.035650
525.262420	0.035920
525.478845	0.036178
525.695253	0.036414
525.911643	0.036932
526.128014	0.037516
526.344367	0.037397
526.560702	0.038108
526.777018	0.038580
526.993316	0.037863
527.209597	0.037515
527.425858	0.037536
527.642102	0.037544
527.858328	0.037990
528.074535	0.037440
528.290724	0.037621
528.506894	0.037197
528.723047	0.037099
528.939181	0.037538
529.155297	0.037837
529.371395	0.037821
529.587475	0.037623
529.803536	0.036792
530.019579	0.036709
530.235604	0.036535
530.451611	0.036496
530.667600	0.036442
530.883570	0.036054
531.099522	0.036111
531.315456	0.035586
531.531372	0.035782
531.747269	0.036256
531.963148	0.036613
532.179009	0.036678
532.394852	0.036991
532.610676	0.036924
532.826482	0.037304
533.042271	0.037208
533.258040	0.037543
533.473792	0.036683
533.689525	0.036684
533.905240	0.036753
534.120937	0.036804
534.336616	0.036512
534.552277	0.036452
534.767919	0.036510
534.983543	0.036910
535.199149	0.037180
535.414736	0.038039
535.630306	0.037923
535.845857	0.038073
536.061390	0.038443
536.276904	0.038835
536.492401	0.039186
536.707879	0.039425
536.923339	0.039043
537.138781	0.038602
537.354204	0.038596
537.569610	0.038731
537.784997	0.038896
538.000366	0.038515
538.215716	0.037918
538.431049	0.037531
538.646363	0.037284
538.861659	0.037549
539.076937	0.038081
539.292196	0.038027
539.507438	0.038066
539.722661	0.037809
539.937866	0.037664
540.153052	0.038073
540.368221	0.038437
540.583371	0.038557
540.798503	0.038553
541.013617	0.038139
541.228712	0.038241
541.443789	0.038029
541.658848	0.038294
541.873889	0.038367
542.088912	0.038498
542.303916	0.038423
542.518902	0.038301
542.733870	0.038103
542.948820	0.038319
543.163752	0.038309
543.378665	0.038522
543.593560	0.037885
543.808437	0.038069
544.023295	0.037949
544.238136	0.037595
544.452958	0.037606
544.667762	0.037717
544.882548	0.038130
545.097315	0.037840
545.312064	0.037896
545.526795	0.038424
545.741508	0.038512
545.956203	0.038986
546.170879	0.039552
546.385537	0.039548
546.600177	0.039513
546.814799	0.039040
547.029402	0.039370
547.243988	0.039292
547.458555	0.039604
547.673103	0.039449
547.887634	0.039283
548.102146	0.039299
548.316640	0.039138
548.531116	0.039324
548.745574	0.039424
548.960013	0.039149
549.174435	0.039138
549.388838	0.039099
549.603222	0.039068
549.817589	0.038922
550.031937	0.038690
550.246267	0.038846
550.460579	0.038768
550.674873	0.039050
550.889148	0.039183
551.103405	0.039309
551.317644	0.039035
551.531865	0.038917
551.746068	0.038888
551.960252	0.038625
552.174418	0.038851
552.388566	0.039108
552.602696	0.038725
552.816807	0.038771
553.030900	0.038821
553.244975	0.039030
553.459032	0.039231
553.673070	0.039185
553.887091	0.039282
554.101093	0.039023
554.315077	0.038584
554.529042	0.038639
554.742990	0.038913
554.956919	0.038711
555.170830	0.038408
555.384722	0.038497
555.598597	0.038571
555.812453	0.038551
556.026291	0.038391
556.240111	0.038396
556.453913	0.038473
556.667696	0.038264
556.881461	0.038018
557.095208	0.038372
557.308937	0.038433
557.522647	0.038211
557.736339	0.038470
557.950013	0.038475
558.163669	0.038612
558.377307	0.038762
558.590926	0.038701
558.804527	0.038934
559.018110	0.038640
559.231675	0.038291
559.445221	0.038482
559.658749	0.038347
559.872259	0.039015
560.085751	0.039157
560.299225	0.039078
560.512680	0.039000
560.726117	0.039038
560.939536	0.039238
561.152937	0.039371
561.366319	0.039508
561.579683	0.039696
561.793029	0.039197
562.006357	0.038838
562.219667	0.038780
562.432958	0.038770
562.646231	0.038836
562.859486	0.038704
563.072723	0.038767
563.285941	0.038421
563.499141	0.038415
563.712323	0.038564
563.925487	0.038893
564.138632	0.038899
564.351760	0.039112
564.564869	0.039340
564.777960	0.039424
564.991032	0.039554
565.204087	0.039775
565.417123	0.039726
565.630141	0.039420
565.843140	0.039097
566.056122	0.039079
566.269085	0.039062
566.482030	0.038451
566.694957	0.038300
566.907866	0.038355
567.120756	0.038392
567.333628	0.038229
567.546482	0.038436
567.759318	0.038729
567.972135	0.038566
568.184935	0.038635
568.397716	0.038774
568.610478	0.038832
568.823223	0.038672
569.035949	0.038342
569.248657	0.038215
569.461347	0.038102
569.674019	0.038436
569.886672	0.038564
570.099308	0.038173
570.311925	0.038373
570.524523	0.038297
570.737104	0.038300
570.949666	0.038416
571.162210	0.038680
571.374736	0.038876
571.587244	0.038787
571.799733	0.038778
572.012205	0.039192
572.224658	0.039584
572.437092	0.039634
572.649509	0.039446
572.861907	0.039725
573.074287	0.039999
573.286649	0.040264
573.498993	0.039959
573.711318	0.040391
573.923625	0.040155
574.135914	0.039926
574.348185	0.039920
574.560438	0.040291
574.772672	0.040244
574.984888	0.040106
575.197086	0.039832
575.409266	0.039689
575.621427	0.039079
575.833570	0.039052
576.045695	0.038748
576.257802	0.038550
576.469890	0.038482
576.681961	0.038364
576.894013	0.038228
577.106046	0.038205
577.318062	0.038143
577.530059	0.038279
577.742039	0.038369
577.954000	0.038664
578.165942	0.038998
578.377867	0.038830
578.589773	0.038804
578.801661	0.038913
579.013531	0.039087
579.225382	0.039437
579.437216	0.039635
579.649031	0.039339
579.860828	0.039307
580.072606	0.039393
580.284367	0.039716
580.496109	0.040026
580.707833	0.039784
580.919539	0.039669
581.131227	0.039587
581.342896	0.039593
581.554547	0.040291
581.766180	0.040232
581.977795	0.040084
582.189391	0.039853
582.400969	0.039852
582.612529	0.040214
582.824071	0.040052
583.035595	0.039959
583.247100	0.040009
583.458587	0.039808
583.670056	0.039631
583.881506	0.039831
584.092939	0.039943
584.304353	0.039921
584.515749	0.039705
584.727127	0.039917
584.938486	0.040037
585.149828	0.040046
585.361151	0.039863
585.572456	0.040155
585.783742	0.040089
585.995011	0.040086
586.206261	0.040199
586.417493	0.040518
586.628706	0.040585
586.839902	0.040575
587.051079	0.040928
587.262238	0.041045
587.473379	0.040925
587.684502	0.040799
587.895606	0.040735
588.106692	0.040661
588.317760	0.040266
588.528810	0.040168
588.739841	0.040196
588.950855	0.039700
589.161850	0.039772
589.372827	0.039851
589.583785	0.039940
589.794726	0.039859
590.005648	0.039741
590.216552	0.039891
590.427437	0.040198
590.638305	0.040257
590.849154	0.040669
591.059985	0.040532
591.270798	0.040550
591.481592	0.040458
591.692369	0.040752
591.903127	0.040759
592.113867	0.040787
592.324588	0.040481
592.535292	0.040191
592.745977	0.039722
592.956644	0.039824
593.167293	0.039840
593.377923	0.039531
593.588536	0.039245
593.799130	0.039079
594.009706	0.039375
594.220263	0.039620
594.430803	0.039823
594.641324	0.039833
594.851827	0.039685
595.062312	0.039490
595.272778	0.039880
595.483227	0.040081
595.693657	0.040582
595.904069	0.040301
596.114462	0.040312
596.324838	0.040449
596.535195	0.040453
596.745534	0.040477
596.955855	0.040668
597.166157	0.040595
597.376441	0.040636
597.586707	0.040359
597.796955	0.040280
598.007185	0.040115
598.217396	0.040110
598.427589	0.040015
598.637764	0.040192
598.847921	0.040285
599.058060	0.040107
599.268180	0.039951
599.478282	0.040139
599.688366	0.040262
599.898431	0.040296
600.108479	0.040321
600.318508	0.040274
600.528519	0.040048
600.738511	0.039971
600.948486	0.040334
601.158442	0.040299
601.368380	0.040187
601.578300	0.040152
601.788202	0.039851
601.998085	0.039809
602.207950	0.040135
602.417797	0.040425
602.627626	0.040770
602.837436	0.040833
603.047228	0.041015
603.257002	0.041153
603.466758	0.041200
603.676496	0.041676
603.886215	0.041504
604.095916	0.041618
604.305599	0.041353
604.515264	0.040972
604.724910	0.040938
604.934538	0.041164
605.144148	0.040948
605.353740	0.040868
605.563314	0.040890
605.772869	0.041077
605.982406	0.040780
606.191925	0.041143
606.401425	0.041461
606.610908	0.041475
606.820372	0.041163
607.029818	0.041265
607.239246	0.041268
607.448655	0.041108
607.658047	0.041075
607.867420	0.041239
608.076775	0.041076
608.286111	0.040898
608.495430	0.040811
608.704730	0.041180
608.914012	0.041274
609.123275	0.041172
609.332521	0.041293
609.541748	0.041289
609.750957	0.041118
609.960148	0.041054
610.169321	0.041153
610.378475	0.041183
610.587611	0.041040
610.796729	0.040623
611.005829	0.040833
611.214910	0.040798
611.423974	0.041001
611.633019	0.041283
611.842045	0.041249
612.051054	0.041305
612.260044	0.041402
612.469017	0.041095
612.677970	0.041406
612.886906	0.041319
613.095824	0.041377
613.304723	0.041424
613.513604	0.041363
613.722467	0.041456
613.931311	0.041345
614.140138	0.041291
614.348946	0.041575
614.557736	0.041543
614.766507	0.041504
614.975261	0.041558
615.183996	0.041457
615.392713	0.041363
615.601412	0.041473
615.810092	0.041413
616.018754	0.041322
616.227399	0.041219
616.436024	0.041244
616.644632	0.041170
616.853222	0.041010
617.061793	0.041097
617.270346	0.041295
617.478880	0.041346
617.687397	0.041376
617.895895	0.041373
618.104375	0.041585
618.312837	0.041804
618.521281	0.042234
618.729706	0.042377
618.938113	0.042198
619.146502	0.042132
619.354873	0.042104
619.563226	0.042086
619.771560	0.042494
619.979876	0.042519
620.188174	0.042483
620.396453	0.042375
620.604715	0.042305
620.812958	0.042255
621.021183	0.042428
621.229390	0.042455
621.437578	0.042537
621.645748	0.042258
621.853900	0.042300
622.062034	0.042173
622.270150	0.042106
622.478247	0.042229
622.686326	0.042435
622.894387	0.042249
623.102430	0.042087
623.310454	0.042117
623.518461	0.042111
623.726449	0.041960
623.934418	0.042208
624.142370	0.042265
624.350303	0.042126
624.558218	0.042104
624.766115	0.042233
624.973994	0.042413
625.181855	0.042408
625.389697	0.042515
625.597521	0.042349
625.805327	0.042246
626.013114	0.042214
626.220883	0.042140
626.428634	0.041976
626.636367	0.041900
626.844082	0.041740
627.051778	0.041772
627.259457	0.041812
627.467117	0.041858
627.674758	0.041832
627.882382	0.041752
628.089987	0.041835
628.297574	0.041907
628.505143	0.042207
628.712694	0.042356
628.920226	0.042454
629.127740	0.042410
629.335236	0.042595
629.542714	0.042868
629.750174	0.042979
629.957615	0.042928
630.165038	0.043087
630.372443	0.042969
630.579829	0.042987
630.787198	0.043006
630.994548	0.042927
631.201880	0.043085
631.409194	0.042865
631.616489	0.042935
631.823766	0.043187
632.031025	0.043052
632.238266	0.043087
632.445489	0.043118
632.652693	0.043089
632.859879	0.043268
633.067047	0.043169
633.274197	0.043221
633.481329	0.043244
633.688442	0.043376
633.895537	0.043554
634.102614	0.043600
634.309672	0.043770
634.516713	0.043801
634.723735	0.043845
634.930739	0.043832
635.137724	0.043791
635.344692	0.043935
635.551641	0.044106
635.758572	0.044013
635.965485	0.044175
636.172379	0.044154
636.379256	0.044060
636.586114	0.043963
636.792954	0.043996
636.999775	0.043898
637.206579	0.043810
637.413364	0.043402
637.620131	0.043616
637.826880	0.043513
638.033610	0.043513
638.240323	0.043514
638.447017	0.043385
638.653692	0.043452
638.860350	0.043567
639.066990	0.043521
639.273611	0.043597
639.480214	0.043625
639.686798	0.043535
639.893365	0.043745
640.099913	0.043852
640.306443	0.044092
640.512955	0.043978
640.719449	0.043973
640.925924	0.044146
641.132381	0.044431
641.338820	0.044333
641.545241	0.044303
641.751644	0.044207
641.958028	0.044310
642.164394	0.044436
642.370742	0.044559
642.577071	0.044683
642.783383	0.044678
642.989676	0.044406
643.195951	0.044547
643.402207	0.044839
643.608446	0.044878
643.814666	0.044905
644.020868	0.044729
644.227052	0.044834
644.433218	0.044809
644.639365	0.044877
644.845494	0.045006
645.051605	0.045011
645.257698	0.044873
645.463772	0.044661
645.669828	0.044666
645.875866	0.044685
646.081886	0.044693
646.287888	0.044687
646.493871	0.044559
646.699836	0.044448
646.905783	0.044597
647.111712	0.044568
647.317622	0.044811
647.523514	0.044758
647.729388	0.044998
647.935244	0.045047
648.141082	0.045036
648.346901	0.045054
648.552702	0.045062
648.758485	0.045048
648.964250	0.045203
649.169996	0.044955
649.375724	0.045086
649.581434	0.045077
649.787126	0.045001
649.992800	0.045054
650.198455	0.045184
650.404092	0.045419
650.609711	0.045282
650.815311	0.045182
651.020894	0.045598
651.226458	0.045685
651.432004	0.045526
651.637532	0.045611
651.843041	0.045688
652.048532	0.045600
652.254006	0.045552
652.459460	0.045654
652.664897	0.045766
652.870315	0.045599
653.075716	0.045597
653.281097	0.045719
653.486461	0.045803
653.691807	0.045911
653.897134	0.045912
654.102443	0.045841
654.307734	0.045773
654.513006	0.045638
654.718261	0.045576
654.923497	0.045458
655.128715	0.045416
655.333915	0.045313
655.539096	0.045255
655.744259	0.045343
655.949404	0.045433
656.154531	0.045324
656.359640	0.045438
656.564730	0.045533
656.769802	0.045650
656.974856	0.045646
657.179892	0.045622
657.384909	0.045530
657.589908	0.045500
657.794889	0.045475
657.999852	0.045566
658.204797	0.045471
658.409723	0.045656
658.614631	0.045632
658.819521	0.045638
659.024393	0.045632
659.229246	0.045855
659.434081	0.045902
659.638898	0.045945
659.843697	0.046065
660.048478	0.046164
660.253240	0.045971
660.457984	0.045937
660.662710	0.045932
660.867417	0.045979
661.072107	0.045707
661.276778	0.045752
661.481431	0.045763
661.686066	0.045793
661.890682	0.045838
662.095281	0.045848
662.299861	0.045970
662.504422	0.046268
662.708966	0.046232
662.913491	0.046505
663.117999	0.046530
663.322488	0.046563
663.526958	0.046608
663.731411	0.046534
663.935845	0.046575
664.140261	0.046620
664.344659	0.046467
664.549038	0.046658
664.753400	0.046639
664.957743	0.046722
665.162068	0.046886
665.366375	0.046848
665.570663	0.046854
665.774933	0.046992
665.979185	0.046840
666.183419	0.046835
666.387635	0.046677
666.591832	0.046646
666.796011	0.046603
667.000172	0.046500
667.204315	0.046422
667.408439	0.046498
667.612545	0.046431
667.816634	0.046681
668.020703	0.046955
668.224755	0.047140
668.428788	0.047140
668.632803	0.047131
668.836800	0.047170
669.040779	0.047240
669.244739	0.047179
669.448681	0.047174
669.652605	0.046953
669.856511	0.046659
670.060399	0.046683
670.264268	0.046804
670.468119	0.046735
670.671952	0.046740
670.875767	0.046788
671.079563	0.046927
671.283341	0.046874
671.487101	0.046917
671.690843	0.047072
671.894567	0.047120
672.098272	0.047144
672.301959	0.047294
672.505628	0.047395
672.709278	0.047447
672.912911	0.047497
673.116525	0.047637
673.320121	0.047843
673.523699	0.047906
673.727258	0.047923
673.930799	0.047862
674.134322	0.047732
674.337827	0.047738
674.541314	0.047782
674.744782	0.047818
674.948232	0.047734
675.151664	0.047631
675.355078	0.047700
675.558474	0.047631
675.761851	0.047657
675.965210	0.047581
676.168551	0.047433
676.371873	0.047529
676.575178	0.047571
676.778464	0.047664
676.981732	0.047655
677.184981	0.047635
677.388213	0.047761
677.591426	0.047740
677.794621	0.048021
677.997798	0.048122
678.200956	0.048121
678.404097	0.047903
678.607219	0.047992
678.810323	0.048208
679.013408	0.048214
679.216476	0.048162
679.419525	0.048122
679.622556	0.048171
679.825569	0.048199
680.028563	0.048112
680.231540	0.048383
680.434498	0.048176
680.637438	0.048079
680.840359	0.047939
681.043263	0.047957
681.246148	0.048104
681.449015	0.048140
681.651864	0.048068
681.854694	0.048017
682.057506	0.048069
682.260301	0.048198
682.463076	0.048245
682.665834	0.048398
682.868573	0.048463
683.071295	0.048523
683.273998	0.048510
683.476682	0.048704
683.679349	0.048817
683.881997	0.048741
684.084627	0.048707
684.287239	0.048644
684.489833	0.048694
684.692408	0.048578
684.894965	0.048450
685.097504	0.048598
685.300025	0.048639
685.502527	0.048636
685.705012	0.048746
685.907478	0.048934
686.109925	0.049062
686.312355	0.049102
686.514766	0.049331
686.717159	0.049556
686.919534	0.049578
687.121891	0.049577
687.324230	0.049828
687.526550	0.049703
687.728852	0.049882
687.931136	0.049928
688.133401	0.049952
688.335649	0.050118
688.537878	0.049947
688.740089	0.049654
688.942281	0.049678
689.144456	0.049483
689.346612	0.049511
689.548750	0.049262
689.750870	0.049184
689.952971	0.048911
690.155055	0.048678
690.357120	0.048818
690.559167	0.049015
690.761195	0.049014
690.963206	0.049079
691.165198	0.049052
691.367172	0.049068
691.569128	0.048991
691.771065	0.049216
691.972984	0.049347
692.174885	0.049247
692.376768	0.049147
692.578633	0.049069
692.780479	0.049080
692.982308	0.049119
693.184118	0.049214
693.385909	0.049224
693.587683	0.049269
693.789438	0.049159
693.991175	0.049315
694.192894	0.049419
694.394595	0.049465
694.596277	0.049367
694.797941	0.049344
694.999587	0.049302
695.201215	0.049445
695.402824	0.049508
695.604416	0.049632
695.805989	0.049626
696.007543	0.049576
696.209080	0.049641
696.410598	0.049821
696.612099	0.050121
696.813580	0.050117
697.015044	0.050052
697.216490	0.049996
697.417917	0.049984
697.619326	0.049969
697.820717	0.050106
698.022089	0.050145
698.223444	0.050115
698.424780	0.050042
698.626098	0.050279
698.827397	0.050322
699.028679	0.050544
699.229942	0.050562
699.431187	0.050752
699.632414	0.050761
699.833622	0.050898
700.034813	0.050822
700.235985	0.050806
700.437139	0.050729
700.638274	0.050959
700.839392	0.050858
701.040491	0.050773
701.241572	0.050660
701.442635	0.050611
701.643679	0.050654
701.844706	0.050838
702.045714	0.050727
702.246704	0.050772
702.447675	0.050708
702.648629	0.050670
702.849564	0.050711
703.050481	0.050715
703.251380	0.050833
703.452260	0.050814
703.653122	0.050843
703.853966	0.050922
704.054792	0.050845
704.255600	0.050803
704.456389	0.050786
704.657160	0.050815
704.857913	0.050869
705.058648	0.050761
705.259365	0.050597
705.460063	0.050440
705.660743	0.050373
705.861405	0.050445
706.062048	0.050528
706.262674	0.050386
706.463281	0.050407
706.663870	0.050273
706.864441	0.050250
707.064993	0.050248
707.265527	0.050199
707.466043	0.050188
707.666541	0.050020
707.867021	0.049992
708.067482	0.050069
708.267925	0.050145
708.468350	0.050234
708.668757	0.050325
708.869145	0.050407
709.069516	0.050588
709.269868	0.050836
709.470201	0.050988
709.670517	0.050974
709.870814	0.051204
710.071093	0.050988
710.271354	0.051147
710.471597	0.051318
710.671821	0.051306
710.872028	0.051174
711.072216	0.050977
711.272385	0.050948
711.472537	0.050913
711.672670	0.050628
711.872785	0.050797
712.072882	0.050628
712.272961	0.050401
712.473021	0.050478
712.673063	0.050670
712.873087	0.050778
713.073093	0.050679
713.273081	0.050701
713.473050	0.050999
713.673001	0.050989
713.872934	0.051040
714.072849	0.051189
714.272745	0.051202
714.472623	0.051227
714.672483	0.051169
714.872325	0.051306
715.072148	0.051292
715.271954	0.051137
715.471741	0.051073
715.671509	0.050949
715.871260	0.050834
716.070992	0.050675
716.270707	0.050539
716.470403	0.050617
716.670080	0.050434
716.869740	0.050488
717.069381	0.050488
717.269004	0.050406
717.468609	0.050591
717.668195	0.050673
717.867764	0.050756
718.067314	0.050802
718.266846	0.050726
718.466360	0.050841
718.665855	0.050688
718.865332	0.050817
719.064791	0.050941
719.264232	0.050635
719.463655	0.050601
719.663059	0.050575
719.862445	0.050437
720.061813	0.050408
720.261163	0.050344
720.460494	0.050493
720.659807	0.050335
720.859102	0.050351
721.058379	0.050540
721.257638	0.050427
721.456878	0.050412
721.656100	0.050423
721.855304	0.050377
722.054490	0.050760
722.253657	0.050570
722.452806	0.050580
722.651937	0.050645
722.851050	0.050472
723.050145	0.050530
723.249221	0.050483
723.448279	0.050502
723.647319	0.050495
723.846340	0.050150
724.045344	0.050034
724.244329	0.049957
724.443296	0.049815
724.642245	0.049890
724.841175	0.049897
725.040088	0.049957
725.238982	0.049789
725.437857	0.049826
725.636715	0.049923
725.835554	0.050354
726.034376	0.050270
726.233179	0.050361
726.431963	0.050465
726.630730	0.050388
726.829478	0.050318
727.028208	0.050570
727.226920	0.050539
727.425614	0.050543
727.624289	0.050260
727.822946	0.050463
728.021585	0.050340
728.220206	0.050270
728.418808	0.050471
728.617392	0.050488
728.815958	0.050401
729.014506	0.050564
729.213036	0.050411
729.411547	0.050443
729.610040	0.050175
729.808515	0.050194
730.006972	0.050173
730.205410	0.050095
730.403831	0.050001
730.602233	0.050029
730.800616	0.049926
730.998982	0.049842
731.197329	0.049804
731.395658	0.050116
731.593969	0.050129
731.792262	0.050272
731.990536	0.050234
732.188793	0.050282
732.387031	0.050301
732.585250	0.050262
732.783452	0.050320
732.981635	0.050330
733.179800	0.050187
733.377947	0.050108
733.576076	0.050032
733.774186	0.050148
733.972278	0.050176
734.170352	0.050101
734.368408	0.049983
734.566446	0.049972
734.764465	0.049924
734.962466	0.049864
735.160449	0.049765
735.358413	0.049717
735.556360	0.049488
735.754288	0.049360
735.952198	0.049321
736.150090	0.049231
736.347963	0.049134
736.545818	0.049077
736.743655	0.049015
736.941474	0.049103
737.139275	0.049040
737.337057	0.049008
737.534821	0.049113
737.732567	0.049167
737.930295	0.049294
738.128005	0.049327
738.325696	0.049350
738.523369	0.049405
738.721024	0.049361
738.918660	0.049273
739.116279	0.049205
739.313879	0.049138
739.511461	0.048996
739.709024	0.049024
739.906570	0.049041
740.104097	0.048982
740.301606	0.048800
740.499097	0.048858
740.696569	0.048958
740.894024	0.049024
741.091460	0.049152
741.288878	0.049253
741.486277	0.049305
741.683659	0.049286
741.881022	0.049199
742.078367	0.049304
742.275694	0.049375
742.473002	0.049259
742.670293	0.049202
742.867565	0.048979
743.064819	0.048985
743.262054	0.048908
743.459272	0.048869
743.656471	0.049148
743.853652	0.049158
744.050815	0.049002
744.247959	0.049020
744.445085	0.049037
744.642194	0.049112
744.839283	0.048919
745.036355	0.049017
745.233408	0.048822
745.430444	0.048697
745.627461	0.048616
745.824459	0.048637
746.021440	0.048645
746.218402	0.048517
746.415346	0.048687
746.612272	0.048751
746.809180	0.048681
747.006069	0.049109
747.202940	0.049026
747.399793	0.049230
747.596628	0.049289
747.793444	0.049287
747.990243	0.049453
748.187023	0.049163
748.383784	0.049342
748.580528	0.049105
748.777253	0.049110
748.973960	0.049128
749.170649	0.049095
749.367320	0.049079
749.563973	0.049119
749.760607	0.049164
749.957223	0.049441
750.153821	0.049343
750.350400	0.049647
750.546962	0.049422
750.743505	0.049579
750.940030	0.049532
751.136536	0.049557
751.333025	0.049635
751.529495	0.049436
751.725947	0.049155
751.922381	0.049224
752.118796	0.049027
752.315194	0.049133
752.511573	0.049083
752.707934	0.049143
752.904276	0.049162
753.100601	0.049186
753.296907	0.049449
753.493195	0.049522
753.689465	0.049468
753.885716	0.049576
754.081949	0.049413
754.278164	0.049332
754.474361	0.049277
754.670540	0.049010
754.866700	0.048802
755.062843	0.048644
755.258967	0.048540
755.455072	0.048379
755.651160	0.048258
755.847229	0.048264
756.043280	0.048087
756.239313	0.047951
756.435328	0.048033
756.631324	0.048056
756.827302	0.048069
757.023262	0.048019
757.219204	0.048198
757.415127	0.048083
757.611033	0.048027
757.806920	0.048072
758.002788	0.048141
758.198639	0.048182
758.394471	0.048169
758.590286	0.048081
758.786081	0.048298
758.981859	0.048196
759.177619	0.048404
759.373360	0.048471
759.569083	0.048475
759.764788	0.048445
759.960474	0.048302
760.156143	0.048355
760.351793	0.048397
760.547425	0.048176
760.743038	0.048185
760.938634	0.048169
761.134211	0.048185
761.329770	0.048313
761.525311	0.048474
761.720833	0.048639
761.916338	0.048637
762.111824	0.048501
762.307292	0.048615
762.502741	0.048699
762.698173	0.048562
762.893586	0.048560
763.088981	0.048549
763.284358	0.048441
763.479716	0.048292
763.675057	0.048257
763.870379	0.048425
764.065683	0.048287
764.260968	0.048152
764.456236	0.048382
764.651485	0.048367
764.846716	0.048353
765.041929	0.048364
765.237123	0.048457
765.432299	0.048486
765.627457	0.048417
765.822597	0.048583
766.017719	0.048664
766.212822	0.048419
766.407907	0.048334
766.602974	0.048334
766.798023	0.048142
766.993054	0.048110
767.188066	0.048125
767.383060	0.048085
767.578036	0.048092
767.772993	0.047893
767.967933	0.047917
768.162854	0.047918
768.357757	0.047968
768.552642	0.048005
768.747508	0.048110
768.942356	0.048055
769.137186	0.048139
769.331998	0.048183
769.526792	0.048288
769.721567	0.048436
769.916324	0.048540
770.111063	0.048530
770.305784	0.048682
770.500486	0.048727
770.695171	0.049040
770.889837	0.049029
771.084484	0.048988
771.279114	0.049057
771.473725	0.049103
771.668318	0.049083
771.862893	0.049134
772.057450	0.049255
772.251988	0.049312
772.446509	0.049087
772.641011	0.049100
772.835494	0.049146
773.029960	0.049091
773.224407	0.048954
773.418836	0.048875
773.613247	0.048662
773.807640	0.048474
774.002014	0.048289
774.196370	0.048102
774.390708	0.047985
774.585028	0.047942
774.779330	0.047969
774.973613	0.047927
775.167878	0.048023
775.362125	0.048204
775.556354	0.048215
775.750564	0.048169
775.944756	0.048333
776.138930	0.048438
776.333086	0.048458
776.527223	0.048424
776.721343	0.048438
776.915444	0.048529
777.109526	0.048395
777.303591	0.048298
777.497637	0.048314
777.691666	0.048107
777.885676	0.048121
778.079667	0.047992
778.273641	0.047894
778.467596	0.047774
778.661533	0.047460
778.855452	0.047364
779.049352	0.047326
779.243235	0.047423
779.437099	0.047678
779.630945	0.047723
779.824773	0.047904
780.018582	0.048009
780.212373	0.048065
780.406146	0.048205
780.599901	0.048182
780.793638	0.048414
780.987356	0.048307
781.181056	0.048145
781.374738	0.048057
781.568402	0.047900
781.762047	0.047962
781.955674	0.048053
782.149283	0.047995
782.342874	0.048190
782.536447	0.047943
782.730001	0.048036
782.923537	0.048077
783.117055	0.048138
783.310555	0.048302
783.504036	0.048241
783.697499	0.048178
783.890944	0.048241
784.084371	0.048109
784.277780	0.048247
784.471170	0.048364
784.664542	0.048265
784.857896	0.048309
785.051231	0.048249
785.244549	0.048330
785.437848	0.048504
785.631129	0.048706
785.824392	0.048707
786.017636	0.048612
786.210863	0.048297
786.404071	0.048436
786.597260	0.048434
786.790432	0.048526
786.983585	0.048266
787.176721	0.048227
787.369838	0.048027
787.562936	0.048067
787.756017	0.047987
787.949079	0.048136
788.142123	0.048234
788.335149	0.048173
788.528156	0.048003
788.721146	0.048215
788.914117	0.048031
789.107070	0.047995
789.300005	0.048124
789.492921	0.048190
789.685819	0.048315
789.878699	0.048085
790.071561	0.047921
790.264405	0.048081
790.457230	0.047947
790.650037	0.048152
790.842826	0.048201
791.035597	0.048050
791.228349	0.048153
791.421084	0.047911
791.613800	0.048071
791.806497	0.048226
791.999177	0.048146
792.191838	0.048147
792.384481	0.047871
792.577106	0.048023
792.769713	0.048112
792.962301	0.047999
793.154871	0.047999
793.347423	0.047793
793.539957	0.047864
793.732473	0.047769
793.924970	0.047727
794.117449	0.048035
794.309910	0.047839
794.502353	0.047730
794.694777	0.047933
794.887183	0.048026
795.079571	0.048190
795.271941	0.048259
795.464293	0.048370
795.656626	0.048434
795.848941	0.048279
796.041238	0.048391
796.233516	0.048397
796.425777	0.048261
796.618019	0.048273
796.810243	0.048379
797.002449	0.048401
797.194636	0.048364
797.386805	0.048413
797.578956	0.048400
797.771089	0.048289
797.963204	0.048324
798.155300	0.048325
798.347378	0.048380
798.539438	0.048117
798.731480	0.047742
798.923503	0.047772
799.115509	0.047692
799.307496	0.047528
799.499465	0.047503
799.691415	0.047617
799.883348	0.047700
800.075262	0.047705
800.267158	0.047958
800.459035	0.048149
800.650895	0.047931
800.842736	0.048017
801.034559	0.048270
801.226364	0.048417
801.418150	0.048343
801.609919	0.048329
801.801669	0.048393
801.993401	0.048186
802.185114	0.048312
802.376810	0.048428
802.568487	0.048486
802.760146	0.048599
802.951787	0.048462
803.143409	0.048423
803.335014	0.048484
803.526600	0.048483
803.718168	0.048535
803.909717	0.048477
804.101249	0.048440
804.292762	0.048374
804.484257	0.048202
804.675734	0.048466
804.867192	0.048616
805.058632	0.048503
805.250054	0.048663
805.441458	0.048883
805.632844	0.049103
805.824211	0.049202
806.015561	0.049334
806.206891	0.049424
806.398204	0.049361
806.589499	0.049334
806.780775	0.049431
806.972033	0.049174
807.163273	0.048974
807.354495	0.048790
807.545698	0.048813
807.736883	0.048954
807.928050	0.049115
808.119199	0.049284
808.310329	0.049285
808.501441	0.049319
808.692535	0.049258
808.883611	0.049491
809.074669	0.049614
809.265708	0.049775
809.456729	0.049603
809.647732	0.049606
809.838717	0.049608
810.029683	0.049709
810.220632	0.049732
810.411562	0.049931
810.602474	0.050103
810.793367	0.050105
810.984242	0.050220
811.175100	0.050336
811.365938	0.050321
811.556759	0.050089
811.747562	0.050204
811.938346	0.050245
812.129112	0.050264
812.319860	0.050061
812.510589	0.050041
812.701300	0.050036
812.891994	0.050097
813.082668	0.049947
813.273325	0.050141
813.463964	0.050041
813.654584	0.049992
813.845186	0.049961
814.035769	0.049945
814.226335	0.049969
814.416882	0.049813
814.607411	0.049906
814.797922	0.050038
814.988415	0.049888
815.178889	0.049778
815.369345	0.049704
815.559783	0.049809
815.750203	0.049849
815.940605	0.049775
816.130988	0.049682
816.321353	0.049532
816.511700	0.049393
816.702028	0.049462
816.892339	0.049582
817.082631	0.049744
817.272905	0.049677
817.463161	0.049813
817.653398	0.049939
817.843617	0.050206
818.033819	0.050174
818.224001	0.050439
818.414166	0.050520
818.604312	0.050441
818.794440	0.050589
818.984550	0.050861
819.174642	0.050657
819.364716	0.050436
819.554771	0.050458
819.744808	0.050581
819.934827	0.050439
820.124827	0.050282
820.314810	0.050499
820.504774	0.050340
820.694720	0.050075
820.884647	0.050351
821.074557	0.050629
821.264448	0.050575
821.454321	0.050531
821.644176	0.050689
821.834012	0.050961
822.023831	0.050724
822.213631	0.050744
822.403413	0.050828
822.593176	0.050535
822.782922	0.050463
822.972649	0.050477
823.162358	0.050472
823.352049	0.050342
823.541721	0.050195
823.731376	0.050350
823.921012	0.050310
824.110629	0.050408
824.300229	0.050727
824.489811	0.050625
824.679374	0.050567
824.868919	0.050554
825.058445	0.050521
825.247954	0.050595
825.437444	0.050587
825.626916	0.050629
825.816370	0.050581
826.005806	0.050446
826.195223	0.050439
826.384622	0.050587
826.574003	0.050839
826.763366	0.051041
826.952711	0.051041
827.142037	0.050881
827.331345	0.050817
827.520635	0.050893
827.709906	0.050978
827.899160	0.051224
828.088395	0.051051
828.277612	0.050951
828.466810	0.051011
828.655991	0.051207
828.845153	0.051354
829.034297	0.051437
829.223423	0.051236
829.412531	0.051441
829.601620	0.051308
829.790691	0.051384
829.979744	0.051289
830.168779	0.051043
830.357795	0.050852
830.546793	0.050961
830.735773	0.051047
830.924735	0.051169
831.113679	0.050932
831.302604	0.050922
831.491511	0.051102
831.680400	0.051115
831.869271	0.051224
832.058123	0.051334
832.246957	0.051410
832.435773	0.051777
832.624571	0.052086
832.813351	0.052159
833.002112	0.052464
833.190855	0.052585
833.379580	0.052730
833.568287	0.052748
833.756975	0.052826
833.945645	0.052758
834.134297	0.052508
834.322931	0.052245
834.511547	0.052372
834.700144	0.052298
834.888723	0.052228
835.077284	0.052360
835.265826	0.052456
835.454351	0.052548
835.642857	0.052877
835.831345	0.053111
836.019815	0.053413
836.208266	0.053335
836.396699	0.053501
836.585114	0.053366
836.773511	0.053511
836.961890	0.053750
837.150250	0.053713
837.338592	0.053716
837.526916	0.053553
837.715222	0.053766
837.903510	0.054115
838.091779	0.054100
838.280030	0.054452
838.468263	0.054711
838.656477	0.054699
838.844674	0.054702
839.032852	0.054780
839.221012	0.054966
839.409153	0.054879
839.597277	0.054911
839.785382	0.054996
839.973469	0.054927
840.161538	0.054800
840.349589	0.054916
840.537621	0.055160
840.725635	0.055207
840.913631	0.055289
841.101609	0.055065
841.289568	0.055115
841.477509	0.055235
841.665432	0.055127
841.853337	0.055089
842.041224	0.054999
842.229092	0.055187
842.416942	0.055181
842.604774	0.055141
842.792588	0.055294
842.980383	0.055372
843.168160	0.055228
843.355919	0.055372
843.543660	0.055045
843.731382	0.055179
843.919087	0.054916
844.106773	0.055120
844.294441	0.054989
844.482090	0.055017
844.669722	0.054947
844.857335	0.054896
845.044930	0.054949
845.232507	0.055579
845.420065	0.055569
845.607605	0.055892
845.795127	0.055806
845.982631	0.056034
846.170117	0.056280
846.357584	0.056297
846.545033	0.056628
846.732464	0.056765
846.919877	0.056743
847.107272	0.056947
847.294648	0.056795
847.482006	0.057006
847.669346	0.057174
847.856667	0.057357
848.043971	0.057718
848.231256	0.058070
848.418523	0.058256
848.605771	0.058103
848.793002	0.057870
848.980214	0.058013
849.167408	0.057714
849.354584	0.057775
849.541742	0.057738
849.728881	0.057315
849.916002	0.057046
850.103105	0.057155
850.290190	0.057219
850.477256	0.057556
850.664304	0.057707
850.851334	0.058029
851.038346	0.058027
851.225340	0.058105
851.412315	0.058320
851.599272	0.058420
851.786211	0.058271
851.973132	0.058438
852.160034	0.058614
852.346918	0.058593
852.533784	0.058914
852.720632	0.058949
852.907462	0.058774
853.094273	0.058923
853.281066	0.058893
853.467841	0.059275
853.654598	0.059409
853.841336	0.059574
854.028056	0.059843
854.214758	0.059667
854.401442	0.059617
854.588107	0.060098
854.774755	0.060227
854.961384	0.060562
855.147995	0.060378
855.334587	0.060189
855.521162	0.059996
855.707718	0.059827
855.894256	0.059941
856.080775	0.060354
856.267277	0.060124
856.453760	0.060169
856.640225	0.060261
856.826672	0.060121
857.013101	0.060250
857.199511	0.060374
857.385903	0.060755
857.572277	0.060777
857.758633	0.060723
857.944970	0.061045
858.131290	0.061116
858.317591	0.060840
858.503873	0.061136
858.690138	0.061439
858.876384	0.061703
859.062612	0.061517
859.248822	0.061596
859.435014	0.061646
859.621188	0.061603
859.807343	0.061648
859.993480	0.062009
860.179599	0.062157
860.365699	0.062255
860.551781	0.062212
860.737846	0.062350
860.923891	0.062406
861.109919	0.062412
861.295929	0.062542
861.481920	0.062616
861.667893	0.062423
861.853848	0.062206
862.039784	0.062038
862.225702	0.061986
862.411603	0.061947
862.597484	0.061979
862.783348	0.061995
862.969193	0.061796
863.155021	0.061654
863.340830	0.061789
863.526620	0.061865
863.712393	0.062350
863.898147	0.062365
864.083883	0.062373
864.269601	0.062423
864.455301	0.062648
864.640982	0.062731
864.826645	0.062854
865.012290	0.062773
865.197917	0.062875
865.383526	0.062394
865.569116	0.062172
865.754688	0.062246
865.940242	0.062105
866.125777	0.062186
866.311295	0.062112
866.496794	0.062042
866.682275	0.062031
866.867737	0.062314
867.053182	0.062450
867.238608	0.062893
867.424016	0.063042
867.609406	0.063131
867.794778	0.062823
867.980131	0.063209
868.165466	0.063680
868.350783	0.064191
868.536082	0.064123
868.721362	0.064160
868.906625	0.064268
869.091869	0.064503
869.277094	0.064752
869.462302	0.065290
869.647491	0.065308
869.832662	0.065004
870.017815	0.064769
870.202950	0.064831
870.388066	0.065167
870.573165	0.064949
870.758245	0.064632
870.943306	0.064778
871.128350	0.064585
871.313375	0.064658
871.498382	0.064816
871.683371	0.064578
871.868342	0.064537
872.053294	0.064367
872.238229	0.064463
872.423144	0.064787
872.608042	0.064395
872.792922	0.064242
872.977783	0.063985
873.162626	0.063880
873.347451	0.064122
873.532258	0.063862
873.717046	0.063545
873.901816	0.063614
874.086568	0.063410
874.271302	0.063421
874.456017	0.063452
874.640715	0.063475
874.825394	0.063722
875.010055	0.063810
875.194697	0.063780
875.379322	0.063917
875.563928	0.063922
875.748516	0.063821
875.933085	0.064140
876.117637	0.064244
876.302170	0.064203
876.486685	0.063935
876.671182	0.063786
876.855661	0.064259
877.040121	0.064496
877.224563	0.064531
877.408987	0.064929
877.593393	0.064790
877.777780	0.064931
877.962150	0.064973
878.146501	0.065115
878.330833	0.065535
878.515148	0.065575
878.699444	0.065478
878.883722	0.065395
879.067982	0.065046
879.252224	0.065180
879.436447	0.065005
879.620653	0.065206
879.804840	0.064987
879.989008	0.064866
880.173159	0.065040
880.357291	0.065075
880.541405	0.065144
880.725501	0.065426
880.909579	0.065323
881.093638	0.065600
881.277680	0.065582
881.461703	0.066072
881.645707	0.066122
881.829694	0.065900
882.013662	0.066031
882.197612	0.065897
882.381544	0.065828
882.565458	0.065536
882.749353	0.065424
882.933230	0.065259
883.117089	0.065084
883.300930	0.065133
883.484753	0.065227
883.668557	0.065179
883.852343	0.065510
884.036111	0.065433
884.219861	0.065713
884.403592	0.065657
884.587305	0.065910
884.771000	0.066093
884.954677	0.066041
885.138335	0.066002
885.321976	0.066134
885.505598	0.066093
885.689201	0.066185
885.872787	0.066148
886.056354	0.066425
886.239904	0.066373
886.423434	0.066449
886.606947	0.066488
886.790442	0.066342
886.973918	0.066302
887.157376	0.066343
887.340816	0.066255
887.524237	0.066486
887.707641	0.066505
887.891026	0.066862
888.074393	0.066829
888.257741	0.066759
888.441072	0.066807
888.624384	0.066426
888.807678	0.066387
888.990954	0.066627
889.174211	0.066640
889.357451	0.066189
889.540672	0.065790
889.723875	0.065528
889.907059	0.065235
890.090226	0.065133
890.273374	0.065494
890.456504	0.065402
890.639616	0.065266
890.822709	0.065173
891.005785	0.065346
891.188842	0.065437
891.371881	0.065277
891.554901	0.065433
891.737904	0.065595
891.920888	0.065497
892.103854	0.065450
892.286802	0.065229
892.469731	0.065156
892.652643	0.064828
892.835536	0.064854
893.018410	0.064912
893.201267	0.064637
893.384106	0.064492
893.566926	0.064351
893.749728	0.064321
893.932511	0.064508
894.115277	0.064633
894.298024	0.064829
894.480753	0.065048
894.663464	0.065044
894.846157	0.065244
895.028831	0.065237
895.211487	0.065138
895.394125	0.064733
895.576745	0.064437
895.759346	0.064073
895.941930	0.063790
896.124495	0.063300
896.307041	0.063251
896.489570	0.063088
896.672080	0.063266
896.854573	0.063576
897.037046	0.064032
897.219502	0.063876
897.401940	0.063877
897.584359	0.064101
897.766760	0.064146
897.949143	0.064102
898.131507	0.064251
898.313854	0.064017
898.496182	0.063943
898.678492	0.064074
898.860783	0.064515
899.043057	0.064749
899.225312	0.064763
899.407549	0.064903
899.589768	0.065164
899.771968	0.065211
899.954151	0.065180
900.136315	0.064976
900.318461	0.064631
900.500588	0.064451
900.682698	0.064428
900.864789	0.064437
901.046862	0.064354
901.228917	0.064037
901.410953	0.063841
901.592971	0.063918
901.774972	0.063808
901.956953	0.063875
902.138917	0.063981
902.320862	0.063778
902.502790	0.063443
902.684699	0.063144
902.866589	0.063016
903.048462	0.062815
903.230316	0.062687
903.412152	0.062513
903.593970	0.062339
903.775770	0.062012
903.957551	0.061808
904.139314	0.062136
904.321059	0.061982
904.502786	0.061819
904.684494	0.061798
904.866185	0.061733
905.047857	0.061911
905.229510	0.061742
905.411146	0.061619
905.592763	0.061983
905.774363	0.061672
905.955943	0.061808
906.137506	0.061877
906.319051	0.061757
906.500577	0.061714
906.682085	0.061524
906.863575	0.061444
907.045046	0.061625
907.226500	0.061398
907.407935	0.061184
907.589352	0.061214
907.770750	0.060958
907.952131	0.060550
908.133493	0.060313
908.314837	0.060510
908.496163	0.060368
908.677470	0.059952
908.858760	0.060006
909.040031	0.060180
909.221284	0.059778
909.402518	0.059877
909.583735	0.060031
909.764933	0.059881
909.946113	0.059797
910.127275	0.059640
910.308418	0.059441
910.489544	0.059212
910.670651	0.059094
910.851740	0.058994
911.032810	0.058951
911.213863	0.058891
911.394897	0.058957
911.575913	0.058779
911.756911	0.058940
911.937890	0.059272
912.118851	0.058822
912.299794	0.058752
912.480719	0.059244
912.661626	0.059157
912.842514	0.059411
913.023384	0.059391
913.204236	0.059095
913.385070	0.059161
913.565886	0.058629
913.746683	0.058799
913.927462	0.058702
914.108223	0.058321
914.288965	0.058327
914.469690	0.058150
914.650396	0.057771
914.831084	0.057844
915.011754	0.057342
915.192405	0.057517
915.373038	0.057477
915.553653	0.057213
915.734250	0.056919
915.914829	0.056845
916.095389	0.056370
916.275931	0.056406
916.456455	0.055836
916.636961	0.055595
916.817448	0.055391
916.997917	0.054934
917.178368	0.055187
917.358801	0.055248
917.539216	0.054744
917.719612	0.054826
917.899990	0.054436
918.080350	0.054203
918.260692	0.054675
918.441015	0.054716
918.621320	0.054730
918.801607	0.054476
918.981876	0.054189
919.162127	0.054311
919.342359	0.054173
919.522573	0.053928
919.702769	0.053823
919.882947	0.053355
920.063106	0.053036
920.243247	0.052794
920.423370	0.051987
920.603475	0.051515
920.783562	0.051090
920.963630	0.051001
921.143680	0.051213
921.323712	0.051282
921.503725	0.051119
921.683721	0.050642
921.863698	0.050730
922.043657	0.051259
922.223598	0.051044
922.403520	0.050747
922.583424	0.050453
922.763311	0.049940
922.943178	0.049781
923.123028	0.049045
923.302859	0.048960
923.482673	0.048367
923.662467	0.048107
923.842244	0.047870
924.022003	0.047818
924.201743	0.047508
924.381465	0.047477
924.561169	0.047651
924.740854	0.047787
924.920522	0.047906
925.100171	0.047820
925.279802	0.047091
925.459414	0.047357
925.639009	0.047343
925.818585	0.046966
925.998143	0.047194
926.177683	0.046457
926.357205	0.046858
926.536708	0.046290
926.716193	0.046149
926.895660	0.046034
927.075109	0.045328
927.254539	0.044955
927.433951	0.044995
927.613345	0.044533
927.792721	0.044322
927.972079	0.043661
928.151418	0.043475
928.330739	0.043766
928.510042	0.043681
928.689327	0.044022
928.868593	0.043614
929.047841	0.043769
929.227071	0.043121
929.406283	0.042910
929.585476	0.042451
929.764652	0.042406
929.943809	0.041742
930.122948	0.041795
930.302068	0.040872
930.481171	0.040433
930.660255	0.039640
930.839321	0.040092
931.018369	0.039605
931.197398	0.039399
931.376409	0.039558
931.555402	0.038806
931.734377	0.038893
931.913334	0.039133
932.092272	0.039734
932.271192	0.039741
932.450094	0.039321
932.628978	0.039470
932.807844	0.039538
932.986691	0.039236
933.165520	0.039693
933.344331	0.038974
933.523123	0.038749
933.701898	0.037986
933.880654	0.038321
934.059392	0.037703
934.238111	0.037856
934.416813	0.037841
934.595496	0.037213
934.774161	0.036789
934.952808	0.036426
935.131437	0.036164
935.310047	0.035962
935.488639	0.034572
935.667213	0.034925
935.845769	0.033962
936.024306	0.033448
936.202825	0.033147
936.381326	0.032781
936.559809	0.032337
936.738274	0.032175
936.916720	0.031961
937.095148	0.032062
937.273558	0.031053
937.451950	0.031342
937.630323	0.031635
937.808678	0.031355
937.987015	0.031644
938.165334	0.032010
938.343635	0.031662
938.521917	0.031730
938.700181	0.031931
938.878427	0.032719
939.056655	0.032931
939.234864	0.032337
939.413055	0.032416
939.591228	0.031623
939.769383	0.031579
939.947519	0.032136
940.125638	0.032071
940.303738	0.031612
940.481820	0.030357
940.659883	0.029960
940.837929	0.029465
941.015956	0.029190
941.193965	0.029538
941.371955	0.028310
941.549928	0.027830
941.727882	0.026874
941.905818	0.027644
942.083736	0.028774
942.261636	0.028668
942.439517	0.028594
942.617380	0.028481
942.795225	0.027846
942.973052	0.028335
943.150860	0.028178
943.328651	0.028776
943.506423	0.028054
943.684176	0.027633
943.861912	0.026601
944.039629	0.026127
944.217328	0.025506
944.395009	0.024812
944.572672	0.024648
944.750317	0.023620
944.927943	0.023012
945.105551	0.023110
945.283141	0.022294
945.460712	0.022185
945.638265	0.022187
945.815801	0.022175
945.993317	0.022381
946.170816	0.022135
946.348297	0.022492
946.525759	0.023357
946.703203	0.022157
946.880629	0.022222
947.058036	0.022626
947.235425	0.023462
947.412797	0.023157
947.590149	0.023861
947.767484	0.023574
947.944800	0.022845
948.122099	0.021734
948.299379	0.022281
948.476640	0.021524
948.653884	0.021612
948.831109	0.019569
949.008316	0.020539
949.185505	0.020162
949.362676	0.019885
949.539828	0.019806
949.716962	0.019801
949.894078	0.019449
950.071176	0.020191
950.248256	0.020335
950.425317	0.020756
950.602360	0.020360
950.779385	0.021018
950.956391	0.021818
951.133380	0.020920
951.310350	0.021122
951.487302	0.022085
951.664235	0.021179
951.841151	0.020965
952.018048	0.022094
952.194927	0.022417
952.371788	0.021528
952.548631	0.020769
952.725455	0.022067
952.902261	0.022210
953.079049	0.020927
953.255819	0.022632
953.432570	0.021946
953.609303	0.021035
953.786018	0.020524
953.962715	0.020633
954.139394	0.021289
954.316054	0.021485
954.492696	0.021314
954.669320	0.022261
954.845926	0.020200
955.022513	0.020539
955.199083	0.021945
955.375634	0.022405
955.552166	0.021752
955.728681	0.020669
955.905177	0.020074
956.081655	0.020390
956.258115	0.020115
956.434557	0.021244
956.610980	0.021803
956.787385	0.021460
956.963772	0.020696
957.140141	0.020941
957.316492	0.020731
957.492824	0.021548
957.669138	0.022061
957.845434	0.022029
958.021712	0.021997
958.197971	0.022387
958.374212	0.022013
958.550435	0.023231
958.726640	0.023341
958.902826	0.024882
959.078995	0.025112
959.255145	0.025065
959.431277	0.025861
959.607390	0.027300
959.783486	0.027755
959.959563	0.028817
960.135622	0.027762
960.311662	0.028756
960.487685	0.027789
960.663689	0.028976
960.839675	0.029641
961.015643	0.029278
961.191593	0.028166
961.367524	0.026567
961.543437	0.027144
961.719332	0.028185
961.895209	0.028395
962.071067	0.030094
962.246907	0.028841
962.422730	0.028024
962.598533	0.028884
962.774319	0.029400
962.950086	0.029702
963.125835	0.029831
963.301566	0.030303
963.477279	0.028508
963.652973	0.028013
963.828650	0.029553
964.004308	0.029064
964.179947	0.029964
964.355569	0.030704
964.531172	0.033505
964.706757	0.032596
964.882324	0.031719
965.057873	0.032448
965.233403	0.031731
965.408916	0.030862
965.584410	0.031893
965.759885	0.030991
965.935343	0.032100
966.110782	0.030551
966.286203	0.030425
966.461606	0.030818
966.636991	0.032235
966.812357	0.034481
966.987705	0.035497
967.163035	0.036283
967.338347	0.036446
967.513641	0.034980
967.688916	0.035912
967.864173	0.036489
968.039412	0.038520
968.214632	0.037314
968.389835	0.037341
968.565019	0.036281
968.740185	0.034290
968.915333	0.032545
969.090462	0.033595
969.265573	0.033793
969.440667	0.033897
969.615741	0.032911
969.790798	0.033272
969.965836	0.032572
970.140856	0.033079
970.315858	0.035723
970.490842	0.038424
970.665808	0.037715
970.840755	0.035534
971.015684	0.035438
971.190595	0.036324
971.365487	0.039283
971.540362	0.040282
971.715218	0.041036
971.890056	0.038639
972.064875	0.038109
972.239677	0.039503
972.414460	0.042800
972.589225	0.044188
972.763972	0.044130
972.938700	0.041103
973.113411	0.040871
973.288103	0.041420
973.462777	0.044059
973.637432	0.042898
973.812070	0.041401
973.986689	0.039834
974.161290	0.038923
974.335873	0.037471
974.510437	0.037933
974.684984	0.037927
974.859512	0.036571
975.034022	0.035724
975.208513	0.036511
975.382987	0.034104
975.557442	0.032838
975.731879	0.032710
975.906298	0.031782
976.080698	0.033856
976.255080	0.034149
976.429445	0.035975
976.603790	0.033215
976.778118	0.033996
976.952427	0.039204
977.126719	0.040166
977.300992	0.039263
977.475246	0.041531
977.649483	0.040144
977.823701	0.040571
977.997901	0.039260
978.172083	0.042961
978.346247	0.041934
978.520392	0.040270
978.694519	0.040975
978.868628	0.042049
979.042719	0.040172
979.216791	0.040734
979.390845	0.038627
979.564882	0.039499
979.738899	0.037839
979.912899	0.038097
980.086880	0.037694
980.260843	0.036514
980.434788	0.034781
980.608715	0.035809
980.782623	0.033769
980.956514	0.034563
981.130386	0.034610
981.304240	0.037239
981.478075	0.035711
981.651892	0.034630
981.825692	0.035866
981.999472	0.037835
982.173235	0.035747
982.346980	0.035053
982.520706	0.034747
982.694414	0.032957
982.868104	0.030348
983.041775	0.032144
983.215428	0.032732
983.389064	0.032451
983.562680	0.032533
983.736279	0.034575
983.909860	0.035263
984.083422	0.034967
984.256966	0.036258
984.430491	0.036629
984.603999	0.037800
984.777488	0.037785
984.950959	0.038648
985.124412	0.038531
985.297847	0.039577
985.471263	0.041816
985.644661	0.043582
985.818041	0.042707
985.991403	0.042806
986.164747	0.041263
986.338072	0.040176
986.511379	0.038257
986.684668	0.037648
986.857938	0.035323
987.031191	0.033964
987.204425	0.032378
987.377641	0.032192
987.550839	0.032437
987.724018	0.032844
987.897179	0.034410
988.070322	0.035869
988.243447	0.036216
988.416554	0.038031
988.589642	0.038270
988.762712	0.038543
988.935764	0.039439
989.108798	0.038327
989.281813	0.038490
989.454811	0.038192
989.627790	0.037052
989.800751	0.036916
989.973693	0.037815
990.146617	0.036758
990.319524	0.036312
990.492412	0.036275
990.665281	0.036646
990.838133	0.034620
991.010966	0.033879
991.183781	0.034558
991.356578	0.034044
991.529356	0.031369
991.702117	0.032985
991.874859	0.034182
992.047583	0.034309
992.220288	0.036625
992.392976	0.039309
992.565645	0.039144
992.738296	0.039542
992.910929	0.039563
993.083543	0.042244
993.256139	0.041928
993.428718	0.041991
993.601277	0.040700
993.773819	0.038538
993.946342	0.038346
994.118848	0.039312
994.291335	0.038819
994.463803	0.040040
994.636254	0.038573
994.808686	0.036822
994.981100	0.036088
995.153496	0.037290
995.325874	0.037775
995.498233	0.036245
995.670574	0.035463
995.842897	0.034259
996.015202	0.033065
996.187488	0.032769
996.359757	0.034552
996.532007	0.034437
996.704239	0.033686
996.876452	0.034588
997.048648	0.035037
997.220825	0.034826
997.392984	0.036547
997.565124	0.036383
997.737247	0.035732
997.909351	0.035467
998.081437	0.035790
998.253505	0.035894
998.425554	0.035465
998.597586	0.034440
998.769599	0.035850
998.941594	0.033651
999.113571	0.033921
999.285529	0.033151
999.457469	0.030405
999.629391	0.029743
999.801295	0.029013
999.973181	0.029139
1000.145048	0.029996
1000.316897	0.028131
1000.488728	0.029378
1000.660541	0.027696
1000.832335	0.030104
1001.004111	0.031967
1001.175869	0.032439
1001.347609	0.032758
1001.519331	0.030747
1001.691034	0.030664
1001.862719	0.030792
1002.034386	0.030807
1002.206035	0.032234
1002.377665	0.032018
1002.549277	0.032610
1002.720871	0.034057
1002.892447	0.035110
1003.064004	0.035088
1003.235544	0.034526
1003.407065	0.035611
1003.578568	0.035172
1003.750052	0.037300
1003.921519	0.036182
1004.092967	0.035550
1004.264397	0.034024
1004.435809	0.033707
1004.607202	0.035881
1004.778577	0.037067
1004.949934	0.036476
1005.121273	0.035605
1005.292594	0.033553
1005.463896	0.033542
1005.635180	0.033115
1005.806446	0.034073
1005.977694	0.032659
1006.148923	0.032044
1006.320135	0.032234
1006.491328	0.032625
1006.662503	0.032832
1006.833659	0.032246
1007.004798	0.032038
1007.175918	0.031803
1007.347020	0.030967
1007.518103	0.032108
1007.689169	0.029882
1007.860216	0.028070
1008.031245	0.028334
1008.202256	0.030085
1008.373248	0.030654
1008.544223	0.029648
1008.715179	0.029664
1008.886117	0.030719
1009.057036	0.029775
1009.227938	0.031537
1009.398821	0.031435
1009.569686	0.032254
1009.740533	0.031857
1009.911361	0.031875
1010.082172	0.031999
1010.252964	0.033206
1010.423738	0.031637
1010.594493	0.032883
1010.765231	0.033076
1010.935950	0.032659
1011.106651	0.031931
1011.277334	0.031144
1011.447998	0.030707
1011.618645	0.032895
1011.789273	0.032944
1011.959882	0.032168
1012.130474	0.032153
1012.301048	0.032175
1012.471603	0.035475
1012.642140	0.035290
1012.812658	0.035341
1012.983159	0.035541
1013.153641	0.034114
1013.324105	0.033134
1013.494551	0.034600
1013.664979	0.034105
1013.835388	0.033256
1014.005779	0.031033
1014.176152	0.030585
1014.346507	0.030506
1014.516843	0.031388
1014.687162	0.032222
1014.857462	0.033560
1015.027744	0.033163
1015.198007	0.033981
1015.368252	0.032745
1015.538480	0.032590
1015.708689	0.032304
1015.878879	0.032220
1016.049052	0.030920
1016.219206	0.030315
1016.389342	0.030328
1016.559460	0.029382
1016.729559	0.028935
1016.899641	0.030314
1017.069704	0.030091
1017.239749	0.029727
1017.409775	0.030898
1017.579784	0.032521
1017.749774	0.032790
1017.919746	0.030461
1018.089700	0.031225
1018.259635	0.028097
1018.429553	0.028267
1018.599452	0.027980
1018.769333	0.027778
1018.939195	0.027757
1019.109040	0.027287
1019.278866	0.025908
1019.448674	0.027049
1019.618464	0.026754
1019.788235	0.028721
1019.957989	0.028645
1020.127724	0.029482
1020.297441	0.030388
1020.467139	0.030220
1020.636820	0.029957
1020.806482	0.030972
1020.976126	0.031796
1021.145752	0.030755
1021.315359	0.032656
1021.484948	0.031552
1021.654519	0.030569
1021.824072	0.031062
1021.993607	0.031999
1022.163123	0.031282
1022.332621	0.030397
1022.502101	0.030600
1022.671563	0.033354
1022.841007	0.031226
1023.010432	0.031911
1023.179839	0.032735
1023.349228	0.031353
1023.518598	0.029807
1023.687951	0.029227
1023.857285	0.030852
1024.026601	0.029101
1024.195899	0.027155
1024.365178	0.028961
1024.534439	0.028187
1024.703682	0.028203
1024.872907	0.027993
1025.042114	0.027157
1025.211302	0.028928
1025.380472	0.028538
1025.549624	0.029649
1025.718758	0.030247
1025.887873	0.030002
1026.056970	0.030711
1026.226049	0.031285
1026.395110	0.032170
1026.564153	0.031938
1026.733177	0.030235
1026.902183	0.029625
1027.071171	0.029746
1027.240141	0.030213
1027.409092	0.028104
1027.578026	0.028330
1027.746940	0.026679
1027.915837	0.027230
1028.084716	0.027249
1028.253576	0.028089
1028.422418	0.028185
1028.591242	0.027303
1028.760048	0.026862
1028.928835	0.027544
1029.097604	0.027196
1029.266355	0.028091
1029.435088	0.026233
1029.603803	0.027791
1029.772499	0.028134
1029.941177	0.028643
1030.109837	0.030356
1030.278478	0.030103
1030.447102	0.030825
1030.615707	0.031006
1030.784294	0.031022
1030.952863	0.032469
1031.121413	0.030056
1031.289945	0.029314
1031.458460	0.028404
1031.626955	0.027015
1031.795433	0.027839
1031.963892	0.029373
1032.132334	0.028847
1032.300756	0.028152
1032.469161	0.026791
1032.637548	0.027869
1032.805916	0.029747
1032.974266	0.029923
1033.142598	0.029394
1033.310911	0.027561
1033.479207	0.024892
1033.647484	0.025895
1033.815743	0.025081
1033.983983	0.025614
1034.152206	0.025111
1034.320410	0.023603
1034.488596	0.023631
1034.656764	0.024440
1034.824914	0.025344
1034.993045	0.026118
1035.161158	0.025055
1035.329253	0.025122
1035.497330	0.024518
1035.665388	0.025083
1035.833428	0.024114
1036.001450	0.024671
1036.169454	0.024494
1036.337440	0.024072
1036.505407	0.024747
1036.673356	0.025443
1036.841287	0.027646
1037.009200	0.029447
1037.177094	0.030403
1037.344970	0.030206
1037.512828	0.029496
1037.680668	0.030286
1037.848489	0.031292
1038.016293	0.029544
1038.184078	0.030527
1038.351845	0.027636
1038.519593	0.026325
1038.687324	0.026160
1038.855036	0.026748
1039.022730	0.026545
1039.190406	0.024127
1039.358063	0.022988
1039.525702	0.023066
1039.693323	0.024117
1039.860926	0.024665
1040.028511	0.024249
1040.196077	0.024135
1040.363625	0.024427
1040.531155	0.024168
1040.698667	0.025465
1040.866161	0.025744
1041.033636	0.026792
1041.201093	0.024435
1041.368532	0.025690
1041.535952	0.027266
1041.703355	0.028583
1041.870739	0.027170
1042.038105	0.028290
1042.205452	0.029391
1042.372782	0.030166
1042.540093	0.028310
1042.707386	0.028379
1042.874661	0.029889
1043.041918	0.028955
1043.209156	0.026981
1043.376376	0.028721
1043.543578	0.029397
1043.710762	0.026836
1043.877927	0.025831
1044.045074	0.025793
1044.212203	0.026242
1044.379314	0.024178
1044.546407	0.025437
1044.713481	0.025352
1044.880537	0.025248
1045.047575	0.024387
1045.214595	0.027315
1045.381596	0.027696
1045.548579	0.029236
1045.715544	0.029017
1045.882491	0.028679
1046.049420	0.028912
1046.216330	0.029251
1046.383222	0.028282
1046.550096	0.028051
1046.716951	0.027366
1046.883789	0.027738
1047.050608	0.028488
1047.217409	0.027912
1047.384192	0.029012
1047.550956	0.028244
1047.717703	0.029066
1047.884431	0.028588
1048.051140	0.027381
1048.217832	0.028051
1048.384505	0.027597
1048.551161	0.027675
1048.717798	0.027896
1048.884416	0.027828
1049.051017	0.027424
1049.217599	0.025990
1049.384163	0.026955
1049.550709	0.028058
1049.717237	0.026375
1049.883746	0.026002
1050.050237	0.025140
1050.216710	0.024883
1050.383165	0.024240
1050.549601	0.023184
1050.716019	0.023295
1050.882420	0.023368
1051.048801	0.021630
1051.215165	0.020773
1051.381510	0.020995
1051.547837	0.019241
1051.714146	0.020775
1051.880437	0.021291
1052.046709	0.023748
1052.212964	0.023926
1052.379200	0.024414
1052.545417	0.026340
1052.711617	0.028296
1052.877798	0.028823
1053.043961	0.031405
1053.210106	0.030815
1053.376233	0.031330
1053.542341	0.028720
1053.708432	0.029047
1053.874504	0.029057
1054.040557	0.029748
1054.206593	0.028305
1054.372610	0.029017
1054.538609	0.028179
1054.704590	0.028643
1054.870553	0.029323
1055.036497	0.029067
1055.202424	0.028923
1055.368331	0.029092
1055.534221	0.028292
1055.700093	0.028218
1055.865946	0.027834
1056.031781	0.027824
1056.197598	0.027052
1056.363397	0.026309
1056.529177	0.027558
1056.694939	0.028519
1056.860683	0.027785
1057.026409	0.028143
1057.192116	0.029440
1057.357806	0.027244
1057.523477	0.027160
1057.689130	0.027639
1057.854764	0.027251
1058.020381	0.026403
1058.185979	0.026068
1058.351559	0.025236
1058.517120	0.025347
1058.682664	0.023930
1058.848189	0.025550
1059.013696	0.024894
1059.179185	0.026370
1059.344656	0.025943
1059.510108	0.026653
1059.675542	0.026721
1059.840958	0.028044
1060.006356	0.027341
1060.171735	0.027833
1060.337096	0.027707
1060.502439	0.028478
1060.667764	0.025580
1060.833071	0.025959
1060.998359	0.025708
1061.163629	0.025472
1061.328881	0.025171
1061.494115	0.026186
1061.659330	0.025880
1061.824527	0.025304
1061.989706	0.025383
1062.154867	0.025103
1062.320010	0.025132
1062.485134	0.025058
1062.650240	0.025075
1062.815328	0.025385
1062.980398	0.024764
1063.145449	0.024612
1063.310482	0.025418
1063.475497	0.025972
1063.640494	0.027069
1063.805473	0.026970
1063.970433	0.028763
1064.135375	0.030132
1064.300299	0.030348
1064.465204	0.031755
1064.630092	0.033405
1064.794961	0.032829
1064.959812	0.030893
1065.124645	0.029914
1065.289459	0.028345
1065.454256	0.026297
1065.619034	0.024623
1065.783793	0.023713
1065.948535	0.021079
1066.113258	0.022134
1066.277964	0.020878
1066.442651	0.021550
1066.607319	0.023148
1066.771970	0.023943
1066.936602	0.025397
1067.101216	0.023757
1067.265812	0.024068
1067.430389	0.024340
1067.594949	0.023257
1067.759490	0.023711
1067.924013	0.026200
1068.088518	0.026104
1068.253004	0.026054
1068.417472	0.024227
1068.581922	0.024680
1068.746354	0.025144
1068.910768	0.026966
1069.075163	0.024811
1069.239540	0.028827
1069.403899	0.027826
1069.568240	0.026561
1069.732562	0.026840
1069.896866	0.026163
1070.061152	0.025862
1070.225420	0.025722
1070.389670	0.025710
1070.553901	0.028183
1070.718114	0.023703
1070.882309	0.023407
1071.046486	0.024435
1071.210644	0.025475
1071.374784	0.026656
1071.538906	0.027768
1071.703010	0.026752
1071.867096	0.024946
1072.031163	0.024941
1072.195212	0.025464
1072.359243	0.025494
1072.523256	0.024122
1072.687250	0.022922
1072.851226	0.025496
1073.015184	0.024439
1073.179124	0.025867
1073.343045	0.025598
1073.506949	0.023533
1073.670834	0.022893
1073.834701	0.021809
1073.998549	0.023342
1074.162380	0.023906
1074.326192	0.021485
1074.489986	0.023988
1074.653761	0.021890
1074.817519	0.022972
1074.981258	0.023233
1075.144979	0.023545
1075.308682	0.024152
1075.472367	0.022146
1075.636033	0.021309
1075.799681	0.021597
1075.963311	0.022778
1076.126923	0.025328
1076.290516	0.023155
1076.454092	0.022612
1076.617649	0.022312
1076.781187	0.023316
1076.944708	0.025558
1077.108210	0.025690
1077.271695	0.026726
1077.435160	0.023277
1077.598608	0.021571
1077.762038	0.022720
1077.925449	0.024318
1078.088842	0.024238
1078.252217	0.025139
1078.415573	0.024554
1078.578912	0.025888
1078.742232	0.022791
1078.905534	0.024391
1079.068817	0.023673
1079.232083	0.023829
1079.395330	0.025068
1079.558559	0.027249
1079.721770	0.025543
1079.884962	0.024317
1080.048136	0.022631
1080.211293	0.023643
1080.374430	0.023283
1080.537550	0.025424
1080.700651	0.027109
1080.863735	0.023899
1081.026800	0.023260
1081.189846	0.021568
1081.352875	0.021614
1081.515885	0.021669
1081.678877	0.021426
1081.841851	0.021331
1082.004807	0.020579
1082.167744	0.020076
1082.330663	0.019937
1082.493564	0.022642
1082.656447	0.025210
1082.819312	0.028563
1082.982158	0.029869
1083.144986	0.029557
1083.307796	0.029902
1083.470587	0.029604
1083.633361	0.028149
1083.796116	0.031817
1083.958853	0.028745
1084.121571	0.028025
1084.284272	0.024999
1084.446954	0.024113
1084.609618	0.025858
1084.772264	0.026450
1084.934892	0.027968
1085.097501	0.029888
1085.260092	0.027215
1085.422665	0.028141
1085.585220	0.027807
1085.747756	0.030954
1085.910274	0.030486
1086.072774	0.030874
1086.235256	0.029462
1086.397720	0.026269
1086.560165	0.025036
1086.722592	0.025411
1086.885001	0.024527
1087.047392	0.023560
1087.209764	0.020443
1087.372119	0.019903
1087.534455	0.020851
1087.696772	0.020314
1087.859072	0.020366
1088.021353	0.019604
1088.183616	0.022095
1088.345861	0.022569
1088.508088	0.021483
1088.670296	0.024460
1088.832486	0.025451
1088.994658	0.024864
1089.156812	0.025620
1089.318948	0.027687
1089.481065	0.027241
1089.643164	0.023220
1089.805245	0.022868
1089.967308	0.025241
1090.129352	0.022581
1090.291378	0.024748
1090.453386	0.023855
1090.615376	0.021547
1090.777347	0.020291
1090.939301	0.022897
1091.101236	0.024620
1091.263153	0.022983
1091.425051	0.021744
1091.586932	0.019923
1091.748794	0.020936
1091.910638	0.019200
1092.072463	0.020476
1092.234271	0.021983
1092.396060	0.021710
1092.557831	0.020197
1092.719584	0.022616
1092.881319	0.021696
1093.043035	0.023221
1093.204733	0.021172
1093.366413	0.022224
1093.528075	0.022776
1093.689718	0.022241
1093.851343	0.021893
1094.012950	0.023371
1094.174539	0.021670
1094.336110	0.023373
1094.497662	0.021312
1094.659196	0.021012
1094.820712	0.023129
1094.982210	0.024548
1095.143689	0.024216
1095.305151	0.025828
1095.466594	0.025717
1095.628018	0.026167
1095.789425	0.026720
1095.950813	0.028920
1096.112183	0.030505
1096.273535	0.029964
1096.434869	0.029054
1096.596184	0.028328
1096.757482	0.026743
1096.918761	0.026410
1097.080021	0.027768
1097.241264	0.026705
1097.402488	0.028914
1097.563694	0.026519
1097.724882	0.023644
1097.886052	0.021258
1098.047203	0.021897
1098.208336	0.024109
1098.369451	0.024362
1098.530548	0.024810
1098.691627	0.028494
1098.852687	0.024860
1099.013729	0.024944
1099.174753	0.025684
1099.335758	0.028698
1099.496746	0.029767
1099.657715	0.026268
1099.818666	0.026620
1099.979599	0.027691
1100.140513	0.021675
1100.301409	0.021614
1100.462287	0.022112
1100.623147	0.025763
1100.783989	0.025713
1100.944812	0.022301
1101.105617	0.022083
1101.266404	0.020713
1101.427173	0.018461
1101.587923	0.022371
1101.748656	0.025689
1101.909370	0.023030
1102.070066	0.020244
1102.230743	0.019022
1102.391403	0.024143
1102.552044	0.022922
1102.712667	0.021514
1102.873271	0.019268
1103.033858	0.018905
1103.194426	0.017027
1103.354976	0.020651
1103.515508	0.020499
1103.676021	0.019302
1103.836517	0.016356
1103.996994	0.017896
1104.157453	0.019793
1104.317893	0.019781
1104.478316	0.019019
1104.638720	0.019964
1104.799106	0.016230
1104.959474	0.015600
1105.119823	0.017245
1105.280155	0.015912
1105.440468	0.015073
1105.600763	0.015644
1105.761039	0.015703
1105.921298	0.018682
1106.081538	0.018115
1106.241760	0.022727
1106.401964	0.023724
1106.562149	0.024291
1106.722316	0.024095
1106.882465	0.023195
1107.042596	0.027608
1107.202709	0.031672
1107.362803	0.029606
1107.522879	0.031585
1107.682937	0.030916
1107.842977	0.027906
1108.002999	0.028064
1108.163002	0.030059
1108.322987	0.032582
1108.482954	0.028197
1108.642902	0.029623
1108.802833	0.033037
1108.962745	0.030879
1109.122639	0.029487
1109.282515	0.031772
1109.442372	0.031142
1109.602211	0.034390
1109.762032	0.034514
1109.921835	0.032938
1110.081620	0.029627
1110.241386	0.025402
1110.401134	0.024505
1110.560864	0.024647
1110.720576	0.025310
1110.880269	0.025415
1111.039945	0.021679
1111.199602	0.021131
1111.359240	0.022996
1111.518861	0.023028
1111.678463	0.020480
1111.838047	0.024188
1111.997613	0.020018
1112.157161	0.022452
1112.316690	0.021977
1112.476202	0.021926
1112.635695	0.022394
1112.795169	0.022007
1112.954626	0.023412
1113.114064	0.027265
1113.273484	0.021510
1113.432886	0.025213
1113.592270	0.024937
1113.751635	0.024651
1113.910983	0.025993
1114.070312	0.029002
1114.229622	0.027172
1114.388915	0.027882
1114.548189	0.026742
1114.707445	0.029181
1114.866683	0.030598
1115.025903	0.030846
1115.185104	0.033136
1115.344287	0.032916
1115.503452	0.027319
1115.662599	0.027003
1115.821727	0.023374
1115.980838	0.021709
1116.139930	0.023942
1116.299004	0.024053
1116.458059	0.024488
1116.617097	0.018715
1116.776116	0.018418
1116.935117	0.020416
1117.094099	0.024541
1117.253064	0.020949
1117.412010	0.020449
1117.570938	0.019676
1117.729848	0.021218
1117.888740	0.016739
1118.047613	0.021898
1118.206468	0.023679
1118.365305	0.024012
1118.524124	0.023184
1118.682924	0.028841
1118.841707	0.030212
1119.000471	0.027726
1119.159216	0.028992
1119.317944	0.030089
1119.476653	0.028645
1119.635344	0.027266
1119.794017	0.027430
1119.952672	0.026611
1120.111308	0.028304
1120.269927	0.030736
1120.428527	0.033576
1120.587108	0.028766
1120.745672	0.030647
1120.904217	0.033692
1121.062744	0.031681
1121.221253	0.035034
1121.379744	0.034023
1121.538216	0.036163
1121.696671	0.035422
1121.855107	0.039101
1122.013524	0.038466
1122.171924	0.038745
1122.330305	0.035178
1122.488668	0.038894
1122.647013	0.034821
1122.805340	0.033687
1122.963648	0.024404
1123.121938	0.027590
1123.280210	0.022910
1123.438464	0.024419
1123.596700	0.024369
1123.754917	0.026455
1123.913116	0.022843
1124.071297	0.023194
1124.229459	0.028150
1124.387604	0.033418
1124.545730	0.031800
1124.703838	0.032894
1124.861928	0.033403
1125.019999	0.032551
1125.178052	0.031335
1125.336088	0.033489
1125.494104	0.037170
1125.652103	0.031251
1125.810083	0.030799
1125.968045	0.032747
1126.125989	0.031875
1126.283915	0.028933
1126.441823	0.029948
1126.599712	0.030478
1126.757583	0.031739
1126.915436	0.030550
1127.073270	0.034000
1127.231087	0.033894
1127.388885	0.034178
1127.546665	0.033711
1127.704426	0.035821
1127.862170	0.037015
1128.019895	0.040980
1128.177602	0.040695
1128.335291	0.036100
1128.492961	0.035437
1128.650614	0.035933
1128.808248	0.029203
1128.965864	0.029952
1129.123461	0.030709
1129.281041	0.027408
1129.438602	0.025382
1129.596145	0.023304
1129.753670	0.024255
1129.911176	0.026891
1130.068665	0.022344
1130.226135	0.023952
1130.383587	0.025760
1130.541020	0.027426
1130.698436	0.028577
1130.855833	0.028630
1131.013212	0.031936
1131.170573	0.033120
1131.327915	0.033275
1131.485239	0.039545
1131.642545	0.038718
1131.799833	0.037595
1131.957103	0.034243
1132.114354	0.030440
1132.271588	0.029062
1132.428803	0.020908
1132.585999	0.022233
1132.743178	0.018741
1132.900338	0.020401
1133.057480	0.023251
1133.214604	0.025016
1133.371710	0.029081
1133.528797	0.033080
1133.685866	0.033222
1133.842917	0.038753
1133.999950	0.036992
1134.156964	0.038289
1134.313960	0.034667
1134.470938	0.032747
1134.627898	0.032284
1134.784840	0.030586
1134.941763	0.027256
1135.098668	0.029095
1135.255555	0.031273
1135.412424	0.031808
1135.569274	0.033005
1135.726107	0.033905
1135.882921	0.034198
1136.039716	0.033504
1136.196494	0.032685
1136.353253	0.030764
1136.509995	0.025534
1136.666717	0.019606
1136.823422	0.021043
1136.980109	0.018235
1137.136777	0.016705
1137.293427	0.012154
1137.450059	0.009616
1137.606672	0.010626
1137.763267	0.017202
1137.919844	0.019957
1138.076403	0.023153
1138.232944	0.017308
1138.389466	0.021906
1138.545971	0.023372
1138.702457	0.030201
1138.858924	0.028700
1139.015374	0.025415
1139.171805	0.021803
1139.328218	0.017908
1139.484613	0.017471
1139.640990	0.019782
1139.797348	0.015274
1139.953688	0.014342
1140.110010	0.013070
1140.266314	0.011366
1140.422600	0.019386
1140.578867	0.021953
1140.735116	0.026210
1140.891347	0.023939
1141.047559	0.030583
1141.203754	0.035951
1141.359930	0.037232
1141.516088	0.037049
1141.672228	0.041819
1141.828349	0.032793
1141.984452	0.032739
1142.140537	0.034707
1142.296604	0.038899
1142.452653	0.035717
1142.608683	0.028278
1142.764695	0.030070
1142.920689	0.025807
1143.076665	0.024303
1143.232622	0.023109
1143.388562	0.022796
1143.544483	0.020644
1143.700385	0.022994
1143.856270	0.021758
1144.012136	0.027818
1144.167985	0.024532
1144.323814	0.024879
1144.479626	0.025891
1144.635420	0.026940
1144.791195	0.028904
1144.946952	0.024257
1145.102691	0.017759
1145.258411	0.018789
1145.414113	0.010411
1145.569798	0.010517
1145.725463	0.010222
1145.881111	0.011702
1146.036741	0.014837
1146.192352	0.012749
1146.347945	0.021343
1146.503519	0.025125
1146.659076	0.023591
1146.814614	0.032527
1146.970134	0.027049
1147.125636	0.030278
1147.281120	0.027383
1147.436585	0.030678
1147.592032	0.036394
1147.747461	0.028902
1147.902872	0.033830
1148.058265	0.039935
1148.213639	0.035303
1148.368995	0.039273
1148.524333	0.036228
1148.679653	0.040628
1148.834954	0.041659
1148.990237	0.035533
1149.145502	0.039035
1149.300749	0.036627
1149.455977	0.029561
1149.611188	0.035491
1149.766380	0.040875
1149.921553	0.044507
1150.076709	0.039546
1150.231846	0.037319
1150.386966	0.042301
1150.542066	0.039672
1150.697149	0.032121
1150.852214	0.036478
1151.007260	0.029231
1151.162288	0.030908
1151.317298	0.029829
1151.472289	0.033072
1151.627263	0.032360
1151.782218	0.023820
1151.937155	0.024897
1152.092073	0.034183
1152.246974	0.028446
1152.401856	0.037032
1152.556720	0.028114
1152.711566	0.027610
1152.866393	0.028440
1153.021203	0.031379
1153.175994	0.032058
1153.330767	0.031630
1153.485521	0.025887
1153.640258	0.030597
1153.794976	0.023147
1153.949676	0.022592
1154.104358	0.018081
1154.259021	0.016171
1154.413667	0.014490
1154.568294	0.016507
1154.722903	0.026519
1154.877493	0.026043
1155.032066	0.015051
1155.186620	0.014744
1155.341156	0.017666
1155.495674	0.019709
1155.650173	0.018588
1155.804654	0.014830
1155.959118	0.010692
1156.113562	-0.000017
1156.267989	0.003314
1156.422397	0.012738
1156.576788	0.015897
1156.731160	0.017688
1156.885513	0.017550
1157.039849	0.011599
1157.194166	0.013122
1157.348465	0.015671
1157.502746	0.017897
1157.657009	0.017839
1157.811253	0.018750
1157.965479	0.019373
1158.119687	0.028181
1158.273877	0.021991
1158.428048	0.031002
1158.582201	0.026604
1158.736337	0.029156
1158.890453	0.024355
1159.044552	0.024271
1159.198632	0.023641
1159.352694	0.024654
1159.506738	0.009384
1159.660764	0.024800
1159.814771	0.031087
1159.968761	0.037782
1160.122732	0.036820
1160.276685	0.044420
1160.430619	0.039662
1160.584535	0.041685
1160.738434	0.035264
1160.892313	0.046855
1161.046175	0.048465
1161.200019	0.037779
1161.353844	0.033627
1161.507651	0.027171
1161.661440	0.021816
1161.815210	0.015435
1161.968962	0.010570
1162.122697	0.016187
1162.276412	0.003168
1162.430110	-0.006852
1162.583789	-0.003166
1162.737451	-0.001412
1162.891094	0.004867
1163.044718	0.014943
1163.198325	0.036079
1163.351913	0.032527
1163.505483	0.025629
1163.659035	0.040732
1163.812569	0.038088
1163.966084	0.036182
1164.119581	0.026159
1164.273060	0.024832
1164.426521	0.026244
1164.579964	0.019553
1164.733388	0.023967
1164.886794	0.023636
1165.040182	0.016710
1165.193551	0.021223
1165.346903	0.024354
1165.500236	0.026473
1165.653551	0.027103
1165.806848	0.018420
1165.960126	0.012727
1166.113386	0.011573
1166.266628	0.015171
1166.419852	0.024352
1166.573058	0.021392
1166.726245	0.018336
1166.879414	0.027881
1167.032565	0.031858
1167.185698	0.025905
1167.338812	0.042901
1167.491909	0.045432
1167.644987	0.040146
1167.798046	0.041114
1167.951088	0.046786
1168.104111	0.038622
1168.257117	0.037290
1168.410103	0.030070
1168.563072	0.024288
1168.716023	0.009007
1168.868955	0.010910
1169.021869	0.027305
1169.174765	0.019024
1169.327642	0.018892
1169.480501	0.018419
1169.633343	0.017416
1169.786165	0.010444
1169.938970	0.023471
1170.091757	0.018047
1170.244525	0.028662
1170.397275	0.019686
1170.550007	0.007919
1170.702720	0.012234
1170.855415	0.018833
1171.008092	0.020748
1171.160751	0.034272
1171.313392	0.034587
1171.466014	0.015729
1171.618619	0.038974
1171.771205	0.038974
1171.923772	0.038974
