sample name	sample
index	1376
start time	 05-03-2021  02:39:24 PM


Wavelength (nm)	Absorbance
494.344910	-0.084347
494.563924	-0.084347
494.782919	-0.084347
495.001897	-0.127507
495.220856	-0.079562
495.439797	-0.059471
495.658719	-0.072324
495.877624	-0.111008
496.096510	-0.092963
496.315378	-0.080946
496.534227	-0.104520
496.753059	-0.082130
496.971872	-0.002725
497.190667	0.044250
497.409444	0.052362
497.628203	0.052348
497.846943	0.053511
498.065665	0.051140
498.284369	0.052748
498.503055	0.051568
498.721723	0.052282
498.940372	0.051087
499.159003	0.051421
499.377616	0.051719
499.596210	0.051242
499.814787	0.051763
500.033345	0.052450
500.251885	0.051429
500.470406	0.051616
500.688910	0.050296
500.907395	0.050338
501.125862	0.049152
501.344311	0.047749
501.562742	0.048324
501.781154	0.048740
501.999548	0.048937
502.217924	0.050337
502.436282	0.051210
502.654621	0.051807
502.872942	0.051460
503.091245	0.051764
503.309530	0.051566
503.527797	0.051934
503.746045	0.051281
503.964275	0.051178
504.182487	0.050777
504.400681	0.050380
504.618856	0.050471
504.837013	0.051421
505.055152	0.051639
505.273273	0.051739
505.491376	0.050617
505.709460	0.050429
505.927526	0.050847
506.145574	0.050808
506.363604	0.050132
506.581615	0.050255
506.799608	0.049986
507.017583	0.050138
507.235540	0.051029
507.453478	0.051636
507.671399	0.052122
507.889301	0.051274
508.107185	0.050640
508.325050	0.050352
508.542898	0.049556
508.760727	0.049482
508.978538	0.048993
509.196330	0.048141
509.414105	0.047992
509.631861	0.047981
509.849599	0.047926
510.067319	0.047498
510.285021	0.047894
510.502704	0.048762
510.720369	0.048320
510.938016	0.048703
511.155645	0.049634
511.373255	0.049908
511.590848	0.049132
511.808422	0.049376
512.025977	0.049566
512.243515	0.049570
512.461034	0.048654
512.678536	0.048804
512.896018	0.047366
513.113483	0.046354
513.330930	0.046481
513.548358	0.046930
513.765768	0.047335
513.983160	0.046727
514.200533	0.047229
514.417889	0.046582
514.635226	0.046265
514.852545	0.047894
515.069845	0.047775
515.287128	0.048054
515.504392	0.048107
515.721638	0.047452
515.938866	0.047732
516.156075	0.047367
516.373267	0.048161
516.590440	0.048448
516.807594	0.048667
517.024731	0.048964
517.241850	0.048295
517.458950	0.047766
517.676032	0.047521
517.893095	0.048298
518.110141	0.048554
518.327168	0.048631
518.544177	0.048288
518.761168	0.047155
518.978141	0.047974
519.195095	0.047465
519.412031	0.047329
519.628949	0.046976
519.845849	0.046800
520.062731	0.047450
520.279594	0.047027
520.496439	0.046932
520.713266	0.047597
520.930074	0.046648
521.146865	0.047031
521.363637	0.046880
521.580391	0.047432
521.797127	0.046636
522.013844	0.046103
522.230543	0.046363
522.447224	0.046506
522.663887	0.045796
522.880532	0.046063
523.097158	0.046501
523.313766	0.046699
523.530356	0.046360
523.746928	0.046205
523.963481	0.045446
524.180017	0.045565
524.396534	0.045500
524.613032	0.045503
524.829513	0.045366
525.045975	0.045125
525.262420	0.045184
525.478845	0.045671
525.695253	0.046579
525.911643	0.047383
526.128014	0.047352
526.344367	0.047295
526.560702	0.047511
526.777018	0.048316
526.993316	0.047758
527.209597	0.047828
527.425858	0.047945
527.642102	0.047887
527.858328	0.047787
528.074535	0.048008
528.290724	0.048508
528.506894	0.048427
528.723047	0.048577
528.939181	0.048952
529.155297	0.049101
529.371395	0.049140
529.587475	0.049526
529.803536	0.049460
530.019579	0.049599
530.235604	0.048860
530.451611	0.049777
530.667600	0.048945
530.883570	0.049724
531.099522	0.049651
531.315456	0.049333
531.531372	0.048823
531.747269	0.049283
531.963148	0.049263
532.179009	0.049790
532.394852	0.049510
532.610676	0.049734
532.826482	0.049020
533.042271	0.049699
533.258040	0.050383
533.473792	0.050860
533.689525	0.050876
533.905240	0.051123
534.120937	0.051306
534.336616	0.051198
534.552277	0.051165
534.767919	0.051499
534.983543	0.051532
535.199149	0.051200
535.414736	0.050729
535.630306	0.050631
535.845857	0.050539
536.061390	0.050847
536.276904	0.050887
536.492401	0.050771
536.707879	0.050467
536.923339	0.050092
537.138781	0.050199
537.354204	0.050192
537.569610	0.050592
537.784997	0.049997
538.000366	0.049772
538.215716	0.050095
538.431049	0.050222
538.646363	0.050212
538.861659	0.050313
539.076937	0.050625
539.292196	0.050944
539.507438	0.050395
539.722661	0.051341
539.937866	0.050629
540.153052	0.050117
540.368221	0.050228
540.583371	0.050592
540.798503	0.050669
541.013617	0.050243
541.228712	0.050583
541.443789	0.051308
541.658848	0.050902
541.873889	0.051405
542.088912	0.051362
542.303916	0.051893
542.518902	0.051045
542.733870	0.050948
542.948820	0.051285
543.163752	0.050678
543.378665	0.050229
543.593560	0.050238
543.808437	0.050450
544.023295	0.050477
544.238136	0.049938
544.452958	0.050819
544.667762	0.050847
544.882548	0.050608
545.097315	0.050287
545.312064	0.050113
545.526795	0.049996
545.741508	0.050042
545.956203	0.050320
546.170879	0.050153
546.385537	0.050294
546.600177	0.050483
546.814799	0.050229
547.029402	0.051149
547.243988	0.051305
547.458555	0.051693
547.673103	0.051280
547.887634	0.051301
548.102146	0.051706
548.316640	0.051182
548.531116	0.051106
548.745574	0.051078
548.960013	0.050758
549.174435	0.050770
549.388838	0.050215
549.603222	0.050472
549.817589	0.050533
550.031937	0.050484
550.246267	0.050904
550.460579	0.050503
550.674873	0.051083
550.889148	0.051097
551.103405	0.050819
551.317644	0.051148
551.531865	0.051049
551.746068	0.050861
551.960252	0.050804
552.174418	0.050581
552.388566	0.050764
552.602696	0.050481
552.816807	0.050498
553.030900	0.050928
553.244975	0.050586
553.459032	0.050869
553.673070	0.051038
553.887091	0.050705
554.101093	0.051068
554.315077	0.051258
554.529042	0.051636
554.742990	0.051413
554.956919	0.051179
555.170830	0.051427
555.384722	0.051641
555.598597	0.051647
555.812453	0.051607
556.026291	0.051615
556.240111	0.051358
556.453913	0.051313
556.667696	0.051849
556.881461	0.052061
557.095208	0.052270
557.308937	0.052231
557.522647	0.052176
557.736339	0.052457
557.950013	0.052236
558.163669	0.052414
558.377307	0.052156
558.590926	0.051859
558.804527	0.051466
559.018110	0.051553
559.231675	0.051483
559.445221	0.051466
559.658749	0.051340
559.872259	0.051400
560.085751	0.051375
560.299225	0.050805
560.512680	0.050589
560.726117	0.050585
560.939536	0.050372
561.152937	0.049858
561.366319	0.049549
561.579683	0.049468
561.793029	0.049598
562.006357	0.049285
562.219667	0.049608
562.432958	0.049437
562.646231	0.049584
562.859486	0.049453
563.072723	0.049436
563.285941	0.049464
563.499141	0.049760
563.712323	0.049356
563.925487	0.049480
564.138632	0.049530
564.351760	0.049896
564.564869	0.049576
564.777960	0.049675
564.991032	0.049636
565.204087	0.049890
565.417123	0.049487
565.630141	0.049404
565.843140	0.049512
566.056122	0.049520
566.269085	0.049100
566.482030	0.049115
566.694957	0.048851
566.907866	0.049071
567.120756	0.048762
567.333628	0.048988
567.546482	0.049093
567.759318	0.048774
567.972135	0.049016
568.184935	0.049546
568.397716	0.049412
568.610478	0.049425
568.823223	0.049306
569.035949	0.049585
569.248657	0.049478
569.461347	0.049343
569.674019	0.049527
569.886672	0.049389
570.099308	0.048870
570.311925	0.049171
570.524523	0.049172
570.737104	0.049200
570.949666	0.048938
571.162210	0.048874
571.374736	0.049020
571.587244	0.048903
571.799733	0.048847
572.012205	0.048755
572.224658	0.048640
572.437092	0.048821
572.649509	0.048931
572.861907	0.049192
573.074287	0.049332
573.286649	0.049349
573.498993	0.049488
573.711318	0.049342
573.923625	0.049755
574.135914	0.049821
574.348185	0.049459
574.560438	0.049050
574.772672	0.048591
574.984888	0.048483
575.197086	0.048278
575.409266	0.048444
575.621427	0.048611
575.833570	0.048437
576.045695	0.048433
576.257802	0.048652
576.469890	0.048841
576.681961	0.049351
576.894013	0.049298
577.106046	0.049626
577.318062	0.049508
577.530059	0.049011
577.742039	0.048905
577.954000	0.048669
578.165942	0.048477
578.377867	0.048322
578.589773	0.047883
578.801661	0.047804
579.013531	0.047721
579.225382	0.047543
579.437216	0.047796
579.649031	0.047697
579.860828	0.047599
580.072606	0.047661
580.284367	0.047784
580.496109	0.047830
580.707833	0.048026
580.919539	0.047779
581.131227	0.047955
581.342896	0.048356
581.554547	0.048459
581.766180	0.048583
581.977795	0.048514
582.189391	0.048461
582.400969	0.048379
582.612529	0.048159
582.824071	0.048429
583.035595	0.048359
583.247100	0.047998
583.458587	0.048064
583.670056	0.048164
583.881506	0.048326
584.092939	0.048241
584.304353	0.048199
584.515749	0.048313
584.727127	0.048207
584.938486	0.048080
585.149828	0.048092
585.361151	0.047949
585.572456	0.047904
585.783742	0.047959
585.995011	0.048206
586.206261	0.048470
586.417493	0.048322
586.628706	0.048138
586.839902	0.048248
587.051079	0.048375
587.262238	0.048670
587.473379	0.048775
587.684502	0.048819
587.895606	0.048710
588.106692	0.048661
588.317760	0.048798
588.528810	0.048792
588.739841	0.048887
588.950855	0.048433
589.161850	0.048427
589.372827	0.048314
589.583785	0.048254
589.794726	0.048220
590.005648	0.048224
590.216552	0.047988
590.427437	0.048170
590.638305	0.048125
590.849154	0.048291
591.059985	0.048230
591.270798	0.048254
591.481592	0.047706
591.692369	0.047897
591.903127	0.047967
592.113867	0.048311
592.324588	0.048222
592.535292	0.048322
592.745977	0.048619
592.956644	0.048569
593.167293	0.048521
593.377923	0.049027
593.588536	0.048951
593.799130	0.048669
594.009706	0.048676
594.220263	0.048815
594.430803	0.048820
594.641324	0.048761
594.851827	0.048799
595.062312	0.048651
595.272778	0.048614
595.483227	0.048820
595.693657	0.049396
595.904069	0.049353
596.114462	0.049266
596.324838	0.049308
596.535195	0.049313
596.745534	0.049141
596.955855	0.049624
597.166157	0.049711
597.376441	0.049620
597.586707	0.049194
597.796955	0.049288
598.007185	0.049385
598.217396	0.049562
598.427589	0.049514
598.637764	0.049693
598.847921	0.049511
599.058060	0.049790
599.268180	0.049844
599.478282	0.049914
599.688366	0.049876
599.898431	0.050216
600.108479	0.050049
600.318508	0.050116
600.528519	0.050196
600.738511	0.050105
600.948486	0.049851
601.158442	0.049922
601.368380	0.049991
601.578300	0.049908
601.788202	0.049467
601.998085	0.049490
602.207950	0.049516
602.417797	0.049484
602.627626	0.049517
602.837436	0.049616
603.047228	0.049693
603.257002	0.049703
603.466758	0.050077
603.676496	0.050212
603.886215	0.050150
604.095916	0.050303
604.305599	0.050380
604.515264	0.050576
604.724910	0.050423
604.934538	0.050462
605.144148	0.050683
605.353740	0.050442
605.563314	0.050716
605.772869	0.050736
605.982406	0.050618
606.191925	0.050781
606.401425	0.050976
606.610908	0.051285
606.820372	0.051070
607.029818	0.050844
607.239246	0.050870
607.448655	0.050879
607.658047	0.050728
607.867420	0.050637
608.076775	0.050354
608.286111	0.049957
608.495430	0.049696
608.704730	0.049882
608.914012	0.050177
609.123275	0.050272
609.332521	0.050186
609.541748	0.050228
609.750957	0.050192
609.960148	0.050223
610.169321	0.050208
610.378475	0.050377
610.587611	0.050172
610.796729	0.049846
611.005829	0.049865
611.214910	0.049616
611.423974	0.049862
611.633019	0.050101
611.842045	0.050168
612.051054	0.050358
612.260044	0.050431
612.469017	0.050616
612.677970	0.051057
612.886906	0.050914
613.095824	0.050766
613.304723	0.050875
613.513604	0.051030
613.722467	0.051208
613.931311	0.051148
614.140138	0.050998
614.348946	0.050901
614.557736	0.050508
614.766507	0.050595
614.975261	0.050903
615.183996	0.050586
615.392713	0.050128
615.601412	0.050027
615.810092	0.050017
616.018754	0.050008
616.227399	0.050006
616.436024	0.049907
616.644632	0.049686
616.853222	0.049522
617.061793	0.049264
617.270346	0.049384
617.478880	0.049315
617.687397	0.049251
617.895895	0.049368
618.104375	0.049501
618.312837	0.049688
618.521281	0.049788
618.729706	0.049863
618.938113	0.050279
619.146502	0.050257
619.354873	0.050151
619.563226	0.050262
619.771560	0.050354
619.979876	0.050353
620.188174	0.050468
620.396453	0.050578
620.604715	0.050750
620.812958	0.050856
621.021183	0.051054
621.229390	0.051297
621.437578	0.051169
621.645748	0.051093
621.853900	0.051126
622.062034	0.051037
622.270150	0.051163
622.478247	0.051211
622.686326	0.051013
622.894387	0.050917
623.102430	0.050849
623.310454	0.050904
623.518461	0.050948
623.726449	0.050914
623.934418	0.051015
624.142370	0.051050
624.350303	0.050901
624.558218	0.051051
624.766115	0.051037
624.973994	0.050727
625.181855	0.050984
625.389697	0.050790
625.597521	0.050872
625.805327	0.050570
626.013114	0.050294
626.220883	0.050387
626.428634	0.050353
626.636367	0.050429
626.844082	0.050769
627.051778	0.050585
627.259457	0.050622
627.467117	0.050628
627.674758	0.050950
627.882382	0.051072
628.089987	0.051240
628.297574	0.051293
628.505143	0.051368
628.712694	0.051439
628.920226	0.051586
629.127740	0.051811
629.335236	0.051562
629.542714	0.051498
629.750174	0.051611
629.957615	0.051678
630.165038	0.051715
630.372443	0.051663
630.579829	0.051599
630.787198	0.051768
630.994548	0.051674
631.201880	0.051961
631.409194	0.052163
631.616489	0.052283
631.823766	0.052057
632.031025	0.052168
632.238266	0.052288
632.445489	0.052476
632.652693	0.052199
632.859879	0.052064
633.067047	0.052025
633.274197	0.051746
633.481329	0.051465
633.688442	0.051413
633.895537	0.051164
634.102614	0.050889
634.309672	0.050641
634.516713	0.050607
634.723735	0.050748
634.930739	0.050616
635.137724	0.050836
635.344692	0.050853
635.551641	0.050877
635.758572	0.051070
635.965485	0.051199
636.172379	0.051203
636.379256	0.051462
636.586114	0.051528
636.792954	0.051499
636.999775	0.051408
637.206579	0.051275
637.413364	0.051146
637.620131	0.050980
637.826880	0.050938
638.033610	0.050936
638.240323	0.050952
638.447017	0.050821
638.653692	0.050756
638.860350	0.050628
639.066990	0.050878
639.273611	0.051070
639.480214	0.050944
639.686798	0.050939
639.893365	0.051123
640.099913	0.050746
640.306443	0.050780
640.512955	0.050777
640.719449	0.050872
640.925924	0.050836
641.132381	0.050730
641.338820	0.050841
641.545241	0.051023
641.751644	0.050727
641.958028	0.051024
642.164394	0.051210
642.370742	0.051520
642.577071	0.051766
642.783383	0.051901
642.989676	0.051972
643.195951	0.052124
643.402207	0.052197
643.608446	0.052486
643.814666	0.052441
644.020868	0.052503
644.227052	0.052280
644.433218	0.052023
644.639365	0.052012
644.845494	0.051958
645.051605	0.051783
645.257698	0.051603
645.463772	0.051504
645.669828	0.051699
645.875866	0.051355
646.081886	0.051660
646.287888	0.051559
646.493871	0.051364
646.699836	0.051395
646.905783	0.051608
647.111712	0.051802
647.317622	0.051936
647.523514	0.051872
647.729388	0.052185
647.935244	0.052003
648.141082	0.052295
648.346901	0.052536
648.552702	0.052578
648.758485	0.052531
648.964250	0.052576
649.169996	0.052575
649.375724	0.052515
649.581434	0.052389
649.787126	0.052488
649.992800	0.052412
650.198455	0.052360
650.404092	0.052411
650.609711	0.052276
650.815311	0.052236
651.020894	0.052284
651.226458	0.052396
651.432004	0.052434
651.637532	0.052606
651.843041	0.052713
652.048532	0.052639
652.254006	0.052793
652.459460	0.052984
652.664897	0.053189
652.870315	0.053134
653.075716	0.053290
653.281097	0.053510
653.486461	0.053461
653.691807	0.053627
653.897134	0.053739
654.102443	0.053759
654.307734	0.053677
654.513006	0.053632
654.718261	0.053638
654.923497	0.053355
655.128715	0.053324
655.333915	0.053198
655.539096	0.053119
655.744259	0.053299
655.949404	0.053150
656.154531	0.053073
656.359640	0.052898
656.564730	0.053034
656.769802	0.053279
656.974856	0.053121
657.179892	0.053189
657.384909	0.052851
657.589908	0.052665
657.794889	0.052582
657.999852	0.052755
658.204797	0.052754
658.409723	0.052588
658.614631	0.052258
658.819521	0.052138
659.024393	0.051828
659.229246	0.051797
659.434081	0.051718
659.638898	0.051628
659.843697	0.051167
660.048478	0.050939
660.253240	0.050958
660.457984	0.051000
660.662710	0.051027
660.867417	0.051292
661.072107	0.051338
661.276778	0.051353
661.481431	0.051461
661.686066	0.051720
661.890682	0.051814
662.095281	0.051892
662.299861	0.052010
662.504422	0.052124
662.708966	0.051976
662.913491	0.052187
663.117999	0.052232
663.322488	0.052291
663.526958	0.052421
663.731411	0.052749
663.935845	0.052641
664.140261	0.052472
664.344659	0.052367
664.549038	0.052415
664.753400	0.052343
664.957743	0.052465
665.162068	0.052482
665.366375	0.052537
665.570663	0.052325
665.774933	0.052348
665.979185	0.052436
666.183419	0.052378
666.387635	0.052446
666.591832	0.052586
666.796011	0.052668
667.000172	0.052689
667.204315	0.052622
667.408439	0.052684
667.612545	0.052674
667.816634	0.052765
668.020703	0.052877
668.224755	0.052803
668.428788	0.052790
668.632803	0.052746
668.836800	0.052646
669.040779	0.052742
669.244739	0.052929
669.448681	0.053091
669.652605	0.053054
669.856511	0.053255
670.060399	0.053314
670.264268	0.053314
670.468119	0.053303
670.671952	0.053466
670.875767	0.053426
671.079563	0.053377
671.283341	0.053228
671.487101	0.053370
671.690843	0.053244
671.894567	0.053309
672.098272	0.053224
672.301959	0.053130
672.505628	0.053270
672.709278	0.053456
672.912911	0.053555
673.116525	0.053697
673.320121	0.053641
673.523699	0.053654
673.727258	0.053754
673.930799	0.053767
674.134322	0.053915
674.337827	0.053792
674.541314	0.053670
674.744782	0.053559
674.948232	0.053411
675.151664	0.053399
675.355078	0.053315
675.558474	0.053182
675.761851	0.053054
675.965210	0.052958
676.168551	0.052905
676.371873	0.052983
676.575178	0.052697
676.778464	0.052752
676.981732	0.052745
677.184981	0.052893
677.388213	0.052886
677.591426	0.052957
677.794621	0.052943
677.997798	0.053095
678.200956	0.052992
678.404097	0.053266
678.607219	0.053292
678.810323	0.053373
679.013408	0.053316
679.216476	0.053333
679.419525	0.053409
679.622556	0.053377
679.825569	0.053257
680.028563	0.053210
680.231540	0.053088
680.434498	0.053214
680.637438	0.053163
680.840359	0.053337
681.043263	0.053477
681.246148	0.053568
681.449015	0.053672
681.651864	0.053798
681.854694	0.053828
682.057506	0.053994
682.260301	0.054133
682.463076	0.054171
682.665834	0.053974
682.868573	0.053993
683.071295	0.054228
683.273998	0.054444
683.476682	0.054516
683.679349	0.054658
683.881997	0.054756
684.084627	0.054628
684.287239	0.054741
684.489833	0.054772
684.692408	0.054758
684.894965	0.054604
685.097504	0.054361
685.300025	0.054383
685.502527	0.054494
685.705012	0.054419
685.907478	0.054407
686.109925	0.054270
686.312355	0.054184
686.514766	0.054021
686.717159	0.053925
686.919534	0.053849
687.121891	0.053732
687.324230	0.053666
687.526550	0.053651
687.728852	0.053663
687.931136	0.053574
688.133401	0.053671
688.335649	0.053661
688.537878	0.053693
688.740089	0.053801
688.942281	0.053520
689.144456	0.053347
689.346612	0.053255
689.548750	0.053152
689.750870	0.053247
689.952971	0.053291
690.155055	0.053582
690.357120	0.053603
690.559167	0.053699
690.761195	0.054052
690.963206	0.054269
691.165198	0.054379
691.367172	0.054516
691.569128	0.054671
691.771065	0.054747
691.972984	0.054704
692.174885	0.054954
692.376768	0.054996
692.578633	0.055100
692.780479	0.055090
692.982308	0.055220
693.184118	0.055227
693.385909	0.055275
693.587683	0.055355
693.789438	0.055456
693.991175	0.055364
694.192894	0.055446
694.394595	0.055358
694.596277	0.055303
694.797941	0.055316
694.999587	0.055495
695.201215	0.055476
695.402824	0.055553
695.604416	0.055646
695.805989	0.055631
696.007543	0.055440
696.209080	0.055496
696.410598	0.055818
696.612099	0.055854
696.813580	0.055889
697.015044	0.055896
697.216490	0.055939
697.417917	0.055913
697.619326	0.055936
697.820717	0.055987
698.022089	0.055955
698.223444	0.055701
698.424780	0.055657
698.626098	0.055542
698.827397	0.055689
699.028679	0.055677
699.229942	0.055879
699.431187	0.055912
699.632414	0.056204
699.833622	0.056300
700.034813	0.056470
700.235985	0.056580
700.437139	0.056701
700.638274	0.056663
700.839392	0.056834
701.040491	0.056661
701.241572	0.056813
701.442635	0.056784
701.643679	0.056765
701.844706	0.056838
702.045714	0.056887
702.246704	0.056877
702.447675	0.056988
702.648629	0.056935
702.849564	0.056851
703.050481	0.056705
703.251380	0.056559
703.452260	0.056564
703.653122	0.056468
703.853966	0.056272
704.054792	0.056013
704.255600	0.055798
704.456389	0.055629
704.657160	0.055471
704.857913	0.055272
705.058648	0.055153
705.259365	0.055074
705.460063	0.054994
705.660743	0.054913
705.861405	0.055063
706.062048	0.054990
706.262674	0.054831
706.463281	0.054794
706.663870	0.054834
706.864441	0.054759
707.064993	0.054815
707.265527	0.054799
707.466043	0.054743
707.666541	0.054609
707.867021	0.054586
708.067482	0.054470
708.267925	0.054523
708.468350	0.054542
708.668757	0.054553
708.869145	0.054449
709.069516	0.054171
709.269868	0.054009
709.470201	0.053895
709.670517	0.053943
709.870814	0.054082
710.071093	0.054040
710.271354	0.053995
710.471597	0.054061
710.671821	0.054017
710.872028	0.054224
711.072216	0.054223
711.272385	0.054343
711.472537	0.054287
711.672670	0.054300
711.872785	0.054259
712.072882	0.054348
712.272961	0.054400
712.473021	0.054451
712.673063	0.054373
712.873087	0.054535
713.073093	0.054496
713.273081	0.054515
713.473050	0.054569
713.673001	0.054516
713.872934	0.054436
714.072849	0.054369
714.272745	0.054423
714.472623	0.054449
714.672483	0.054579
714.872325	0.054653
715.072148	0.054719
715.271954	0.054753
715.471741	0.054938
715.671509	0.054950
715.871260	0.055115
716.070992	0.055190
716.270707	0.055410
716.470403	0.055486
716.670080	0.055647
716.869740	0.055672
717.069381	0.055751
717.269004	0.055789
717.468609	0.055787
717.668195	0.055727
717.867764	0.055668
718.067314	0.055308
718.266846	0.055063
718.466360	0.054713
718.665855	0.054655
718.865332	0.054427
719.064791	0.054228
719.264232	0.054201
719.463655	0.053889
719.663059	0.053581
719.862445	0.053769
720.061813	0.053696
720.261163	0.053675
720.460494	0.053452
720.659807	0.053378
720.859102	0.053244
721.058379	0.053277
721.257638	0.053255
721.456878	0.053243
721.656100	0.053063
721.855304	0.053121
722.054490	0.052947
722.253657	0.053126
722.452806	0.053241
722.651937	0.053263
722.851050	0.053172
723.050145	0.053083
723.249221	0.053160
723.448279	0.053124
723.647319	0.053100
723.846340	0.053160
724.045344	0.053027
724.244329	0.052769
724.443296	0.052774
724.642245	0.052660
724.841175	0.052927
725.040088	0.052964
725.238982	0.052877
725.437857	0.052636
725.636715	0.052645
725.835554	0.052740
726.034376	0.052716
726.233179	0.052854
726.431963	0.052711
726.630730	0.052512
726.829478	0.052504
727.028208	0.052602
727.226920	0.052844
727.425614	0.053064
727.624289	0.052851
727.822946	0.052970
728.021585	0.052798
728.220206	0.053031
728.418808	0.053015
728.617392	0.053028
728.815958	0.052956
729.014506	0.052925
729.213036	0.052605
729.411547	0.052703
729.610040	0.052836
729.808515	0.052905
730.006972	0.052884
730.205410	0.052872
730.403831	0.052653
730.602233	0.052732
730.800616	0.052607
730.998982	0.052642
731.197329	0.052520
731.395658	0.052271
731.593969	0.052147
731.792262	0.051958
731.990536	0.051931
732.188793	0.051958
732.387031	0.051857
732.585250	0.051838
732.783452	0.052036
732.981635	0.051939
733.179800	0.051915
733.377947	0.051858
733.576076	0.051877
733.774186	0.051683
733.972278	0.051738
734.170352	0.051731
734.368408	0.051707
734.566446	0.051407
734.764465	0.051494
734.962466	0.051462
735.160449	0.051705
735.358413	0.051662
735.556360	0.051875
735.754288	0.051856
735.952198	0.051917
736.150090	0.051857
736.347963	0.052094
736.545818	0.052191
736.743655	0.052348
736.941474	0.052282
737.139275	0.052388
737.337057	0.052501
737.534821	0.052544
737.732567	0.052561
737.930295	0.052704
738.128005	0.052733
738.325696	0.052769
738.523369	0.052862
738.721024	0.052972
738.918660	0.053219
739.116279	0.053310
739.313879	0.053372
739.511461	0.053418
739.709024	0.053467
739.906570	0.053387
740.104097	0.053495
740.301606	0.053523
740.499097	0.053364
740.696569	0.053140
740.894024	0.053095
741.091460	0.053069
741.288878	0.053173
741.486277	0.053162
741.683659	0.053392
741.881022	0.053364
742.078367	0.053383
742.275694	0.053692
742.473002	0.053949
742.670293	0.054014
742.867565	0.054234
743.064819	0.054271
743.262054	0.054457
743.459272	0.054557
743.656471	0.054615
743.853652	0.054809
744.050815	0.054799
744.247959	0.054764
744.445085	0.054877
744.642194	0.054795
744.839283	0.054682
745.036355	0.054733
745.233408	0.054418
745.430444	0.054310
745.627461	0.054067
745.824459	0.053769
746.021440	0.053632
746.218402	0.053445
746.415346	0.053394
746.612272	0.053504
746.809180	0.053350
747.006069	0.053384
747.202940	0.053438
747.399793	0.053403
747.596628	0.053654
747.793444	0.053855
747.990243	0.053911
748.187023	0.054135
748.383784	0.054219
748.580528	0.054453
748.777253	0.054646
748.973960	0.054714
749.170649	0.054794
749.367320	0.054785
749.563973	0.054916
749.760607	0.055144
749.957223	0.055018
750.153821	0.054971
750.350400	0.055008
750.546962	0.055119
750.743505	0.055257
750.940030	0.055287
751.136536	0.055211
751.333025	0.054980
751.529495	0.054734
751.725947	0.054695
751.922381	0.054665
752.118796	0.054433
752.315194	0.054367
752.511573	0.054334
752.707934	0.054347
752.904276	0.054368
753.100601	0.054389
753.296907	0.054618
753.493195	0.054512
753.689465	0.054583
753.885716	0.054765
754.081949	0.054749
754.278164	0.054487
754.474361	0.054439
754.670540	0.054406
754.866700	0.054290
755.062843	0.054020
755.258967	0.053970
755.455072	0.053776
755.651160	0.053463
755.847229	0.053529
756.043280	0.053746
756.239313	0.053866
756.435328	0.053901
756.631324	0.053797
756.827302	0.053911
757.023262	0.053958
757.219204	0.053920
757.415127	0.054157
757.611033	0.053826
757.806920	0.053507
758.002788	0.053080
758.198639	0.052988
758.394471	0.053119
758.590286	0.053097
758.786081	0.053043
758.981859	0.052942
759.177619	0.052720
759.373360	0.053015
759.569083	0.052968
759.764788	0.053346
759.960474	0.053303
760.156143	0.053157
760.351793	0.052905
760.547425	0.053221
760.743038	0.053426
760.938634	0.053316
761.134211	0.053031
761.329770	0.053071
761.525311	0.052760
761.720833	0.052844
761.916338	0.052789
762.111824	0.052875
762.307292	0.052501
762.502741	0.052386
762.698173	0.052483
762.893586	0.052577
763.088981	0.052733
763.284358	0.052947
763.479716	0.052948
763.675057	0.053102
763.870379	0.053228
764.065683	0.053318
764.260968	0.053391
764.456236	0.053476
764.651485	0.053305
764.846716	0.053379
765.041929	0.053322
765.237123	0.053290
765.432299	0.053158
765.627457	0.053171
765.822597	0.053253
766.017719	0.053166
766.212822	0.053056
766.407907	0.052990
766.602974	0.052636
766.798023	0.052445
766.993054	0.052389
767.188066	0.052475
767.383060	0.052529
767.578036	0.052233
767.772993	0.052106
767.967933	0.052091
768.162854	0.052206
768.357757	0.052281
768.552642	0.052374
768.747508	0.052250
768.942356	0.052266
769.137186	0.052072
769.331998	0.052207
769.526792	0.052243
769.721567	0.052312
769.916324	0.052287
770.111063	0.052199
770.305784	0.052277
770.500486	0.052246
770.695171	0.052231
770.889837	0.052194
771.084484	0.052175
771.279114	0.052287
771.473725	0.052272
771.668318	0.052582
771.862893	0.052829
772.057450	0.052878
772.251988	0.053017
772.446509	0.052993
772.641011	0.053144
772.835494	0.053257
773.029960	0.053448
773.224407	0.053418
773.418836	0.053202
773.613247	0.053028
773.807640	0.052952
774.002014	0.052960
774.196370	0.052972
774.390708	0.052640
774.585028	0.052349
774.779330	0.051983
774.973613	0.051799
775.167878	0.051774
775.362125	0.051631
775.556354	0.051455
775.750564	0.051273
775.944756	0.051032
776.138930	0.051329
776.333086	0.051484
776.527223	0.051506
776.721343	0.051535
776.915444	0.051381
777.109526	0.051469
777.303591	0.051476
777.497637	0.051590
777.691666	0.051735
777.885676	0.051486
778.079667	0.051505
778.273641	0.051711
778.467596	0.051684
778.661533	0.051707
778.855452	0.051800
779.049352	0.052049
779.243235	0.052194
779.437099	0.052251
779.630945	0.052412
779.824773	0.052454
780.018582	0.052556
780.212373	0.052791
780.406146	0.052984
780.599901	0.052976
780.793638	0.053060
780.987356	0.052907
781.181056	0.052920
781.374738	0.053051
781.568402	0.053252
781.762047	0.053106
781.955674	0.053206
782.149283	0.053327
782.342874	0.053472
782.536447	0.053239
782.730001	0.053458
782.923537	0.053690
783.117055	0.053607
783.310555	0.053338
783.504036	0.053334
783.697499	0.053299
783.890944	0.053232
784.084371	0.053322
784.277780	0.053379
784.471170	0.053389
784.664542	0.053181
784.857896	0.053211
785.051231	0.053141
785.244549	0.052980
785.437848	0.053130
785.631129	0.053038
785.824392	0.052959
786.017636	0.053090
786.210863	0.053023
786.404071	0.053070
786.597260	0.053170
786.790432	0.053324
786.983585	0.053600
787.176721	0.053428
787.369838	0.053482
787.562936	0.053615
787.756017	0.053414
787.949079	0.053324
788.142123	0.053371
788.335149	0.053341
788.528156	0.053473
788.721146	0.053460
788.914117	0.053680
789.107070	0.053960
789.300005	0.054084
789.492921	0.054291
789.685819	0.054541
789.878699	0.054706
790.071561	0.054740
790.264405	0.054968
790.457230	0.055001
790.650037	0.055126
790.842826	0.055129
791.035597	0.055049
791.228349	0.055153
791.421084	0.055129
791.613800	0.055040
791.806497	0.055174
791.999177	0.055188
792.191838	0.055305
792.384481	0.055103
792.577106	0.055101
792.769713	0.055260
792.962301	0.055258
793.154871	0.055325
793.347423	0.055541
793.539957	0.055560
793.732473	0.055433
793.924970	0.055566
794.117449	0.055655
794.309910	0.055593
794.502353	0.055387
794.694777	0.055449
794.887183	0.055372
795.079571	0.055363
795.271941	0.055393
795.464293	0.055295
795.656626	0.055133
795.848941	0.055307
796.041238	0.055122
796.233516	0.055276
796.425777	0.055212
796.618019	0.055418
796.810243	0.055400
797.002449	0.055640
797.194636	0.055961
797.386805	0.056075
797.578956	0.055971
797.771089	0.056362
797.963204	0.056400
798.155300	0.056642
798.347378	0.056521
798.539438	0.056779
798.731480	0.056525
798.923503	0.056544
799.115509	0.056650
799.307496	0.056813
799.499465	0.056763
799.691415	0.056798
799.883348	0.056687
800.075262	0.056959
800.267158	0.056620
800.459035	0.056608
800.650895	0.056518
800.842736	0.056517
801.034559	0.056411
801.226364	0.056390
801.418150	0.056394
801.609919	0.056415
801.801669	0.056070
801.993401	0.056278
802.185114	0.056318
802.376810	0.056127
802.568487	0.056128
802.760146	0.056075
802.951787	0.056249
803.143409	0.056207
803.335014	0.056134
803.526600	0.056299
803.718168	0.056286
803.909717	0.056482
804.101249	0.056666
804.292762	0.056502
804.484257	0.056605
804.675734	0.056348
804.867192	0.056519
805.058632	0.056585
805.250054	0.056581
805.441458	0.056686
805.632844	0.056572
805.824211	0.056500
806.015561	0.056601
806.206891	0.056531
806.398204	0.056657
806.589499	0.056589
806.780775	0.056615
806.972033	0.056614
807.163273	0.056386
807.354495	0.056225
807.545698	0.056329
807.736883	0.056430
807.928050	0.056448
808.119199	0.056466
808.310329	0.056488
808.501441	0.056543
808.692535	0.056562
808.883611	0.056748
809.074669	0.056945
809.265708	0.056960
809.456729	0.056903
809.647732	0.056982
809.838717	0.056927
810.029683	0.056903
810.220632	0.056804
810.411562	0.056785
810.602474	0.056719
810.793367	0.056658
810.984242	0.056636
811.175100	0.056629
811.365938	0.056458
811.556759	0.056688
811.747562	0.056766
811.938346	0.056711
812.129112	0.056732
812.319860	0.056401
812.510589	0.056280
812.701300	0.056366
812.891994	0.056345
813.082668	0.056516
813.273325	0.056282
813.463964	0.056255
813.654584	0.056364
813.845186	0.056456
814.035769	0.056895
814.226335	0.056952
814.416882	0.056942
814.607411	0.056971
814.797922	0.057062
814.988415	0.057238
815.178889	0.057118
815.369345	0.057028
815.559783	0.056860
815.750203	0.056867
815.940605	0.056973
816.130988	0.056971
816.321353	0.056880
816.511700	0.056963
816.702028	0.056972
816.892339	0.056904
817.082631	0.057192
817.272905	0.057489
817.463161	0.057477
817.653398	0.057538
817.843617	0.057495
818.033819	0.057544
818.224001	0.057280
818.414166	0.057101
818.604312	0.057397
818.794440	0.057217
818.984550	0.056889
819.174642	0.056725
819.364716	0.056695
819.554771	0.056691
819.744808	0.056623
819.934827	0.056853
820.124827	0.056963
820.314810	0.056975
820.504774	0.057032
820.694720	0.057299
820.884647	0.057451
821.074557	0.057503
821.264448	0.057609
821.454321	0.057751
821.644176	0.057337
821.834012	0.057396
822.023831	0.057309
822.213631	0.057501
822.403413	0.057448
822.593176	0.057503
822.782922	0.057601
822.972649	0.057733
823.162358	0.057767
823.352049	0.058180
823.541721	0.057990
823.731376	0.058231
823.921012	0.058273
824.110629	0.058376
824.300229	0.058300
824.489811	0.058538
824.679374	0.058599
824.868919	0.058839
825.058445	0.059034
825.247954	0.059513
825.437444	0.059387
825.626916	0.059442
825.816370	0.059693
826.005806	0.059920
826.195223	0.059764
826.384622	0.059901
826.574003	0.059884
826.763366	0.059629
826.952711	0.059486
827.142037	0.059324
827.331345	0.059160
827.520635	0.059014
827.709906	0.059068
827.899160	0.059027
828.088395	0.058637
828.277612	0.058556
828.466810	0.058618
828.655991	0.058478
828.845153	0.058185
829.034297	0.058062
829.223423	0.057795
829.412531	0.057632
829.601620	0.057376
829.790691	0.057507
829.979744	0.057515
830.168779	0.057466
830.357795	0.057411
830.546793	0.057739
830.735773	0.057816
830.924735	0.058070
831.113679	0.058022
831.302604	0.058178
831.491511	0.058081
831.680400	0.057863
831.869271	0.057770
832.058123	0.057955
832.246957	0.058206
832.435773	0.058254
832.624571	0.058145
832.813351	0.058160
833.002112	0.058164
833.190855	0.058206
833.379580	0.058382
833.568287	0.058632
833.756975	0.058659
833.945645	0.058501
834.134297	0.058590
834.322931	0.058889
834.511547	0.058951
834.700144	0.059215
834.888723	0.059214
835.077284	0.059362
835.265826	0.059365
835.454351	0.059346
835.642857	0.059580
835.831345	0.059904
836.019815	0.059793
836.208266	0.059870
836.396699	0.059907
836.585114	0.060173
836.773511	0.060364
836.961890	0.060422
837.150250	0.060566
837.338592	0.060733
837.526916	0.060726
837.715222	0.060931
837.903510	0.061074
838.091779	0.061214
838.280030	0.061371
838.468263	0.061413
838.656477	0.061574
838.844674	0.061895
839.032852	0.062058
839.221012	0.062185
839.409153	0.062321
839.597277	0.062407
839.785382	0.062438
839.973469	0.062464
840.161538	0.062580
840.349589	0.062460
840.537621	0.062565
840.725635	0.062357
840.913631	0.062202
841.101609	0.062297
841.289568	0.062513
841.477509	0.062946
841.665432	0.063037
841.853337	0.063095
842.041224	0.063242
842.229092	0.063183
842.416942	0.063290
842.604774	0.063319
842.792588	0.063357
842.980383	0.063207
843.168160	0.062837
843.355919	0.062872
843.543660	0.062899
843.731382	0.062944
843.919087	0.062970
844.106773	0.063311
844.294441	0.063537
844.482090	0.063447
844.669722	0.063757
844.857335	0.063961
845.044930	0.064095
845.232507	0.064145
845.420065	0.064292
845.607605	0.064375
845.795127	0.064168
845.982631	0.064436
846.170117	0.064604
846.357584	0.064643
846.545033	0.064682
846.732464	0.064699
846.919877	0.064954
847.107272	0.065236
847.294648	0.065160
847.482006	0.065485
847.669346	0.065182
847.856667	0.065249
848.043971	0.065125
848.231256	0.065046
848.418523	0.065171
848.605771	0.064859
848.793002	0.064806
848.980214	0.064857
849.167408	0.064560
849.354584	0.064679
849.541742	0.064391
849.728881	0.064549
849.916002	0.064545
850.103105	0.064507
850.290190	0.064494
850.477256	0.064407
850.664304	0.064389
850.851334	0.064582
851.038346	0.064694
851.225340	0.065018
851.412315	0.064911
851.599272	0.064876
851.786211	0.064768
851.973132	0.065013
852.160034	0.065085
852.346918	0.065005
852.533784	0.064766
852.720632	0.064663
852.907462	0.064450
853.094273	0.064451
853.281066	0.064341
853.467841	0.064316
853.654598	0.064026
853.841336	0.064038
854.028056	0.063999
854.214758	0.063902
854.401442	0.063963
854.588107	0.063724
854.774755	0.063563
854.961384	0.063820
855.147995	0.063844
855.334587	0.064020
855.521162	0.063854
855.707718	0.064041
855.894256	0.064214
856.080775	0.064197
856.267277	0.064588
856.453760	0.064982
856.640225	0.065158
856.826672	0.065412
857.013101	0.065554
857.199511	0.065990
857.385903	0.066144
857.572277	0.066149
857.758633	0.066177
857.944970	0.066425
858.131290	0.066257
858.317591	0.066378
858.503873	0.066571
858.690138	0.066871
858.876384	0.066663
859.062612	0.066841
859.248822	0.067333
859.435014	0.067551
859.621188	0.067475
859.807343	0.067751
859.993480	0.067630
860.179599	0.067502
860.365699	0.067551
860.551781	0.067672
860.737846	0.067801
860.923891	0.067735
861.109919	0.067951
861.295929	0.068351
861.481920	0.068821
861.667893	0.069267
861.853848	0.069707
862.039784	0.069444
862.225702	0.069626
862.411603	0.069563
862.597484	0.069538
862.783348	0.069365
862.969193	0.069200
863.155021	0.068841
863.340830	0.068764
863.526620	0.068350
863.712393	0.068712
863.898147	0.068571
864.083883	0.068658
864.269601	0.068835
864.455301	0.068868
864.640982	0.068735
864.826645	0.068556
865.012290	0.068296
865.197917	0.068276
865.383526	0.068015
865.569116	0.068002
865.754688	0.067864
865.940242	0.067450
866.125777	0.067342
866.311295	0.066947
866.496794	0.067058
866.682275	0.067176
866.867737	0.067351
867.053182	0.067412
867.238608	0.067610
867.424016	0.067544
867.609406	0.068121
867.794778	0.067901
867.980131	0.068248
868.165466	0.068505
868.350783	0.068514
868.536082	0.068444
868.721362	0.068628
868.906625	0.068326
869.091869	0.068697
869.277094	0.068622
869.462302	0.069126
869.647491	0.069002
869.832662	0.068812
870.017815	0.068864
870.202950	0.069071
870.388066	0.069179
870.573165	0.069333
870.758245	0.069136
870.943306	0.068856
871.128350	0.068691
871.313375	0.069090
871.498382	0.069004
871.683371	0.069048
871.868342	0.068851
872.053294	0.068990
872.238229	0.069046
872.423144	0.068955
872.608042	0.069194
872.792922	0.069358
872.977783	0.069073
873.162626	0.068759
873.347451	0.069029
873.532258	0.069414
873.717046	0.068948
873.901816	0.068885
874.086568	0.069238
874.271302	0.069247
874.456017	0.069052
874.640715	0.069277
874.825394	0.069846
875.010055	0.069170
875.194697	0.068916
875.379322	0.069226
875.563928	0.069486
875.748516	0.069391
875.933085	0.069381
876.117637	0.069400
876.302170	0.069737
876.486685	0.069667
876.671182	0.070114
876.855661	0.070239
877.040121	0.070330
877.224563	0.070483
877.408987	0.070352
877.593393	0.070136
877.777780	0.070497
877.962150	0.070052
878.146501	0.070167
878.330833	0.070080
878.515148	0.070300
878.699444	0.070415
878.883722	0.070174
879.067982	0.070083
879.252224	0.070410
879.436447	0.070257
879.620653	0.070275
879.804840	0.069963
879.989008	0.070057
880.173159	0.069800
880.357291	0.069598
880.541405	0.069738
880.725501	0.069969
880.909579	0.069855
881.093638	0.069949
881.277680	0.070345
881.461703	0.070510
881.645707	0.070516
881.829694	0.070771
882.013662	0.070484
882.197612	0.070513
882.381544	0.070580
882.565458	0.070549
882.749353	0.069972
882.933230	0.069763
883.117089	0.069741
883.300930	0.069823
883.484753	0.069373
883.668557	0.069644
883.852343	0.069498
884.036111	0.069349
884.219861	0.069510
884.403592	0.070060
884.587305	0.070152
884.771000	0.070393
884.954677	0.070251
885.138335	0.070765
885.321976	0.071048
885.505598	0.071303
885.689201	0.071438
885.872787	0.071401
886.056354	0.071581
886.239904	0.071481
886.423434	0.071193
886.606947	0.071283
886.790442	0.070804
886.973918	0.070549
887.157376	0.070576
887.340816	0.070341
887.524237	0.070286
887.707641	0.070051
887.891026	0.070107
888.074393	0.070400
888.257741	0.070209
888.441072	0.070467
888.624384	0.069946
888.807678	0.069588
888.990954	0.069274
889.174211	0.069115
889.357451	0.069027
889.540672	0.068703
889.723875	0.068585
889.907059	0.068591
890.090226	0.068407
890.273374	0.068458
890.456504	0.068243
890.639616	0.068750
890.822709	0.068815
891.005785	0.068881
891.188842	0.068764
891.371881	0.068462
891.554901	0.068608
891.737904	0.068433
891.920888	0.068433
892.103854	0.068566
892.286802	0.068267
892.469731	0.067920
892.652643	0.067780
892.835536	0.068261
893.018410	0.068304
893.201267	0.068090
893.384106	0.068163
893.566926	0.068575
893.749728	0.068684
893.932511	0.068614
894.115277	0.068895
894.298024	0.068726
894.480753	0.068379
894.663464	0.068600
894.846157	0.068868
895.028831	0.068858
895.211487	0.068802
895.394125	0.069013
895.576745	0.069229
895.759346	0.069507
895.941930	0.069849
896.124495	0.069586
896.307041	0.069522
896.489570	0.069130
896.672080	0.069220
896.854573	0.069119
897.037046	0.068552
897.219502	0.068588
897.401940	0.068471
897.584359	0.068253
897.766760	0.068458
897.949143	0.068524
898.131507	0.068846
898.313854	0.068452
898.496182	0.068711
898.678492	0.069001
898.860783	0.068902
899.043057	0.068571
899.225312	0.068304
899.407549	0.068330
899.589768	0.068064
899.771968	0.067699
899.954151	0.067996
900.136315	0.067503
900.318461	0.067399
900.500588	0.067045
900.682698	0.066937
900.864789	0.067243
901.046862	0.067082
901.228917	0.066985
901.410953	0.067073
901.592971	0.066625
901.774972	0.066538
901.956953	0.066167
902.138917	0.065834
902.320862	0.065952
902.502790	0.065688
902.684699	0.065727
902.866589	0.065640
903.048462	0.065635
903.230316	0.065452
903.412152	0.065226
903.593970	0.065416
903.775770	0.065695
903.957551	0.065307
904.139314	0.064995
904.321059	0.064781
904.502786	0.064682
904.684494	0.064587
904.866185	0.064955
905.047857	0.065084
905.229510	0.064710
905.411146	0.064597
905.592763	0.064583
905.774363	0.064703
905.955943	0.064607
906.137506	0.064560
906.319051	0.064104
906.500577	0.063681
906.682085	0.063646
906.863575	0.063779
907.045046	0.063775
907.226500	0.063587
907.407935	0.063559
907.589352	0.063668
907.770750	0.063982
907.952131	0.064476
908.133493	0.064714
908.314837	0.064752
908.496163	0.064878
908.677470	0.064779
908.858760	0.065225
909.040031	0.065136
909.221284	0.065329
909.402518	0.065091
909.583735	0.064748
909.764933	0.064851
909.946113	0.064514
910.127275	0.064280
910.308418	0.064387
910.489544	0.063914
910.670651	0.064023
910.851740	0.063978
911.032810	0.063750
911.213863	0.063458
911.394897	0.063170
911.575913	0.063168
911.756911	0.062499
911.937890	0.062433
912.118851	0.062397
912.299794	0.062019
912.480719	0.061482
912.661626	0.061378
912.842514	0.061222
913.023384	0.060820
913.204236	0.060829
913.385070	0.061324
913.565886	0.060750
913.746683	0.060787
913.927462	0.060842
914.108223	0.060626
914.288965	0.060425
914.469690	0.060463
914.650396	0.060992
914.831084	0.060665
915.011754	0.060254
915.192405	0.060630
915.373038	0.060344
915.553653	0.059540
915.734250	0.059539
915.914829	0.059197
916.095389	0.058847
916.275931	0.058077
916.456455	0.057756
916.636961	0.057598
916.817448	0.057103
916.997917	0.056790
917.178368	0.056619
917.358801	0.056222
917.539216	0.056023
917.719612	0.055877
917.899990	0.055775
918.080350	0.055707
918.260692	0.055921
918.441015	0.055634
918.621320	0.055525
918.801607	0.055959
918.981876	0.056064
919.162127	0.055875
919.342359	0.055526
919.522573	0.055816
919.702769	0.055449
919.882947	0.055055
920.063106	0.054792
920.243247	0.055158
920.423370	0.054989
920.603475	0.055056
920.783562	0.054852
920.963630	0.054654
921.143680	0.054119
921.323712	0.053886
921.503725	0.053503
921.683721	0.053517
921.863698	0.052691
922.043657	0.051984
922.223598	0.051160
922.403520	0.050771
922.583424	0.051302
922.763311	0.051212
922.943178	0.051824
923.123028	0.051755
923.302859	0.051774
923.482673	0.051541
923.662467	0.051815
923.842244	0.052409
924.022003	0.052237
924.201743	0.051757
924.381465	0.051126
924.561169	0.050500
924.740854	0.050301
924.920522	0.049767
925.100171	0.049614
925.279802	0.049417
925.459414	0.048585
925.639009	0.049397
925.818585	0.049055
925.998143	0.048886
926.177683	0.048948
926.357205	0.048591
926.536708	0.048728
926.716193	0.048608
926.895660	0.048560
927.075109	0.047989
927.254539	0.047304
927.433951	0.047461
927.613345	0.047593
927.792721	0.046606
927.972079	0.046920
928.151418	0.046917
928.330739	0.046543
928.510042	0.046224
928.689327	0.046194
928.868593	0.046048
929.047841	0.045249
929.227071	0.044690
929.406283	0.044968
929.585476	0.044452
929.764652	0.044359
929.943809	0.043920
930.122948	0.043611
930.302068	0.043536
930.481171	0.042797
930.660255	0.043021
930.839321	0.042887
931.018369	0.042304
931.197398	0.041818
931.376409	0.040692
931.555402	0.040845
931.734377	0.039998
931.913334	0.039332
932.092272	0.039136
932.271192	0.038275
932.450094	0.038071
932.628978	0.037724
932.807844	0.038034
932.986691	0.037845
933.165520	0.037447
933.344331	0.037553
933.523123	0.037668
933.701898	0.037591
933.880654	0.037159
934.059392	0.036580
934.238111	0.036705
934.416813	0.036178
934.595496	0.036488
934.774161	0.036474
934.952808	0.036441
935.131437	0.036291
935.310047	0.035998
935.488639	0.036895
935.667213	0.037164
935.845769	0.037143
936.024306	0.036736
936.202825	0.035794
936.381326	0.035275
936.559809	0.034917
936.738274	0.034949
936.916720	0.034726
937.095148	0.033962
937.273558	0.033583
937.451950	0.033180
937.630323	0.032899
937.808678	0.033057
937.987015	0.033277
938.165334	0.033771
938.343635	0.032912
938.521917	0.032528
938.700181	0.031737
938.878427	0.031598
939.056655	0.032013
939.234864	0.031528
939.413055	0.030968
939.591228	0.031023
939.769383	0.029425
939.947519	0.029475
940.125638	0.029226
940.303738	0.028796
940.481820	0.028392
940.659883	0.027096
940.837929	0.027926
941.015956	0.027924
941.193965	0.027167
941.371955	0.026894
941.549928	0.026898
941.727882	0.026213
941.905818	0.026193
942.083736	0.026059
942.261636	0.025493
942.439517	0.024284
942.617380	0.024334
942.795225	0.023787
942.973052	0.024389
943.150860	0.023894
943.328651	0.023797
943.506423	0.023023
943.684176	0.022377
943.861912	0.022900
944.039629	0.022576
944.217328	0.022160
944.395009	0.021903
944.572672	0.020806
944.750317	0.020696
944.927943	0.020452
945.105551	0.020899
945.283141	0.021025
945.460712	0.020480
945.638265	0.020893
945.815801	0.020682
945.993317	0.019586
946.170816	0.020041
946.348297	0.019695
946.525759	0.019941
946.703203	0.019391
946.880629	0.019914
947.058036	0.019438
947.235425	0.017918
947.412797	0.017823
947.590149	0.018330
947.767484	0.017348
947.944800	0.017936
948.122099	0.018636
948.299379	0.018996
948.476640	0.018376
948.653884	0.018651
948.831109	0.019294
949.008316	0.018586
949.185505	0.018641
949.362676	0.020396
949.539828	0.019923
949.716962	0.019485
949.894078	0.019736
950.071176	0.019873
950.248256	0.020365
950.425317	0.019716
950.602360	0.019114
950.779385	0.019367
950.956391	0.018896
951.133380	0.019631
951.310350	0.019392
951.487302	0.020344
951.664235	0.020331
951.841151	0.020424
952.018048	0.021328
952.194927	0.022684
952.371788	0.022031
952.548631	0.021601
952.725455	0.020837
952.902261	0.020720
953.079049	0.019619
953.255819	0.019086
953.432570	0.019084
953.609303	0.020053
953.786018	0.020017
953.962715	0.021221
954.139394	0.020813
954.316054	0.020685
954.492696	0.020654
954.669320	0.020290
954.845926	0.020711
955.022513	0.021505
955.199083	0.021725
955.375634	0.020527
955.552166	0.020041
955.728681	0.021199
955.905177	0.021653
956.081655	0.021576
956.258115	0.023653
956.434557	0.022885
956.610980	0.021904
956.787385	0.021601
956.963772	0.022137
957.140141	0.024211
957.316492	0.023462
957.492824	0.024251
957.669138	0.025665
957.845434	0.025058
958.021712	0.026812
958.197971	0.027063
958.374212	0.028284
958.550435	0.029508
958.726640	0.027662
958.902826	0.030041
959.078995	0.030910
959.255145	0.030005
959.431277	0.030950
959.607390	0.029868
959.783486	0.030783
959.959563	0.030715
960.135622	0.031628
960.311662	0.031907
960.487685	0.030864
960.663689	0.030982
960.839675	0.032018
961.015643	0.032128
961.191593	0.035397
961.367524	0.035897
961.543437	0.034266
961.719332	0.032993
961.895209	0.034362
962.071067	0.036317
962.246907	0.037419
962.422730	0.037745
962.598533	0.039064
962.774319	0.038795
962.950086	0.038951
963.125835	0.040522
963.301566	0.043263
963.477279	0.044146
963.652973	0.043389
963.828650	0.040207
964.004308	0.041635
964.179947	0.041754
964.355569	0.040152
964.531172	0.042129
964.706757	0.041652
964.882324	0.039928
965.057873	0.040533
965.233403	0.041557
965.408916	0.043671
965.584410	0.042595
965.759885	0.040523
965.935343	0.039432
966.110782	0.037465
966.286203	0.039692
966.461606	0.040411
966.636991	0.039633
966.812357	0.040785
966.987705	0.042044
967.163035	0.041160
967.338347	0.041249
967.513641	0.044002
967.688916	0.043443
967.864173	0.044320
968.039412	0.045021
968.214632	0.043188
968.389835	0.041779
968.565019	0.040322
968.740185	0.041908
968.915333	0.044872
969.090462	0.045258
969.265573	0.045320
969.440667	0.043402
969.615741	0.044402
969.790798	0.049341
969.965836	0.048263
970.140856	0.049504
970.315858	0.050038
970.490842	0.049975
970.665808	0.050234
970.840755	0.049971
971.015684	0.051887
971.190595	0.053053
971.365487	0.050449
971.540362	0.051889
971.715218	0.050957
971.890056	0.049521
972.064875	0.048390
972.239677	0.048230
972.414460	0.049817
972.589225	0.048042
972.763972	0.045382
972.938700	0.044063
973.113411	0.043838
973.288103	0.042624
973.462777	0.044350
973.637432	0.041827
973.812070	0.040748
973.986689	0.039855
974.161290	0.038172
974.335873	0.038531
974.510437	0.040645
974.684984	0.041119
974.859512	0.041724
975.034022	0.043164
975.208513	0.044289
975.382987	0.045428
975.557442	0.046339
975.731879	0.049742
975.906298	0.048011
976.080698	0.048910
976.255080	0.047657
976.429445	0.048371
976.603790	0.046894
976.778118	0.048158
976.952427	0.050188
977.126719	0.050166
977.300992	0.049126
977.475246	0.053421
977.649483	0.053228
977.823701	0.053421
977.997901	0.053153
978.172083	0.050279
978.346247	0.051651
978.520392	0.047978
978.694519	0.046234
978.868628	0.045602
979.042719	0.046019
979.216791	0.044784
979.390845	0.047211
979.564882	0.048403
979.738899	0.050719
979.912899	0.048948
980.086880	0.049920
980.260843	0.051651
980.434788	0.051978
980.608715	0.049844
980.782623	0.050246
980.956514	0.048412
981.130386	0.047381
981.304240	0.045270
981.478075	0.045008
981.651892	0.044144
981.825692	0.043790
981.999472	0.043676
982.173235	0.044641
982.346980	0.044323
982.520706	0.045211
982.694414	0.044087
982.868104	0.044463
983.041775	0.045378
983.215428	0.047856
983.389064	0.046864
983.562680	0.049308
983.736279	0.046470
983.909860	0.044977
984.083422	0.045093
984.256966	0.046275
984.430491	0.048678
984.603999	0.049746
984.777488	0.049795
984.950959	0.049400
985.124412	0.045871
985.297847	0.046588
985.471263	0.049643
985.644661	0.049005
985.818041	0.048736
985.991403	0.049238
986.164747	0.049235
986.338072	0.048395
986.511379	0.050701
986.684668	0.052224
986.857938	0.053864
987.031191	0.051677
987.204425	0.050499
987.377641	0.050413
987.550839	0.047634
987.724018	0.046610
987.897179	0.047853
988.070322	0.045743
988.243447	0.044186
988.416554	0.043815
988.589642	0.043766
988.762712	0.043847
988.935764	0.045186
989.108798	0.045224
989.281813	0.043446
989.454811	0.041642
989.627790	0.041073
989.800751	0.042317
989.973693	0.042279
990.146617	0.042279
990.319524	0.042244
990.492412	0.040105
990.665281	0.042456
990.838133	0.043183
991.010966	0.042432
991.183781	0.043193
991.356578	0.044144
991.529356	0.043267
991.702117	0.043803
991.874859	0.046037
992.047583	0.045800
992.220288	0.042326
992.392976	0.043720
992.565645	0.044415
992.738296	0.044218
992.910929	0.043106
993.083543	0.043276
993.256139	0.042285
993.428718	0.040311
993.601277	0.041017
993.773819	0.042940
993.946342	0.040468
994.118848	0.039834
994.291335	0.041101
994.463803	0.041076
994.636254	0.042461
994.808686	0.043112
994.981100	0.045738
995.153496	0.045381
995.325874	0.043931
995.498233	0.046287
995.670574	0.045241
995.842897	0.045318
996.015202	0.046986
996.187488	0.046236
996.359757	0.047806
996.532007	0.043747
996.704239	0.044810
996.876452	0.045465
997.048648	0.044649
997.220825	0.047487
997.392984	0.047483
997.565124	0.045369
997.737247	0.044640
997.909351	0.041957
998.081437	0.044273
998.253505	0.044537
998.425554	0.045507
998.597586	0.042978
998.769599	0.040487
998.941594	0.041635
999.113571	0.039863
999.285529	0.040374
999.457469	0.040724
999.629391	0.040658
999.801295	0.040738
999.973181	0.043026
1000.145048	0.045856
1000.316897	0.046851
1000.488728	0.043072
1000.660541	0.044511
1000.832335	0.045888
1001.004111	0.045182
1001.175869	0.044855
1001.347609	0.044002
1001.519331	0.040720
1001.691034	0.039265
1001.862719	0.039159
1002.034386	0.040230
1002.206035	0.039838
1002.377665	0.038323
1002.549277	0.038352
1002.720871	0.039129
1002.892447	0.039523
1003.064004	0.040366
1003.235544	0.041676
1003.407065	0.040931
1003.578568	0.042143
1003.750052	0.043139
1003.921519	0.043933
1004.092967	0.045864
1004.264397	0.044384
1004.435809	0.044051
1004.607202	0.043877
1004.778577	0.042206
1004.949934	0.042038
1005.121273	0.041354
1005.292594	0.043982
1005.463896	0.042553
1005.635180	0.042211
1005.806446	0.044396
1005.977694	0.043760
1006.148923	0.044555
1006.320135	0.045478
1006.491328	0.044586
1006.662503	0.044848
1006.833659	0.040405
1007.004798	0.039556
1007.175918	0.038493
1007.347020	0.037433
1007.518103	0.038411
1007.689169	0.037136
1007.860216	0.038044
1008.031245	0.039655
1008.202256	0.039329
1008.373248	0.040623
1008.544223	0.041990
1008.715179	0.041282
1008.886117	0.041212
1009.057036	0.040653
1009.227938	0.040804
1009.398821	0.039629
1009.569686	0.039870
1009.740533	0.039129
1009.911361	0.038954
1010.082172	0.038432
1010.252964	0.039266
1010.423738	0.039021
1010.594493	0.041137
1010.765231	0.040787
1010.935950	0.040754
1011.106651	0.040314
1011.277334	0.040858
1011.447998	0.040622
1011.618645	0.039328
1011.789273	0.039329
1011.959882	0.040735
1012.130474	0.038760
1012.301048	0.037930
1012.471603	0.036870
1012.642140	0.037446
1012.812658	0.037651
1012.983159	0.039540
1013.153641	0.041708
1013.324105	0.041122
1013.494551	0.038671
1013.664979	0.038575
1013.835388	0.040896
1014.005779	0.042054
1014.176152	0.041067
1014.346507	0.040739
1014.516843	0.040708
1014.687162	0.039855
1014.857462	0.039408
1015.027744	0.038865
1015.198007	0.037833
1015.368252	0.034822
1015.538480	0.036119
1015.708689	0.036770
1015.878879	0.036872
1016.049052	0.035851
1016.219206	0.035647
1016.389342	0.038186
1016.559460	0.036975
1016.729559	0.037751
1016.899641	0.039515
1017.069704	0.037642
1017.239749	0.038034
1017.409775	0.037645
1017.579784	0.038506
1017.749774	0.037570
1017.919746	0.038398
1018.089700	0.039992
1018.259635	0.040469
1018.429553	0.040856
1018.599452	0.042642
1018.769333	0.041611
1018.939195	0.043826
1019.109040	0.044064
1019.278866	0.044548
1019.448674	0.042337
1019.618464	0.041703
1019.788235	0.041741
1019.957989	0.040192
1020.127724	0.039433
1020.297441	0.039723
1020.467139	0.038606
1020.636820	0.037111
1020.806482	0.037840
1020.976126	0.037345
1021.145752	0.036874
1021.315359	0.036635
1021.484948	0.037204
1021.654519	0.038286
1021.824072	0.037807
1021.993607	0.037432
1022.163123	0.036068
1022.332621	0.034637
1022.502101	0.035670
1022.671563	0.036938
1022.841007	0.037766
1023.010432	0.039010
1023.179839	0.037237
1023.349228	0.037771
1023.518598	0.038099
1023.687951	0.038829
1023.857285	0.039965
1024.026601	0.038360
1024.195899	0.038448
1024.365178	0.037975
1024.534439	0.037355
1024.703682	0.037494
1024.872907	0.036649
1025.042114	0.036463
1025.211302	0.037232
1025.380472	0.036597
1025.549624	0.038197
1025.718758	0.038289
1025.887873	0.037947
1026.056970	0.039061
1026.226049	0.040726
1026.395110	0.041513
1026.564153	0.041905
1026.733177	0.042424
1026.902183	0.042814
1027.071171	0.041699
1027.240141	0.041232
1027.409092	0.039374
1027.578026	0.038764
1027.746940	0.038511
1027.915837	0.039365
1028.084716	0.038593
1028.253576	0.040762
1028.422418	0.039425
1028.591242	0.040378
1028.760048	0.038536
1028.928835	0.040016
1029.097604	0.039203
1029.266355	0.038312
1029.435088	0.038171
1029.603803	0.038714
1029.772499	0.036074
1029.941177	0.036724
1030.109837	0.036311
1030.278478	0.036909
1030.447102	0.037140
1030.615707	0.037612
1030.784294	0.037428
1030.952863	0.035781
1031.121413	0.036115
1031.289945	0.035912
1031.458460	0.037009
1031.626955	0.036666
1031.795433	0.038989
1031.963892	0.038709
1032.132334	0.040668
1032.300756	0.040145
1032.469161	0.040573
1032.637548	0.040566
1032.805916	0.040573
1032.974266	0.041203
1033.142598	0.042153
1033.310911	0.041617
1033.479207	0.039931
1033.647484	0.038203
1033.815743	0.036953
1033.983983	0.036446
1034.152206	0.036748
1034.320410	0.038215
1034.488596	0.037287
1034.656764	0.037125
1034.824914	0.036777
1034.993045	0.038951
1035.161158	0.038885
1035.329253	0.039998
1035.497330	0.040740
1035.665388	0.038857
1035.833428	0.037744
1036.001450	0.038825
1036.169454	0.037524
1036.337440	0.036579
1036.505407	0.035201
1036.673356	0.034317
1036.841287	0.036695
1037.009200	0.036486
1037.177094	0.036346
1037.344970	0.036003
1037.512828	0.035665
1037.680668	0.035680
1037.848489	0.036071
1038.016293	0.036931
1038.184078	0.036812
1038.351845	0.035391
1038.519593	0.035286
1038.687324	0.036260
1038.855036	0.037013
1039.022730	0.035954
1039.190406	0.036297
1039.358063	0.036138
1039.525702	0.035437
1039.693323	0.035546
1039.860926	0.034658
1040.028511	0.036620
1040.196077	0.037717
1040.363625	0.037655
1040.531155	0.039368
1040.698667	0.039182
1040.866161	0.039021
1041.033636	0.037705
1041.201093	0.037245
1041.368532	0.036312
1041.535952	0.033283
1041.703355	0.032543
1041.870739	0.031508
1042.038105	0.030225
1042.205452	0.031116
1042.372782	0.031948
1042.540093	0.033376
1042.707386	0.033948
1042.874661	0.034588
1043.041918	0.036126
1043.209156	0.036483
1043.376376	0.037159
1043.543578	0.036804
1043.710762	0.037569
1043.877927	0.037830
1044.045074	0.036732
1044.212203	0.036818
1044.379314	0.037913
1044.546407	0.038172
1044.713481	0.038265
1044.880537	0.037937
1045.047575	0.037368
1045.214595	0.036513
1045.381596	0.037574
1045.548579	0.038739
1045.715544	0.039444
1045.882491	0.038578
1046.049420	0.038010
1046.216330	0.037621
1046.383222	0.036883
1046.550096	0.036826
1046.716951	0.037701
1046.883789	0.035590
1047.050608	0.036628
1047.217409	0.037823
1047.384192	0.037528
1047.550956	0.038282
1047.717703	0.038369
1047.884431	0.037662
1048.051140	0.037525
1048.217832	0.036536
1048.384505	0.037851
1048.551161	0.037024
1048.717798	0.036383
1048.884416	0.035908
1049.051017	0.035388
1049.217599	0.035535
1049.384163	0.037207
1049.550709	0.037781
1049.717237	0.036802
1049.883746	0.037681
1050.050237	0.038291
1050.216710	0.037931
1050.383165	0.039627
1050.549601	0.039168
1050.716019	0.037653
1050.882420	0.037884
1051.048801	0.036701
1051.215165	0.038084
1051.381510	0.037156
1051.547837	0.036915
1051.714146	0.037055
1051.880437	0.037676
1052.046709	0.038374
1052.212964	0.039674
1052.379200	0.040689
1052.545417	0.041406
1052.711617	0.039333
1052.877798	0.038229
1053.043961	0.039866
1053.210106	0.038441
1053.376233	0.039592
1053.542341	0.039461
1053.708432	0.037902
1053.874504	0.037318
1054.040557	0.038713
1054.206593	0.039567
1054.372610	0.042162
1054.538609	0.041316
1054.704590	0.043046
1054.870553	0.040622
1055.036497	0.039074
1055.202424	0.039988
1055.368331	0.040368
1055.534221	0.039471
1055.700093	0.040098
1055.865946	0.037525
1056.031781	0.038299
1056.197598	0.035827
1056.363397	0.036830
1056.529177	0.039066
1056.694939	0.037665
1056.860683	0.035989
1057.026409	0.036695
1057.192116	0.035147
1057.357806	0.034481
1057.523477	0.031882
1057.689130	0.032827
1057.854764	0.031703
1058.020381	0.032786
1058.185979	0.034725
1058.351559	0.034098
1058.517120	0.035173
1058.682664	0.036008
1058.848189	0.035401
1059.013696	0.036812
1059.179185	0.035823
1059.344656	0.036039
1059.510108	0.034007
1059.675542	0.031435
1059.840958	0.031584
1060.006356	0.032306
1060.171735	0.031573
1060.337096	0.032670
1060.502439	0.032726
1060.667764	0.035117
1060.833071	0.034344
1060.998359	0.033699
1061.163629	0.035737
1061.328881	0.035579
1061.494115	0.032706
1061.659330	0.032652
1061.824527	0.034059
1061.989706	0.033504
1062.154867	0.033818
1062.320010	0.034733
1062.485134	0.034578
1062.650240	0.034660
1062.815328	0.035820
1062.980398	0.036831
1063.145449	0.037354
1063.310482	0.035929
1063.475497	0.034960
1063.640494	0.033232
1063.805473	0.031396
1063.970433	0.032727
1064.135375	0.034441
1064.300299	0.035159
1064.465204	0.036978
1064.630092	0.038550
1064.794961	0.040687
1064.959812	0.040405
1065.124645	0.039800
1065.289459	0.040942
1065.454256	0.038780
1065.619034	0.036029
1065.783793	0.034470
1065.948535	0.034259
1066.113258	0.033146
1066.277964	0.033885
1066.442651	0.035212
1066.607319	0.035854
1066.771970	0.036330
1066.936602	0.038505
1067.101216	0.038784
1067.265812	0.041192
1067.430389	0.039932
1067.594949	0.039463
1067.759490	0.035544
1067.924013	0.035747
1068.088518	0.037076
1068.253004	0.035059
1068.417472	0.033757
1068.581922	0.034903
1068.746354	0.032506
1068.910768	0.031646
1069.075163	0.030582
1069.239540	0.032534
1069.403899	0.029857
1069.568240	0.026999
1069.732562	0.029856
1069.896866	0.031184
1070.061152	0.030558
1070.225420	0.030931
1070.389670	0.030933
1070.553901	0.033304
1070.718114	0.033346
1070.882309	0.034139
1071.046486	0.034701
1071.210644	0.034065
1071.374784	0.032713
1071.538906	0.031173
1071.703010	0.032032
1071.867096	0.033663
1072.031163	0.032628
1072.195212	0.031565
1072.359243	0.033517
1072.523256	0.034445
1072.687250	0.034045
1072.851226	0.035190
1073.015184	0.038025
1073.179124	0.037535
1073.343045	0.035468
1073.506949	0.036601
1073.670834	0.036589
1073.834701	0.036298
1073.998549	0.036302
1074.162380	0.035442
1074.326192	0.036566
1074.489986	0.035163
1074.653761	0.034517
1074.817519	0.035284
1074.981258	0.033914
1075.144979	0.033480
1075.308682	0.035579
1075.472367	0.035340
1075.636033	0.036555
1075.799681	0.035850
1075.963311	0.035556
1076.126923	0.034775
1076.290516	0.032143
1076.454092	0.032113
1076.617649	0.034195
1076.781187	0.031765
1076.944708	0.030539
1077.108210	0.030833
1077.271695	0.027898
1077.435160	0.028517
1077.598608	0.028962
1077.762038	0.029906
1077.925449	0.029451
1078.088842	0.026286
1078.252217	0.027370
1078.415573	0.026341
1078.578912	0.026330
1078.742232	0.027562
1078.905534	0.028195
1079.068817	0.028891
1079.232083	0.030904
1079.395330	0.032832
1079.558559	0.033439
1079.721770	0.031260
1079.884962	0.033278
1080.048136	0.031406
1080.211293	0.031861
1080.374430	0.028654
1080.537550	0.029422
1080.700651	0.031490
1080.863735	0.030962
1081.026800	0.032131
1081.189846	0.032556
1081.352875	0.034041
1081.515885	0.032761
1081.678877	0.033245
1081.841851	0.036064
1082.004807	0.034255
1082.167744	0.031125
1082.330663	0.030304
1082.493564	0.030087
1082.656447	0.031026
1082.819312	0.030119
1082.982158	0.032117
1083.144986	0.029578
1083.307796	0.028532
1083.470587	0.029641
1083.633361	0.027420
1083.796116	0.026877
1083.958853	0.028699
1084.121571	0.028248
1084.284272	0.028724
1084.446954	0.027868
1084.609618	0.029993
1084.772264	0.029301
1084.934892	0.026826
1085.097501	0.027275
1085.260092	0.028195
1085.422665	0.027537
1085.585220	0.026872
1085.747756	0.024260
1085.910274	0.028319
1086.072774	0.025814
1086.235256	0.026208
1086.397720	0.026601
1086.560165	0.028210
1086.722592	0.028376
1086.885001	0.028770
1087.047392	0.027796
1087.209764	0.027361
1087.372119	0.024038
1087.534455	0.024166
1087.696772	0.024460
1087.859072	0.022081
1088.021353	0.021317
1088.183616	0.019499
1088.345861	0.018743
1088.508088	0.019163
1088.670296	0.021039
1088.832486	0.020088
1088.994658	0.022602
1089.156812	0.022919
1089.318948	0.026330
1089.481065	0.026210
1089.643164	0.026876
1089.805245	0.027178
1089.967308	0.029550
1090.129352	0.030997
1090.291378	0.031491
1090.453386	0.032146
1090.615376	0.032484
1090.777347	0.032496
1090.939301	0.031859
1091.101236	0.031000
1091.263153	0.029523
1091.425051	0.027207
1091.586932	0.025878
1091.748794	0.024609
1091.910638	0.022347
1092.072463	0.020352
1092.234271	0.022150
1092.396060	0.023775
1092.557831	0.026914
1092.719584	0.027593
1092.881319	0.026782
1093.043035	0.027025
1093.204733	0.027273
1093.366413	0.027396
1093.528075	0.027413
1093.689718	0.024930
1093.851343	0.026491
1094.012950	0.023287
1094.174539	0.025283
1094.336110	0.027507
1094.497662	0.027548
1094.659196	0.028490
1094.820712	0.029782
1094.982210	0.030841
1095.143689	0.029576
1095.305151	0.026226
1095.466594	0.027153
1095.628018	0.023464
1095.789425	0.025175
1095.950813	0.026646
1096.112183	0.026801
1096.273535	0.026429
1096.434869	0.027597
1096.596184	0.027127
1096.757482	0.030674
1096.918761	0.033239
1097.080021	0.036462
1097.241264	0.034302
1097.402488	0.030753
1097.563694	0.031789
1097.724882	0.028181
1097.886052	0.028067
1098.047203	0.027229
1098.208336	0.023999
1098.369451	0.022746
1098.530548	0.020167
1098.691627	0.017190
1098.852687	0.015993
1099.013729	0.012260
1099.174753	0.014168
1099.335758	0.012413
1099.496746	0.018149
1099.657715	0.019712
1099.818666	0.018644
1099.979599	0.023276
1100.140513	0.023579
1100.301409	0.028157
1100.462287	0.029848
1100.623147	0.031586
1100.783989	0.033471
1100.944812	0.033966
1101.105617	0.031637
1101.266404	0.033131
1101.427173	0.032215
1101.587923	0.034169
1101.748656	0.030835
1101.909370	0.031121
1102.070066	0.032761
1102.230743	0.030781
1102.391403	0.027555
1102.552044	0.028368
1102.712667	0.029285
1102.873271	0.029202
1103.033858	0.028529
1103.194426	0.030790
1103.354976	0.031114
1103.515508	0.030679
1103.676021	0.033476
1103.836517	0.036366
1103.996994	0.040367
1104.157453	0.036467
1104.317893	0.030574
1104.478316	0.035626
1104.638720	0.032468
1104.799106	0.034021
1104.959474	0.029503
1105.119823	0.027102
1105.280155	0.020475
1105.440468	0.017273
1105.600763	0.019246
1105.761039	0.021308
1105.921298	0.020289
1106.081538	0.023945
1106.241760	0.021729
1106.401964	0.022789
1106.562149	0.024776
1106.722316	0.029427
1106.882465	0.030830
1107.042596	0.029950
1107.202709	0.027476
1107.362803	0.024486
1107.522879	0.018596
1107.682937	0.021281
1107.842977	0.019855
1108.002999	0.018954
1108.163002	0.022369
1108.322987	0.024850
1108.482954	0.024670
1108.642902	0.026605
1108.802833	0.024232
1108.962745	0.031869
1109.122639	0.028317
1109.282515	0.031144
1109.442372	0.033228
1109.602211	0.028007
1109.762032	0.025428
1109.921835	0.023433
1110.081620	0.022793
1110.241386	0.026117
1110.401134	0.022478
1110.560864	0.024976
1110.720576	0.023396
1110.880269	0.019072
1111.039945	0.020725
1111.199602	0.020675
1111.359240	0.021881
1111.518861	0.022257
1111.678463	0.023750
1111.838047	0.023782
1111.997613	0.026562
1112.157161	0.028967
1112.316690	0.032350
1112.476202	0.037006
1112.635695	0.037446
1112.795169	0.040301
1112.954626	0.044081
1113.114064	0.043045
1113.273484	0.041079
1113.432886	0.034816
1113.592270	0.036002
1113.751635	0.033276
1113.910983	0.026528
1114.070312	0.021859
1114.229622	0.022387
1114.388915	0.019089
1114.548189	0.012686
1114.707445	0.016801
1114.866683	0.021569
1115.025903	0.020120
1115.185104	0.019997
1115.344287	0.021866
1115.503452	0.023822
1115.662599	0.021684
1115.821727	0.023562
1115.980838	0.026800
1116.139930	0.024009
1116.299004	0.019655
1116.458059	0.022558
1116.617097	0.029197
1116.776116	0.030261
1116.935117	0.031577
1117.094099	0.035381
1117.253064	0.038959
1117.412010	0.040901
1117.570938	0.043233
1117.729848	0.041412
1117.888740	0.041800
1118.047613	0.030885
1118.206468	0.030963
1118.365305	0.033458
1118.524124	0.030113
1118.682924	0.025316
1118.841707	0.020068
1119.000471	0.019889
1119.159216	0.021146
1119.317944	0.017542
1119.476653	0.022387
1119.635344	0.020126
1119.794017	0.017714
1119.952672	0.016943
1120.111308	0.014933
1120.269927	0.024584
1120.428527	0.021425
1120.587108	0.022747
1120.745672	0.023032
1120.904217	0.025830
1121.062744	0.032079
1121.221253	0.028598
1121.379744	0.031608
1121.538216	0.033862
1121.696671	0.029633
1121.855107	0.031756
1122.013524	0.037206
1122.171924	0.033016
1122.330305	0.033115
1122.488668	0.029886
1122.647013	0.035250
1122.805340	0.031116
1122.963648	0.028473
1123.121938	0.030882
1123.280210	0.030047
1123.438464	0.028874
1123.596700	0.035131
1123.754917	0.033785
1123.913116	0.031323
1124.071297	0.024532
1124.229459	0.025627
1124.387604	0.028413
1124.545730	0.020787
1124.703838	0.021339
1124.861928	0.020404
1125.019999	0.021663
1125.178052	0.025536
1125.336088	0.023974
1125.494104	0.027953
1125.652103	0.026298
1125.810083	0.025945
1125.968045	0.029224
1126.125989	0.029541
1126.283915	0.023693
1126.441823	0.019632
1126.599712	0.014583
1126.757583	0.016583
1126.915436	0.019051
1127.073270	0.021741
1127.231087	0.024465
1127.388885	0.029908
1127.546665	0.034277
1127.704426	0.038939
1127.862170	0.044040
1128.019895	0.038334
1128.177602	0.037813
1128.335291	0.041713
1128.492961	0.043204
1128.650614	0.041325
1128.808248	0.034143
1128.965864	0.034100
1129.123461	0.032670
1129.281041	0.034135
1129.438602	0.044046
1129.596145	0.040610
1129.753670	0.034920
1129.911176	0.036254
1130.068665	0.031318
1130.226135	0.035057
1130.383587	0.029612
1130.541020	0.029878
1130.698436	0.028019
1130.855833	0.021810
1131.013212	0.027408
1131.170573	0.033116
1131.327915	0.030519
1131.485239	0.037309
1131.642545	0.038290
1131.799833	0.035125
1131.957103	0.037597
1132.114354	0.033254
1132.271588	0.033736
1132.428803	0.026799
1132.585999	0.021655
1132.743178	0.017083
1132.900338	0.017914
1133.057480	0.013700
1133.214604	0.012349
1133.371710	0.013579
1133.528797	0.014253
1133.685866	0.019808
1133.842917	0.026748
1133.999950	0.024879
1134.156964	0.031581
1134.313960	0.033038
1134.470938	0.042142
1134.627898	0.053571
1134.784840	0.055800
1134.941763	0.052658
1135.098668	0.047034
1135.255555	0.042077
1135.412424	0.047488
1135.569274	0.039486
1135.726107	0.036563
1135.882921	0.027941
1136.039716	0.022017
1136.196494	0.013703
1136.353253	0.016920
1136.509995	0.018180
1136.666717	0.019656
1136.823422	0.014532
1136.980109	0.020026
1137.136777	0.020584
1137.293427	0.019691
1137.450059	0.024827
1137.606672	0.029998
1137.763267	0.028065
1137.919844	0.031075
1138.076403	0.027073
1138.232944	0.030737
1138.389466	0.028552
1138.545971	0.029634
1138.702457	0.033479
1138.858924	0.027942
1139.015374	0.026665
1139.171805	0.024107
1139.328218	0.021234
1139.484613	0.031790
1139.640990	0.027985
1139.797348	0.029002
1139.953688	0.026655
1140.110010	0.028299
1140.266314	0.030339
1140.422600	0.025753
1140.578867	0.028085
1140.735116	0.030706
1140.891347	0.029193
1141.047559	0.022410
1141.203754	0.020168
1141.359930	0.012286
1141.516088	0.011226
1141.672228	0.011610
1141.828349	0.018217
1141.984452	0.020991
1142.140537	0.020493
1142.296604	0.024019
1142.452653	0.032425
1142.608683	0.029633
1142.764695	0.029486
1142.920689	0.027667
1143.076665	0.027106
1143.232622	0.029571
1143.388562	0.029097
1143.544483	0.032798
1143.700385	0.025012
1143.856270	0.023651
1144.012136	0.022465
1144.167985	0.029424
1144.323814	0.029566
1144.479626	0.030333
1144.635420	0.025944
1144.791195	0.021768
1144.946952	0.017988
1145.102691	0.018366
1145.258411	0.020268
1145.414113	0.029901
1145.569798	0.029508
1145.725463	0.029359
1145.881111	0.030291
1146.036741	0.027271
1146.192352	0.038038
1146.347945	0.038763
1146.503519	0.036966
1146.659076	0.044029
1146.814614	0.036153
1146.970134	0.032647
1147.125636	0.037406
1147.281120	0.038400
1147.436585	0.044194
1147.592032	0.040038
1147.747461	0.034014
1147.902872	0.039106
1148.058265	0.030479
1148.213639	0.033338
1148.368995	0.032686
1148.524333	0.024361
1148.679653	0.019058
1148.834954	0.017644
1148.990237	0.016089
1149.145502	0.015940
1149.300749	0.016923
1149.455977	0.017063
1149.611188	0.018293
1149.766380	0.020271
1149.921553	0.020858
1150.076709	0.022213
1150.231846	0.021608
1150.386966	0.021312
1150.542066	0.025038
1150.697149	0.024854
1150.852214	0.025563
1151.007260	0.024010
1151.162288	0.022091
1151.317298	0.019089
1151.472289	0.015201
1151.627263	0.008722
1151.782218	0.006763
1151.937155	0.011305
1152.092073	0.007718
1152.246974	0.007841
1152.401856	0.010246
1152.556720	0.019211
1152.711566	0.020947
1152.866393	0.028803
1153.021203	0.039774
1153.175994	0.039980
1153.330767	0.037141
1153.485521	0.026860
1153.640258	0.026483
1153.794976	0.023468
1153.949676	0.018934
1154.104358	0.025509
1154.259021	0.018162
1154.413667	0.016887
1154.568294	0.021706
1154.722903	0.022233
1154.877493	0.029292
1155.032066	0.032174
1155.186620	0.026815
1155.341156	0.028682
1155.495674	0.029554
1155.650173	0.033192
1155.804654	0.025502
1155.959118	0.027035
1156.113562	0.022896
1156.267989	0.023604
1156.422397	0.030374
1156.576788	0.041746
1156.731160	0.046134
1156.885513	0.043945
1157.039849	0.043855
1157.194166	0.048068
1157.348465	0.044720
1157.502746	0.045843
1157.657009	0.045308
1157.811253	0.039281
1157.965479	0.045571
1158.119687	0.038608
1158.273877	0.035234
1158.428048	0.034495
1158.582201	0.038258
1158.736337	0.040310
1158.890453	0.045395
1159.044552	0.047564
1159.198632	0.060991
1159.352694	0.052294
1159.506738	0.049001
1159.660764	0.053629
1159.814771	0.051958
1159.968761	0.049389
1160.122732	0.047822
1160.276685	0.046039
1160.430619	0.046066
1160.584535	0.024019
1160.738434	0.010237
1160.892313	0.009016
1161.046175	0.010903
1161.200019	0.013830
1161.353844	0.009179
1161.507651	0.001855
1161.661440	0.003875
1161.815210	0.005448
1161.968962	0.003787
1162.122697	0.025436
1162.276412	0.031591
1162.430110	0.027043
1162.583789	0.021308
1162.737451	0.022431
1162.891094	0.024507
1163.044718	0.020409
1163.198325	0.028704
1163.351913	0.031274
1163.505483	0.021239
1163.659035	0.017832
1163.812569	0.014293
1163.966084	0.028808
1164.119581	0.022756
1164.273060	0.016301
1164.426521	0.008753
1164.579964	0.000343
1164.733388	0.010501
1164.886794	0.010970
1165.040182	0.005288
1165.193551	0.017679
1165.346903	0.009981
1165.500236	0.025442
1165.653551	0.040949
1165.806848	0.043703
1165.960126	0.036829
1166.113386	0.035316
1166.266628	0.045018
1166.419852	0.048363
1166.573058	0.032212
1166.726245	0.043474
1166.879414	0.046808
1167.032565	0.035715
1167.185698	0.040837
1167.338812	0.044103
1167.491909	0.041717
1167.644987	0.027609
1167.798046	0.035584
1167.951088	0.044164
1168.104111	0.028542
1168.257117	0.022648
1168.410103	0.020853
1168.563072	0.009233
1168.716023	0.015203
1168.868955	0.011099
1169.021869	0.007685
1169.174765	0.018530
1169.327642	0.022602
1169.480501	0.030038
1169.633343	0.033581
1169.786165	0.041681
1169.938970	0.055514
1170.091757	0.044886
1170.244525	0.035237
1170.397275	0.036778
1170.550007	0.030406
1170.702720	0.029527
1170.855415	0.028304
1171.008092	0.016856
1171.160751	0.015673
1171.313392	0.010204
1171.466014	0.051316
1171.618619	0.015002
1171.771205	0.015002
1171.923772	0.015002
