sample name	sample
index	823
start time	 03-31-2021  04:04:43 PM


Wavelength (nm)	Absorbance
494.344910	NaN
494.563924	NaN
494.782919	NaN
495.001897	-0.414973
495.220856	NaN
495.439797	-1.483713
495.658719	-0.332744
495.877624	NaN
496.096510	-0.150679
496.315378	-0.714210
496.534227	NaN
496.753059	-1.687312
496.971872	-0.536732
497.190667	-0.017624
497.409444	-0.006798
497.628203	-0.005124
497.846943	-0.001811
498.065665	0.001495
498.284369	0.002420
498.503055	0.003243
498.721723	0.003782
498.940372	0.004068
499.159003	0.004468
499.377616	0.005232
499.596210	0.004983
499.814787	0.004456
500.033345	0.003676
500.251885	0.003543
500.470406	0.003230
500.688910	0.003059
500.907395	0.003495
501.125862	0.002866
501.344311	0.002376
501.562742	0.002410
501.781154	0.001685
501.999548	0.001918
502.217924	0.000528
502.436282	0.000003
502.654621	-0.000076
502.872942	-0.001216
503.091245	-0.001063
503.309530	-0.001188
503.527797	-0.000077
503.746045	0.000759
503.964275	0.000414
504.182487	0.001983
504.400681	0.001849
504.618856	0.001835
504.837013	0.001776
505.055152	0.000806
505.273273	0.000452
505.491376	-0.000166
505.709460	-0.000374
505.927526	0.000363
506.145574	-0.000924
506.363604	-0.000487
506.581615	-0.000838
506.799608	-0.001231
507.017583	-0.000499
507.235540	-0.000363
507.453478	-0.000451
507.671399	-0.000920
507.889301	-0.001152
508.107185	-0.000314
508.325050	-0.000681
508.542898	-0.000354
508.760727	-0.000144
508.978538	-0.000717
509.196330	-0.000234
509.414105	-0.000161
509.631861	0.000489
509.849599	-0.000412
510.067319	-0.001269
510.285021	-0.000662
510.502704	-0.000764
510.720369	-0.000438
510.938016	0.000218
511.155645	-0.000415
511.373255	-0.000730
511.590848	-0.000845
511.808422	-0.000829
512.025977	-0.000435
512.243515	-0.000756
512.461034	-0.001083
512.678536	-0.001679
512.896018	-0.001716
513.113483	-0.001386
513.330930	-0.001727
513.548358	-0.002506
513.765768	-0.002379
513.983160	-0.002690
514.200533	-0.002582
514.417889	-0.002512
514.635226	-0.002316
514.852545	-0.002783
515.069845	-0.003042
515.287128	-0.003487
515.504392	-0.002743
515.721638	-0.002735
515.938866	-0.002388
516.156075	-0.002777
516.373267	-0.003338
516.590440	-0.003512
516.807594	-0.003401
517.024731	-0.003040
517.241850	-0.002865
517.458950	-0.003129
517.676032	-0.002932
517.893095	-0.003473
518.110141	-0.003162
518.327168	-0.002386
518.544177	-0.002496
518.761168	-0.002751
518.978141	-0.003854
519.195095	-0.004454
519.412031	-0.004745
519.628949	-0.005117
519.845849	-0.005713
520.062731	-0.005670
520.279594	-0.005983
520.496439	-0.005251
520.713266	-0.005187
520.930074	-0.004550
521.146865	-0.003987
521.363637	-0.004305
521.580391	-0.003761
521.797127	-0.003092
522.013844	-0.003374
522.230543	-0.003275
522.447224	-0.003893
522.663887	-0.003533
522.880532	-0.003587
523.097158	-0.003693
523.313766	-0.003549
523.530356	-0.003696
523.746928	-0.003412
523.963481	-0.003350
524.180017	-0.004208
524.396534	-0.004466
524.613032	-0.004538
524.829513	-0.004281
525.045975	-0.004136
525.262420	-0.004317
525.478845	-0.004660
525.695253	-0.004938
525.911643	-0.005014
526.128014	-0.005198
526.344367	-0.005418
526.560702	-0.006032
526.777018	-0.006088
526.993316	-0.006608
527.209597	-0.006809
527.425858	-0.006921
527.642102	-0.006982
527.858328	-0.007392
528.074535	-0.007146
528.290724	-0.006514
528.506894	-0.006339
528.723047	-0.006832
528.939181	-0.006696
529.155297	-0.006890
529.371395	-0.006782
529.587475	-0.006696
529.803536	-0.006664
530.019579	-0.006110
530.235604	-0.005971
530.451611	-0.006050
530.667600	-0.006241
530.883570	-0.006215
531.099522	-0.005725
531.315456	-0.006054
531.531372	-0.006211
531.747269	-0.006206
531.963148	-0.006450
532.179009	-0.006323
532.394852	-0.006226
532.610676	-0.005842
532.826482	-0.005403
533.042271	-0.005726
533.258040	-0.005363
533.473792	-0.005747
533.689525	-0.005687
533.905240	-0.005845
534.120937	-0.006762
534.336616	-0.007174
534.552277	-0.006896
534.767919	-0.007144
534.983543	-0.007110
535.199149	-0.007140
535.414736	-0.006873
535.630306	-0.006829
535.845857	-0.006697
536.061390	-0.006147
536.276904	-0.005513
536.492401	-0.005540
536.707879	-0.005833
536.923339	-0.006023
537.138781	-0.005777
537.354204	-0.005094
537.569610	-0.005074
537.784997	-0.005443
538.000366	-0.005638
538.215716	-0.005986
538.431049	-0.006339
538.646363	-0.006036
538.861659	-0.005729
539.076937	-0.006098
539.292196	-0.006704
539.507438	-0.006538
539.722661	-0.006299
539.937866	-0.006343
540.153052	-0.006042
540.368221	-0.005843
540.583371	-0.005916
540.798503	-0.005717
541.013617	-0.006123
541.228712	-0.005923
541.443789	-0.006024
541.658848	-0.005464
541.873889	-0.005242
542.088912	-0.005231
542.303916	-0.005415
542.518902	-0.005328
542.733870	-0.005473
542.948820	-0.005025
543.163752	-0.005169
543.378665	-0.005567
543.593560	-0.006043
543.808437	-0.006179
544.023295	-0.006331
544.238136	-0.006178
544.452958	-0.006390
544.667762	-0.006525
544.882548	-0.006687
545.097315	-0.006965
545.312064	-0.006625
545.526795	-0.006210
545.741508	-0.005876
545.956203	-0.005965
546.170879	-0.005907
546.385537	-0.005467
546.600177	-0.005022
546.814799	-0.004792
547.029402	-0.004558
547.243988	-0.004494
547.458555	-0.004744
547.673103	-0.004839
547.887634	-0.004768
548.102146	-0.004926
548.316640	-0.005138
548.531116	-0.005134
548.745574	-0.005031
548.960013	-0.005107
549.174435	-0.005621
549.388838	-0.006051
549.603222	-0.006463
549.817589	-0.006453
550.031937	-0.006591
550.246267	-0.006351
550.460579	-0.006920
550.674873	-0.006913
550.889148	-0.007113
551.103405	-0.006570
551.317644	-0.006148
551.531865	-0.005731
551.746068	-0.005681
551.960252	-0.005346
552.174418	-0.005664
552.388566	-0.005451
552.602696	-0.005641
552.816807	-0.005457
553.030900	-0.005694
553.244975	-0.006000
553.459032	-0.006418
553.673070	-0.006181
553.887091	-0.006176
554.101093	-0.005919
554.315077	-0.006213
554.529042	-0.006130
554.742990	-0.005645
554.956919	-0.005334
555.170830	-0.005186
555.384722	-0.004935
555.598597	-0.005065
555.812453	-0.005323
556.026291	-0.005452
556.240111	-0.005211
556.453913	-0.005336
556.667696	-0.005434
556.881461	-0.005378
557.095208	-0.005411
557.308937	-0.005169
557.522647	-0.005321
557.736339	-0.005296
557.950013	-0.005089
558.163669	-0.004847
558.377307	-0.004829
558.590926	-0.005152
558.804527	-0.005629
559.018110	-0.005449
559.231675	-0.005641
559.445221	-0.005318
559.658749	-0.005063
559.872259	-0.005579
560.085751	-0.005728
560.299225	-0.005628
560.512680	-0.005610
560.726117	-0.005443
560.939536	-0.005492
561.152937	-0.005680
561.366319	-0.006085
561.579683	-0.006078
561.793029	-0.005740
562.006357	-0.005821
562.219667	-0.005862
562.432958	-0.006097
562.646231	-0.005869
562.859486	-0.005775
563.072723	-0.005976
563.285941	-0.005603
563.499141	-0.005942
563.712323	-0.006250
563.925487	-0.006031
564.138632	-0.005829
564.351760	-0.005605
564.564869	-0.005816
564.777960	-0.006167
564.991032	-0.005893
565.204087	-0.005987
565.417123	-0.006008
565.630141	-0.005997
565.843140	-0.006107
566.056122	-0.006270
566.269085	-0.006139
566.482030	-0.006139
566.694957	-0.006276
566.907866	-0.005922
567.120756	-0.006128
567.333628	-0.005466
567.546482	-0.005344
567.759318	-0.005221
567.972135	-0.004995
568.184935	-0.005087
568.397716	-0.005014
568.610478	-0.004628
568.823223	-0.004744
569.035949	-0.004349
569.248657	-0.004950
569.461347	-0.004790
569.674019	-0.004891
569.886672	-0.004946
570.099308	-0.004585
570.311925	-0.004388
570.524523	-0.004211
570.737104	-0.004219
570.949666	-0.004481
571.162210	-0.004382
571.374736	-0.004612
571.587244	-0.004763
571.799733	-0.004934
572.012205	-0.005123
572.224658	-0.005394
572.437092	-0.005460
572.649509	-0.005226
572.861907	-0.005154
573.074287	-0.004742
573.286649	-0.004554
573.498993	-0.004001
573.711318	-0.003917
573.923625	-0.003996
574.135914	-0.003771
574.348185	-0.003658
574.560438	-0.003920
574.772672	-0.003911
574.984888	-0.004051
575.197086	-0.003787
575.409266	-0.004122
575.621427	-0.004103
575.833570	-0.004011
576.045695	-0.003897
576.257802	-0.003781
576.469890	-0.003620
576.681961	-0.003672
576.894013	-0.003992
577.106046	-0.003916
577.318062	-0.003880
577.530059	-0.003888
577.742039	-0.004021
577.954000	-0.004329
578.165942	-0.004681
578.377867	-0.004983
578.589773	-0.004748
578.801661	-0.004418
579.013531	-0.004681
579.225382	-0.004668
579.437216	-0.004768
579.649031	-0.004559
579.860828	-0.004195
580.072606	-0.004005
580.284367	-0.003687
580.496109	-0.003764
580.707833	-0.003903
580.919539	-0.003815
581.131227	-0.003628
581.342896	-0.003481
581.554547	-0.003388
581.766180	-0.003637
581.977795	-0.003678
582.189391	-0.003684
582.400969	-0.003722
582.612529	-0.003545
582.824071	-0.003545
583.035595	-0.004015
583.247100	-0.004052
583.458587	-0.004344
583.670056	-0.004255
583.881506	-0.004098
584.092939	-0.004294
584.304353	-0.004022
584.515749	-0.004075
584.727127	-0.003955
584.938486	-0.003525
585.149828	-0.003348
585.361151	-0.003130
585.572456	-0.003337
585.783742	-0.003423
585.995011	-0.003426
586.206261	-0.003674
586.417493	-0.003840
586.628706	-0.004075
586.839902	-0.004098
587.051079	-0.004012
587.262238	-0.003977
587.473379	-0.003845
587.684502	-0.003805
587.895606	-0.003665
588.106692	-0.003765
588.317760	-0.003807
588.528810	-0.003874
588.739841	-0.003859
588.950855	-0.003965
589.161850	-0.003726
589.372827	-0.003748
589.583785	-0.003628
589.794726	-0.003453
590.005648	-0.003360
590.216552	-0.003109
590.427437	-0.002598
590.638305	-0.002375
590.849154	-0.002130
591.059985	-0.002216
591.270798	-0.002003
591.481592	-0.002030
591.692369	-0.002047
591.903127	-0.001884
592.113867	-0.002166
592.324588	-0.002598
592.535292	-0.002689
592.745977	-0.002918
592.956644	-0.003047
593.167293	-0.002968
593.377923	-0.002990
593.588536	-0.003235
593.799130	-0.003179
594.009706	-0.002925
594.220263	-0.002659
594.430803	-0.002763
594.641324	-0.002641
594.851827	-0.002549
595.062312	-0.002564
595.272778	-0.002561
595.483227	-0.002444
595.693657	-0.002560
595.904069	-0.002477
596.114462	-0.002358
596.324838	-0.002513
596.535195	-0.002485
596.745534	-0.002504
596.955855	-0.002592
597.166157	-0.002554
597.376441	-0.002348
597.586707	-0.002226
597.796955	-0.002028
598.007185	-0.002072
598.217396	-0.002128
598.427589	-0.002197
598.637764	-0.002126
598.847921	-0.002043
599.058060	-0.002093
599.268180	-0.002428
599.478282	-0.002557
599.688366	-0.002809
599.898431	-0.002975
600.108479	-0.002762
600.318508	-0.002580
600.528519	-0.002654
600.738511	-0.002751
600.948486	-0.002625
601.158442	-0.002269
601.368380	-0.002337
601.578300	-0.002287
601.788202	-0.002115
601.998085	-0.002128
602.207950	-0.002189
602.417797	-0.002185
602.627626	-0.002045
602.837436	-0.002008
603.047228	-0.002503
603.257002	-0.002476
603.466758	-0.002668
603.676496	-0.002674
603.886215	-0.002594
604.095916	-0.002774
604.305599	-0.002872
604.515264	-0.003131
604.724910	-0.003423
604.934538	-0.003249
605.144148	-0.003085
605.353740	-0.003075
605.563314	-0.003439
605.772869	-0.003341
605.982406	-0.003296
606.191925	-0.003107
606.401425	-0.002961
606.610908	-0.002922
606.820372	-0.002848
607.029818	-0.002811
607.239246	-0.002550
607.448655	-0.002414
607.658047	-0.002685
607.867420	-0.002670
608.076775	-0.002777
608.286111	-0.002654
608.495430	-0.002251
608.704730	-0.002255
608.914012	-0.002247
609.123275	-0.002532
609.332521	-0.002657
609.541748	-0.002658
609.750957	-0.002640
609.960148	-0.002628
610.169321	-0.002744
610.378475	-0.002830
610.587611	-0.002456
610.796729	-0.002569
611.005829	-0.002668
611.214910	-0.002518
611.423974	-0.002502
611.633019	-0.002710
611.842045	-0.002569
612.051054	-0.002561
612.260044	-0.002850
612.469017	-0.003170
612.677970	-0.003105
612.886906	-0.002755
613.095824	-0.002573
613.304723	-0.002597
613.513604	-0.002413
613.722467	-0.002537
613.931311	-0.002497
614.140138	-0.002354
614.348946	-0.002203
614.557736	-0.002410
614.766507	-0.002299
614.975261	-0.002517
615.183996	-0.002216
615.392713	-0.002135
615.601412	-0.002157
615.810092	-0.002110
616.018754	-0.002257
616.227399	-0.002192
616.436024	-0.002012
616.644632	-0.002090
616.853222	-0.001583
617.061793	-0.001339
617.270346	-0.001104
617.478880	-0.001027
617.687397	-0.001034
617.895895	-0.000790
618.104375	-0.000782
618.312837	-0.000711
618.521281	-0.000564
618.729706	-0.000933
618.938113	-0.001176
619.146502	-0.001511
619.354873	-0.001485
619.563226	-0.001480
619.771560	-0.001572
619.979876	-0.001627
620.188174	-0.001510
620.396453	-0.001496
620.604715	-0.001174
620.812958	-0.001093
621.021183	-0.000714
621.229390	-0.000549
621.437578	-0.000335
621.645748	-0.000149
621.853900	-0.000010
622.062034	-0.000037
622.270150	-0.000150
622.478247	-0.000131
622.686326	-0.000167
622.894387	-0.000247
623.102430	-0.000267
623.310454	-0.000335
623.518461	-0.000416
623.726449	-0.000544
623.934418	-0.000499
624.142370	-0.000405
624.350303	-0.000557
624.558218	-0.000654
624.766115	-0.000752
624.973994	-0.000901
625.181855	-0.000963
625.389697	-0.000838
625.597521	-0.000606
625.805327	-0.000438
626.013114	-0.000541
626.220883	-0.000548
626.428634	-0.000306
626.636367	-0.000227
626.844082	0.000049
627.051778	-0.000007
627.259457	0.000018
627.467117	0.000031
627.674758	-0.000185
627.882382	0.000177
628.089987	0.000270
628.297574	0.000051
628.505143	0.000059
628.712694	-0.000023
628.920226	0.000213
629.127740	0.000132
629.335236	0.000007
629.542714	0.000092
629.750174	-0.000172
629.957615	-0.000191
630.165038	-0.000141
630.372443	-0.000174
630.579829	-0.000208
630.787198	-0.000280
630.994548	-0.000111
631.201880	0.000064
631.409194	0.000284
631.616489	0.000339
631.823766	0.000458
632.031025	0.000582
632.238266	0.000809
632.445489	0.000821
632.652693	0.000963
632.859879	0.000800
633.067047	0.000578
633.274197	0.000519
633.481329	0.000554
633.688442	0.000588
633.895537	0.000449
634.102614	0.000153
634.309672	0.000195
634.516713	0.000008
634.723735	0.000096
634.930739	0.000151
635.137724	0.000006
635.344692	-0.000215
635.551641	-0.000289
635.758572	-0.000271
635.965485	-0.000145
636.172379	-0.000202
636.379256	-0.000311
636.586114	-0.000476
636.792954	-0.000556
636.999775	-0.000555
637.206579	-0.000087
637.413364	-0.000105
637.620131	-0.000018
637.826880	-0.000120
638.033610	-0.000069
638.240323	0.000192
638.447017	0.000491
638.653692	0.000868
638.860350	0.000954
639.066990	0.000798
639.273611	0.000803
639.480214	0.000675
639.686798	0.000768
639.893365	0.000838
640.099913	0.000871
640.306443	0.000652
640.512955	0.000531
640.719449	0.000445
640.925924	0.000475
641.132381	0.000588
641.338820	0.000845
641.545241	0.000908
641.751644	0.000872
641.958028	0.000731
642.164394	0.000751
642.370742	0.000495
642.577071	0.000451
642.783383	0.000135
642.989676	-0.000097
643.195951	-0.000200
643.402207	-0.000124
643.608446	-0.000052
643.814666	-0.000043
644.020868	0.000256
644.227052	0.000393
644.433218	0.000544
644.639365	0.000727
644.845494	0.000895
645.051605	0.000982
645.257698	0.000999
645.463772	0.000924
645.669828	0.000956
645.875866	0.000772
646.081886	0.000805
646.287888	0.000987
646.493871	0.001192
646.699836	0.001225
646.905783	0.001194
647.111712	0.001113
647.317622	0.001144
647.523514	0.001360
647.729388	0.001373
647.935244	0.001538
648.141082	0.001220
648.346901	0.001170
648.552702	0.001033
648.758485	0.001173
648.964250	0.001266
649.169996	0.001391
649.375724	0.001197
649.581434	0.001254
649.787126	0.001045
649.992800	0.001185
650.198455	0.001024
650.404092	0.001110
650.609711	0.001161
650.815311	0.001133
651.020894	0.000968
651.226458	0.000887
651.432004	0.000941
651.637532	0.001144
651.843041	0.000994
652.048532	0.001248
652.254006	0.001311
652.459460	0.001279
652.664897	0.001180
652.870315	0.001127
653.075716	0.001054
653.281097	0.001149
653.486461	0.001062
653.691807	0.001451
653.897134	0.001332
654.102443	0.001316
654.307734	0.001295
654.513006	0.001246
654.718261	0.001465
654.923497	0.001511
655.128715	0.001275
655.333915	0.001216
655.539096	0.000918
655.744259	0.001014
655.949404	0.001036
656.154531	0.000640
656.359640	0.000646
656.564730	0.000523
656.769802	0.000644
656.974856	0.000550
657.179892	0.000336
657.384909	0.000356
657.589908	0.000140
657.794889	0.000200
657.999852	0.000619
658.204797	0.000695
658.409723	0.000705
658.614631	0.000768
658.819521	0.000738
659.024393	0.000961
659.229246	0.000985
659.434081	0.000923
659.638898	0.000777
659.843697	0.000593
660.048478	0.000598
660.253240	0.000577
660.457984	0.000334
660.662710	0.000644
660.867417	0.000537
661.072107	0.000520
661.276778	0.000560
661.481431	0.000658
661.686066	0.000634
661.890682	0.000696
662.095281	0.000698
662.299861	0.001061
662.504422	0.000989
662.708966	0.001032
662.913491	0.001056
663.117999	0.001027
663.322488	0.001058
663.526958	0.001140
663.731411	0.001079
663.935845	0.001249
664.140261	0.001289
664.344659	0.001275
664.549038	0.001555
664.753400	0.001675
664.957743	0.001928
665.162068	0.002052
665.366375	0.002318
665.570663	0.002616
665.774933	0.002533
665.979185	0.002421
666.183419	0.002614
666.387635	0.002570
666.591832	0.002709
666.796011	0.002809
667.000172	0.002787
667.204315	0.002586
667.408439	0.002497
667.612545	0.002669
667.816634	0.002842
668.020703	0.002780
668.224755	0.002833
668.428788	0.002696
668.632803	0.002738
668.836800	0.002948
669.040779	0.003133
669.244739	0.003131
669.448681	0.003121
669.652605	0.003210
669.856511	0.003407
670.060399	0.003441
670.264268	0.003524
670.468119	0.003551
670.671952	0.003222
670.875767	0.003382
671.079563	0.003346
671.283341	0.003463
671.487101	0.003413
671.690843	0.003274
671.894567	0.003418
672.098272	0.003376
672.301959	0.003268
672.505628	0.003501
672.709278	0.003401
672.912911	0.003660
673.116525	0.003620
673.320121	0.003828
673.523699	0.003900
673.727258	0.003963
673.930799	0.004048
674.134322	0.004034
674.337827	0.004127
674.541314	0.004095
674.744782	0.003907
674.948232	0.003934
675.151664	0.003668
675.355078	0.003561
675.558474	0.003544
675.761851	0.003716
675.965210	0.003908
676.168551	0.003981
676.371873	0.004176
676.575178	0.004418
676.778464	0.004364
676.981732	0.004504
677.184981	0.004660
677.388213	0.004658
677.591426	0.004690
677.794621	0.004624
677.997798	0.004755
678.200956	0.004620
678.404097	0.004470
678.607219	0.004709
678.810323	0.004693
679.013408	0.004726
679.216476	0.004683
679.419525	0.004639
679.622556	0.004657
679.825569	0.004393
680.028563	0.004463
680.231540	0.004544
680.434498	0.004444
680.637438	0.004622
680.840359	0.004737
681.043263	0.004889
681.246148	0.005090
681.449015	0.005132
681.651864	0.005216
681.854694	0.005164
682.057506	0.005309
682.260301	0.005285
682.463076	0.005203
682.665834	0.005310
682.868573	0.005097
683.071295	0.004956
683.273998	0.005034
683.476682	0.005116
683.679349	0.005369
683.881997	0.005352
684.084627	0.005527
684.287239	0.005603
684.489833	0.005493
684.692408	0.005690
684.894965	0.005732
685.097504	0.005739
685.300025	0.005997
685.502527	0.005958
685.705012	0.005872
685.907478	0.005594
686.109925	0.005700
686.312355	0.005644
686.514766	0.005420
686.717159	0.005318
686.919534	0.005307
687.121891	0.004814
687.324230	0.004689
687.526550	0.004681
687.728852	0.004878
687.931136	0.004753
688.133401	0.004789
688.335649	0.004918
688.537878	0.004957
688.740089	0.005095
688.942281	0.005364
689.144456	0.005415
689.346612	0.005374
689.548750	0.005251
689.750870	0.005122
689.952971	0.004950
690.155055	0.004969
690.357120	0.004777
690.559167	0.004535
690.761195	0.004375
690.963206	0.004361
691.165198	0.004428
691.367172	0.004452
691.569128	0.004611
691.771065	0.004626
691.972984	0.004630
692.174885	0.004833
692.376768	0.004933
692.578633	0.005108
692.780479	0.005049
692.982308	0.005071
693.184118	0.005279
693.385909	0.004962
693.587683	0.005089
693.789438	0.005013
693.991175	0.004970
694.192894	0.005038
694.394595	0.004974
694.596277	0.005005
694.797941	0.005061
694.999587	0.004946
695.201215	0.005388
695.402824	0.005442
695.604416	0.005628
695.805989	0.005695
696.007543	0.005875
696.209080	0.005834
696.410598	0.005989
696.612099	0.005978
696.813580	0.006105
697.015044	0.006059
697.216490	0.006283
697.417917	0.006341
697.619326	0.006353
697.820717	0.006193
698.022089	0.006497
698.223444	0.006489
698.424780	0.006543
698.626098	0.006507
698.827397	0.006427
699.028679	0.006199
699.229942	0.006151
699.431187	0.006293
699.632414	0.006462
699.833622	0.006329
700.034813	0.006363
700.235985	0.006381
700.437139	0.006370
700.638274	0.006547
700.839392	0.006788
701.040491	0.006969
701.241572	0.007085
701.442635	0.007151
701.643679	0.007445
701.844706	0.007500
702.045714	0.007697
702.246704	0.008016
702.447675	0.008026
702.648629	0.008165
702.849564	0.008155
703.050481	0.008250
703.251380	0.008119
703.452260	0.007987
703.653122	0.008342
703.853966	0.008407
704.054792	0.008333
704.255600	0.008299
704.456389	0.008050
704.657160	0.008165
704.857913	0.008033
705.058648	0.008110
705.259365	0.008158
705.460063	0.007775
705.660743	0.007719
705.861405	0.007577
706.062048	0.007780
706.262674	0.007713
706.463281	0.007613
706.663870	0.007616
706.864441	0.007657
707.064993	0.007588
707.265527	0.007770
707.466043	0.007720
707.666541	0.007914
707.867021	0.007722
708.067482	0.007870
708.267925	0.007911
708.468350	0.007961
708.668757	0.008016
708.869145	0.008042
709.069516	0.007888
709.269868	0.007742
709.470201	0.007603
709.670517	0.007673
709.870814	0.007654
710.071093	0.007681
710.271354	0.007646
710.471597	0.007695
710.671821	0.007683
710.872028	0.007805
711.072216	0.007751
711.272385	0.007843
711.472537	0.007774
711.672670	0.007784
711.872785	0.007565
712.072882	0.007629
712.272961	0.007372
712.473021	0.007163
712.673063	0.007026
712.873087	0.007206
713.073093	0.006967
713.273081	0.006978
713.473050	0.006909
713.673001	0.006834
713.872934	0.006722
714.072849	0.006753
714.272745	0.006809
714.472623	0.006759
714.672483	0.006593
714.872325	0.006589
715.072148	0.006475
715.271954	0.006482
715.471741	0.006342
715.671509	0.006306
715.871260	0.006204
716.070992	0.006087
716.270707	0.005893
716.470403	0.005934
716.670080	0.005907
716.869740	0.005851
717.069381	0.005839
717.269004	0.005929
717.468609	0.005848
717.668195	0.006044
717.867764	0.006057
718.067314	0.006282
718.266846	0.006133
718.466360	0.006053
718.665855	0.006061
718.865332	0.005894
719.064791	0.005915
719.264232	0.005852
719.463655	0.005821
719.663059	0.005819
719.862445	0.005455
720.061813	0.005585
720.261163	0.005684
720.460494	0.005298
720.659807	0.005304
720.859102	0.005138
721.058379	0.005018
721.257638	0.004853
721.456878	0.004877
721.656100	0.005046
721.855304	0.004812
722.054490	0.004786
722.253657	0.005056
722.452806	0.004864
722.651937	0.004898
722.851050	0.004752
723.050145	0.004545
723.249221	0.004330
723.448279	0.004171
723.647319	0.004174
723.846340	0.004028
724.045344	0.004060
724.244329	0.004110
724.443296	0.004064
724.642245	0.004123
724.841175	0.004256
725.040088	0.004123
725.238982	0.004262
725.437857	0.004260
725.636715	0.004292
725.835554	0.004026
726.034376	0.004037
726.233179	0.004176
726.431963	0.004378
726.630730	0.004195
726.829478	0.004426
727.028208	0.004420
727.226920	0.004517
727.425614	0.004507
727.624289	0.004668
727.822946	0.004703
728.021585	0.004584
728.220206	0.004439
728.418808	0.004703
728.617392	0.004578
728.815958	0.004663
729.014506	0.004577
729.213036	0.004505
729.411547	0.004640
729.610040	0.004484
729.808515	0.004497
730.006972	0.004339
730.205410	0.003940
730.403831	0.004021
730.602233	0.003947
730.800616	0.004007
730.998982	0.004061
731.197329	0.003929
731.395658	0.004122
731.593969	0.004100
731.792262	0.004238
731.990536	0.004359
732.188793	0.004275
732.387031	0.004187
732.585250	0.004021
732.783452	0.003862
732.981635	0.003713
733.179800	0.003579
733.377947	0.003435
733.576076	0.003370
733.774186	0.003491
733.972278	0.003664
734.170352	0.003798
734.368408	0.003848
734.566446	0.003976
734.764465	0.004251
734.962466	0.004276
735.160449	0.004455
735.358413	0.004432
735.556360	0.004225
735.754288	0.004013
735.952198	0.003733
736.150090	0.003723
736.347963	0.003579
736.545818	0.003257
736.743655	0.003293
736.941474	0.003086
737.139275	0.003169
737.337057	0.003152
737.534821	0.003226
737.732567	0.003233
737.930295	0.003164
738.128005	0.003216
738.325696	0.003358
738.523369	0.003189
738.721024	0.003320
738.918660	0.003227
739.116279	0.003376
739.313879	0.003339
739.511461	0.003283
739.709024	0.003189
739.906570	0.003163
740.104097	0.003112
740.301606	0.003209
740.499097	0.003194
740.696569	0.003327
740.894024	0.003278
741.091460	0.003362
741.288878	0.003425
741.486277	0.003698
741.683659	0.003734
741.881022	0.003772
742.078367	0.003852
742.275694	0.003871
742.473002	0.003808
742.670293	0.003876
742.867565	0.003883
743.064819	0.003975
743.262054	0.003946
743.459272	0.003882
743.656471	0.003921
743.853652	0.003930
744.050815	0.004183
744.247959	0.004267
744.445085	0.004271
744.642194	0.004191
744.839283	0.004141
745.036355	0.004041
745.233408	0.004180
745.430444	0.004154
745.627461	0.004041
745.824459	0.003653
746.021440	0.003533
746.218402	0.003503
746.415346	0.003332
746.612272	0.003282
746.809180	0.003002
747.006069	0.002951
747.202940	0.002735
747.399793	0.002661
747.596628	0.002702
747.793444	0.002725
747.990243	0.002611
748.187023	0.002569
748.383784	0.002475
748.580528	0.002563
748.777253	0.002482
748.973960	0.002621
749.170649	0.002761
749.367320	0.002655
749.563973	0.002510
749.760607	0.002559
749.957223	0.002664
750.153821	0.002677
750.350400	0.002809
750.546962	0.002940
750.743505	0.002870
750.940030	0.002658
751.136536	0.002676
751.333025	0.002645
751.529495	0.002560
751.725947	0.002562
751.922381	0.002545
752.118796	0.002267
752.315194	0.002002
752.511573	0.001915
752.707934	0.001874
752.904276	0.001938
753.100601	0.002008
753.296907	0.002063
753.493195	0.002032
753.689465	0.002046
753.885716	0.002189
754.081949	0.002190
754.278164	0.002200
754.474361	0.002303
754.670540	0.002330
754.866700	0.002245
755.062843	0.002127
755.258967	0.002278
755.455072	0.002350
755.651160	0.002585
755.847229	0.002807
756.043280	0.003110
756.239313	0.003221
756.435328	0.003117
756.631324	0.003213
756.827302	0.003221
757.023262	0.003159
757.219204	0.002999
757.415127	0.002752
757.611033	0.002440
757.806920	0.002067
758.002788	0.001722
758.198639	0.001624
758.394471	0.001439
758.590286	0.001422
758.786081	0.001228
758.981859	0.001190
759.177619	0.000983
759.373360	0.001007
759.569083	0.000945
759.764788	0.000998
759.960474	0.000942
760.156143	0.000836
760.351793	0.000745
760.547425	0.000622
760.743038	0.000612
760.938634	0.000803
761.134211	0.000826
761.329770	0.001097
761.525311	0.001097
761.720833	0.001084
761.916338	0.001123
762.111824	0.001167
762.307292	0.001147
762.502741	0.001013
762.698173	0.001057
762.893586	0.000969
763.088981	0.000822
763.284358	0.000940
763.479716	0.000974
763.675057	0.001143
763.870379	0.001105
764.065683	0.001197
764.260968	0.001243
764.456236	0.001174
764.651485	0.001088
764.846716	0.001141
765.041929	0.001007
765.237123	0.001040
765.432299	0.000942
765.627457	0.001078
765.822597	0.001228
766.017719	0.001236
766.212822	0.001259
766.407907	0.001340
766.602974	0.001208
766.798023	0.001325
766.993054	0.001438
767.188066	0.001403
767.383060	0.001287
767.578036	0.001047
767.772993	0.001159
767.967933	0.001053
768.162854	0.001254
768.357757	0.001445
768.552642	0.001525
768.747508	0.001361
768.942356	0.001469
769.137186	0.001485
769.331998	0.001709
769.526792	0.001673
769.721567	0.001817
769.916324	0.001511
770.111063	0.001375
770.305784	0.001218
770.500486	0.001484
770.695171	0.001453
770.889837	0.001578
771.084484	0.001426
771.279114	0.001495
771.473725	0.001271
771.668318	0.001559
771.862893	0.001561
772.057450	0.001611
772.251988	0.001443
772.446509	0.001286
772.641011	0.001226
772.835494	0.001277
773.029960	0.001174
773.224407	0.001226
773.418836	0.001254
773.613247	0.001309
773.807640	0.001336
774.002014	0.001343
774.196370	0.001487
774.390708	0.001368
774.585028	0.001436
774.779330	0.001530
774.973613	0.001683
775.167878	0.001490
775.362125	0.001489
775.556354	0.001437
775.750564	0.001338
775.944756	0.001217
776.138930	0.001263
776.333086	0.001142
776.527223	0.000938
776.721343	0.000723
776.915444	0.000728
777.109526	0.000689
777.303591	0.000664
777.497637	0.000788
777.691666	0.000835
777.885676	0.000758
778.079667	0.000788
778.273641	0.000900
778.467596	0.001122
778.661533	0.001173
778.855452	0.001098
779.049352	0.000977
779.243235	0.000926
779.437099	0.000972
779.630945	0.001047
779.824773	0.001080
780.018582	0.001047
780.212373	0.000966
780.406146	0.000756
780.599901	0.000717
780.793638	0.000817
780.987356	0.000704
781.181056	0.000675
781.374738	0.000468
781.568402	0.000478
781.762047	0.000403
781.955674	0.000460
782.149283	0.000590
782.342874	0.000392
782.536447	0.000358
782.730001	0.000490
782.923537	0.000419
783.117055	0.000600
783.310555	0.000727
783.504036	0.000854
783.697499	0.000870
783.890944	0.000874
784.084371	0.001183
784.277780	0.001243
784.471170	0.001336
784.664542	0.001346
784.857896	0.001340
785.051231	0.001172
785.244549	0.001450
785.437848	0.001298
785.631129	0.001380
785.824392	0.001490
786.017636	0.001613
786.210863	0.001576
786.404071	0.001611
786.597260	0.001763
786.790432	0.001596
786.983585	0.001455
787.176721	0.001274
787.369838	0.001200
787.562936	0.001002
787.756017	0.000793
787.949079	0.000539
788.142123	0.000674
788.335149	0.000498
788.528156	0.000535
788.721146	0.000443
788.914117	0.000732
789.107070	0.000835
789.300005	0.000885
789.492921	0.000944
789.685819	0.001139
789.878699	0.001142
790.071561	0.001187
790.264405	0.001386
790.457230	0.001409
790.650037	0.001505
790.842826	0.001387
791.035597	0.001590
791.228349	0.001515
791.421084	0.001617
791.613800	0.001737
791.806497	0.001769
791.999177	0.001655
792.191838	0.001772
792.384481	0.001756
792.577106	0.001807
792.769713	0.001702
792.962301	0.001850
793.154871	0.001685
793.347423	0.001275
793.539957	0.001127
793.732473	0.001202
793.924970	0.000819
794.117449	0.000847
794.309910	0.000910
794.502353	0.000888
794.694777	0.000778
794.887183	0.000897
795.079571	0.000882
795.271941	0.001141
795.464293	0.001147
795.656626	0.001374
795.848941	0.001259
796.041238	0.001393
796.233516	0.001560
796.425777	0.001622
796.618019	0.001578
796.810243	0.001853
797.002449	0.001648
797.194636	0.001690
797.386805	0.001799
797.578956	0.001834
797.771089	0.001843
797.963204	0.001613
798.155300	0.001814
798.347378	0.001752
798.539438	0.001804
798.731480	0.002101
798.923503	0.002058
799.115509	0.001897
799.307496	0.001826
799.499465	0.001852
799.691415	0.001860
799.883348	0.001678
800.075262	0.001767
800.267158	0.001945
800.459035	0.001721
800.650895	0.001642
800.842736	0.001785
801.034559	0.002162
801.226364	0.002316
801.418150	0.002503
801.609919	0.002664
801.801669	0.002880
801.993401	0.002650
802.185114	0.002714
802.376810	0.002978
802.568487	0.003108
802.760146	0.002991
802.951787	0.002853
803.143409	0.003057
803.335014	0.003043
803.526600	0.002947
803.718168	0.002978
803.909717	0.002986
804.101249	0.003038
804.292762	0.002901
804.484257	0.002899
804.675734	0.002926
804.867192	0.002768
805.058632	0.002768
805.250054	0.002747
805.441458	0.002923
805.632844	0.003008
805.824211	0.002881
806.015561	0.003096
806.206891	0.002940
806.398204	0.002690
806.589499	0.002641
806.780775	0.002600
806.972033	0.002619
807.163273	0.002473
807.354495	0.002525
807.545698	0.002692
807.736883	0.002809
807.928050	0.002938
808.119199	0.003265
808.310329	0.003312
808.501441	0.003434
808.692535	0.003677
808.883611	0.003835
809.074669	0.004077
809.265708	0.004082
809.456729	0.003925
809.647732	0.004093
809.838717	0.003974
810.029683	0.004284
810.220632	0.004360
810.411562	0.004397
810.602474	0.004489
810.793367	0.004539
810.984242	0.004562
811.175100	0.004530
811.365938	0.004563
811.556759	0.004665
811.747562	0.004545
811.938346	0.004575
812.129112	0.004386
812.319860	0.004334
812.510589	0.004183
812.701300	0.004197
812.891994	0.004358
813.082668	0.004296
813.273325	0.004491
813.463964	0.004484
813.654584	0.004669
813.845186	0.004662
814.035769	0.004660
814.226335	0.004624
814.416882	0.004732
814.607411	0.004921
814.797922	0.005123
814.988415	0.005083
815.178889	0.005120
815.369345	0.005081
815.559783	0.005388
815.750203	0.005364
815.940605	0.005345
816.130988	0.005324
816.321353	0.005494
816.511700	0.005477
816.702028	0.005650
816.892339	0.005538
817.082631	0.005412
817.272905	0.005025
817.463161	0.005267
817.653398	0.005427
817.843617	0.005452
818.033819	0.005151
818.224001	0.005135
818.414166	0.005006
818.604312	0.005118
818.794440	0.005351
818.984550	0.005759
819.174642	0.005751
819.364716	0.005688
819.554771	0.005773
819.744808	0.005929
819.934827	0.006070
820.124827	0.006134
820.314810	0.006208
820.504774	0.006139
820.694720	0.006082
820.884647	0.006207
821.074557	0.006295
821.264448	0.006449
821.454321	0.006490
821.644176	0.006213
821.834012	0.006404
822.023831	0.006474
822.213631	0.006616
822.403413	0.006719
822.593176	0.006759
822.782922	0.006945
822.972649	0.006928
823.162358	0.007004
823.352049	0.007279
823.541721	0.007227
823.731376	0.007111
823.921012	0.007139
824.110629	0.007267
824.300229	0.007101
824.489811	0.007111
824.679374	0.006896
824.868919	0.006650
825.058445	0.006642
825.247954	0.006627
825.437444	0.006891
825.626916	0.006950
825.816370	0.006753
826.005806	0.007046
826.195223	0.007105
826.384622	0.007563
826.574003	0.007896
826.763366	0.007966
826.952711	0.007931
827.142037	0.007859
827.331345	0.007924
827.520635	0.008141
827.709906	0.008248
827.899160	0.008354
828.088395	0.008241
828.277612	0.008121
828.466810	0.008068
828.655991	0.008175
828.845153	0.008235
829.034297	0.008137
829.223423	0.008046
829.412531	0.007960
829.601620	0.007789
829.790691	0.007590
829.979744	0.007677
830.168779	0.007866
830.357795	0.008131
830.546793	0.008231
830.735773	0.008331
830.924735	0.008444
831.113679	0.008319
831.302604	0.008282
831.491511	0.008675
831.680400	0.008855
831.869271	0.008865
832.058123	0.008723
832.246957	0.009068
832.435773	0.009166
832.624571	0.009424
832.813351	0.009617
833.002112	0.009926
833.190855	0.009982
833.379580	0.010129
833.568287	0.010330
833.756975	0.010489
833.945645	0.010193
834.134297	0.010291
834.322931	0.010159
834.511547	0.010218
834.700144	0.010290
834.888723	0.010396
835.077284	0.010268
835.265826	0.010222
835.454351	0.010277
835.642857	0.010369
835.831345	0.010449
836.019815	0.010399
836.208266	0.010423
836.396699	0.010504
836.585114	0.010419
836.773511	0.010408
836.961890	0.010270
837.150250	0.010404
837.338592	0.010343
837.526916	0.010271
837.715222	0.010336
837.903510	0.010628
838.091779	0.010585
838.280030	0.010683
838.468263	0.010989
838.656477	0.011256
838.844674	0.011120
839.032852	0.011379
839.221012	0.011636
839.409153	0.011858
839.597277	0.011809
839.785382	0.012022
839.973469	0.012056
840.161538	0.012082
840.349589	0.012065
840.537621	0.012083
840.725635	0.012036
840.913631	0.011962
841.101609	0.012123
841.289568	0.012181
841.477509	0.012073
841.665432	0.012034
841.853337	0.011968
842.041224	0.012355
842.229092	0.012478
842.416942	0.012624
842.604774	0.012608
842.792588	0.012530
842.980383	0.012469
843.168160	0.012447
843.355919	0.012735
843.543660	0.012804
843.731382	0.012657
843.919087	0.012717
844.106773	0.012741
844.294441	0.012928
844.482090	0.012957
844.669722	0.013082
844.857335	0.013509
845.044930	0.013378
845.232507	0.013675
845.420065	0.013846
845.607605	0.014026
845.795127	0.014098
845.982631	0.014263
846.170117	0.014086
846.357584	0.014316
846.545033	0.014311
846.732464	0.014833
846.919877	0.014615
847.107272	0.014768
847.294648	0.014799
847.482006	0.015214
847.669346	0.014864
847.856667	0.015550
848.043971	0.015371
848.231256	0.015222
848.418523	0.014853
848.605771	0.014890
848.793002	0.014795
848.980214	0.014797
849.167408	0.014669
849.354584	0.014871
849.541742	0.014634
849.728881	0.014898
849.916002	0.015204
850.103105	0.015332
850.290190	0.015567
850.477256	0.015429
850.664304	0.015285
850.851334	0.015110
851.038346	0.015322
851.225340	0.015511
851.412315	0.015505
851.599272	0.015496
851.786211	0.015702
851.973132	0.015607
852.160034	0.015629
852.346918	0.015851
852.533784	0.015831
852.720632	0.016018
852.907462	0.015972
853.094273	0.016130
853.281066	0.015949
853.467841	0.016004
853.654598	0.016182
853.841336	0.016447
854.028056	0.016700
854.214758	0.017042
854.401442	0.017279
854.588107	0.017340
854.774755	0.017229
854.961384	0.017443
855.147995	0.017576
855.334587	0.017771
855.521162	0.017775
855.707718	0.017701
855.894256	0.017658
856.080775	0.017492
856.267277	0.017457
856.453760	0.017444
856.640225	0.017770
856.826672	0.017790
857.013101	0.017810
857.199511	0.018028
857.385903	0.018134
857.572277	0.018440
857.758633	0.018531
857.944970	0.018597
858.131290	0.018808
858.317591	0.018800
858.503873	0.018993
858.690138	0.018946
858.876384	0.019064
859.062612	0.019297
859.248822	0.019150
859.435014	0.019325
859.621188	0.019471
859.807343	0.019476
859.993480	0.019712
860.179599	0.019379
860.365699	0.019401
860.551781	0.019308
860.737846	0.019014
860.923891	0.019254
861.109919	0.018908
861.295929	0.019017
861.481920	0.018889
861.667893	0.018343
861.853848	0.018567
862.039784	0.018624
862.225702	0.018518
862.411603	0.018526
862.597484	0.018431
862.783348	0.018810
862.969193	0.018826
863.155021	0.019128
863.340830	0.019301
863.526620	0.019272
863.712393	0.019328
863.898147	0.019370
864.083883	0.019819
864.269601	0.019827
864.455301	0.019776
864.640982	0.019917
864.826645	0.020095
865.012290	0.020357
865.197917	0.020567
865.383526	0.020984
865.569116	0.021260
865.754688	0.020877
865.940242	0.021132
866.125777	0.021215
866.311295	0.021415
866.496794	0.021239
866.682275	0.021285
866.867737	0.021141
867.053182	0.020820
867.238608	0.020797
867.424016	0.021017
867.609406	0.020623
867.794778	0.020390
867.980131	0.019998
868.165466	0.019792
868.350783	0.019456
868.536082	0.019340
868.721362	0.019168
868.906625	0.019317
869.091869	0.019348
869.277094	0.019413
869.462302	0.019450
869.647491	0.019903
869.832662	0.020434
870.017815	0.020625
870.202950	0.020666
870.388066	0.021026
870.573165	0.020816
870.758245	0.020778
870.943306	0.020875
871.128350	0.021233
871.313375	0.021052
871.498382	0.020889
871.683371	0.020990
871.868342	0.021194
872.053294	0.020820
872.238229	0.021066
872.423144	0.021042
872.608042	0.021325
872.792922	0.021044
872.977783	0.020850
873.162626	0.020987
873.347451	0.020614
873.532258	0.020483
873.717046	0.020754
873.901816	0.020709
874.086568	0.020805
874.271302	0.020750
874.456017	0.020889
874.640715	0.020912
874.825394	0.020679
875.010055	0.021395
875.194697	0.021321
875.379322	0.021463
875.563928	0.021642
875.748516	0.021764
875.933085	0.021970
876.117637	0.021867
876.302170	0.022103
876.486685	0.022099
876.671182	0.021874
876.855661	0.022163
877.040121	0.022194
877.224563	0.021960
877.408987	0.021896
877.593393	0.021559
877.777780	0.021611
877.962150	0.021425
878.146501	0.021579
878.330833	0.021555
878.515148	0.021306
878.699444	0.021233
878.883722	0.021513
879.067982	0.021393
879.252224	0.021440
879.436447	0.021818
879.620653	0.021679
879.804840	0.021632
879.989008	0.021516
880.173159	0.021901
880.357291	0.022076
880.541405	0.021899
880.725501	0.022409
880.909579	0.022639
881.093638	0.022518
881.277680	0.022891
881.461703	0.023365
881.645707	0.023626
881.829694	0.023731
882.013662	0.023868
882.197612	0.023763
882.381544	0.023590
882.565458	0.023663
882.749353	0.023580
882.933230	0.023744
883.117089	0.023441
883.300930	0.023451
883.484753	0.023219
883.668557	0.022869
883.852343	0.022774
884.036111	0.022593
884.219861	0.022595
884.403592	0.022595
884.587305	0.022494
884.771000	0.022455
884.954677	0.022660
885.138335	0.022730
885.321976	0.023211
885.505598	0.023534
885.689201	0.023921
885.872787	0.023788
886.056354	0.023904
886.239904	0.023742
886.423434	0.023886
886.606947	0.023806
886.790442	0.024062
886.973918	0.023815
887.157376	0.023507
887.340816	0.023246
887.524237	0.023446
887.707641	0.023658
887.891026	0.024033
888.074393	0.023700
888.257741	0.023578
888.441072	0.023562
888.624384	0.023580
888.807678	0.023977
888.990954	0.023976
889.174211	0.023916
889.357451	0.023617
889.540672	0.023095
889.723875	0.023380
889.907059	0.023032
890.090226	0.022863
890.273374	0.022704
890.456504	0.022397
890.639616	0.022522
890.822709	0.022530
891.005785	0.022452
891.188842	0.022757
891.371881	0.022769
891.554901	0.022995
891.737904	0.022986
891.920888	0.022749
892.103854	0.022782
892.286802	0.022403
892.469731	0.021949
892.652643	0.022220
892.835536	0.022246
893.018410	0.022273
893.201267	0.022403
893.384106	0.022386
893.566926	0.022597
893.749728	0.022678
893.932511	0.022675
894.115277	0.022991
894.298024	0.022886
894.480753	0.022652
894.663464	0.022528
894.846157	0.022314
895.028831	0.022641
895.211487	0.022504
895.394125	0.022690
895.576745	0.022914
895.759346	0.023070
895.941930	0.022957
896.124495	0.023045
896.307041	0.023134
896.489570	0.023403
896.672080	0.022753
896.854573	0.022588
897.037046	0.022164
897.219502	0.022178
897.401940	0.022252
897.584359	0.022235
897.766760	0.022261
897.949143	0.021996
898.131507	0.021842
898.313854	0.021900
898.496182	0.022281
898.678492	0.022638
898.860783	0.022606
899.043057	0.022103
899.225312	0.022059
899.407549	0.022150
899.589768	0.022579
899.771968	0.022408
899.954151	0.022319
900.136315	0.022270
900.318461	0.022210
900.500588	0.022316
900.682698	0.022392
900.864789	0.022500
901.046862	0.022496
901.228917	0.022383
901.410953	0.022885
901.592971	0.023195
901.774972	0.023169
901.956953	0.023138
902.138917	0.023054
902.320862	0.023145
902.502790	0.023305
902.684699	0.023024
902.866589	0.022403
903.048462	0.022030
903.230316	0.022182
903.412152	0.022083
903.593970	0.021910
903.775770	0.021826
903.957551	0.021462
904.139314	0.021053
904.321059	0.021210
904.502786	0.021883
904.684494	0.021271
904.866185	0.020956
905.047857	0.021011
905.229510	0.021067
905.411146	0.021172
905.592763	0.021515
905.774363	0.021489
905.955943	0.021614
906.137506	0.021374
906.319051	0.021666
906.500577	0.021640
906.682085	0.021545
906.863575	0.021343
907.045046	0.020927
907.226500	0.020840
907.407935	0.021171
907.589352	0.020688
907.770750	0.020719
907.952131	0.020866
908.133493	0.020365
908.314837	0.020245
908.496163	0.020274
908.677470	0.020483
908.858760	0.020513
909.040031	0.020061
909.221284	0.020386
909.402518	0.020041
909.583735	0.019920
909.764933	0.020197
909.946113	0.019905
910.127275	0.019842
910.308418	0.019650
910.489544	0.019372
910.670651	0.019715
910.851740	0.019621
911.032810	0.019554
911.213863	0.019687
911.394897	0.019483
911.575913	0.019560
911.756911	0.019398
911.937890	0.019268
912.118851	0.019310
912.299794	0.019024
912.480719	0.018611
912.661626	0.018546
912.842514	0.018782
913.023384	0.019076
913.204236	0.019004
913.385070	0.018931
913.565886	0.019032
913.746683	0.019012
913.927462	0.018587
914.108223	0.018471
914.288965	0.018084
914.469690	0.017493
914.650396	0.017026
914.831084	0.017012
915.011754	0.016671
915.192405	0.016687
915.373038	0.016500
915.553653	0.016703
915.734250	0.016575
915.914829	0.016779
916.095389	0.016854
916.275931	0.016838
916.456455	0.016941
916.636961	0.017135
916.817448	0.017087
916.997917	0.017143
917.178368	0.016998
917.358801	0.017184
917.539216	0.017398
917.719612	0.017407
917.899990	0.017461
918.080350	0.017426
918.260692	0.017644
918.441015	0.017857
918.621320	0.017853
918.801607	0.018107
918.981876	0.018149
919.162127	0.018154
919.342359	0.018120
919.522573	0.018427
919.702769	0.018282
919.882947	0.018354
920.063106	0.017920
920.243247	0.017113
920.423370	0.016399
920.603475	0.016189
920.783562	0.015913
920.963630	0.015339
921.143680	0.015057
921.323712	0.015195
921.503725	0.015243
921.683721	0.014867
921.863698	0.015194
922.043657	0.014817
922.223598	0.014965
922.403520	0.015017
922.583424	0.015397
922.763311	0.015104
922.943178	0.014987
923.123028	0.014343
923.302859	0.014200
923.482673	0.014456
923.662467	0.014971
923.842244	0.014424
924.022003	0.014290
924.201743	0.013932
924.381465	0.013693
924.561169	0.013051
924.740854	0.012693
924.920522	0.012975
925.100171	0.012323
925.279802	0.012282
925.459414	0.012259
925.639009	0.012214
925.818585	0.012374
925.998143	0.012270
926.177683	0.012367
926.357205	0.012057
926.536708	0.012032
926.716193	0.011988
926.895660	0.011858
927.075109	0.011668
927.254539	0.011018
927.433951	0.010606
927.613345	0.010159
927.792721	0.009731
927.972079	0.009751
928.151418	0.009150
928.330739	0.008369
928.510042	0.007959
928.689327	0.007532
928.868593	0.007409
929.047841	0.007065
929.227071	0.006625
929.406283	0.006533
929.585476	0.006569
929.764652	0.005935
929.943809	0.007012
930.122948	0.007265
930.302068	0.007566
930.481171	0.007044
930.660255	0.007176
930.839321	0.007632
931.018369	0.007618
931.197398	0.007248
931.376409	0.007567
931.555402	0.006800
931.734377	0.006158
931.913334	0.005851
932.092272	0.005623
932.271192	0.005140
932.450094	0.005149
932.628978	0.004904
932.807844	0.004663
932.986691	0.004519
933.165520	0.004647
933.344331	0.004449
933.523123	0.004370
933.701898	0.004422
933.880654	0.004130
934.059392	0.003739
934.238111	0.003242
934.416813	0.003129
934.595496	0.002784
934.774161	0.002429
934.952808	0.002775
935.131437	0.002233
935.310047	0.001750
935.488639	0.001514
935.667213	0.001492
935.845769	0.001539
936.024306	0.001575
936.202825	0.001576
936.381326	0.001021
936.559809	0.000548
936.738274	0.000064
936.916720	0.000360
937.095148	0.000605
937.273558	-0.000129
937.451950	-0.000654
937.630323	-0.001495
937.808678	-0.001955
937.987015	-0.001918
938.165334	-0.002591
938.343635	-0.002467
938.521917	-0.002680
938.700181	-0.003561
938.878427	-0.003310
939.056655	-0.003156
939.234864	-0.003091
939.413055	-0.003474
939.591228	-0.003991
939.769383	-0.004878
939.947519	-0.004886
940.125638	-0.005411
940.303738	-0.005245
940.481820	-0.005759
940.659883	-0.005687
940.837929	-0.005798
941.015956	-0.005566
941.193965	-0.005784
941.371955	-0.004817
941.549928	-0.005134
941.727882	-0.004949
941.905818	-0.005289
942.083736	-0.005704
942.261636	-0.006288
942.439517	-0.006026
942.617380	-0.006243
942.795225	-0.006603
942.973052	-0.007284
943.150860	-0.007385
943.328651	-0.007790
943.506423	-0.007510
943.684176	-0.007427
943.861912	-0.007411
944.039629	-0.007794
944.217328	-0.007341
944.395009	-0.007276
944.572672	-0.007012
944.750317	-0.006846
944.927943	-0.006848
945.105551	-0.006866
945.283141	-0.007038
945.460712	-0.007638
945.638265	-0.007388
945.815801	-0.007962
945.993317	-0.007218
946.170816	-0.007972
946.348297	-0.008445
946.525759	-0.007439
946.703203	-0.007235
946.880629	-0.007322
947.058036	-0.007579
947.235425	-0.008245
947.412797	-0.007942
947.590149	-0.007857
947.767484	-0.007254
947.944800	-0.007572
948.122099	-0.008373
948.299379	-0.009118
948.476640	-0.008820
948.653884	-0.009667
948.831109	-0.010533
949.008316	-0.010691
949.185505	-0.011642
949.362676	-0.012382
949.539828	-0.012340
949.716962	-0.013480
949.894078	-0.014332
950.071176	-0.014881
950.248256	-0.013832
950.425317	-0.012297
950.602360	-0.013881
950.779385	-0.014422
950.956391	-0.014750
951.133380	-0.014597
951.310350	-0.013496
951.487302	-0.013580
951.664235	-0.014032
951.841151	-0.014374
952.018048	-0.013674
952.194927	-0.012006
952.371788	-0.012080
952.548631	-0.010765
952.725455	-0.010025
952.902261	-0.010810
953.079049	-0.010826
953.255819	-0.010029
953.432570	-0.009617
953.609303	-0.012861
953.786018	-0.014746
953.962715	-0.014522
954.139394	-0.014285
954.316054	-0.016007
954.492696	-0.017229
954.669320	-0.015372
954.845926	-0.015514
955.022513	-0.013999
955.199083	-0.011847
955.375634	-0.011227
955.552166	-0.011576
955.728681	-0.013075
955.905177	-0.011755
956.081655	-0.010630
956.258115	-0.010978
956.434557	-0.011318
956.610980	-0.012558
956.787385	-0.012093
956.963772	-0.010707
957.140141	-0.010148
957.316492	-0.008394
957.492824	-0.008296
957.669138	-0.006851
957.845434	-0.007424
958.021712	-0.005948
958.197971	-0.005450
958.374212	-0.005360
958.550435	-0.006282
958.726640	-0.005893
958.902826	-0.006388
959.078995	-0.006500
959.255145	-0.005700
959.431277	-0.003061
959.607390	-0.002738
959.783486	-0.003653
959.959563	-0.004950
960.135622	-0.005091
960.311662	-0.007209
960.487685	-0.006511
960.663689	-0.006057
960.839675	-0.007513
961.015643	-0.008646
961.191593	-0.009111
961.367524	-0.009241
961.543437	-0.006987
961.719332	-0.004486
961.895209	-0.002695
962.071067	-0.001718
962.246907	-0.002047
962.422730	-0.001347
962.598533	-0.001684
962.774319	-0.001486
962.950086	0.000687
963.125835	0.000164
963.301566	-0.000570
963.477279	0.001585
963.652973	0.001767
963.828650	0.001974
964.004308	0.000118
964.179947	0.000353
964.355569	-0.000971
964.531172	-0.001871
964.706757	-0.000942
964.882324	-0.000951
965.057873	-0.002026
965.233403	-0.002720
965.408916	-0.001814
965.584410	-0.001168
965.759885	-0.001167
965.935343	-0.000421
966.110782	-0.000809
966.286203	-0.003431
966.461606	-0.006253
966.636991	-0.005739
966.812357	-0.005601
966.987705	-0.003624
967.163035	-0.001844
967.338347	-0.002566
967.513641	-0.001552
967.688916	-0.001325
967.864173	0.001409
968.039412	0.005914
968.214632	0.005384
968.389835	0.004421
968.565019	0.002701
968.740185	0.003304
968.915333	0.004027
969.090462	0.002776
969.265573	0.003809
969.440667	0.003427
969.615741	0.001898
969.790798	0.002698
969.965836	0.002330
970.140856	0.001268
970.315858	0.001498
970.490842	0.000854
970.665808	0.001862
970.840755	0.000565
971.015684	0.001530
971.190595	-0.001020
971.365487	0.001243
971.540362	0.003133
971.715218	0.003971
971.890056	0.003596
972.064875	0.003769
972.239677	0.002733
972.414460	0.003966
972.589225	0.001998
972.763972	0.004526
972.938700	0.000894
973.113411	-0.000674
973.288103	0.000309
973.462777	-0.001808
973.637432	-0.003418
973.812070	-0.002202
973.986689	-0.001989
974.161290	-0.000719
974.335873	0.000900
974.510437	0.002699
974.684984	0.003014
974.859512	0.000342
975.034022	0.002295
975.208513	0.002428
975.382987	0.001284
975.557442	0.000110
975.731879	0.000446
975.906298	-0.001428
976.080698	-0.002465
976.255080	-0.002611
976.429445	-0.002704
976.603790	-0.003434
976.778118	-0.001651
976.952427	-0.000512
977.126719	0.000239
977.300992	-0.000803
977.475246	-0.000429
977.649483	0.000220
977.823701	0.001327
977.997901	0.003012
978.172083	0.001033
978.346247	0.001183
978.520392	0.000660
978.694519	0.002262
978.868628	0.002390
979.042719	0.002775
979.216791	0.003858
979.390845	0.002893
979.564882	0.002344
979.738899	0.005006
979.912899	0.006306
980.086880	0.007357
980.260843	0.007521
980.434788	0.007716
980.608715	0.004863
980.782623	0.002575
980.956514	0.001258
981.130386	0.001347
981.304240	-0.000338
981.478075	-0.001310
981.651892	-0.003001
981.825692	-0.005597
981.999472	-0.003744
982.173235	-0.001718
982.346980	-0.000936
982.520706	0.000878
982.694414	0.000201
982.868104	0.002035
983.041775	0.003690
983.215428	0.003871
983.389064	0.006253
983.562680	0.003279
983.736279	0.002623
983.909860	0.003820
984.083422	0.005148
984.256966	0.005743
984.430491	0.005280
984.603999	0.003221
984.777488	0.003779
984.950959	0.002234
985.124412	0.002628
985.297847	0.004787
985.471263	0.002331
985.644661	0.000258
985.818041	0.001601
985.991403	-0.000105
986.164747	-0.001273
986.338072	-0.002544
986.511379	-0.003057
986.684668	-0.003514
986.857938	-0.006000
987.031191	-0.003599
987.204425	-0.002180
987.377641	-0.002230
987.550839	-0.002080
987.724018	-0.000100
987.897179	0.000701
988.070322	0.001466
988.243447	0.000929
988.416554	0.001224
988.589642	-0.000110
988.762712	-0.001369
988.935764	-0.000175
989.108798	0.000521
989.281813	-0.001640
989.454811	-0.001176
989.627790	-0.002284
989.800751	-0.004447
989.973693	-0.004635
990.146617	-0.002653
990.319524	-0.001885
990.492412	-0.003537
990.665281	-0.002607
990.838133	-0.000061
991.010966	-0.001019
991.183781	0.000527
991.356578	0.004520
991.529356	0.006706
991.702117	0.004910
991.874859	0.002979
992.047583	0.000764
992.220288	-0.002166
992.392976	-0.004257
992.565645	-0.004049
992.738296	-0.003997
992.910929	-0.004565
993.083543	-0.004782
993.256139	-0.006407
993.428718	-0.003379
993.601277	-0.003404
993.773819	-0.001140
993.946342	-0.002448
994.118848	-0.002894
994.291335	-0.003098
994.463803	-0.003820
994.636254	-0.005282
994.808686	-0.003224
994.981100	-0.006337
995.153496	-0.005167
995.325874	-0.005426
995.498233	-0.004106
995.670574	-0.002217
995.842897	-0.002538
996.015202	-0.003942
996.187488	-0.003175
996.359757	-0.003376
996.532007	-0.001708
996.704239	-0.001337
996.876452	-0.001714
997.048648	-0.000162
997.220825	0.000428
997.392984	0.001078
997.565124	0.002739
997.737247	0.003237
997.909351	0.002394
998.081437	0.003567
998.253505	0.002929
998.425554	0.004225
998.597586	0.003162
998.769599	0.000518
998.941594	0.000459
999.113571	0.000488
999.285529	0.000456
999.457469	0.002511
999.629391	0.000107
999.801295	0.000195
999.973181	0.000893
1000.145048	0.000447
1000.316897	-0.000220
1000.488728	-0.000636
1000.660541	-0.001446
1000.832335	-0.003625
1001.004111	-0.004358
1001.175869	-0.004150
1001.347609	-0.004331
1001.519331	-0.008557
1001.691034	-0.009470
1001.862719	-0.009016
1002.034386	-0.009381
1002.206035	-0.008681
1002.377665	-0.006745
1002.549277	-0.008922
1002.720871	-0.008685
1002.892447	-0.006310
1003.064004	-0.006801
1003.235544	-0.005549
1003.407065	-0.003085
1003.578568	-0.001333
1003.750052	-0.001098
1003.921519	-0.003807
1004.092967	-0.002783
1004.264397	-0.003739
1004.435809	-0.005774
1004.607202	-0.002328
1004.778577	-0.002789
1004.949934	-0.004308
1005.121273	-0.005870
1005.292594	-0.006588
1005.463896	-0.003627
1005.635180	-0.004058
1005.806446	-0.002129
1005.977694	-0.001322
1006.148923	-0.003105
1006.320135	-0.003268
1006.491328	-0.003288
1006.662503	-0.004186
1006.833659	-0.003803
1007.004798	-0.005242
1007.175918	-0.005891
1007.347020	-0.006026
1007.518103	-0.007736
1007.689169	-0.005527
1007.860216	-0.004945
1008.031245	-0.005442
1008.202256	-0.006072
1008.373248	-0.006023
1008.544223	-0.007229
1008.715179	-0.005845
1008.886117	-0.007197
1009.057036	-0.007169
1009.227938	-0.009714
1009.398821	-0.010306
1009.569686	-0.009733
1009.740533	-0.009356
1009.911361	-0.010577
1010.082172	-0.008606
1010.252964	-0.008994
1010.423738	-0.009340
1010.594493	-0.008447
1010.765231	-0.006471
1010.935950	-0.007254
1011.106651	-0.007114
1011.277334	-0.007369
1011.447998	-0.005005
1011.618645	-0.006080
1011.789273	-0.007061
1011.959882	-0.006238
1012.130474	-0.007261
1012.301048	-0.007984
1012.471603	-0.005906
1012.642140	-0.005054
1012.812658	-0.004514
1012.983159	-0.005404
1013.153641	-0.005484
1013.324105	-0.005589
1013.494551	-0.005531
1013.664979	-0.003604
1013.835388	-0.004439
1014.005779	-0.006440
1014.176152	-0.008300
1014.346507	-0.007105
1014.516843	-0.007845
1014.687162	-0.006968
1014.857462	-0.005500
1015.027744	-0.006309
1015.198007	-0.008522
1015.368252	-0.007310
1015.538480	-0.006567
1015.708689	-0.005402
1015.878879	-0.005171
1016.049052	-0.004759
1016.219206	-0.005310
1016.389342	-0.005524
1016.559460	-0.004692
1016.729559	-0.004581
1016.899641	-0.005406
1017.069704	-0.003473
1017.239749	-0.003731
1017.409775	-0.002999
1017.579784	-0.003559
1017.749774	-0.003439
1017.919746	-0.003954
1018.089700	-0.004704
1018.259635	-0.004545
1018.429553	-0.004191
1018.599452	-0.005002
1018.769333	-0.004722
1018.939195	-0.006960
1019.109040	-0.006637
1019.278866	-0.005813
1019.448674	-0.006449
1019.618464	-0.006206
1019.788235	-0.005689
1019.957989	-0.007795
1020.127724	-0.008557
1020.297441	-0.009207
1020.467139	-0.007641
1020.636820	-0.007263
1020.806482	-0.009060
1020.976126	-0.008274
1021.145752	-0.008278
1021.315359	-0.008782
1021.484948	-0.007504
1021.654519	-0.007650
1021.824072	-0.008182
1021.993607	-0.010263
1022.163123	-0.010442
1022.332621	-0.009394
1022.502101	-0.010140
1022.671563	-0.011049
1022.841007	-0.008744
1023.010432	-0.008140
1023.179839	-0.008639
1023.349228	-0.008650
1023.518598	-0.007494
1023.687951	-0.008948
1023.857285	-0.009463
1024.026601	-0.007548
1024.195899	-0.006591
1024.365178	-0.009044
1024.534439	-0.007878
1024.703682	-0.008711
1024.872907	-0.009355
1025.042114	-0.009967
1025.211302	-0.007423
1025.380472	-0.007658
1025.549624	-0.010876
1025.718758	-0.011636
1025.887873	-0.010062
1026.056970	-0.011859
1026.226049	-0.011053
1026.395110	-0.009929
1026.564153	-0.009210
1026.733177	-0.011581
1026.902183	-0.011277
1027.071171	-0.011254
1027.240141	-0.010008
1027.409092	-0.011639
1027.578026	-0.011363
1027.746940	-0.011142
1027.915837	-0.011873
1028.084716	-0.012566
1028.253576	-0.011378
1028.422418	-0.010171
1028.591242	-0.008085
1028.760048	-0.007671
1028.928835	-0.007057
1029.097604	-0.006827
1029.266355	-0.006724
1029.435088	-0.006062
1029.603803	-0.005044
1029.772499	-0.004766
1029.941177	-0.007363
1030.109837	-0.008151
1030.278478	-0.009644
1030.447102	-0.009836
1030.615707	-0.009103
1030.784294	-0.009862
1030.952863	-0.008961
1031.121413	-0.009568
1031.289945	-0.009711
1031.458460	-0.008455
1031.626955	-0.009618
1031.795433	-0.009488
1031.963892	-0.010018
1032.132334	-0.010272
1032.300756	-0.008800
1032.469161	-0.009140
1032.637548	-0.010238
1032.805916	-0.010621
1032.974266	-0.010715
1033.142598	-0.008346
1033.310911	-0.008599
1033.479207	-0.009111
1033.647484	-0.009160
1033.815743	-0.010302
1033.983983	-0.011055
1034.152206	-0.009339
1034.320410	-0.008248
1034.488596	-0.008551
1034.656764	-0.010276
1034.824914	-0.010118
1034.993045	-0.009185
1035.161158	-0.008615
1035.329253	-0.009454
1035.497330	-0.009835
1035.665388	-0.009418
1035.833428	-0.010716
1036.001450	-0.011780
1036.169454	-0.011287
1036.337440	-0.011163
1036.505407	-0.010150
1036.673356	-0.009807
1036.841287	-0.008663
1037.009200	-0.008355
1037.177094	-0.010863
1037.344970	-0.010565
1037.512828	-0.011233
1037.680668	-0.010910
1037.848489	-0.011068
1038.016293	-0.010256
1038.184078	-0.011679
1038.351845	-0.010989
1038.519593	-0.010225
1038.687324	-0.009827
1038.855036	-0.008616
1039.022730	-0.007576
1039.190406	-0.008082
1039.358063	-0.006711
1039.525702	-0.007316
1039.693323	-0.008295
1039.860926	-0.009555
1040.028511	-0.010465
1040.196077	-0.010243
1040.363625	-0.011518
1040.531155	-0.009656
1040.698667	-0.009495
1040.866161	-0.010521
1041.033636	-0.010922
1041.201093	-0.009115
1041.368532	-0.009011
1041.535952	-0.010046
1041.703355	-0.009339
1041.870739	-0.009375
1042.038105	-0.010119
1042.205452	-0.009287
1042.372782	-0.007523
1042.540093	-0.009488
1042.707386	-0.011493
1042.874661	-0.011426
1043.041918	-0.010089
1043.209156	-0.009560
1043.376376	-0.007947
1043.543578	-0.007425
1043.710762	-0.007845
1043.877927	-0.008770
1044.045074	-0.006388
1044.212203	-0.005074
1044.379314	-0.003867
1044.546407	-0.002343
1044.713481	-0.002085
1044.880537	-0.003594
1045.047575	-0.005037
1045.214595	-0.006434
1045.381596	-0.006812
1045.548579	-0.007491
1045.715544	-0.007354
1045.882491	-0.006921
1046.049420	-0.007499
1046.216330	-0.008330
1046.383222	-0.006633
1046.550096	-0.004479
1046.716951	-0.001937
1046.883789	-0.002417
1047.050608	-0.001786
1047.217409	-0.000618
1047.384192	-0.002060
1047.550956	-0.004096
1047.717703	-0.004175
1047.884431	-0.006712
1048.051140	-0.007255
1048.217832	-0.009614
1048.384505	-0.009247
1048.551161	-0.010746
1048.717798	-0.010981
1048.884416	-0.010379
1049.051017	-0.009044
1049.217599	-0.009349
1049.384163	-0.007993
1049.550709	-0.010805
1049.717237	-0.007720
1049.883746	-0.009325
1050.050237	-0.008616
1050.216710	-0.009270
1050.383165	-0.009437
1050.549601	-0.007934
1050.716019	-0.007469
1050.882420	-0.007903
1051.048801	-0.004939
1051.215165	-0.006277
1051.381510	-0.004385
1051.547837	-0.004173
1051.714146	-0.006138
1051.880437	-0.005080
1052.046709	-0.008805
1052.212964	-0.008435
1052.379200	-0.009144
1052.545417	-0.009945
1052.711617	-0.010885
1052.877798	-0.011504
1053.043961	-0.010416
1053.210106	-0.008720
1053.376233	-0.010085
1053.542341	-0.007639
1053.708432	-0.008620
1053.874504	-0.006542
1054.040557	-0.005031
1054.206593	-0.003213
1054.372610	-0.002585
1054.538609	-0.003443
1054.704590	-0.003673
1054.870553	-0.004604
1055.036497	-0.005168
1055.202424	-0.004566
1055.368331	-0.006498
1055.534221	-0.008698
1055.700093	-0.008682
1055.865946	-0.009370
1056.031781	-0.008991
1056.197598	-0.009207
1056.363397	-0.007813
1056.529177	-0.008338
1056.694939	-0.008602
1056.860683	-0.007945
1057.026409	-0.007034
1057.192116	-0.008366
1057.357806	-0.006995
1057.523477	-0.008162
1057.689130	-0.007100
1057.854764	-0.006847
1058.020381	-0.006064
1058.185979	-0.005967
1058.351559	-0.008446
1058.517120	-0.010625
1058.682664	-0.010066
1058.848189	-0.013048
1059.013696	-0.012628
1059.179185	-0.013530
1059.344656	-0.014069
1059.510108	-0.013222
1059.675542	-0.012781
1059.840958	-0.009940
1060.006356	-0.007721
1060.171735	-0.008344
1060.337096	-0.006920
1060.502439	-0.006325
1060.667764	-0.006165
1060.833071	-0.005456
1060.998359	-0.007376
1061.163629	-0.007927
1061.328881	-0.009198
1061.494115	-0.007937
1061.659330	-0.009105
1061.824527	-0.007686
1061.989706	-0.009745
1062.154867	-0.010809
1062.320010	-0.012116
1062.485134	-0.009878
1062.650240	-0.009877
1062.815328	-0.009179
1062.980398	-0.010136
1063.145449	-0.008791
1063.310482	-0.010508
1063.475497	-0.009884
1063.640494	-0.008670
1063.805473	-0.008819
1063.970433	-0.010553
1064.135375	-0.010049
1064.300299	-0.010006
1064.465204	-0.012043
1064.630092	-0.013406
1064.794961	-0.012400
1064.959812	-0.011426
1065.124645	-0.010633
1065.289459	-0.010162
1065.454256	-0.010276
1065.619034	-0.010702
1065.783793	-0.010846
1065.948535	-0.010830
1066.113258	-0.007845
1066.277964	-0.008289
1066.442651	-0.007999
1066.607319	-0.008194
1066.771970	-0.007740
1066.936602	-0.007945
1067.101216	-0.009484
1067.265812	-0.009455
1067.430389	-0.008813
1067.594949	-0.012430
1067.759490	-0.011257
1067.924013	-0.011865
1068.088518	-0.012912
1068.253004	-0.012007
1068.417472	-0.010705
1068.581922	-0.008794
1068.746354	-0.007560
1068.910768	-0.005732
1069.075163	-0.003883
1069.239540	-0.005445
1069.403899	-0.005565
1069.568240	-0.006395
1069.732562	-0.007830
1069.896866	-0.008442
1070.061152	-0.008175
1070.225420	-0.008801
1070.389670	-0.010823
1070.553901	-0.009638
1070.718114	-0.008037
1070.882309	-0.008141
1071.046486	-0.007220
1071.210644	-0.005875
1071.374784	-0.005369
1071.538906	-0.006907
1071.703010	-0.007296
1071.867096	-0.004106
1072.031163	-0.005073
1072.195212	-0.006728
1072.359243	-0.005836
1072.523256	-0.007254
1072.687250	-0.008370
1072.851226	-0.009104
1073.015184	-0.008098
1073.179124	-0.006295
1073.343045	-0.009977
1073.506949	-0.010032
1073.670834	-0.009037
1073.834701	-0.012620
1073.998549	-0.008557
1074.162380	-0.007818
1074.326192	-0.008103
1074.489986	-0.008199
1074.653761	-0.010337
1074.817519	-0.006307
1074.981258	-0.004856
1075.144979	-0.005649
1075.308682	-0.002958
1075.472367	-0.008440
1075.636033	-0.010258
1075.799681	-0.010516
1075.963311	-0.010287
1076.126923	-0.010226
1076.290516	-0.009861
1076.454092	-0.011586
1076.617649	-0.011300
1076.781187	-0.008876
1076.944708	-0.006469
1077.108210	-0.005353
1077.271695	-0.003547
1077.435160	-0.002374
1077.598608	-0.002010
1077.762038	-0.005355
1077.925449	-0.004976
1078.088842	-0.004987
1078.252217	-0.004709
1078.415573	-0.001377
1078.578912	-0.000178
1078.742232	-0.001117
1078.905534	-0.005537
1079.068817	-0.006802
1079.232083	-0.007154
1079.395330	-0.004593
1079.558559	-0.003854
1079.721770	-0.007181
1079.884962	-0.011302
1080.048136	-0.011234
1080.211293	-0.008865
1080.374430	-0.004650
1080.537550	-0.003905
1080.700651	-0.002097
1080.863735	-0.006612
1081.026800	-0.006977
1081.189846	-0.004236
1081.352875	-0.002561
1081.515885	-0.005862
1081.678877	-0.006587
1081.841851	-0.008875
1082.004807	-0.007056
1082.167744	-0.007894
1082.330663	-0.008169
1082.493564	-0.007737
1082.656447	-0.009304
1082.819312	-0.007895
1082.982158	-0.005753
1083.144986	-0.008985
1083.307796	-0.007620
1083.470587	-0.009087
1083.633361	-0.008819
1083.796116	-0.006247
1083.958853	-0.005713
1084.121571	-0.004643
1084.284272	-0.006968
1084.446954	-0.005601
1084.609618	-0.002374
1084.772264	-0.002913
1084.934892	-0.003257
1085.097501	-0.002443
1085.260092	-0.002939
1085.422665	-0.003200
1085.585220	-0.002798
1085.747756	-0.000092
1085.910274	-0.000655
1086.072774	-0.001262
1086.235256	0.001231
1086.397720	0.003262
1086.560165	0.003773
1086.722592	0.004607
1086.885001	0.006047
1087.047392	0.003451
1087.209764	0.004536
1087.372119	0.004194
1087.534455	0.003905
1087.696772	0.000486
1087.859072	-0.000686
1088.021353	-0.001040
1088.183616	-0.003345
1088.345861	-0.003932
1088.508088	-0.001666
1088.670296	-0.003978
1088.832486	-0.005358
1088.994658	-0.004863
1089.156812	-0.001164
1089.318948	-0.000391
1089.481065	-0.002194
1089.643164	0.000921
1089.805245	-0.000940
1089.967308	-0.002105
1090.129352	-0.002004
1090.291378	-0.000635
1090.453386	-0.000611
1090.615376	-0.002673
1090.777347	-0.003465
1090.939301	-0.002168
1091.101236	-0.002497
1091.263153	-0.000820
1091.425051	-0.000528
1091.586932	-0.001594
1091.748794	-0.001099
1091.910638	-0.003078
1092.072463	-0.003393
1092.234271	-0.005921
1092.396060	-0.006444
1092.557831	-0.008350
1092.719584	-0.009246
1092.881319	-0.008512
1093.043035	-0.007824
1093.204733	-0.006789
1093.366413	-0.004740
1093.528075	-0.005989
1093.689718	-0.002534
1093.851343	-0.001862
1094.012950	-0.000410
1094.174539	-0.000286
1094.336110	0.001576
1094.497662	-0.000931
1094.659196	-0.002725
1094.820712	-0.003727
1094.982210	-0.003077
1095.143689	-0.002965
1095.305151	-0.000959
1095.466594	-0.001785
1095.628018	-0.001777
1095.789425	-0.000891
1095.950813	0.004237
1096.112183	0.007613
1096.273535	0.009174
1096.434869	0.010390
1096.596184	0.006039
1096.757482	0.003979
1096.918761	0.003817
1097.080021	0.003173
1097.241264	0.000648
1097.402488	-0.004003
1097.563694	-0.006562
1097.724882	-0.006229
1097.886052	-0.008145
1098.047203	-0.005101
1098.208336	-0.003955
1098.369451	-0.003300
1098.530548	-0.002324
1098.691627	-0.007080
1098.852687	-0.003626
1099.013729	-0.004076
1099.174753	-0.004369
1099.335758	0.000126
1099.496746	0.001974
1099.657715	-0.000326
1099.818666	0.000960
1099.979599	-0.002538
1100.140513	0.000767
1100.301409	0.000703
1100.462287	0.000828
1100.623147	-0.000161
1100.783989	-0.005689
1100.944812	-0.010534
1101.105617	-0.006949
1101.266404	-0.008949
1101.427173	-0.006843
1101.587923	-0.006037
1101.748656	-0.004095
1101.909370	-0.003676
1102.070066	-0.004030
1102.230743	0.001324
1102.391403	0.006775
1102.552044	0.004251
1102.712667	0.004756
1102.873271	0.006873
1103.033858	0.008025
1103.194426	0.003555
1103.354976	0.002910
1103.515508	0.003162
1103.676021	-0.001455
1103.836517	-0.001576
1103.996994	-0.002247
1104.157453	0.000166
1104.317893	-0.001838
1104.478316	-0.002488
1104.638720	-0.001524
1104.799106	-0.002483
1104.959474	-0.004412
1105.119823	-0.000090
1105.280155	-0.000795
1105.440468	0.001359
1105.600763	-0.003285
1105.761039	-0.005254
1105.921298	-0.006397
1106.081538	-0.005522
1106.241760	-0.004216
1106.401964	-0.002488
1106.562149	-0.004919
1106.722316	-0.005892
1106.882465	-0.009130
1107.042596	-0.005401
1107.202709	-0.000653
1107.362803	0.002240
1107.522879	0.002358
1107.682937	0.005833
1107.842977	0.006270
1108.002999	0.007461
1108.163002	0.010393
1108.322987	0.011487
1108.482954	0.010733
1108.642902	0.008954
1108.802833	0.004474
1108.962745	0.003714
1109.122639	-0.000229
1109.282515	-0.000738
1109.442372	-0.001884
1109.602211	-0.003305
1109.762032	-0.003428
1109.921835	-0.005773
1110.081620	-0.007769
1110.241386	-0.004339
1110.401134	-0.002193
1110.560864	-0.001700
1110.720576	-0.000131
1110.880269	0.001161
1111.039945	-0.000481
1111.199602	0.001751
1111.359240	0.001111
1111.518861	0.001391
1111.678463	0.001624
1111.838047	0.004362
1111.997613	0.004667
1112.157161	0.005558
1112.316690	0.003881
1112.476202	0.006828
1112.635695	-0.001000
1112.795169	0.002082
1112.954626	0.006833
1113.114064	0.007239
1113.273484	0.002431
1113.432886	0.004007
1113.592270	0.001018
1113.751635	0.001893
1113.910983	0.000110
1114.070312	0.004916
1114.229622	0.008189
1114.388915	0.004965
1114.548189	0.001071
1114.707445	0.000931
1114.866683	-0.003894
1115.025903	-0.002104
1115.185104	-0.000094
1115.344287	-0.004885
1115.503452	-0.000642
1115.662599	-0.003905
1115.821727	-0.004117
1115.980838	-0.004389
1116.139930	-0.002039
1116.299004	0.003570
1116.458059	0.000906
1116.617097	-0.002305
1116.776116	0.003511
1116.935117	-0.000356
1117.094099	-0.000903
1117.253064	-0.002191
1117.412010	0.002099
1117.570938	0.001500
1117.729848	-0.003696
1117.888740	-0.002427
1118.047613	-0.003585
1118.206468	-0.006503
1118.365305	-0.005923
1118.524124	-0.007099
1118.682924	-0.005979
1118.841707	-0.008134
1119.000471	-0.008836
1119.159216	-0.006706
1119.317944	-0.007308
1119.476653	-0.004418
1119.635344	-0.008715
1119.794017	-0.005419
1119.952672	-0.003250
1120.111308	0.003034
1120.269927	0.003525
1120.428527	0.004236
1120.587108	0.002368
1120.745672	0.002990
1120.904217	0.000502
1121.062744	0.005398
1121.221253	0.001396
1121.379744	0.001313
1121.538216	-0.005192
1121.696671	-0.007226
1121.855107	-0.011062
1122.013524	-0.006360
1122.171924	-0.004518
1122.330305	-0.000098
1122.488668	0.001391
1122.647013	0.001586
1122.805340	0.003095
1122.963648	0.003239
1123.121938	0.005749
1123.280210	0.006443
1123.438464	0.003511
1123.596700	0.000730
1123.754917	0.000057
1123.913116	-0.001465
1124.071297	-0.002160
1124.229459	-0.000158
1124.387604	-0.001755
1124.545730	-0.000626
1124.703838	0.002382
1124.861928	0.003910
1125.019999	0.002355
1125.178052	0.002443
1125.336088	0.002885
1125.494104	0.005746
1125.652103	0.005523
1125.810083	0.008927
1125.968045	0.008304
1126.125989	0.007179
1126.283915	0.007663
1126.441823	0.013218
1126.599712	0.011405
1126.757583	0.010420
1126.915436	0.006946
1127.073270	0.000488
1127.231087	-0.000687
1127.388885	-0.002686
1127.546665	-0.003742
1127.704426	-0.003584
1127.862170	-0.005722
1128.019895	-0.001937
1128.177602	0.000739
1128.335291	0.006845
1128.492961	0.008997
1128.650614	0.012590
1128.808248	0.011618
1128.965864	0.016132
1129.123461	0.013276
1129.281041	0.013980
1129.438602	0.005033
1129.596145	0.005320
1129.753670	0.005499
1129.911176	0.006340
1130.068665	0.003826
1130.226135	0.004407
1130.383587	0.003407
1130.541020	0.002872
1130.698436	0.002382
1130.855833	0.006549
1131.013212	0.003978
1131.170573	-0.002313
1131.327915	-0.003515
1131.485239	-0.005671
1131.642545	-0.002435
1131.799833	-0.001224
1131.957103	-0.002434
1132.114354	-0.006359
1132.271588	-0.005968
1132.428803	-0.006989
1132.585999	0.001136
1132.743178	0.007472
1132.900338	0.005283
1133.057480	0.003684
1133.214604	0.000982
1133.371710	0.004942
1133.528797	0.008704
1133.685866	0.007675
1133.842917	0.010416
1133.999950	0.005219
1134.156964	-0.001742
1134.313960	-0.002532
1134.470938	-0.003210
1134.627898	-0.002913
1134.784840	-0.003356
1134.941763	-0.005630
1135.098668	-0.001559
1135.255555	-0.002452
1135.412424	-0.003080
1135.569274	-0.002326
1135.726107	0.000933
1135.882921	0.005082
1136.039716	0.001846
1136.196494	0.006848
1136.353253	0.007758
1136.509995	0.006310
1136.666717	0.000349
1136.823422	-0.002746
1136.980109	-0.001843
1137.136777	0.001584
1137.293427	-0.004187
1137.450059	-0.001572
1137.606672	-0.005360
1137.763267	-0.003266
1137.919844	-0.005333
1138.076403	0.002985
1138.232944	0.008154
1138.389466	0.009130
1138.545971	0.005317
1138.702457	0.008271
1138.858924	0.012895
1139.015374	0.010505
1139.171805	0.014730
1139.328218	0.017975
1139.484613	0.010396
1139.640990	0.012065
1139.797348	0.013697
1139.953688	0.020467
1140.110010	0.016881
1140.266314	0.008390
1140.422600	0.007100
1140.578867	0.000997
1140.735116	-0.002599
1140.891347	0.003667
1141.047559	-0.000096
1141.203754	-0.004197
1141.359930	-0.010029
1141.516088	-0.008319
1141.672228	-0.007706
1141.828349	-0.012507
1141.984452	-0.019416
1142.140537	-0.020787
1142.296604	-0.026037
1142.452653	-0.028064
1142.608683	-0.029923
1142.764695	-0.030183
1142.920689	-0.030446
1143.076665	-0.030470
1143.232622	-0.024637
1143.388562	-0.014601
1143.544483	-0.007079
1143.700385	0.000258
1143.856270	0.005216
1144.012136	0.010155
1144.167985	0.017757
1144.323814	0.017899
1144.479626	0.020652
1144.635420	0.024894
1144.791195	0.025925
1144.946952	0.019612
1145.102691	0.015922
1145.258411	0.009077
1145.414113	0.011436
1145.569798	0.006717
1145.725463	0.008593
1145.881111	0.009841
1146.036741	0.007301
1146.192352	-0.000374
1146.347945	0.000763
1146.503519	0.001083
1146.659076	0.004239
1146.814614	-0.000576
1146.970134	-0.007343
1147.125636	-0.008124
1147.281120	-0.005414
1147.436585	-0.000891
1147.592032	0.006963
1147.747461	0.007335
1147.902872	0.012672
1148.058265	0.008620
1148.213639	0.008520
1148.368995	0.017634
1148.524333	0.021845
1148.679653	0.015581
1148.834954	0.010611
1148.990237	0.003304
1149.145502	0.001158
1149.300749	-0.001695
1149.455977	0.001645
1149.611188	0.002368
1149.766380	-0.004571
1149.921553	-0.009851
1150.076709	-0.008664
1150.231846	-0.006377
1150.386966	-0.000436
1150.542066	-0.004374
1150.697149	-0.007497
1150.852214	-0.003222
1151.007260	-0.003626
1151.162288	0.003852
1151.317298	0.002852
1151.472289	0.003408
1151.627263	-0.007071
1151.782218	-0.011506
1151.937155	-0.003629
1152.092073	0.004169
1152.246974	-0.000801
1152.401856	-0.005040
1152.556720	-0.007556
1152.711566	-0.008807
1152.866393	-0.003567
1153.021203	0.003541
1153.175994	0.004928
1153.330767	0.001570
1153.485521	-0.012131
1153.640258	-0.007778
1153.794976	-0.001789
1153.949676	-0.004129
1154.104358	0.001705
1154.259021	-0.009150
1154.413667	-0.008513
1154.568294	-0.006190
1154.722903	-0.008360
1154.877493	0.000272
1155.032066	0.000081
1155.186620	-0.001888
1155.341156	0.003316
1155.495674	0.002162
1155.650173	0.006171
1155.804654	0.000783
1155.959118	-0.001176
1156.113562	0.006083
1156.267989	0.006799
1156.422397	0.007517
1156.576788	0.008773
1156.731160	0.001272
1156.885513	0.001834
1157.039849	0.005330
1157.194166	-0.000336
1157.348465	0.006307
1157.502746	0.004218
1157.657009	0.005759
1157.811253	-0.001517
1157.965479	-0.000726
1158.119687	0.008426
1158.273877	0.006543
1158.428048	0.004269
1158.582201	0.005519
1158.736337	0.004195
1158.890453	-0.001939
1159.044552	-0.009217
1159.198632	-0.000714
1159.352694	0.000721
1159.506738	-0.005277
1159.660764	-0.004786
1159.814771	-0.004422
1159.968761	0.006446
1160.122732	0.001925
1160.276685	0.007643
1160.430619	0.009302
1160.584535	0.010780
1160.738434	0.000153
1160.892313	0.004947
1161.046175	0.003516
1161.200019	0.005023
1161.353844	0.004450
1161.507651	0.009548
1161.661440	0.003802
1161.815210	0.012815
1161.968962	0.001981
1162.122697	0.009124
1162.276412	0.006498
1162.430110	0.007031
1162.583789	0.008502
1162.737451	0.013903
1162.891094	0.019474
1163.044718	0.026316
1163.198325	0.020978
1163.351913	0.022883
1163.505483	0.020925
1163.659035	0.015449
1163.812569	0.015180
1163.966084	0.016741
1164.119581	0.007091
1164.273060	-0.001061
1164.426521	-0.002891
1164.579964	-0.000532
1164.733388	-0.001132
1164.886794	-0.010041
1165.040182	-0.002390
1165.193551	-0.003706
1165.346903	-0.011718
1165.500236	-0.007153
1165.653551	-0.011687
1165.806848	-0.017243
1165.960126	-0.027217
1166.113386	-0.025017
1166.266628	-0.020459
1166.419852	-0.025862
1166.573058	-0.023545
1166.726245	-0.022683
1166.879414	-0.024260
1167.032565	-0.023656
1167.185698	-0.014979
1167.338812	-0.004333
1167.491909	-0.000633
1167.644987	0.017314
1167.798046	0.023600
1167.951088	0.030256
1168.104111	0.031143
1168.257117	0.028819
1168.410103	0.030992
1168.563072	0.032174
1168.716023	0.020049
1168.868955	0.016334
1169.021869	0.009012
1169.174765	0.004647
1169.327642	-0.002537
1169.480501	-0.005188
1169.633343	-0.007448
1169.786165	-0.012569
1169.938970	-0.016347
1170.091757	-0.012578
1170.244525	-0.009970
1170.397275	-0.007315
1170.550007	-0.008291
1170.702720	-0.006230
1170.855415	0.002412
1171.008092	0.000833
1171.160751	-0.001113
1171.313392	-0.007734
1171.466014	0.029844
1171.618619	-0.054428
1171.771205	-0.054428
1171.923772	-0.054428
