sample name	sample
index	1076
start time	 04-22-2021  11:01:47 AM
880	-0.057999
Peak Time (s)	101.038
Peak Height 	-0.058
calc peak height	100,103
Baseline Time (s)	9.536
Baseline Value 	-0.006766
subtract baseline	10,4
Abs	-0.012887
Peak Time (s)	101.038
Peak Height 	-0.01289
calc peak height	100,103
Baseline Time (s)	10.036
Baseline Value 	0.002526
subtract baseline	10,3
PK_550	0.000711
Peak Time (s)	102.54
Peak Height 	7.1096E-4
calc peak height	100,103
Baseline Time (s)	10.036
Baseline Value 	8.1947E-4
subtract baseline	10,2
PK_880	-0.017068
Peak Time (s)	100.035
Peak Height 	-0.01707
calc peak height	100,103
Baseline Time (s)	10.036
Baseline Value 	0.002455
subtract baseline	10,1


Time (s)	A880-A510	A880-A775	A880-A975	A880	I510	I775	I975	I880	
0.035500	-0.000960	-0.000606	-0.002157	0.003053	6246.713406	43238.262893	3870.381981	22705.333487
0.536500	0.000223	-0.000702	-0.003921	0.005535	6236.714667	42999.819004	3860.644806	22592.455243
1.036000	-0.002903	-0.000873	-0.000588	0.007709	6196.244648	42784.194598	3863.293610	22494.153307
1.537000	-0.000609	-0.000122	0.002680	0.002152	6256.371819	43366.846262	3883.693751	22746.450664
2.039000	-0.002495	-0.001164	0.002598	0.000653	6253.383102	43409.458086	3887.008141	22815.072069
2.543000	-0.000422	-0.000325	0.002595	0.001265	6264.681827	43430.561253	3885.565680	22787.000915
3.037500	-0.003005	0.000287	0.000302	0.004666	6218.633446	43171.426170	3872.333179	22631.885917
3.535000	0.000201	-0.001020	0.003719	-0.000598	6283.996974	43539.595832	3892.579533	22872.515959
4.035000	-0.001077	-0.001056	0.002386	-0.000478	6273.119407	43525.019872	3889.162497	22866.973788
4.535000	0.002074	-0.000233	0.001330	-0.000031	6294.193891	43560.202889	3885.641042	22846.456932
5.082500	-0.001469	-0.000333	0.001668	0.000395	6263.309902	43511.015407	3885.434046	22826.886447
5.535500	0.001857	-0.000468	0.000958	-0.000221	6293.979853	43555.947817	3885.213761	22855.184164
6.036500	0.000882	0.000080	0.004003	-0.000438	6288.059140	43627.512521	3892.871496	22865.139259
6.536000	-0.000696	-0.000313	0.001728	-0.000533	6276.511396	43599.609226	3887.747904	22869.529256
7.037000	0.001749	-0.000955	-0.000105	-0.000849	6298.040833	43569.067747	3884.195636	22884.035487
7.536500	-0.000586	-0.001000	-0.002080	-0.000951	6280.611112	43574.387036	3879.831033	22888.730804
8.038500	0.000826	-0.000752	0.005723	-0.001049	6292.394089	43606.768244	3898.378938	22893.249724
8.535500	0.002529	0.000610	0.003344	0.000009	6297.434542	43635.225620	3890.267707	22844.596297
9.035500	0.000347	-0.000528	-0.000987	-0.000590	6285.071509	43584.827327	3881.535265	22872.149849
9.536000	0.001361	0.000593	0.006590	0.000000	6288.383457	43634.553746	3897.948956	22845.027740
10.036000	0.000000	0.000000	0.000000	0.000048	6277.401638	43574.515888	3882.347755	22842.807159
10.535500	-0.001361	0.000210	-0.000814	-0.000120	6268.142000	43609.921489	3880.842548	22850.543172
11.036000	-0.001927	-0.000642	-0.000290	0.003091	6238.971299	43231.303187	3874.604588	22703.568446
11.534000	-0.000715	-0.000216	0.001386	-0.000411	6275.418333	43597.284484	3886.660510	22863.913473
12.037000	0.001528	-0.000217	0.000917	-0.000427	6293.018958	43598.726011	3885.600314	22864.665367
12.534500	0.000839	0.000173	-0.001820	-0.000201	6285.878596	43614.085575	3878.691877	22854.278226
13.034500	-0.003038	-0.000027	0.003091	0.003068	6230.612970	43290.493627	3882.512594	22704.624815
13.534500	-0.001312	-0.000132	-0.001358	-0.000265	6269.644214	43591.531562	3879.915639	22857.207808
14.038000	-0.001872	-0.000716	0.000008	0.001898	6248.583417	43335.268033	3878.061130	22758.044551
14.535500	-0.000276	0.000337	-0.000501	0.002454	6256.615107	43381.532251	3875.591677	22732.658246
15.035500	-0.003077	0.000044	0.000389	0.003833	6224.454009	43226.099530	3874.458529	22669.768045
15.536000	0.000200	-0.000788	-0.000630	-0.000545	6283.581647	43556.335527	3882.263683	22870.089537
16.039000	-0.001109	0.000257	0.001943	-0.000150	6270.327582	43617.117805	3887.354207	22851.930464
16.534000	0.000054	-0.000533	0.003967	-0.000584	6282.740468	43583.815534	3893.130098	22871.864324
17.034500	-0.000105	0.000034	0.004730	0.000265	6274.899297	43557.453796	3892.928147	22832.871921
17.537000	0.000269	-0.000729	0.002935	0.000160	6278.623558	43495.994591	3888.953556	22837.691527
18.034500	0.001375	-0.000291	0.001653	0.000968	6280.945706	43461.430237	3884.060473	22800.629246
18.535000	0.001087	-0.000407	-0.001031	0.000807	6279.959019	43465.631585	3878.183830	22808.014943
19.036000	-0.001154	0.000806	0.001303	0.002276	6251.202905	43441.749480	3880.191747	22740.760193
19.536500	-0.001184	-0.000341	0.002661	0.000965	6261.107224	43457.117999	3886.424440	22800.778836
20.036500	0.001170	0.000390	0.000315	0.001013	6278.993627	43520.799480	3880.832099	22798.541140
20.539500	0.000147	-0.000309	0.002892	0.000875	6272.123728	43468.474922	3887.174943	22804.891189
21.036500	0.000277	-0.000362	0.000795	0.001588	6267.600532	43397.088838	3880.614294	22772.249859
21.537000	-0.001661	-0.000553	0.004023	0.000502	6260.999415	43480.530783	3890.706400	22821.995697
22.034500	-0.001295	0.000491	-0.000448	0.001523	6255.927983	43482.657587	3877.873603	22775.208228
22.537500	0.000617	0.000382	0.004600	0.001207	6273.192482	43501.920402	3890.405641	22789.674781
23.038500	-0.000137	0.000428	0.000984	0.002427	6257.893550	43392.523748	3879.101788	22733.903195
23.535000	-0.000383	-0.000430	-0.002314	0.000459	6271.234969	43495.978807	3876.014447	22823.963632
24.035000	-0.000499	0.000203	-0.001467	0.001329	6263.590740	43473.777237	3875.960654	22784.076809
24.537000	-0.000330	-0.000282	-0.001350	0.000883	6268.356976	43470.168569	3877.264959	22804.512775
25.036000	-0.001311	0.000088	0.005986	0.001300	6257.530991	43465.832417	3893.449414	22785.430526
25.539500	-0.000423	-0.000689	0.001896	0.000386	6271.490608	43478.599849	3885.987934	22827.289980
26.036500	-0.000314	-0.000731	0.003568	0.000943	6268.012895	43422.693612	3888.601638	22801.751916
26.534000	0.000096	0.001012	-0.001185	0.001754	6264.902584	43509.686364	3875.627740	22764.633865
27.035000	-0.001564	-0.000366	0.003729	0.002728	6244.554602	43290.587853	3884.797222	22720.135531
27.535000	0.000590	0.000667	0.003129	-0.000807	6288.656092	43717.113922	3891.682437	22882.115348
28.037500	0.000587	0.000374	0.003430	-0.000020	6282.498564	43615.872606	3890.537653	22845.933617
28.536000	-0.000974	-0.000003	0.005224	-0.000329	6272.766186	43609.541268	3895.495941	22860.162418
29.035500	-0.001365	0.000113	0.001016	0.004351	6233.612656	43184.520429	3874.712242	22646.221805
29.535500	-0.001342	0.000232	0.011584	-0.000190	6268.834113	43618.541864	3910.298424	22853.763518
30.037000	-0.000189	-0.000283	0.001914	-0.000524	6280.382548	43601.552209	3888.161585	22869.090558
30.536500	-0.000045	-0.001030	0.005077	0.001876	6262.870958	43308.173228	3889.954846	22759.084438
31.033500	-0.003937	0.000636	0.005806	0.004555	6212.367911	43214.161279	3885.384005	22636.952967
31.534000	0.000166	0.000913	-0.000128	0.000445	6275.609000	43622.807061	3881.125646	22824.594570
32.034500	-0.001108	-0.000056	0.003129	-0.000262	6271.201074	43598.303126	3890.399565	22857.059989
32.535000	0.001855	-0.000501	0.003408	0.000118	6291.314860	43521.195852	3890.163184	22839.618280
33.035500	-0.000290	-0.000128	0.000695	0.000308	6273.128745	43538.346329	3883.364899	22830.901939
33.537500	0.002872	0.000412	0.008540	-0.002231	6317.696997	43826.993977	3907.895829	22947.728900
34.035500	-0.000501	-0.000905	0.006275	0.000791	6267.741050	43420.738288	3895.331413	22808.736577
34.536000	-0.001804	-0.000372	0.004956	0.001669	6250.870979	43388.519367	3890.154922	22768.520403
35.039500	-0.003221	-0.000413	0.002972	0.002833	6231.013969	43276.538583	3882.783900	22715.353556
35.536500	-0.000894	-0.000390	0.000087	0.001726	6257.464043	43381.538989	3878.644092	22765.918667
36.037000	-0.001650	0.000014	0.006418	0.001774	6251.255870	43414.774665	3893.350917	22763.738245
36.534500	0.001262	0.000401	0.002954	0.002346	6269.352655	43397.451079	3883.878575	22737.573933
37.035500	-0.002486	0.000345	0.000918	0.002643	6238.116335	43364.610840	3878.443861	22724.002037
37.535500	-0.000286	0.000174	-0.001433	0.002194	6258.541493	43390.585142	3874.036740	22744.536605
38.035500	-0.000666	-0.000296	0.003117	0.001564	6260.476674	43405.445301	3886.088376	22773.339681
38.536000	-0.001394	-0.000008	0.005868	0.001687	6253.904954	43420.797285	3892.260218	22767.723898
39.036000	-0.001059	0.000378	0.007805	0.002291	6251.823821	43400.483583	3895.403228	22740.112858
39.539000	-0.004205	-0.000152	0.003733	0.001833	6231.145395	43393.826553	3886.903568	22761.044796
40.039500	-0.000335	0.000052	0.000231	0.001982	6259.802001	43398.950815	3878.384955	22754.220312
40.540000	-0.000972	-0.000344	0.002400	0.001452	6258.974113	43411.330756	3884.672733	22778.446377
41.034500	-0.000632	-0.000124	0.005546	0.002689	6252.043886	43316.802135	3889.146419	22721.928519
41.537500	-0.001275	0.000594	0.006702	0.002131	6251.391250	43435.512662	3893.178263	22747.408645
42.035500	-0.000956	-0.000835	0.003528	0.001323	6260.098551	43377.663314	3887.615891	22784.365526
42.535500	-0.001469	0.000649	0.002738	0.002668	6245.747421	43390.577927	3882.623261	22722.868597
43.035500	-0.000430	-0.000037	0.000165	0.002774	6252.947072	43316.993023	3876.392737	22718.046372
43.536000	0.000959	0.000079	0.001868	0.001014	6277.342298	43491.639542	3884.453722	22798.494031
44.036500	0.000832	-0.000520	0.005125	-0.000640	6289.243806	43590.277262	3895.997379	22874.441696
44.536500	0.001791	-0.000084	0.001096	-0.000226	6293.499949	43592.333112	3885.549602	22855.415545
45.037000	-0.002703	-0.000554	-0.004462	0.002762	6235.535188	43269.992350	3865.751340	22718.581808
45.537000	0.002849	0.000253	0.002513	0.000282	6297.801795	43576.308943	3887.677275	22832.060462
46.035000	0.000466	0.000563	0.004119	0.000158	6280.177849	43616.918091	3891.742479	22837.775060
46.535500	-0.002882	0.000373	-0.002693	0.003392	6229.325435	43297.567317	3868.367454	22689.851892
47.035000	-0.003883	-0.000995	0.001373	0.002521	6228.332375	43251.516235	3879.785881	22729.600070
47.536000	-0.002217	-0.000055	-0.001651	0.002641	6240.201075	43327.673111	3872.499895	22724.115050
48.036000	0.000095	0.000687	-0.000171	0.000493	6274.684914	43597.201024	3880.911748	22822.396581
48.536500	-0.003197	-0.000175	0.003997	0.002767	6231.704304	43304.783317	3885.332244	22718.359179
49.039000	-0.002472	0.000121	0.002210	0.003649	6230.508372	43250.381613	3879.109758	22678.179284
49.536500	0.003361	0.000539	0.007931	-0.001869	6318.704831	43804.943343	3905.579114	22931.055751
50.037000	0.002079	0.000094	0.001442	-0.000910	6301.107764	43673.053596	3887.961733	22886.865894
50.537000	-0.003247	-0.000539	0.001240	0.007616	6194.336790	42823.388843	3867.699457	22498.341226
51.034500	0.018149	-0.008828	0.007163	0.504679	4001.712321	15407.781337	3191.687627	9140.379703
51.535000	-0.007866	-0.017661	-0.013324	-0.012141	6311.191979	43065.931979	3879.704667	23410.416846
52.038000	-0.019143	-0.031873	-0.016364	-0.152377	7490.595791	56570.220315	4254.982489	31227.227748
52.536000	-0.014941	-0.054388	-0.009862	-0.227644	8412.392284	63494.689774	4542.008465	36587.472837
53.035500	-0.007917	-0.034949	-0.004119	-0.194438	8089.885777	61605.686378	4439.523430	34107.826489
53.536500	0.001588	-0.023550	0.004849	-0.164173	7847.633914	59112.445005	4364.392280	32007.181217
54.036500	-0.002294	-0.014945	-0.000922	-0.110467	7233.190108	53573.082731	4173.070629	28621.486173
54.536500	-0.013196	-0.012160	-0.007720	-0.097633	7002.709561	52415.309978	4115.455057	27872.505250
55.037500	-0.010625	-0.014586	-0.009154	-0.135341	7401.444514	56601.310620	4223.989855	30137.625981
55.534500	-0.007207	-0.015555	-0.004963	-0.152283	7617.494829	58610.965071	4291.528786	31221.088084
56.035000	-0.007843	-0.012622	-0.006136	-0.144194	7523.663435	57954.106654	4261.520898	30698.487529
56.535000	-0.003907	-0.014037	-0.003133	-0.149501	7623.128331	58449.318403	4288.414763	31040.296200
57.035500	-0.003047	-0.010861	-0.001557	-0.138117	7510.050072	57410.248468	4256.730978	30312.247965
57.535500	-0.006358	-0.008014	-0.006299	-0.110781	7195.937914	54424.688507	4157.961758	28640.091735
58.036000	-0.010263	-0.006898	-0.008291	-0.091963	6976.942806	52368.978780	4097.680118	27548.659380
58.539500	-0.004899	-0.004567	-0.005122	-0.077527	6892.651246	51010.516085	4066.225259	26742.796200
59.037000	-0.009977	-0.008576	-0.011307	-0.076200	6834.202035	50423.815472	4045.708357	26670.100981
59.537000	-0.012150	-0.007394	-0.008871	-0.040808	6508.190049	46827.956369	3959.754737	24809.881957
60.037000	-0.012309	-0.004005	-0.007340	-0.000515	6187.274198	43253.899040	3866.666303	22868.681975
60.537500	-0.014478	-0.006408	-0.011921	0.033821	5922.250127	39985.037159	3781.200970	21350.838341
61.035000	-0.017311	-0.009086	-0.005885	0.019693	6001.885435	40974.326896	3824.526995	21960.886889
61.535500	-0.017525	-0.010275	-0.011658	0.008954	6077.976674	41819.532358	3835.509277	22438.034438
62.035500	-0.023295	-0.011534	-0.014294	0.054196	5725.768573	37873.175613	3734.676178	20505.224876
62.535500	-0.026208	-0.010641	-0.015125	0.067658	5621.204824	36877.109534	3706.667275	19967.914386
63.037000	-0.026472	-0.008108	-0.013916	0.063998	5642.562418	37364.284158	3716.104380	20112.350218
63.540500	-0.018038	-0.007833	-0.011807	0.063366	5700.425496	37436.255452	3721.466813	20137.439206
64.040500	-0.017552	-0.005584	-0.011467	0.059629	5727.784636	37914.768887	3729.499911	20286.367614
64.537000	-0.020654	-0.004573	-0.010130	0.061366	5696.453798	37856.428923	3728.709593	20216.999066
65.035000	-0.017880	-0.003356	-0.010180	0.050701	5784.347926	38824.549391	3749.968805	20647.488284
65.534500	-0.017531	-0.003829	-0.011617	0.045649	5820.441245	39204.726464	3757.328793	20855.138740
66.035500	-0.015039	-0.001638	-0.015179	0.042179	5860.811014	39680.292374	3757.139838	20999.147071
66.536000	-0.015855	-0.000749	-0.013320	0.042722	5851.560516	39709.541979	3759.831917	20976.529415
67.036000	-0.018688	-0.001724	-0.018677	0.033222	5897.221485	40438.193107	3768.367278	21376.281829
67.536000	-0.014554	-0.001520	-0.015336	0.020740	6014.124304	41549.279195	3801.718854	21914.971607
68.039000	-0.014678	0.000776	-0.010668	0.013531	6065.347479	42403.289273	3827.563779	22233.251033
68.536500	-0.021623	-0.000306	-0.018783	0.009310	6045.553465	42689.484683	3819.011738	22422.043788
69.037000	-0.019706	0.000824	-0.013354	-0.000089	6128.590297	43664.464770	3851.989155	22849.092686
69.537000	-0.017212	0.001389	-0.013208	-0.013601	6249.805980	45005.689939	3883.376467	23479.481034
70.035000	-0.017827	0.002077	-0.013556	-0.021717	6308.172184	45866.917464	3901.676356	23867.703572
70.535500	-0.020349	0.000327	-0.016314	-0.026355	6324.818138	46153.251192	3906.152229	24092.807829
71.035000	-0.020958	0.001562	-0.021082	-0.033446	6376.318791	46989.335629	3911.712414	24441.638371
71.535000	-0.020050	0.000448	-0.016975	-0.045493	6481.586710	48111.920787	3951.207429	25047.530229
72.036000	-0.018913	0.001063	-0.013349	-0.051581	6541.671143	48814.368417	3975.675788	25360.182676
72.538500	-0.021567	-0.000239	-0.021487	-0.051255	6516.762860	48642.716135	3954.324378	25343.310337
73.036000	-0.021233	-0.000769	-0.023053	-0.057209	6569.512756	49216.908046	3965.340399	25653.088071
73.536500	-0.017124	-0.000787	-0.018153	-0.065185	6673.056863	50072.412166	3998.313461	26074.790558
74.037500	-0.018037	-0.002339	-0.018277	-0.069302	6701.003963	50351.513927	4008.742234	26295.539921
74.537000	-0.021481	-0.002879	-0.019613	-0.065785	6640.554205	49910.816620	3996.081868	26106.828141
75.035000	-0.018159	-0.002706	-0.017037	-0.072865	6731.231709	50701.623748	4021.410639	26488.239791
75.535000	-0.017016	-0.003851	-0.022651	-0.074859	6759.014279	50795.137115	4011.850163	26596.805712
76.038000	-0.016470	-0.003383	-0.018288	-0.075930	6773.403996	50964.843339	4026.231441	26655.303207
76.536000	-0.018286	-0.003719	-0.020566	-0.071994	6722.442538	50494.991953	4009.797696	26440.986976
77.035500	-0.016346	-0.003442	-0.014590	-0.077992	6792.959071	51186.907355	4041.676599	26768.368198
77.536500	-0.014922	-0.002892	-0.014846	-0.078810	6813.098549	51338.915045	4043.191342	26813.327333
78.036500	-0.016492	-0.002351	-0.014965	-0.079088	6801.476051	51430.318381	4043.623959	26828.666829
78.537000	-0.017611	-0.003523	-0.020575	-0.074756	6752.812629	50819.828296	4017.051372	26591.189028
79.037000	-0.014188	-0.002045	-0.012345	-0.079774	6828.433796	51541.209003	4052.592763	26866.474238
79.534500	-0.013060	-0.002525	-0.017052	-0.080702	6847.072641	51591.304731	4042.344528	26917.726606
80.035000	-0.014328	-0.002786	-0.014022	-0.081902	6846.459037	51696.617096	4053.822911	26984.203470
80.535500	-0.013338	-0.001910	-0.011841	-0.081615	6852.851157	51762.819848	4059.000744	26968.311666
81.035500	-0.014087	-0.001958	-0.017852	-0.081796	6847.687430	51777.784470	4043.139804	26978.341657
81.535500	-0.012865	-0.001179	-0.012388	-0.081220	6853.563775	51800.541494	4056.422947	26946.414712
82.038500	-0.014898	-0.001559	-0.010382	-0.080498	6828.565470	51676.773704	4059.937947	26906.494529
82.536500	-0.018798	-0.002607	-0.020436	-0.075533	6749.181848	51006.816065	4019.473866	26633.613302
83.037000	-0.018567	-0.001638	-0.013985	-0.074942	6745.983936	51048.645967	4035.092505	26601.304904
83.536500	-0.015278	-0.001865	-0.017055	-0.078909	6810.786826	51464.545543	4037.504033	26818.785942
84.037500	-0.012659	-0.001497	-0.017324	-0.078147	6827.549533	51420.589076	4034.735250	26776.869433
84.534500	-0.018096	-0.001867	-0.020194	-0.072378	6727.501025	50740.369308	4011.787126	26461.840613
85.035000	-0.018806	-0.002424	-0.017775	-0.073248	6728.901606	50774.716149	4020.468323	26509.037689
85.535500	-0.015147	-0.001558	-0.019469	-0.076952	6794.384208	51280.686044	4025.809497	26711.280099
86.036000	-0.015981	-0.001253	-0.010558	-0.076281	6780.903310	51239.868813	4047.955270	26674.487006
86.536000	-0.018195	-0.001751	-0.020533	-0.071793	6721.470575	50688.754527	4009.356593	26430.090297
87.036000	-0.017753	-0.001308	-0.017804	-0.071128	6719.517409	50664.393689	4014.788674	26394.108664
87.536500	-0.018906	-0.001410	-0.018217	-0.076036	6752.673396	51195.269329	4026.703270	26661.082389
88.036500	-0.018304	-0.001975	-0.012945	-0.076185	6759.356284	51149.089908	4041.240299	26669.281226
88.537000	-0.020170	-0.002024	-0.017807	-0.071684	6703.187520	50646.867751	4016.248281	26424.222503
89.034500	-0.019672	-0.001744	-0.014978	-0.070015	6692.940010	50494.498975	4019.314363	26333.959800
89.534500	-0.019448	-0.002110	-0.014747	-0.075305	6741.406935	51036.556837	4034.024941	26621.148915
90.035000	-0.018215	-0.001873	-0.016399	-0.074293	6743.358618	50950.886702	4026.904259	26565.940430
90.535500	-0.021876	-0.001001	-0.013551	-0.068833	6663.485408	50446.496762	4019.963133	26270.284319
91.036000	-0.021046	-0.000389	-0.017399	-0.066950	6654.361841	50307.699293	4004.880342	26169.158055
91.538500	-0.019373	-0.000989	-0.014818	-0.071835	6711.492735	50777.314086	4024.569813	26432.394838
92.036000	-0.019923	-0.000998	-0.017374	-0.071017	6699.507530	50686.220439	4015.629635	26388.108754
92.536500	-0.021880	-0.001273	-0.018073	-0.066112	6639.940650	50120.380174	4000.937304	26124.330944
93.037000	-0.020918	-0.001392	-0.020821	-0.064256	6632.250324	49906.309593	3989.005959	26025.284130
93.537000	-0.016566	-0.000292	-0.016391	-0.068150	6703.790798	50449.274602	4010.668782	26233.550608
94.034000	-0.018690	-0.001102	-0.016471	-0.067905	6683.098242	50334.065535	4009.815805	26220.389670
94.535000	-0.020715	-0.000871	-0.016848	-0.065643	6645.937008	50113.013568	4002.906009	26099.244271
95.035000	-0.017759	-0.000125	-0.013170	-0.065927	6673.997106	50225.050329	4013.294742	26114.459022
95.535500	-0.016063	-0.000419	-0.014691	-0.065846	6688.052427	50184.288232	4009.083790	26110.124253
96.036500	-0.018361	-0.000800	-0.013270	-0.065780	6667.490556	50135.687700	4012.645146	26106.582744
96.536000	-0.019855	-0.000425	-0.016151	-0.062819	6629.035810	49855.537561	3997.370163	25948.894857
97.037000	-0.017505	-0.000615	-0.013909	-0.064989	6668.050157	50069.892800	4008.887914	26064.366870
97.536000	-0.016724	0.000312	-0.015682	-0.063989	6666.145856	50061.874023	4001.635064	26011.071934
98.037000	-0.017385	0.000155	-0.018759	-0.063835	6659.092503	50028.176002	3993.242009	26002.880948
98.537500	-0.018797	0.000085	-0.013174	-0.060759	6620.437652	49688.448976	3999.752842	25839.827677
99.035000	-0.015921	0.000506	-0.008717	-0.063729	6670.859076	50054.757632	4019.246971	25997.242397
99.535000	-0.016131	0.000352	-0.014172	-0.063539	6667.387836	50017.466581	4004.400026	25987.134854
100.035000	-0.017068	0.000168	-0.016971	-0.063761	6661.196117	50021.595199	3997.687827	25998.952271
100.535500	-0.017702	0.000612	-0.014270	-0.060202	6625.054131	49685.221903	3995.459470	25810.447264
101.038500	-0.019364	0.000663	-0.012887	-0.057999	6592.048692	49454.185307	3993.336599	25694.510478
101.536000	-0.018163	0.000564	-0.013205	-0.062741	6642.921265	49954.026544	4004.841645	25944.752816
102.037000	-0.018831	-0.000577	-0.013658	-0.063053	6639.854433	49864.363747	4004.471997	25961.303535
102.539500	-0.019335	0.000711	-0.016596	-0.059222	6602.704663	49590.498896	3986.920803	25758.799757
103.037000	-0.019528	0.000907	-0.018745	-0.056556	6578.412898	49326.071880	3974.601924	25618.920987
103.534500	-0.016463	0.001573	-0.017450	-0.060348	6636.957763	49804.465984	3987.622918	25818.147212
104.040500	-0.018644	0.000617	-0.012130	-0.061052	6624.262756	49777.275451	4003.238097	25855.326509
104.535000	-0.019882	0.000267	-0.017771	-0.057943	6587.171683	49405.803093	3980.625366	25691.565163
105.035500	-0.020463	0.001012	-0.016100	-0.054842	6556.043172	49154.505053	3976.972346	25529.410995
105.541500	-0.018316	0.001342	-0.012841	-0.058820	6607.970961	49615.122107	3995.581344	25737.640835
106.035500	-0.017358	0.001113	-0.013913	-0.058918	6616.997243	49601.006441	3993.058235	25742.801766
