sample name	sample
index	279
start time	 02-25-2021  12:03:20 PM


Wavelength (nm)	Absorbance
494.344910	1.044740
494.563924	1.044740
494.782919	1.044740
495.001897	NaN
495.220856	0.139549
495.439797	0.194002
495.658719	0.162361
495.877624	0.068763
496.096510	0.032230
496.315378	0.038861
496.534227	-0.001944
496.753059	-0.050197
496.971872	-0.070521
497.190667	0.005316
497.409444	-0.004239
497.628203	0.000984
497.846943	-0.000388
498.065665	-0.003209
498.284369	-0.002290
498.503055	-0.002918
498.721723	-0.002856
498.940372	-0.003146
499.159003	-0.003153
499.377616	-0.002091
499.596210	-0.003533
499.814787	-0.004007
500.033345	-0.003517
500.251885	-0.003479
500.470406	-0.002593
500.688910	-0.002869
500.907395	-0.002627
501.125862	-0.003428
501.344311	-0.003998
501.562742	-0.004621
501.781154	-0.003521
501.999548	-0.002983
502.217924	-0.003568
502.436282	-0.003315
502.654621	-0.002658
502.872942	-0.002297
503.091245	-0.002264
503.309530	-0.002927
503.527797	-0.003100
503.746045	-0.003390
503.964275	-0.004040
504.182487	-0.003782
504.400681	-0.004622
504.618856	-0.005258
504.837013	-0.005288
505.055152	-0.004679
505.273273	-0.003784
505.491376	-0.003157
505.709460	-0.002858
505.927526	-0.001919
506.145574	-0.001806
506.363604	-0.001701
506.581615	-0.001960
506.799608	-0.001554
507.017583	-0.002452
507.235540	-0.003212
507.453478	-0.002389
507.671399	-0.002802
507.889301	-0.003340
508.107185	-0.003479
508.325050	-0.003391
508.542898	-0.003260
508.760727	-0.004376
508.978538	-0.003629
509.196330	-0.003683
509.414105	-0.004723
509.631861	-0.004397
509.849599	-0.004108
510.067319	-0.004269
510.285021	-0.004487
510.502704	-0.004225
510.720369	-0.003487
510.938016	-0.003744
511.155645	-0.003357
511.373255	-0.003188
511.590848	-0.004243
511.808422	-0.004656
512.025977	-0.004122
512.243515	-0.004434
512.461034	-0.003823
512.678536	-0.003350
512.896018	-0.002614
513.113483	-0.002447
513.330930	-0.002078
513.548358	-0.001252
513.765768	-0.000625
513.983160	-0.000618
514.200533	-0.000929
514.417889	-0.001560
514.635226	-0.002291
514.852545	-0.003228
515.069845	-0.003691
515.287128	-0.004160
515.504392	-0.003755
515.721638	-0.003979
515.938866	-0.004829
516.156075	-0.004263
516.373267	-0.003971
516.590440	-0.003908
516.807594	-0.003717
517.024731	-0.002929
517.241850	-0.003350
517.458950	-0.003471
517.676032	-0.003464
517.893095	-0.002795
518.110141	-0.002678
518.327168	-0.002683
518.544177	-0.002047
518.761168	-0.002166
518.978141	-0.002418
519.195095	-0.001972
519.412031	-0.002221
519.628949	-0.002313
519.845849	-0.002282
520.062731	-0.001464
520.279594	-0.001585
520.496439	-0.001938
520.713266	-0.001604
520.930074	-0.001953
521.146865	-0.001751
521.363637	-0.001737
521.580391	-0.001466
521.797127	-0.001269
522.013844	-0.002017
522.230543	-0.001676
522.447224	-0.001764
522.663887	-0.001673
522.880532	-0.001432
523.097158	-0.001729
523.313766	-0.001230
523.530356	-0.001223
523.746928	-0.001061
523.963481	-0.000991
524.180017	-0.001216
524.396534	-0.000680
524.613032	-0.000429
524.829513	-0.000499
525.045975	0.000422
525.262420	-0.000016
525.478845	0.000028
525.695253	-0.000640
525.911643	-0.000836
526.128014	-0.000635
526.344367	-0.000947
526.560702	-0.000837
526.777018	-0.000671
526.993316	-0.001455
527.209597	-0.001145
527.425858	-0.001053
527.642102	-0.000299
527.858328	0.000317
528.074535	0.000863
528.290724	0.000978
528.506894	0.000733
528.723047	0.000951
528.939181	0.001344
529.155297	0.001069
529.371395	0.001386
529.587475	0.001452
529.803536	0.000898
530.019579	0.000263
530.235604	0.000390
530.451611	0.000266
530.667600	0.000640
530.883570	0.000553
531.099522	0.001065
531.315456	0.001203
531.531372	0.000891
531.747269	0.001117
531.963148	0.000999
532.179009	0.001607
532.394852	0.001767
532.610676	0.001736
532.826482	0.002103
533.042271	0.001939
533.258040	0.001362
533.473792	0.001494
533.689525	0.001482
533.905240	0.001877
534.120937	0.000967
534.336616	0.000841
534.552277	0.000804
534.767919	0.000634
534.983543	0.000747
535.199149	0.001301
535.414736	0.001553
535.630306	0.001761
535.845857	0.001167
536.061390	0.001616
536.276904	0.001708
536.492401	0.001383
536.707879	0.001649
536.923339	0.001607
537.138781	0.001286
537.354204	0.000951
537.569610	0.000817
537.784997	0.001174
538.000366	0.001368
538.215716	0.001884
538.431049	0.002160
538.646363	0.002089
538.861659	0.002245
539.076937	0.002336
539.292196	0.003011
539.507438	0.002787
539.722661	0.002913
539.937866	0.002353
540.153052	0.002352
540.368221	0.002562
540.583371	0.002537
540.798503	0.002564
541.013617	0.002645
541.228712	0.002191
541.443789	0.002946
541.658848	0.003117
541.873889	0.003470
542.088912	0.003428
542.303916	0.003200
542.518902	0.002818
542.733870	0.002769
542.948820	0.002700
543.163752	0.003116
543.378665	0.002873
543.593560	0.002763
543.808437	0.002719
544.023295	0.002494
544.238136	0.002501
544.452958	0.002778
544.667762	0.002402
544.882548	0.002350
545.097315	0.001807
545.312064	0.001888
545.526795	0.001885
545.741508	0.002216
545.956203	0.002462
546.170879	0.002997
546.385537	0.003595
546.600177	0.004001
546.814799	0.004568
547.029402	0.005118
547.243988	0.005567
547.458555	0.005778
547.673103	0.006104
547.887634	0.005794
548.102146	0.005353
548.316640	0.004839
548.531116	0.004828
548.745574	0.004604
548.960013	0.004455
549.174435	0.004283
549.388838	0.004571
549.603222	0.004338
549.817589	0.004472
550.031937	0.004390
550.246267	0.004490
550.460579	0.004532
550.674873	0.004755
550.889148	0.004710
551.103405	0.004417
551.317644	0.004370
551.531865	0.004322
551.746068	0.004614
551.960252	0.005161
552.174418	0.005120
552.388566	0.005315
552.602696	0.004961
552.816807	0.005330
553.030900	0.005662
553.244975	0.005464
553.459032	0.005532
553.673070	0.005236
553.887091	0.005036
554.101093	0.005202
554.315077	0.005023
554.529042	0.005232
554.742990	0.005082
554.956919	0.004925
555.170830	0.004636
555.384722	0.004809
555.598597	0.005030
555.812453	0.005278
556.026291	0.005082
556.240111	0.005038
556.453913	0.004870
556.667696	0.004736
556.881461	0.004614
557.095208	0.004942
557.308937	0.004622
557.522647	0.004330
557.736339	0.003801
557.950013	0.004063
558.163669	0.004374
558.377307	0.004296
558.590926	0.004293
558.804527	0.004403
559.018110	0.004284
559.231675	0.004379
559.445221	0.004560
559.658749	0.004549
559.872259	0.004337
560.085751	0.004117
560.299225	0.004341
560.512680	0.004243
560.726117	0.004348
560.939536	0.004956
561.152937	0.004953
561.366319	0.005042
561.579683	0.005031
561.793029	0.005253
562.006357	0.005320
562.219667	0.005119
562.432958	0.005221
562.646231	0.005106
562.859486	0.004541
563.072723	0.004248
563.285941	0.004251
563.499141	0.004419
563.712323	0.004394
563.925487	0.004247
564.138632	0.004290
564.351760	0.004403
564.564869	0.004496
564.777960	0.004489
564.991032	0.004696
565.204087	0.004639
565.417123	0.004780
565.630141	0.005034
565.843140	0.005450
566.056122	0.005795
566.269085	0.005896
566.482030	0.005726
566.694957	0.006021
566.907866	0.006235
567.120756	0.006409
567.333628	0.006460
567.546482	0.006224
567.759318	0.005964
567.972135	0.005793
568.184935	0.006047
568.397716	0.006122
568.610478	0.006204
568.823223	0.006016
569.035949	0.005839
569.248657	0.005610
569.461347	0.005732
569.674019	0.005768
569.886672	0.005765
570.099308	0.005372
570.311925	0.005185
570.524523	0.004860
570.737104	0.004925
570.949666	0.005208
571.162210	0.005171
571.374736	0.005040
571.587244	0.004782
571.799733	0.004782
572.012205	0.004947
572.224658	0.005183
572.437092	0.004833
572.649509	0.004761
572.861907	0.004514
573.074287	0.004511
573.286649	0.004415
573.498993	0.004778
573.711318	0.004771
573.923625	0.004562
574.135914	0.004669
574.348185	0.005070
574.560438	0.005511
574.772672	0.005299
574.984888	0.005844
575.197086	0.005756
575.409266	0.005566
575.621427	0.005715
575.833570	0.005744
576.045695	0.005398
576.257802	0.005504
576.469890	0.005207
576.681961	0.005599
576.894013	0.005043
577.106046	0.005265
577.318062	0.005425
577.530059	0.005192
577.742039	0.005321
577.954000	0.005439
578.165942	0.005382
578.377867	0.005330
578.589773	0.005557
578.801661	0.005770
579.013531	0.005623
579.225382	0.005428
579.437216	0.005673
579.649031	0.005567
579.860828	0.005928
580.072606	0.005922
580.284367	0.005830
580.496109	0.005759
580.707833	0.005898
580.919539	0.005897
581.131227	0.006098
581.342896	0.005813
581.554547	0.006099
581.766180	0.006069
581.977795	0.006533
582.189391	0.006710
582.400969	0.006648
582.612529	0.006552
582.824071	0.006734
583.035595	0.006643
583.247100	0.006882
583.458587	0.006829
583.670056	0.006639
583.881506	0.006099
584.092939	0.006027
584.304353	0.005806
584.515749	0.005671
584.727127	0.005572
584.938486	0.005596
585.149828	0.005542
585.361151	0.005264
585.572456	0.005201
585.783742	0.005563
585.995011	0.005781
586.206261	0.005880
586.417493	0.005921
586.628706	0.006072
586.839902	0.005905
587.051079	0.005802
587.262238	0.006202
587.473379	0.006443
587.684502	0.006236
587.895606	0.006070
588.106692	0.006096
588.317760	0.006482
588.528810	0.006368
588.739841	0.006658
588.950855	0.006741
589.161850	0.006398
589.372827	0.006415
589.583785	0.006499
589.794726	0.006544
590.005648	0.006612
590.216552	0.006473
590.427437	0.006626
590.638305	0.006795
590.849154	0.006845
591.059985	0.007027
591.270798	0.006989
591.481592	0.006902
591.692369	0.007131
591.903127	0.006909
592.113867	0.006822
592.324588	0.006883
592.535292	0.006589
592.745977	0.006606
592.956644	0.006789
593.167293	0.006554
593.377923	0.006502
593.588536	0.006468
593.799130	0.006657
594.009706	0.006625
594.220263	0.006593
594.430803	0.006629
594.641324	0.006562
594.851827	0.006500
595.062312	0.006828
595.272778	0.007087
595.483227	0.006974
595.693657	0.007091
595.904069	0.006986
596.114462	0.006947
596.324838	0.006796
596.535195	0.006678
596.745534	0.006451
596.955855	0.006428
597.166157	0.006539
597.376441	0.006547
597.586707	0.006612
597.796955	0.006776
598.007185	0.006850
598.217396	0.006743
598.427589	0.006759
598.637764	0.006934
598.847921	0.006925
599.058060	0.006594
599.268180	0.006444
599.478282	0.006491
599.688366	0.006286
599.898431	0.006103
600.108479	0.006697
600.318508	0.006826
600.528519	0.006700
600.738511	0.006597
600.948486	0.006842
601.158442	0.006871
601.368380	0.006747
601.578300	0.006867
601.788202	0.006977
601.998085	0.006814
602.207950	0.006943
602.417797	0.006971
602.627626	0.007060
602.837436	0.006749
603.047228	0.006576
603.257002	0.006570
603.466758	0.006669
603.676496	0.006795
603.886215	0.006563
604.095916	0.006606
604.305599	0.006502
604.515264	0.006555
604.724910	0.006782
604.934538	0.007095
605.144148	0.007112
605.353740	0.007026
605.563314	0.006793
605.772869	0.006905
605.982406	0.006880
606.191925	0.006872
606.401425	0.006865
606.610908	0.006639
606.820372	0.006406
607.029818	0.006260
607.239246	0.006325
607.448655	0.006145
607.658047	0.006108
607.867420	0.005958
608.076775	0.006320
608.286111	0.006099
608.495430	0.006125
608.704730	0.006285
608.914012	0.006247
609.123275	0.006126
609.332521	0.006452
609.541748	0.006560
609.750957	0.006449
609.960148	0.006095
610.169321	0.006413
610.378475	0.006332
610.587611	0.006157
610.796729	0.006310
611.005829	0.006127
611.214910	0.006007
611.423974	0.005970
611.633019	0.006035
611.842045	0.006346
612.051054	0.006146
612.260044	0.006472
612.469017	0.006370
612.677970	0.006343
612.886906	0.006675
613.095824	0.006792
613.304723	0.006591
613.513604	0.006788
613.722467	0.006837
613.931311	0.006912
614.140138	0.006846
614.348946	0.007079
614.557736	0.007117
614.766507	0.007026
614.975261	0.007149
615.183996	0.007401
615.392713	0.007250
615.601412	0.007167
615.810092	0.007225
616.018754	0.007309
616.227399	0.007498
616.436024	0.007427
616.644632	0.007546
616.853222	0.007548
617.061793	0.007569
617.270346	0.007876
617.478880	0.007818
617.687397	0.007967
617.895895	0.007960
618.104375	0.008027
618.312837	0.008177
618.521281	0.008222
618.729706	0.008000
618.938113	0.007803
619.146502	0.007505
619.354873	0.007525
619.563226	0.007323
619.771560	0.007277
619.979876	0.007135
620.188174	0.007214
620.396453	0.007208
620.604715	0.007607
620.812958	0.007857
621.021183	0.008030
621.229390	0.007991
621.437578	0.008149
621.645748	0.008169
621.853900	0.008314
622.062034	0.008190
622.270150	0.008447
622.478247	0.008407
622.686326	0.008626
622.894387	0.008890
623.102430	0.009136
623.310454	0.009249
623.518461	0.009538
623.726449	0.009554
623.934418	0.009833
624.142370	0.009825
624.350303	0.009760
624.558218	0.009660
624.766115	0.009648
624.973994	0.009737
625.181855	0.009659
625.389697	0.009531
625.597521	0.009600
625.805327	0.009508
626.013114	0.009546
626.220883	0.009572
626.428634	0.009713
626.636367	0.009766
626.844082	0.009722
627.051778	0.009811
627.259457	0.009765
627.467117	0.009757
627.674758	0.009716
627.882382	0.009473
628.089987	0.009716
628.297574	0.009389
628.505143	0.009198
628.712694	0.009180
628.920226	0.009046
629.127740	0.009138
629.335236	0.009057
629.542714	0.009090
629.750174	0.009184
629.957615	0.008907
630.165038	0.008995
630.372443	0.009157
630.579829	0.008984
630.787198	0.009111
630.994548	0.009141
631.201880	0.009182
631.409194	0.009194
631.616489	0.009314
631.823766	0.009544
632.031025	0.009737
632.238266	0.009558
632.445489	0.009694
632.652693	0.009639
632.859879	0.009521
633.067047	0.009535
633.274197	0.009573
633.481329	0.009570
633.688442	0.009569
633.895537	0.009500
634.102614	0.009501
634.309672	0.009546
634.516713	0.009565
634.723735	0.009666
634.930739	0.009617
635.137724	0.009612
635.344692	0.009463
635.551641	0.009453
635.758572	0.009574
635.965485	0.009630
636.172379	0.009438
636.379256	0.009336
636.586114	0.009164
636.792954	0.009297
636.999775	0.009267
637.206579	0.009444
637.413364	0.009277
637.620131	0.009222
637.826880	0.009257
638.033610	0.009386
638.240323	0.009531
638.447017	0.009802
638.653692	0.009985
638.860350	0.009924
639.066990	0.009823
639.273611	0.009819
639.480214	0.009889
639.686798	0.009820
639.893365	0.009919
640.099913	0.009844
640.306443	0.009795
640.512955	0.009631
640.719449	0.009642
640.925924	0.009654
641.132381	0.009784
641.338820	0.009784
641.545241	0.009959
641.751644	0.009979
641.958028	0.010186
642.164394	0.010218
642.370742	0.010389
642.577071	0.010616
642.783383	0.010822
642.989676	0.010865
643.195951	0.010856
643.402207	0.010901
643.608446	0.010875
643.814666	0.010950
644.020868	0.011096
644.227052	0.011151
644.433218	0.011130
644.639365	0.011179
644.845494	0.010969
645.051605	0.011151
645.257698	0.011053
645.463772	0.011071
645.669828	0.011050
645.875866	0.010820
646.081886	0.010574
646.287888	0.010487
646.493871	0.010350
646.699836	0.010602
646.905783	0.010402
647.111712	0.010399
647.317622	0.010512
647.523514	0.010376
647.729388	0.010555
647.935244	0.010734
648.141082	0.010899
648.346901	0.010957
648.552702	0.011118
648.758485	0.011223
648.964250	0.011644
649.169996	0.011700
649.375724	0.011741
649.581434	0.011732
649.787126	0.011719
649.992800	0.011701
650.198455	0.011884
650.404092	0.011967
650.609711	0.012174
650.815311	0.011892
651.020894	0.011954
651.226458	0.012027
651.432004	0.012126
651.637532	0.012151
651.843041	0.012115
652.048532	0.012064
652.254006	0.011848
652.459460	0.011781
652.664897	0.011708
652.870315	0.011775
653.075716	0.011934
653.281097	0.011878
653.486461	0.011831
653.691807	0.011765
653.897134	0.011769
654.102443	0.011817
654.307734	0.011855
654.513006	0.012051
654.718261	0.011964
654.923497	0.012074
655.128715	0.012162
655.333915	0.012360
655.539096	0.012651
655.744259	0.012517
655.949404	0.012527
656.154531	0.012437
656.359640	0.012250
656.564730	0.012288
656.769802	0.012066
656.974856	0.011963
657.179892	0.011939
657.384909	0.011770
657.589908	0.011926
657.794889	0.011899
657.999852	0.011800
658.204797	0.011990
658.409723	0.011923
658.614631	0.012053
658.819521	0.012218
659.024393	0.012190
659.229246	0.012148
659.434081	0.012165
659.638898	0.012309
659.843697	0.012460
660.048478	0.012463
660.253240	0.012603
660.457984	0.012580
660.662710	0.012543
660.867417	0.012348
661.072107	0.012401
661.276778	0.012384
661.481431	0.012365
661.686066	0.012275
661.890682	0.012216
662.095281	0.012301
662.299861	0.012260
662.504422	0.012153
662.708966	0.012518
662.913491	0.012709
663.117999	0.012769
663.322488	0.012871
663.526958	0.012915
663.731411	0.013078
663.935845	0.013053
664.140261	0.013184
664.344659	0.013279
664.549038	0.012978
664.753400	0.012948
664.957743	0.012995
665.162068	0.012834
665.366375	0.012948
665.570663	0.012836
665.774933	0.012829
665.979185	0.012666
666.183419	0.012562
666.387635	0.012616
666.591832	0.012595
666.796011	0.012655
667.000172	0.012702
667.204315	0.012725
667.408439	0.012710
667.612545	0.012548
667.816634	0.012690
668.020703	0.012820
668.224755	0.012892
668.428788	0.012956
668.632803	0.012914
668.836800	0.013030
669.040779	0.012914
669.244739	0.013047
669.448681	0.013147
669.652605	0.013139
669.856511	0.013180
670.060399	0.013311
670.264268	0.013314
670.468119	0.013195
670.671952	0.013223
670.875767	0.013393
671.079563	0.013461
671.283341	0.013599
671.487101	0.013666
671.690843	0.013811
671.894567	0.013966
672.098272	0.013928
672.301959	0.014081
672.505628	0.014204
672.709278	0.014265
672.912911	0.014271
673.116525	0.014237
673.320121	0.014258
673.523699	0.014388
673.727258	0.014269
673.930799	0.014477
674.134322	0.014573
674.337827	0.014633
674.541314	0.014505
674.744782	0.014624
674.948232	0.014681
675.151664	0.014740
675.355078	0.014653
675.558474	0.014716
675.761851	0.014745
675.965210	0.014795
676.168551	0.014724
676.371873	0.014891
676.575178	0.014917
676.778464	0.014983
676.981732	0.015130
677.184981	0.015092
677.388213	0.015228
677.591426	0.015146
677.794621	0.015249
677.997798	0.015277
678.200956	0.015418
678.404097	0.015396
678.607219	0.015519
678.810323	0.015685
679.013408	0.015873
679.216476	0.015988
679.419525	0.016130
679.622556	0.016329
679.825569	0.016416
680.028563	0.016336
680.231540	0.016375
680.434498	0.016453
680.637438	0.016379
680.840359	0.016448
681.043263	0.016378
681.246148	0.016453
681.449015	0.016366
681.651864	0.016448
681.854694	0.016397
682.057506	0.016393
682.260301	0.016238
682.463076	0.016159
682.665834	0.016071
682.868573	0.015940
683.071295	0.015837
683.273998	0.015728
683.476682	0.015745
683.679349	0.015648
683.881997	0.015668
684.084627	0.015602
684.287239	0.015522
684.489833	0.015414
684.692408	0.015265
684.894965	0.015204
685.097504	0.015104
685.300025	0.015104
685.502527	0.015236
685.705012	0.015240
685.907478	0.015215
686.109925	0.015269
686.312355	0.015369
686.514766	0.015536
686.717159	0.015592
686.919534	0.015637
687.121891	0.015542
687.324230	0.015634
687.526550	0.015611
687.728852	0.015642
687.931136	0.015652
688.133401	0.015662
688.335649	0.015633
688.537878	0.015735
688.740089	0.015674
688.942281	0.015645
689.144456	0.015650
689.346612	0.015713
689.548750	0.015854
689.750870	0.015925
689.952971	0.015947
690.155055	0.016100
690.357120	0.015990
690.559167	0.016156
690.761195	0.016210
690.963206	0.016167
691.165198	0.016163
691.367172	0.016047
691.569128	0.016017
691.771065	0.016003
691.972984	0.015898
692.174885	0.016074
692.376768	0.016164
692.578633	0.016138
692.780479	0.016189
692.982308	0.016209
693.184118	0.016343
693.385909	0.016338
693.587683	0.016420
693.789438	0.016463
693.991175	0.016400
694.192894	0.016278
694.394595	0.016327
694.596277	0.016305
694.797941	0.016319
694.999587	0.016307
695.201215	0.016235
695.402824	0.016157
695.604416	0.016302
695.805989	0.016198
696.007543	0.016183
696.209080	0.016123
696.410598	0.016250
696.612099	0.016183
696.813580	0.016105
697.015044	0.016161
697.216490	0.016179
697.417917	0.016033
697.619326	0.016120
697.820717	0.016026
698.022089	0.016114
698.223444	0.016175
698.424780	0.016276
698.626098	0.016533
698.827397	0.016572
699.028679	0.016709
699.229942	0.017026
699.431187	0.017111
699.632414	0.017484
699.833622	0.017619
700.034813	0.017554
700.235985	0.017662
700.437139	0.017557
700.638274	0.017646
700.839392	0.017759
701.040491	0.017737
701.241572	0.017819
701.442635	0.017685
701.643679	0.017758
701.844706	0.017896
702.045714	0.017830
702.246704	0.017842
702.447675	0.017994
702.648629	0.017958
702.849564	0.017830
703.050481	0.017727
703.251380	0.017811
703.452260	0.017738
703.653122	0.017695
703.853966	0.017746
704.054792	0.017829
704.255600	0.017612
704.456389	0.017512
704.657160	0.017448
704.857913	0.017430
705.058648	0.017326
705.259365	0.017309
705.460063	0.017234
705.660743	0.017208
705.861405	0.017016
706.062048	0.017027
706.262674	0.016959
706.463281	0.017070
706.663870	0.017064
706.864441	0.016861
707.064993	0.016785
707.265527	0.016663
707.466043	0.016525
707.666541	0.016579
707.867021	0.016611
708.067482	0.016684
708.267925	0.016609
708.468350	0.016749
708.668757	0.016869
708.869145	0.017079
709.069516	0.017326
709.269868	0.017368
709.470201	0.017582
709.670517	0.017673
709.870814	0.017784
710.071093	0.017749
710.271354	0.017598
710.471597	0.017764
710.671821	0.017518
710.872028	0.017376
711.072216	0.017382
711.272385	0.017323
711.472537	0.017179
711.672670	0.017019
711.872785	0.017122
712.072882	0.017092
712.272961	0.017062
712.473021	0.017030
712.673063	0.017054
712.873087	0.016978
713.073093	0.016886
713.273081	0.016902
713.473050	0.016966
713.673001	0.016911
713.872934	0.016932
714.072849	0.016798
714.272745	0.016917
714.472623	0.016817
714.672483	0.017006
714.872325	0.016881
715.072148	0.016894
715.271954	0.016948
715.471741	0.016903
715.671509	0.016851
715.871260	0.016881
716.070992	0.016890
716.270707	0.016941
716.470403	0.017029
716.670080	0.017241
716.869740	0.017303
717.069381	0.017144
717.269004	0.017130
717.468609	0.017156
717.668195	0.017235
717.867764	0.017162
718.067314	0.017058
718.266846	0.016891
718.466360	0.016723
718.665855	0.016721
718.865332	0.016767
719.064791	0.016775
719.264232	0.016605
719.463655	0.016493
719.663059	0.016331
719.862445	0.016317
720.061813	0.016235
720.261163	0.016172
720.460494	0.016097
720.659807	0.016091
720.859102	0.016075
721.058379	0.016289
721.257638	0.016266
721.456878	0.016361
721.656100	0.016398
721.855304	0.016235
722.054490	0.016215
722.253657	0.016130
722.452806	0.016061
722.651937	0.015929
722.851050	0.015801
723.050145	0.015861
723.249221	0.015806
723.448279	0.015850
723.647319	0.015983
723.846340	0.015992
724.045344	0.016014
724.244329	0.016004
724.443296	0.016114
724.642245	0.016166
724.841175	0.016083
725.040088	0.016143
725.238982	0.016160
725.437857	0.016183
725.636715	0.016187
725.835554	0.016097
726.034376	0.016197
726.233179	0.016173
726.431963	0.016121
726.630730	0.015994
726.829478	0.015796
727.028208	0.015686
727.226920	0.015608
727.425614	0.015527
727.624289	0.015557
727.822946	0.015367
728.021585	0.015223
728.220206	0.015222
728.418808	0.015180
728.617392	0.015320
728.815958	0.015223
729.014506	0.015041
729.213036	0.015131
729.411547	0.015147
729.610040	0.015074
729.808515	0.014977
730.006972	0.014881
730.205410	0.014853
730.403831	0.014685
730.602233	0.014499
730.800616	0.014585
730.998982	0.014380
731.197329	0.014267
731.395658	0.014226
731.593969	0.014200
731.792262	0.014174
731.990536	0.013975
732.188793	0.014024
732.387031	0.014038
732.585250	0.013961
732.783452	0.013928
732.981635	0.013963
733.179800	0.013968
733.377947	0.014034
733.576076	0.013970
733.774186	0.014272
733.972278	0.014200
734.170352	0.014238
734.368408	0.014221
734.566446	0.014219
734.764465	0.014126
734.962466	0.014013
735.160449	0.013907
735.358413	0.013998
735.556360	0.013806
735.754288	0.013795
735.952198	0.013779
736.150090	0.013872
736.347963	0.013886
736.545818	0.013829
736.743655	0.014011
736.941474	0.014074
737.139275	0.013831
737.337057	0.013918
737.534821	0.013863
737.732567	0.013950
737.930295	0.013846
738.128005	0.013846
738.325696	0.013937
738.523369	0.013751
738.721024	0.013807
738.918660	0.013778
739.116279	0.013718
739.313879	0.013670
739.511461	0.013502
739.709024	0.013580
739.906570	0.013433
740.104097	0.013193
740.301606	0.013366
740.499097	0.013239
740.696569	0.013334
740.894024	0.013173
741.091460	0.013083
741.288878	0.012978
741.486277	0.012734
741.683659	0.012742
741.881022	0.012877
742.078367	0.012770
742.275694	0.012776
742.473002	0.012737
742.670293	0.012759
742.867565	0.012866
743.064819	0.012941
743.262054	0.013072
743.459272	0.013109
743.656471	0.013007
743.853652	0.012783
744.050815	0.012776
744.247959	0.012911
744.445085	0.013000
744.642194	0.013021
744.839283	0.012965
745.036355	0.012865
745.233408	0.012737
745.430444	0.012735
745.627461	0.012876
745.824459	0.012963
746.021440	0.012800
746.218402	0.012807
746.415346	0.012783
746.612272	0.012957
746.809180	0.013034
747.006069	0.013201
747.202940	0.013216
747.399793	0.013192
747.596628	0.013048
747.793444	0.013103
747.990243	0.013197
748.187023	0.013189
748.383784	0.013110
748.580528	0.013212
748.777253	0.013173
748.973960	0.013127
749.170649	0.013069
749.367320	0.013208
749.563973	0.013321
749.760607	0.013124
749.957223	0.013146
750.153821	0.013214
750.350400	0.013140
750.546962	0.013179
750.743505	0.013314
750.940030	0.013397
751.136536	0.013446
751.333025	0.013276
751.529495	0.013166
751.725947	0.013203
751.922381	0.013089
752.118796	0.013124
752.315194	0.013217
752.511573	0.013161
752.707934	0.013187
752.904276	0.013091
753.100601	0.013307
753.296907	0.013526
753.493195	0.013615
753.689465	0.013887
753.885716	0.013829
754.081949	0.013819
754.278164	0.013851
754.474361	0.013937
754.670540	0.014002
754.866700	0.013937
755.062843	0.013883
755.258967	0.013774
755.455072	0.013451
755.651160	0.013457
755.847229	0.013367
756.043280	0.013355
756.239313	0.013132
756.435328	0.012927
756.631324	0.012802
756.827302	0.012628
757.023262	0.012457
757.219204	0.012654
757.415127	0.012670
757.611033	0.012577
757.806920	0.012472
758.002788	0.012500
758.198639	0.012557
758.394471	0.012488
758.590286	0.012446
758.786081	0.012376
758.981859	0.012093
759.177619	0.012104
759.373360	0.012141
759.569083	0.012257
759.764788	0.012265
759.960474	0.012273
760.156143	0.012391
760.351793	0.012467
760.547425	0.012752
760.743038	0.013054
760.938634	0.012907
761.134211	0.012818
761.329770	0.012806
761.525311	0.012921
761.720833	0.012815
761.916338	0.012678
762.111824	0.012852
762.307292	0.012658
762.502741	0.012476
762.698173	0.012459
762.893586	0.012412
763.088981	0.012359
763.284358	0.012153
763.479716	0.012098
763.675057	0.012155
763.870379	0.012193
764.065683	0.012140
764.260968	0.012281
764.456236	0.012411
764.651485	0.012404
764.846716	0.012276
765.041929	0.012350
765.237123	0.012507
765.432299	0.012399
765.627457	0.012197
765.822597	0.012195
766.017719	0.012020
766.212822	0.011937
766.407907	0.012076
766.602974	0.012169
766.798023	0.012225
766.993054	0.012086
767.188066	0.012055
767.383060	0.012090
767.578036	0.012186
767.772993	0.012164
767.967933	0.012185
768.162854	0.012017
768.357757	0.012002
768.552642	0.011827
768.747508	0.011934
768.942356	0.011993
769.137186	0.012085
769.331998	0.012143
769.526792	0.012048
769.721567	0.011887
769.916324	0.011934
770.111063	0.011812
770.305784	0.011882
770.500486	0.011824
770.695171	0.011741
770.889837	0.011670
771.084484	0.011322
771.279114	0.011314
771.473725	0.011383
771.668318	0.011424
771.862893	0.011581
772.057450	0.011459
772.251988	0.011237
772.446509	0.011178
772.641011	0.011108
772.835494	0.011088
773.029960	0.011094
773.224407	0.010999
773.418836	0.010919
773.613247	0.010724
773.807640	0.010702
774.002014	0.010847
774.196370	0.010875
774.390708	0.010910
774.585028	0.011203
774.779330	0.011146
774.973613	0.011082
775.167878	0.010951
775.362125	0.010864
775.556354	0.010757
775.750564	0.010781
775.944756	0.010604
776.138930	0.010377
776.333086	0.010087
776.527223	0.010081
776.721343	0.010133
776.915444	0.010195
777.109526	0.010386
777.303591	0.010453
777.497637	0.010498
777.691666	0.010724
777.885676	0.010873
778.079667	0.011014
778.273641	0.011172
778.467596	0.011210
778.661533	0.011182
778.855452	0.010892
779.049352	0.010926
779.243235	0.010825
779.437099	0.010820
779.630945	0.010704
779.824773	0.010653
780.018582	0.010599
780.212373	0.010354
780.406146	0.010307
780.599901	0.010567
780.793638	0.010569
780.987356	0.010396
781.181056	0.010194
781.374738	0.010119
781.568402	0.009943
781.762047	0.009843
781.955674	0.010174
782.149283	0.010253
782.342874	0.010291
782.536447	0.010134
782.730001	0.010278
782.923537	0.010445
783.117055	0.010524
783.310555	0.010660
783.504036	0.010584
783.697499	0.010560
783.890944	0.010607
784.084371	0.010481
784.277780	0.010701
784.471170	0.010435
784.664542	0.010389
784.857896	0.010573
785.051231	0.010525
785.244549	0.010545
785.437848	0.010375
785.631129	0.010262
785.824392	0.010274
786.017636	0.010199
786.210863	0.010347
786.404071	0.010227
786.597260	0.010086
786.790432	0.010156
786.983585	0.010036
787.176721	0.010057
787.369838	0.009983
787.562936	0.009791
787.756017	0.009720
787.949079	0.009527
788.142123	0.009589
788.335149	0.009355
788.528156	0.009321
788.721146	0.009340
788.914117	0.009283
789.107070	0.009236
789.300005	0.009219
789.492921	0.009103
789.685819	0.009300
789.878699	0.009148
790.071561	0.009174
790.264405	0.008935
790.457230	0.009018
790.650037	0.009081
790.842826	0.009143
791.035597	0.009296
791.228349	0.009355
791.421084	0.009402
791.613800	0.009584
791.806497	0.009643
791.999177	0.009943
792.191838	0.009941
792.384481	0.009978
792.577106	0.010157
792.769713	0.010209
792.962301	0.010453
793.154871	0.010579
793.347423	0.010556
793.539957	0.010836
793.732473	0.010942
793.924970	0.010928
794.117449	0.010897
794.309910	0.010720
794.502353	0.010768
794.694777	0.010747
794.887183	0.010680
795.079571	0.010766
795.271941	0.010651
795.464293	0.010366
795.656626	0.010447
795.848941	0.010373
796.041238	0.010507
796.233516	0.010386
796.425777	0.010257
796.618019	0.010022
796.810243	0.010036
797.002449	0.010045
797.194636	0.010222
797.386805	0.010172
797.578956	0.010226
797.771089	0.010150
797.963204	0.010211
798.155300	0.010182
798.347378	0.010465
798.539438	0.010410
798.731480	0.010411
798.923503	0.010586
799.115509	0.010694
799.307496	0.010786
799.499465	0.010828
799.691415	0.010694
799.883348	0.010815
800.075262	0.010797
800.267158	0.010638
800.459035	0.010619
800.650895	0.010330
800.842736	0.010334
801.034559	0.010277
801.226364	0.010315
801.418150	0.010324
801.609919	0.010212
801.801669	0.010264
801.993401	0.010596
802.185114	0.010613
802.376810	0.010728
802.568487	0.010711
802.760146	0.010770
802.951787	0.010787
803.143409	0.010834
803.335014	0.010940
803.526600	0.010689
803.718168	0.010533
803.909717	0.010414
804.101249	0.010363
804.292762	0.010415
804.484257	0.010476
804.675734	0.010507
804.867192	0.010733
805.058632	0.010707
805.250054	0.010834
805.441458	0.010721
805.632844	0.010872
805.824211	0.010933
806.015561	0.010724
806.206891	0.010534
806.398204	0.010529
806.589499	0.010303
806.780775	0.010444
806.972033	0.010343
807.163273	0.010593
807.354495	0.010392
807.545698	0.010424
807.736883	0.010624
807.928050	0.010498
808.119199	0.010374
808.310329	0.010419
808.501441	0.010247
808.692535	0.010300
808.883611	0.010199
809.074669	0.010241
809.265708	0.010117
809.456729	0.009924
809.647732	0.010096
809.838717	0.010186
810.029683	0.010097
810.220632	0.010219
810.411562	0.010402
810.602474	0.010359
810.793367	0.010493
810.984242	0.010612
811.175100	0.010744
811.365938	0.011024
811.556759	0.010881
811.747562	0.010915
811.938346	0.010744
812.129112	0.010634
812.319860	0.010577
812.510589	0.010308
812.701300	0.010301
812.891994	0.010318
813.082668	0.010126
813.273325	0.010178
813.463964	0.010426
813.654584	0.010389
813.845186	0.010396
814.035769	0.010601
814.226335	0.010855
814.416882	0.010760
814.607411	0.010708
814.797922	0.010616
814.988415	0.010690
815.178889	0.010509
815.369345	0.010507
815.559783	0.010379
815.750203	0.010193
815.940605	0.010213
816.130988	0.010276
816.321353	0.010341
816.511700	0.010471
816.702028	0.010360
816.892339	0.010349
817.082631	0.010403
817.272905	0.010592
817.463161	0.010681
817.653398	0.010672
817.843617	0.010871
818.033819	0.010892
818.224001	0.010762
818.414166	0.010815
818.604312	0.010918
818.794440	0.010810
818.984550	0.010633
819.174642	0.010517
819.364716	0.010513
819.554771	0.010294
819.744808	0.010342
819.934827	0.010393
820.124827	0.010721
820.314810	0.010658
820.504774	0.010830
820.694720	0.010952
820.884647	0.011054
821.074557	0.011127
821.264448	0.011254
821.454321	0.011388
821.644176	0.011391
821.834012	0.011220
822.023831	0.011243
822.213631	0.011522
822.403413	0.011605
822.593176	0.011439
822.782922	0.011245
822.972649	0.011072
823.162358	0.010775
823.352049	0.010773
823.541721	0.010734
823.731376	0.010761
823.921012	0.010418
824.110629	0.010194
824.300229	0.010294
824.489811	0.010218
824.679374	0.010270
824.868919	0.010337
825.058445	0.010360
825.247954	0.010216
825.437444	0.009962
825.626916	0.009882
825.816370	0.009947
826.005806	0.010009
826.195223	0.010051
826.384622	0.010030
826.574003	0.009903
826.763366	0.009940
826.952711	0.009912
827.142037	0.010148
827.331345	0.010274
827.520635	0.010412
827.709906	0.010478
827.899160	0.010676
828.088395	0.010819
828.277612	0.011084
828.466810	0.011127
828.655991	0.011214
828.845153	0.011245
829.034297	0.011151
829.223423	0.011097
829.412531	0.010839
829.601620	0.010764
829.790691	0.010847
829.979744	0.010916
830.168779	0.010687
830.357795	0.010687
830.546793	0.010714
830.735773	0.011048
830.924735	0.011228
831.113679	0.011462
831.302604	0.011497
831.491511	0.011290
831.680400	0.011211
831.869271	0.011274
832.058123	0.011627
832.246957	0.011839
832.435773	0.011895
832.624571	0.011974
832.813351	0.012138
833.002112	0.012459
833.190855	0.012831
833.379580	0.012910
833.568287	0.013051
833.756975	0.012816
833.945645	0.012642
834.134297	0.012347
834.322931	0.012288
834.511547	0.012229
834.700144	0.012046
834.888723	0.011911
835.077284	0.011859
835.265826	0.011815
835.454351	0.011780
835.642857	0.011747
835.831345	0.011736
836.019815	0.011696
836.208266	0.011499
836.396699	0.011645
836.585114	0.011791
836.773511	0.012029
836.961890	0.012142
837.150250	0.012422
837.338592	0.012580
837.526916	0.012765
837.715222	0.012783
837.903510	0.013195
838.091779	0.013233
838.280030	0.013062
838.468263	0.013073
838.656477	0.013215
838.844674	0.013337
839.032852	0.013442
839.221012	0.013407
839.409153	0.013353
839.597277	0.013261
839.785382	0.013230
839.973469	0.013248
840.161538	0.012864
840.349589	0.012742
840.537621	0.012442
840.725635	0.012313
840.913631	0.012297
841.101609	0.012335
841.289568	0.012434
841.477509	0.012435
841.665432	0.012591
841.853337	0.012906
842.041224	0.012938
842.229092	0.013183
842.416942	0.013431
842.604774	0.013691
842.792588	0.014034
842.980383	0.014014
843.168160	0.014176
843.355919	0.014337
843.543660	0.014377
843.731382	0.014593
843.919087	0.014527
844.106773	0.014650
844.294441	0.014703
844.482090	0.014676
844.669722	0.014740
844.857335	0.014843
845.044930	0.014893
845.232507	0.014956
845.420065	0.014973
845.607605	0.015075
845.795127	0.015028
845.982631	0.015242
846.170117	0.015219
846.357584	0.015556
846.545033	0.015601
846.732464	0.015636
846.919877	0.015863
847.107272	0.016144
847.294648	0.016342
847.482006	0.016594
847.669346	0.016656
847.856667	0.016893
848.043971	0.016761
848.231256	0.016975
848.418523	0.017129
848.605771	0.017204
848.793002	0.017223
848.980214	0.017084
849.167408	0.016796
849.354584	0.016528
849.541742	0.016449
849.728881	0.016363
849.916002	0.016182
850.103105	0.015952
850.290190	0.015865
850.477256	0.015781
850.664304	0.015973
850.851334	0.016112
851.038346	0.016189
851.225340	0.016008
851.412315	0.015983
851.599272	0.016007
851.786211	0.015985
851.973132	0.015879
852.160034	0.015860
852.346918	0.015894
852.533784	0.016045
852.720632	0.016106
852.907462	0.016616
853.094273	0.016939
853.281066	0.016997
853.467841	0.017171
853.654598	0.017272
853.841336	0.017406
854.028056	0.017203
854.214758	0.017072
854.401442	0.017107
854.588107	0.016860
854.774755	0.016653
854.961384	0.016536
855.147995	0.016553
855.334587	0.016541
855.521162	0.016683
855.707718	0.016804
855.894256	0.016868
856.080775	0.017086
856.267277	0.017102
856.453760	0.017169
856.640225	0.017582
856.826672	0.017651
857.013101	0.018004
857.199511	0.017974
857.385903	0.018101
857.572277	0.018372
857.758633	0.018515
857.944970	0.018548
858.131290	0.018371
858.317591	0.018150
858.503873	0.018353
858.690138	0.018257
858.876384	0.018540
859.062612	0.018569
859.248822	0.018379
859.435014	0.018407
859.621188	0.018628
859.807343	0.019244
859.993480	0.019303
860.179599	0.019280
860.365699	0.019202
860.551781	0.019026
860.737846	0.019258
860.923891	0.019452
861.109919	0.019737
861.295929	0.019981
861.481920	0.020160
861.667893	0.020186
861.853848	0.020389
862.039784	0.020700
862.225702	0.020751
862.411603	0.020796
862.597484	0.020779
862.783348	0.020567
862.969193	0.020319
863.155021	0.019878
863.340830	0.019817
863.526620	0.019732
863.712393	0.019761
863.898147	0.019998
864.083883	0.019976
864.269601	0.020160
864.455301	0.020287
864.640982	0.020450
864.826645	0.020548
865.012290	0.020880
865.197917	0.020448
865.383526	0.020417
865.569116	0.020222
865.754688	0.020177
865.940242	0.019898
866.125777	0.019587
866.311295	0.019268
866.496794	0.019220
866.682275	0.019184
866.867737	0.019515
867.053182	0.019408
867.238608	0.019306
867.424016	0.019423
867.609406	0.019474
867.794778	0.019538
867.980131	0.019628
868.165466	0.019692
868.350783	0.019459
868.536082	0.019532
868.721362	0.019564
868.906625	0.019731
869.091869	0.019641
869.277094	0.019539
869.462302	0.019537
869.647491	0.019420
869.832662	0.019341
870.017815	0.019709
870.202950	0.019800
870.388066	0.019805
870.573165	0.020003
870.758245	0.020087
870.943306	0.020605
871.128350	0.020741
871.313375	0.021208
871.498382	0.021398
871.683371	0.021247
871.868342	0.021427
872.053294	0.021510
872.238229	0.021136
872.423144	0.021075
872.608042	0.021020
872.792922	0.021119
872.977783	0.021194
873.162626	0.021034
873.347451	0.021030
873.532258	0.021018
873.717046	0.020885
873.901816	0.020930
874.086568	0.020787
874.271302	0.020618
874.456017	0.020598
874.640715	0.020256
874.825394	0.020239
875.010055	0.020292
875.194697	0.020046
875.379322	0.019957
875.563928	0.019836
875.748516	0.019901
875.933085	0.019969
876.117637	0.019858
876.302170	0.020202
876.486685	0.020319
876.671182	0.020425
876.855661	0.020518
877.040121	0.020785
877.224563	0.020995
877.408987	0.021228
877.593393	0.021156
877.777780	0.021484
877.962150	0.021566
878.146501	0.021940
878.330833	0.021739
878.515148	0.021893
878.699444	0.021863
878.883722	0.022025
879.067982	0.022138
879.252224	0.022202
879.436447	0.022001
879.620653	0.021866
879.804840	0.021540
879.989008	0.021611
880.173159	0.021377
880.357291	0.021613
880.541405	0.021395
880.725501	0.021125
880.909579	0.021203
881.093638	0.021358
881.277680	0.021009
881.461703	0.021068
881.645707	0.021079
881.829694	0.021217
882.013662	0.021160
882.197612	0.021292
882.381544	0.021388
882.565458	0.021389
882.749353	0.021154
882.933230	0.021366
883.117089	0.021434
883.300930	0.021388
883.484753	0.021255
883.668557	0.021160
883.852343	0.021227
884.036111	0.021023
884.219861	0.020991
884.403592	0.021101
884.587305	0.020832
884.771000	0.020704
884.954677	0.020796
885.138335	0.021033
885.321976	0.020951
885.505598	0.020717
885.689201	0.021190
885.872787	0.021127
886.056354	0.021000
886.239904	0.020954
886.423434	0.021237
886.606947	0.021261
886.790442	0.021131
886.973918	0.021043
887.157376	0.021348
887.340816	0.021284
887.524237	0.021233
887.707641	0.021063
887.891026	0.021385
888.074393	0.020970
888.257741	0.020688
888.441072	0.020261
888.624384	0.020111
888.807678	0.019870
888.990954	0.019559
889.174211	0.019527
889.357451	0.019697
889.540672	0.019480
889.723875	0.019569
889.907059	0.019903
890.090226	0.020341
890.273374	0.020700
890.456504	0.020671
890.639616	0.020647
890.822709	0.020412
891.005785	0.020624
891.188842	0.020927
891.371881	0.021109
891.554901	0.021064
891.737904	0.021147
891.920888	0.021025
892.103854	0.021018
892.286802	0.020902
892.469731	0.021103
892.652643	0.020910
892.835536	0.020811
893.018410	0.020855
893.201267	0.021025
893.384106	0.020772
893.566926	0.020896
893.749728	0.021085
893.932511	0.021270
894.115277	0.021572
894.298024	0.021664
894.480753	0.021388
894.663464	0.021230
894.846157	0.020973
895.028831	0.020972
895.211487	0.021027
895.394125	0.020963
895.576745	0.020915
895.759346	0.020585
895.941930	0.020504
896.124495	0.020859
896.307041	0.020713
896.489570	0.020425
896.672080	0.020537
896.854573	0.020422
897.037046	0.020535
897.219502	0.020300
897.401940	0.020371
897.584359	0.020385
897.766760	0.020156
897.949143	0.020321
898.131507	0.020605
898.313854	0.020652
898.496182	0.020259
898.678492	0.020012
898.860783	0.019881
899.043057	0.019678
899.225312	0.019478
899.407549	0.019292
899.589768	0.019081
899.771968	0.018588
899.954151	0.018017
900.136315	0.018159
900.318461	0.018270
900.500588	0.018650
900.682698	0.018248
900.864789	0.018360
901.046862	0.018260
901.228917	0.018159
901.410953	0.018299
901.592971	0.018463
901.774972	0.018260
901.956953	0.017601
902.138917	0.017069
902.320862	0.017202
902.502790	0.016743
902.684699	0.016743
902.866589	0.016602
903.048462	0.016485
903.230316	0.016467
903.412152	0.016300
903.593970	0.016377
903.775770	0.016608
903.957551	0.016798
904.139314	0.017003
904.321059	0.016834
904.502786	0.016873
904.684494	0.016889
904.866185	0.016847
905.047857	0.016728
905.229510	0.016566
905.411146	0.016460
905.592763	0.016171
905.774363	0.015857
905.955943	0.015710
906.137506	0.015396
906.319051	0.014955
906.500577	0.014995
906.682085	0.015285
906.863575	0.015296
907.045046	0.015185
907.226500	0.015212
907.407935	0.015529
907.589352	0.015943
907.770750	0.015997
907.952131	0.016440
908.133493	0.016286
908.314837	0.015880
908.496163	0.016258
908.677470	0.016117
908.858760	0.016178
909.040031	0.016051
909.221284	0.015776
909.402518	0.015928
909.583735	0.015852
909.764933	0.015802
909.946113	0.015760
910.127275	0.015617
910.308418	0.015759
910.489544	0.015380
910.670651	0.015022
910.851740	0.015000
911.032810	0.014750
911.213863	0.014322
911.394897	0.014070
911.575913	0.013791
911.756911	0.013363
911.937890	0.012828
912.118851	0.012831
912.299794	0.013098
912.480719	0.012739
912.661626	0.012509
912.842514	0.012720
913.023384	0.012619
913.204236	0.012934
913.385070	0.012676
913.565886	0.012593
913.746683	0.012837
913.927462	0.012227
914.108223	0.012356
914.288965	0.011981
914.469690	0.011830
914.650396	0.011934
914.831084	0.011807
915.011754	0.011950
915.192405	0.012267
915.373038	0.011661
915.553653	0.011288
915.734250	0.011170
915.914829	0.011321
916.095389	0.011094
916.275931	0.010655
916.456455	0.010470
916.636961	0.010322
916.817448	0.010102
916.997917	0.010219
917.178368	0.010776
917.358801	0.010593
917.539216	0.010912
917.719612	0.010668
917.899990	0.010672
918.080350	0.010281
918.260692	0.010354
918.441015	0.010822
918.621320	0.010539
918.801607	0.010172
918.981876	0.010249
919.162127	0.009720
919.342359	0.009686
919.522573	0.009294
919.702769	0.009520
919.882947	0.009372
920.063106	0.008421
920.243247	0.008361
920.423370	0.008304
920.603475	0.007742
920.783562	0.007602
920.963630	0.007316
921.143680	0.007234
921.323712	0.007045
921.503725	0.006560
921.683721	0.006531
921.863698	0.006481
922.043657	0.006415
922.223598	0.006264
922.403520	0.006377
922.583424	0.006338
922.763311	0.006637
922.943178	0.006288
923.123028	0.005974
923.302859	0.005491
923.482673	0.004767
923.662467	0.004499
923.842244	0.004284
924.022003	0.003732
924.201743	0.003748
924.381465	0.002983
924.561169	0.002764
924.740854	0.002801
924.920522	0.003020
925.100171	0.002988
925.279802	0.002551
925.459414	0.002546
925.639009	0.002395
925.818585	0.001788
925.998143	0.001645
926.177683	0.001735
926.357205	0.001498
926.536708	0.001004
926.716193	0.000524
926.895660	0.000346
927.075109	0.000183
927.254539	0.000256
927.433951	0.000204
927.613345	0.000126
927.792721	-0.000466
927.972079	-0.000476
928.151418	-0.000343
928.330739	-0.000393
928.510042	-0.000534
928.689327	-0.001128
928.868593	-0.001754
929.047841	-0.002091
929.227071	-0.002072
929.406283	-0.002384
929.585476	-0.002946
929.764652	-0.003169
929.943809	-0.002800
930.122948	-0.002818
930.302068	-0.002947
930.481171	-0.003173
930.660255	-0.002752
930.839321	-0.002891
931.018369	-0.003118
931.197398	-0.002955
931.376409	-0.003511
931.555402	-0.004192
931.734377	-0.004897
931.913334	-0.004760
932.092272	-0.004973
932.271192	-0.005812
932.450094	-0.006024
932.628978	-0.005968
932.807844	-0.006251
932.986691	-0.006103
933.165520	-0.006238
933.344331	-0.006410
933.523123	-0.006453
933.701898	-0.006490
933.880654	-0.006809
934.059392	-0.007523
934.238111	-0.008006
934.416813	-0.008315
934.595496	-0.009248
934.774161	-0.009318
934.952808	-0.009379
935.131437	-0.010554
935.310047	-0.010005
935.488639	-0.009884
935.667213	-0.009594
935.845769	-0.009418
936.024306	-0.009358
936.202825	-0.009204
936.381326	-0.009305
936.559809	-0.010019
936.738274	-0.009344
936.916720	-0.010389
937.095148	-0.010148
937.273558	-0.010244
937.451950	-0.010381
937.630323	-0.010798
937.808678	-0.010849
937.987015	-0.011236
938.165334	-0.010251
938.343635	-0.010941
938.521917	-0.011130
938.700181	-0.012243
938.878427	-0.012860
939.056655	-0.013271
939.234864	-0.013737
939.413055	-0.013819
939.591228	-0.014386
939.769383	-0.015388
939.947519	-0.015710
940.125638	-0.015910
940.303738	-0.016269
940.481820	-0.016278
940.659883	-0.016595
940.837929	-0.016593
941.015956	-0.016835
941.193965	-0.016660
941.371955	-0.016192
941.549928	-0.016169
941.727882	-0.015541
941.905818	-0.015797
942.083736	-0.015883
942.261636	-0.016175
942.439517	-0.016491
942.617380	-0.017346
942.795225	-0.017587
942.973052	-0.018559
943.150860	-0.019154
943.328651	-0.019859
943.506423	-0.019961
943.684176	-0.020794
943.861912	-0.020161
944.039629	-0.021316
944.217328	-0.021785
944.395009	-0.022213
944.572672	-0.022111
944.750317	-0.021910
944.927943	-0.022467
945.105551	-0.022414
945.283141	-0.022151
945.460712	-0.022870
945.638265	-0.022344
945.815801	-0.021606
945.993317	-0.020541
946.170816	-0.020516
946.348297	-0.020412
946.525759	-0.020653
946.703203	-0.019976
946.880629	-0.020695
947.058036	-0.021527
947.235425	-0.020962
947.412797	-0.021302
947.590149	-0.022061
947.767484	-0.023037
947.944800	-0.022640
948.122099	-0.022430
948.299379	-0.023656
948.476640	-0.023660
948.653884	-0.023166
948.831109	-0.024347
949.008316	-0.023936
949.185505	-0.024847
949.362676	-0.024641
949.539828	-0.024145
949.716962	-0.023992
949.894078	-0.022634
950.071176	-0.022233
950.248256	-0.021279
950.425317	-0.019902
950.602360	-0.020834
950.779385	-0.019512
950.956391	-0.018719
951.133380	-0.019942
951.310350	-0.020354
951.487302	-0.021646
951.664235	-0.021577
951.841151	-0.021967
952.018048	-0.023405
952.194927	-0.022297
952.371788	-0.023492
952.548631	-0.024165
952.725455	-0.025211
952.902261	-0.025710
953.079049	-0.024766
953.255819	-0.023754
953.432570	-0.024728
953.609303	-0.022822
953.786018	-0.023171
953.962715	-0.023650
954.139394	-0.023809
954.316054	-0.024043
954.492696	-0.023262
954.669320	-0.026106
954.845926	-0.028061
955.022513	-0.027451
955.199083	-0.029055
955.375634	-0.028830
955.552166	-0.026915
955.728681	-0.026377
955.905177	-0.025083
956.081655	-0.025031
956.258115	-0.022323
956.434557	-0.020707
956.610980	-0.020461
956.787385	-0.019843
956.963772	-0.019984
957.140141	-0.021102
957.316492	-0.021581
957.492824	-0.022451
957.669138	-0.022756
957.845434	-0.023665
958.021712	-0.024220
958.197971	-0.024174
958.374212	-0.024302
958.550435	-0.024604
958.726640	-0.024276
958.902826	-0.024549
959.078995	-0.022254
959.255145	-0.022106
959.431277	-0.020937
959.607390	-0.020534
959.783486	-0.021450
959.959563	-0.019593
960.135622	-0.019840
960.311662	-0.018467
960.487685	-0.017289
960.663689	-0.018044
960.839675	-0.017138
961.015643	-0.017705
961.191593	-0.019387
961.367524	-0.017147
961.543437	-0.017805
961.719332	-0.016510
961.895209	-0.015830
962.071067	-0.016543
962.246907	-0.015692
962.422730	-0.015656
962.598533	-0.013315
962.774319	-0.012512
962.950086	-0.012921
963.125835	-0.012502
963.301566	-0.011279
963.477279	-0.014892
963.652973	-0.013084
963.828650	-0.013775
964.004308	-0.012762
964.179947	-0.013635
964.355569	-0.012761
964.531172	-0.013592
964.706757	-0.013251
964.882324	-0.015293
965.057873	-0.011895
965.233403	-0.013324
965.408916	-0.012987
965.584410	-0.013300
965.759885	-0.013236
965.935343	-0.012956
966.110782	-0.010948
966.286203	-0.012828
966.461606	-0.012015
966.636991	-0.013469
966.812357	-0.011039
966.987705	-0.011507
967.163035	-0.014022
967.338347	-0.014909
967.513641	-0.014074
967.688916	-0.016460
967.864173	-0.016203
968.039412	-0.015631
968.214632	-0.015413
968.389835	-0.015802
968.565019	-0.013752
968.740185	-0.010972
968.915333	-0.009558
969.090462	-0.009924
969.265573	-0.009177
969.440667	-0.008660
969.615741	-0.008172
969.790798	-0.007058
969.965836	-0.006546
970.140856	-0.008822
970.315858	-0.009298
970.490842	-0.009359
970.665808	-0.009378
970.840755	-0.009030
971.015684	-0.007721
971.190595	-0.007719
971.365487	-0.008212
971.540362	-0.008834
971.715218	-0.008436
971.890056	-0.009418
972.064875	-0.011703
972.239677	-0.009603
972.414460	-0.009468
972.589225	-0.010715
972.763972	-0.011598
972.938700	-0.013074
973.113411	-0.012180
973.288103	-0.011065
973.462777	-0.008779
973.637432	-0.007570
973.812070	-0.008551
973.986689	-0.008630
974.161290	-0.008255
974.335873	-0.008601
974.510437	-0.008108
974.684984	-0.009129
974.859512	-0.009070
975.034022	-0.010418
975.208513	-0.008551
975.382987	-0.010207
975.557442	-0.009963
975.731879	-0.008629
975.906298	-0.008655
976.080698	-0.005544
976.255080	-0.004633
976.429445	-0.005376
976.603790	-0.006188
976.778118	-0.006767
976.952427	-0.005386
977.126719	-0.004753
977.300992	-0.005959
977.475246	-0.005997
977.649483	-0.008971
977.823701	-0.009599
977.997901	-0.010025
978.172083	-0.009997
978.346247	-0.011892
978.520392	-0.012424
978.694519	-0.013080
978.868628	-0.012410
979.042719	-0.010008
979.216791	-0.007176
979.390845	-0.009382
979.564882	-0.009793
979.738899	-0.008630
979.912899	-0.007261
980.086880	-0.007529
980.260843	-0.007273
980.434788	-0.009137
980.608715	-0.010701
980.782623	-0.011978
980.956514	-0.011256
981.130386	-0.008941
981.304240	-0.010173
981.478075	-0.010119
981.651892	-0.011204
981.825692	-0.010961
981.999472	-0.007500
982.173235	-0.005105
982.346980	-0.003415
982.520706	-0.002804
982.694414	-0.004258
982.868104	-0.002609
983.041775	-0.002300
983.215428	-0.000103
983.389064	-0.001524
983.562680	-0.004394
983.736279	-0.007427
983.909860	-0.008953
984.083422	-0.007500
984.256966	-0.006529
984.430491	-0.006776
984.603999	-0.006739
984.777488	-0.006756
984.950959	-0.005027
985.124412	-0.003511
985.297847	-0.003517
985.471263	-0.003875
985.644661	-0.003458
985.818041	-0.004511
985.991403	-0.004301
986.164747	-0.004338
986.338072	-0.004400
986.511379	-0.005228
986.684668	-0.006278
986.857938	-0.006808
987.031191	-0.007963
987.204425	-0.009768
987.377641	-0.010026
987.550839	-0.011610
987.724018	-0.013464
987.897179	-0.014820
988.070322	-0.015066
988.243447	-0.015984
988.416554	-0.015248
988.589642	-0.012269
988.762712	-0.012687
988.935764	-0.012790
989.108798	-0.010854
989.281813	-0.009475
989.454811	-0.009199
989.627790	-0.008727
989.800751	-0.008933
989.973693	-0.008602
990.146617	-0.011084
990.319524	-0.009102
990.492412	-0.006827
990.665281	-0.009599
990.838133	-0.009354
991.010966	-0.009553
991.183781	-0.009417
991.356578	-0.009962
991.529356	-0.009957
991.702117	-0.009243
991.874859	-0.010453
992.047583	-0.013294
992.220288	-0.010682
992.392976	-0.011767
992.565645	-0.011108
992.738296	-0.012665
992.910929	-0.011752
993.083543	-0.011623
993.256139	-0.010449
993.428718	-0.010109
993.601277	-0.008269
993.773819	-0.009607
993.946342	-0.008106
994.118848	-0.009264
994.291335	-0.008318
994.463803	-0.008330
994.636254	-0.007972
994.808686	-0.009467
994.981100	-0.008583
995.153496	-0.008927
995.325874	-0.009507
995.498233	-0.010128
995.670574	-0.009734
995.842897	-0.009372
996.015202	-0.009003
996.187488	-0.008443
996.359757	-0.008143
996.532007	-0.008885
996.704239	-0.009481
996.876452	-0.008667
997.048648	-0.009629
997.220825	-0.010034
997.392984	-0.010729
997.565124	-0.010083
997.737247	-0.010819
997.909351	-0.010363
998.081437	-0.010614
998.253505	-0.009783
998.425554	-0.009259
998.597586	-0.008264
998.769599	-0.007572
998.941594	-0.007206
999.113571	-0.008587
999.285529	-0.008324
999.457469	-0.008579
999.629391	-0.008253
999.801295	-0.008344
999.973181	-0.009151
1000.145048	-0.010132
1000.316897	-0.009431
1000.488728	-0.009544
1000.660541	-0.007697
1000.832335	-0.006835
1001.004111	-0.007755
1001.175869	-0.007459
1001.347609	-0.007730
1001.519331	-0.008011
1001.691034	-0.007603
1001.862719	-0.008347
1002.034386	-0.008565
1002.206035	-0.007897
1002.377665	-0.008791
1002.549277	-0.007033
1002.720871	-0.007528
1002.892447	-0.006692
1003.064004	-0.007395
1003.235544	-0.007285
1003.407065	-0.007198
1003.578568	-0.007464
1003.750052	-0.007537
1003.921519	-0.007256
1004.092967	-0.008191
1004.264397	-0.008234
1004.435809	-0.009065
1004.607202	-0.008100
1004.778577	-0.008337
1004.949934	-0.008300
1005.121273	-0.008509
1005.292594	-0.009421
1005.463896	-0.011404
1005.635180	-0.011150
1005.806446	-0.010621
1005.977694	-0.009793
1006.148923	-0.009901
1006.320135	-0.009825
1006.491328	-0.009218
1006.662503	-0.007257
1006.833659	-0.007032
1007.004798	-0.005028
1007.175918	-0.005437
1007.347020	-0.006710
1007.518103	-0.007385
1007.689169	-0.006145
1007.860216	-0.004791
1008.031245	-0.004449
1008.202256	-0.004826
1008.373248	-0.005140
1008.544223	-0.006029
1008.715179	-0.005883
1008.886117	-0.005175
1009.057036	-0.006191
1009.227938	-0.007343
1009.398821	-0.006786
1009.569686	-0.007151
1009.740533	-0.007782
1009.911361	-0.008600
1010.082172	-0.007697
1010.252964	-0.008793
1010.423738	-0.008858
1010.594493	-0.007677
1010.765231	-0.006794
1010.935950	-0.009216
1011.106651	-0.009277
1011.277334	-0.010053
1011.447998	-0.007679
1011.618645	-0.008570
1011.789273	-0.007389
1011.959882	-0.007666
1012.130474	-0.008346
1012.301048	-0.008823
1012.471603	-0.009033
1012.642140	-0.009862
1012.812658	-0.008735
1012.983159	-0.009514
1013.153641	-0.009269
1013.324105	-0.010722
1013.494551	-0.010121
1013.664979	-0.011424
1013.835388	-0.011781
1014.005779	-0.010167
1014.176152	-0.010794
1014.346507	-0.010523
1014.516843	-0.011343
1014.687162	-0.012646
1014.857462	-0.011012
1015.027744	-0.011006
1015.198007	-0.009992
1015.368252	-0.010489
1015.538480	-0.010188
1015.708689	-0.010432
1015.878879	-0.011316
1016.049052	-0.010687
1016.219206	-0.009006
1016.389342	-0.009798
1016.559460	-0.010900
1016.729559	-0.010752
1016.899641	-0.009773
1017.069704	-0.008715
1017.239749	-0.007416
1017.409775	-0.008186
1017.579784	-0.009850
1017.749774	-0.009440
1017.919746	-0.010403
1018.089700	-0.010971
1018.259635	-0.010750
1018.429553	-0.009861
1018.599452	-0.011560
1018.769333	-0.010640
1018.939195	-0.010212
1019.109040	-0.008855
1019.278866	-0.009730
1019.448674	-0.007187
1019.618464	-0.006306
1019.788235	-0.006033
1019.957989	-0.007020
1020.127724	-0.007037
1020.297441	-0.007654
1020.467139	-0.007529
1020.636820	-0.007993
1020.806482	-0.009447
1020.976126	-0.011576
1021.145752	-0.011078
1021.315359	-0.011208
1021.484948	-0.011326
1021.654519	-0.012833
1021.824072	-0.013099
1021.993607	-0.014047
1022.163123	-0.014035
1022.332621	-0.013542
1022.502101	-0.012261
1022.671563	-0.012624
1022.841007	-0.011869
1023.010432	-0.011933
1023.179839	-0.009931
1023.349228	-0.009384
1023.518598	-0.007147
1023.687951	-0.008070
1023.857285	-0.007798
1024.026601	-0.007880
1024.195899	-0.008144
1024.365178	-0.009243
1024.534439	-0.009106
1024.703682	-0.009926
1024.872907	-0.010645
1025.042114	-0.011949
1025.211302	-0.012004
1025.380472	-0.011542
1025.549624	-0.012465
1025.718758	-0.012344
1025.887873	-0.011594
1026.056970	-0.013599
1026.226049	-0.014946
1026.395110	-0.013908
1026.564153	-0.013908
1026.733177	-0.014039
1026.902183	-0.015700
1027.071171	-0.015507
1027.240141	-0.015587
1027.409092	-0.017209
1027.578026	-0.016628
1027.746940	-0.014898
1027.915837	-0.016218
1028.084716	-0.016579
1028.253576	-0.015648
1028.422418	-0.015352
1028.591242	-0.016789
1028.760048	-0.016983
1028.928835	-0.015976
1029.097604	-0.014253
1029.266355	-0.014762
1029.435088	-0.014106
1029.603803	-0.013841
1029.772499	-0.013033
1029.941177	-0.010669
1030.109837	-0.009007
1030.278478	-0.008182
1030.447102	-0.007432
1030.615707	-0.008511
1030.784294	-0.009184
1030.952863	-0.010385
1031.121413	-0.010032
1031.289945	-0.010277
1031.458460	-0.010073
1031.626955	-0.011768
1031.795433	-0.013743
1031.963892	-0.013437
1032.132334	-0.014636
1032.300756	-0.013801
1032.469161	-0.011633
1032.637548	-0.011364
1032.805916	-0.012393
1032.974266	-0.013011
1033.142598	-0.012418
1033.310911	-0.011729
1033.479207	-0.013281
1033.647484	-0.011811
1033.815743	-0.012566
1033.983983	-0.012550
1034.152206	-0.012866
1034.320410	-0.012432
1034.488596	-0.012928
1034.656764	-0.012315
1034.824914	-0.012418
1034.993045	-0.010974
1035.161158	-0.011571
1035.329253	-0.011301
1035.497330	-0.012769
1035.665388	-0.013058
1035.833428	-0.013683
1036.001450	-0.014786
1036.169454	-0.014364
1036.337440	-0.014630
1036.505407	-0.015943
1036.673356	-0.016275
1036.841287	-0.016149
1037.009200	-0.015463
1037.177094	-0.015028
1037.344970	-0.014012
1037.512828	-0.014021
1037.680668	-0.013349
1037.848489	-0.011467
1038.016293	-0.011749
1038.184078	-0.008333
1038.351845	-0.008522
1038.519593	-0.010312
1038.687324	-0.011103
1038.855036	-0.010729
1039.022730	-0.010024
1039.190406	-0.011674
1039.358063	-0.012444
1039.525702	-0.011767
1039.693323	-0.014939
1039.860926	-0.014364
1040.028511	-0.013380
1040.196077	-0.012102
1040.363625	-0.013835
1040.531155	-0.014505
1040.698667	-0.013621
1040.866161	-0.012881
1041.033636	-0.013896
1041.201093	-0.013413
1041.368532	-0.014890
1041.535952	-0.015393
1041.703355	-0.017657
1041.870739	-0.016983
1042.038105	-0.015971
1042.205452	-0.015130
1042.372782	-0.015937
1042.540093	-0.016680
1042.707386	-0.017669
1042.874661	-0.018021
1043.041918	-0.017583
1043.209156	-0.015932
1043.376376	-0.016692
1043.543578	-0.017041
1043.710762	-0.017796
1043.877927	-0.018938
1044.045074	-0.017203
1044.212203	-0.016441
1044.379314	-0.013504
1044.546407	-0.012715
1044.713481	-0.012323
1044.880537	-0.011759
1045.047575	-0.011825
1045.214595	-0.014455
1045.381596	-0.012543
1045.548579	-0.012856
1045.715544	-0.011104
1045.882491	-0.011345
1046.049420	-0.012158
1046.216330	-0.013290
1046.383222	-0.011569
1046.550096	-0.011678
1046.716951	-0.009475
1046.883789	-0.010813
1047.050608	-0.010230
1047.217409	-0.010992
1047.384192	-0.012356
1047.550956	-0.012610
1047.717703	-0.012286
1047.884431	-0.012725
1048.051140	-0.012325
1048.217832	-0.012266
1048.384505	-0.009793
1048.551161	-0.009473
1048.717798	-0.010610
1048.884416	-0.009782
1049.051017	-0.009109
1049.217599	-0.008087
1049.384163	-0.008353
1049.550709	-0.008062
1049.717237	-0.006737
1049.883746	-0.008578
1050.050237	-0.010238
1050.216710	-0.009051
1050.383165	-0.011951
1050.549601	-0.011965
1050.716019	-0.013779
1050.882420	-0.015066
1051.048801	-0.015046
1051.215165	-0.016377
1051.381510	-0.015341
1051.547837	-0.012968
1051.714146	-0.013582
1051.880437	-0.012093
1052.046709	-0.013144
1052.212964	-0.012813
1052.379200	-0.011806
1052.545417	-0.012504
1052.711617	-0.013207
1052.877798	-0.012377
1053.043961	-0.015056
1053.210106	-0.016003
1053.376233	-0.014866
1053.542341	-0.012966
1053.708432	-0.013608
1053.874504	-0.013638
1054.040557	-0.014412
1054.206593	-0.013355
1054.372610	-0.015668
1054.538609	-0.015266
1054.704590	-0.013920
1054.870553	-0.015084
1055.036497	-0.016982
1055.202424	-0.016034
1055.368331	-0.015390
1055.534221	-0.015420
1055.700093	-0.015726
1055.865946	-0.014532
1056.031781	-0.015581
1056.197598	-0.017085
1056.363397	-0.016247
1056.529177	-0.015152
1056.694939	-0.015897
1056.860683	-0.017292
1057.026409	-0.016555
1057.192116	-0.015608
1057.357806	-0.016032
1057.523477	-0.015417
1057.689130	-0.015410
1057.854764	-0.015943
1058.020381	-0.015927
1058.185979	-0.013934
1058.351559	-0.014692
1058.517120	-0.013318
1058.682664	-0.015907
1058.848189	-0.016225
1059.013696	-0.016116
1059.179185	-0.015559
1059.344656	-0.014419
1059.510108	-0.014635
1059.675542	-0.014693
1059.840958	-0.014106
1060.006356	-0.015740
1060.171735	-0.013551
1060.337096	-0.012748
1060.502439	-0.011058
1060.667764	-0.011054
1060.833071	-0.012373
1060.998359	-0.012848
1061.163629	-0.015134
1061.328881	-0.015860
1061.494115	-0.015376
1061.659330	-0.017243
1061.824527	-0.017613
1061.989706	-0.016032
1062.154867	-0.014688
1062.320010	-0.013356
1062.485134	-0.013526
1062.650240	-0.013960
1062.815328	-0.013329
1062.980398	-0.013380
1063.145449	-0.011849
1063.310482	-0.012659
1063.475497	-0.014364
1063.640494	-0.013986
1063.805473	-0.015292
1063.970433	-0.015712
1064.135375	-0.013314
1064.300299	-0.012642
1064.465204	-0.014588
1064.630092	-0.014037
1064.794961	-0.013980
1064.959812	-0.015953
1065.124645	-0.016906
1065.289459	-0.015360
1065.454256	-0.013618
1065.619034	-0.015685
1065.783793	-0.015388
1065.948535	-0.012521
1066.113258	-0.014103
1066.277964	-0.015851
1066.442651	-0.015221
1066.607319	-0.016622
1066.771970	-0.018876
1066.936602	-0.021693
1067.101216	-0.020391
1067.265812	-0.020035
1067.430389	-0.019920
1067.594949	-0.018923
1067.759490	-0.017322
1067.924013	-0.016473
1068.088518	-0.015476
1068.253004	-0.011616
1068.417472	-0.009501
1068.581922	-0.009199
1068.746354	-0.010319
1068.910768	-0.011543
1069.075163	-0.010742
1069.239540	-0.009939
1069.403899	-0.009454
1069.568240	-0.009037
1069.732562	-0.011013
1069.896866	-0.010606
1070.061152	-0.010918
1070.225420	-0.010778
1070.389670	-0.011594
1070.553901	-0.012046
1070.718114	-0.012367
1070.882309	-0.014033
1071.046486	-0.012516
1071.210644	-0.014340
1071.374784	-0.016908
1071.538906	-0.017503
1071.703010	-0.019044
1071.867096	-0.019074
1072.031163	-0.019379
1072.195212	-0.018679
1072.359243	-0.016791
1072.523256	-0.018638
1072.687250	-0.017736
1072.851226	-0.016112
1073.015184	-0.015189
1073.179124	-0.013666
1073.343045	-0.013789
1073.506949	-0.015269
1073.670834	-0.014685
1073.834701	-0.015914
1073.998549	-0.016346
1074.162380	-0.016091
1074.326192	-0.016046
1074.489986	-0.018357
1074.653761	-0.017628
1074.817519	-0.017105
1074.981258	-0.015054
1075.144979	-0.016533
1075.308682	-0.016581
1075.472367	-0.017131
1075.636033	-0.018191
1075.799681	-0.017390
1075.963311	-0.015525
1076.126923	-0.017084
1076.290516	-0.015750
1076.454092	-0.016965
1076.617649	-0.016123
1076.781187	-0.013518
1076.944708	-0.011537
1077.108210	-0.011051
1077.271695	-0.009278
1077.435160	-0.009627
1077.598608	-0.007680
1077.762038	-0.007602
1077.925449	-0.008309
1078.088842	-0.009203
1078.252217	-0.010576
1078.415573	-0.011193
1078.578912	-0.009062
1078.742232	-0.010558
1078.905534	-0.009911
1079.068817	-0.012761
1079.232083	-0.013185
1079.395330	-0.011863
1079.558559	-0.011745
1079.721770	-0.012491
1079.884962	-0.013519
1080.048136	-0.015298
1080.211293	-0.017419
1080.374430	-0.020329
1080.537550	-0.017905
1080.700651	-0.017536
1080.863735	-0.018563
1081.026800	-0.019586
1081.189846	-0.019196
1081.352875	-0.017025
1081.515885	-0.016433
1081.678877	-0.015442
1081.841851	-0.013253
1082.004807	-0.013672
1082.167744	-0.014491
1082.330663	-0.013883
1082.493564	-0.013483
1082.656447	-0.015096
1082.819312	-0.015445
1082.982158	-0.017643
1083.144986	-0.017312
1083.307796	-0.016546
1083.470587	-0.015140
1083.633361	-0.014064
1083.796116	-0.014333
1083.958853	-0.014758
1084.121571	-0.014480
1084.284272	-0.015923
1084.446954	-0.015903
1084.609618	-0.014382
1084.772264	-0.014604
1084.934892	-0.016236
1085.097501	-0.018220
1085.260092	-0.017203
1085.422665	-0.015836
1085.585220	-0.016194
1085.747756	-0.015659
1085.910274	-0.013227
1086.072774	-0.015937
1086.235256	-0.014768
1086.397720	-0.014986
1086.560165	-0.014266
1086.722592	-0.015615
1086.885001	-0.016651
1087.047392	-0.017656
1087.209764	-0.016454
1087.372119	-0.017333
1087.534455	-0.017003
1087.696772	-0.017480
1087.859072	-0.016490
1088.021353	-0.014113
1088.183616	-0.014063
1088.345861	-0.015047
1088.508088	-0.010961
1088.670296	-0.012979
1088.832486	-0.011465
1088.994658	-0.011337
1089.156812	-0.013013
1089.318948	-0.016167
1089.481065	-0.016917
1089.643164	-0.015805
1089.805245	-0.013931
1089.967308	-0.015878
1090.129352	-0.015533
1090.291378	-0.014169
1090.453386	-0.014166
1090.615376	-0.011237
1090.777347	-0.009282
1090.939301	-0.011672
1091.101236	-0.011076
1091.263153	-0.012782
1091.425051	-0.012947
1091.586932	-0.011621
1091.748794	-0.013535
1091.910638	-0.012076
1092.072463	-0.013954
1092.234271	-0.013247
1092.396060	-0.010134
1092.557831	-0.011379
1092.719584	-0.008966
1092.881319	-0.008855
1093.043035	-0.008796
1093.204733	-0.011831
1093.366413	-0.011662
1093.528075	-0.011570
1093.689718	-0.012384
1093.851343	-0.015006
1094.012950	-0.014711
1094.174539	-0.015893
1094.336110	-0.016792
1094.497662	-0.018647
1094.659196	-0.015313
1094.820712	-0.015368
1094.982210	-0.016717
1095.143689	-0.012926
1095.305151	-0.012673
1095.466594	-0.014655
1095.628018	-0.016937
1095.789425	-0.016324
1095.950813	-0.016831
1096.112183	-0.019536
1096.273535	-0.020730
1096.434869	-0.019328
1096.596184	-0.021727
1096.757482	-0.021883
1096.918761	-0.019912
1097.080021	-0.017451
1097.241264	-0.016811
1097.402488	-0.015467
1097.563694	-0.015039
1097.724882	-0.015339
1097.886052	-0.017606
1098.047203	-0.019577
1098.208336	-0.021102
1098.369451	-0.021521
1098.530548	-0.020812
1098.691627	-0.022670
1098.852687	-0.022869
1099.013729	-0.021865
1099.174753	-0.020331
1099.335758	-0.016374
1099.496746	-0.014880
1099.657715	-0.015198
1099.818666	-0.014969
1099.979599	-0.013560
1100.140513	-0.013244
1100.301409	-0.012487
1100.462287	-0.010655
1100.623147	-0.012943
1100.783989	-0.016615
1100.944812	-0.017575
1101.105617	-0.015770
1101.266404	-0.015006
1101.427173	-0.015465
1101.587923	-0.013339
1101.748656	-0.013028
1101.909370	-0.013655
1102.070066	-0.010475
1102.230743	-0.009142
1102.391403	-0.007849
1102.552044	-0.007858
1102.712667	-0.008335
1102.873271	-0.012413
1103.033858	-0.013855
1103.194426	-0.015754
1103.354976	-0.014847
1103.515508	-0.016945
1103.676021	-0.013599
1103.836517	-0.014418
1103.996994	-0.011614
1104.157453	-0.012765
1104.317893	-0.011664
1104.478316	-0.008924
1104.638720	-0.006778
1104.799106	-0.007626
1104.959474	-0.008988
1105.119823	-0.012937
1105.280155	-0.013210
1105.440468	-0.014577
1105.600763	-0.015911
1105.761039	-0.014331
1105.921298	-0.013712
1106.081538	-0.018803
1106.241760	-0.018410
1106.401964	-0.018332
1106.562149	-0.017211
1106.722316	-0.017273
1106.882465	-0.016087
1107.042596	-0.012868
1107.202709	-0.015252
1107.362803	-0.017068
1107.522879	-0.012384
1107.682937	-0.014589
1107.842977	-0.014273
1108.002999	-0.016261
1108.163002	-0.016755
1108.322987	-0.017678
1108.482954	-0.018283
1108.642902	-0.018491
1108.802833	-0.020226
1108.962745	-0.023728
1109.122639	-0.025041
1109.282515	-0.025263
1109.442372	-0.023624
1109.602211	-0.025757
1109.762032	-0.030111
1109.921835	-0.030523
1110.081620	-0.028504
1110.241386	-0.028219
1110.401134	-0.022000
1110.560864	-0.023880
1110.720576	-0.023022
1110.880269	-0.022170
1111.039945	-0.018350
1111.199602	-0.015411
1111.359240	-0.015492
1111.518861	-0.015471
1111.678463	-0.011536
1111.838047	-0.017268
1111.997613	-0.011066
1112.157161	-0.012200
1112.316690	-0.010786
1112.476202	-0.008758
1112.635695	-0.006024
1112.795169	-0.006117
1112.954626	-0.005738
1113.114064	-0.008189
1113.273484	-0.008368
1113.432886	-0.010020
1113.592270	-0.006359
1113.751635	-0.008242
1113.910983	-0.013187
1114.070312	-0.015112
1114.229622	-0.015496
1114.388915	-0.016664
1114.548189	-0.015189
1114.707445	-0.015584
1114.866683	-0.015319
1115.025903	-0.014971
1115.185104	-0.015695
1115.344287	-0.012989
1115.503452	-0.010563
1115.662599	-0.009839
1115.821727	-0.011577
1115.980838	-0.015613
1116.139930	-0.013001
1116.299004	-0.015315
1116.458059	-0.015311
1116.617097	-0.016875
1116.776116	-0.016918
1116.935117	-0.019127
1117.094099	-0.021531
1117.253064	-0.018280
1117.412010	-0.020903
1117.570938	-0.020309
1117.729848	-0.016381
1117.888740	-0.017610
1118.047613	-0.015865
1118.206468	-0.016123
1118.365305	-0.016950
1118.524124	-0.011920
1118.682924	-0.012609
1118.841707	-0.009827
1119.000471	-0.011802
1119.159216	-0.014760
1119.317944	-0.015018
1119.476653	-0.017477
1119.635344	-0.014593
1119.794017	-0.010092
1119.952672	-0.011089
1120.111308	-0.013951
1120.269927	-0.014941
1120.428527	-0.016346
1120.587108	-0.015825
1120.745672	-0.013325
1120.904217	-0.008307
1121.062744	-0.012161
1121.221253	-0.017619
1121.379744	-0.020926
1121.538216	-0.021245
1121.696671	-0.020748
1121.855107	-0.018533
1122.013524	-0.017918
1122.171924	-0.018701
1122.330305	-0.021772
1122.488668	-0.023320
1122.647013	-0.023901
1122.805340	-0.022208
1122.963648	-0.017983
1123.121938	-0.015365
1123.280210	-0.014609
1123.438464	-0.016502
1123.596700	-0.019198
1123.754917	-0.015874
1123.913116	-0.010879
1124.071297	-0.009228
1124.229459	-0.011475
1124.387604	-0.010563
1124.545730	-0.007225
1124.703838	-0.006275
1124.861928	-0.002527
1125.019999	-0.002087
1125.178052	-0.005689
1125.336088	-0.006822
1125.494104	-0.007511
1125.652103	-0.009184
1125.810083	-0.007990
1125.968045	-0.013534
1126.125989	-0.015526
1126.283915	-0.018736
1126.441823	-0.018635
1126.599712	-0.016969
1126.757583	-0.018359
1126.915436	-0.018626
1127.073270	-0.013007
1127.231087	-0.015059
1127.388885	-0.014226
1127.546665	-0.011983
1127.704426	-0.011646
1127.862170	-0.013097
1128.019895	-0.014294
1128.177602	-0.012482
1128.335291	-0.011482
1128.492961	-0.019221
1128.650614	-0.019393
1128.808248	-0.016839
1128.965864	-0.015539
1129.123461	-0.020876
1129.281041	-0.023320
1129.438602	-0.020379
1129.596145	-0.023841
1129.753670	-0.020740
1129.911176	-0.012909
1130.068665	-0.014898
1130.226135	-0.013127
1130.383587	-0.017913
1130.541020	-0.014625
1130.698436	-0.009828
1130.855833	-0.014032
1131.013212	-0.013727
1131.170573	-0.017612
1131.327915	-0.018673
1131.485239	-0.020369
1131.642545	-0.023502
1131.799833	-0.018651
1131.957103	-0.019860
1132.114354	-0.021665
1132.271588	-0.016221
1132.428803	-0.013954
1132.585999	-0.016799
1132.743178	-0.015268
1132.900338	-0.009693
1133.057480	-0.011011
1133.214604	-0.015771
1133.371710	-0.010569
1133.528797	-0.010465
1133.685866	-0.013677
1133.842917	-0.015809
1133.999950	-0.008598
1134.156964	-0.006222
1134.313960	-0.007746
1134.470938	-0.008842
1134.627898	-0.007679
1134.784840	-0.007845
1134.941763	-0.004695
1135.098668	-0.005399
1135.255555	-0.006929
1135.412424	-0.011062
1135.569274	-0.018823
1135.726107	-0.019149
1135.882921	-0.014326
1136.039716	-0.017379
1136.196494	-0.014947
1136.353253	-0.015888
1136.509995	-0.016616
1136.666717	-0.012185
1136.823422	-0.014035
1136.980109	-0.007115
1137.136777	-0.006135
1137.293427	-0.009550
1137.450059	-0.008756
1137.606672	-0.013152
1137.763267	-0.016680
1137.919844	-0.014738
1138.076403	-0.018556
1138.232944	-0.014179
1138.389466	-0.017030
1138.545971	-0.022665
1138.702457	-0.023038
1138.858924	-0.022561
1139.015374	-0.023422
1139.171805	-0.018310
1139.328218	-0.020045
1139.484613	-0.013957
1139.640990	-0.014657
1139.797348	-0.018580
1139.953688	-0.009344
1140.110010	-0.010393
1140.266314	-0.008751
1140.422600	-0.010909
1140.578867	-0.014689
1140.735116	-0.015225
1140.891347	-0.017215
1141.047559	-0.017697
1141.203754	-0.015166
1141.359930	-0.023017
1141.516088	-0.021863
1141.672228	-0.021292
1141.828349	-0.015657
1141.984452	-0.011035
1142.140537	-0.009567
1142.296604	-0.008114
1142.452653	-0.006738
1142.608683	-0.007842
1142.764695	-0.006593
1142.920689	-0.006326
1143.076665	-0.006389
1143.232622	-0.008951
1143.388562	-0.012110
1143.544483	-0.009755
1143.700385	-0.006198
1143.856270	-0.007406
1144.012136	-0.004783
1144.167985	-0.002000
1144.323814	-0.002803
1144.479626	-0.002028
1144.635420	-0.001351
1144.791195	-0.002729
1144.946952	-0.001785
1145.102691	-0.008961
1145.258411	-0.010239
1145.414113	-0.014237
1145.569798	-0.012867
1145.725463	-0.008558
1145.881111	-0.010031
1146.036741	-0.012050
1146.192352	-0.006587
1146.347945	-0.012148
1146.503519	-0.008960
1146.659076	-0.010957
1146.814614	-0.006445
1146.970134	-0.011114
1147.125636	-0.014050
1147.281120	-0.012705
1147.436585	-0.008579
1147.592032	-0.011894
1147.747461	-0.003042
1147.902872	-0.007047
1148.058265	-0.003400
1148.213639	0.003782
1148.368995	0.005554
1148.524333	0.012036
1148.679653	0.010074
1148.834954	0.012029
1148.990237	0.005175
1149.145502	-0.000895
1149.300749	-0.002205
1149.455977	-0.001967
1149.611188	-0.007268
1149.766380	-0.009610
1149.921553	-0.016316
1150.076709	-0.012147
1150.231846	-0.014804
1150.386966	-0.010141
1150.542066	-0.013133
1150.697149	-0.010729
1150.852214	-0.012333
1151.007260	-0.011537
1151.162288	-0.012312
1151.317298	-0.009463
1151.472289	-0.010489
1151.627263	-0.006900
1151.782218	-0.009458
1151.937155	-0.009230
1152.092073	-0.014866
1152.246974	-0.022149
1152.401856	-0.029272
1152.556720	-0.025079
1152.711566	-0.023331
1152.866393	-0.028153
1153.021203	-0.026460
1153.175994	-0.022640
1153.330767	-0.013119
1153.485521	-0.004302
1153.640258	0.003053
1153.794976	0.008320
1153.949676	0.003765
1154.104358	-0.003090
1154.259021	0.003044
1154.413667	-0.004930
1154.568294	-0.010861
1154.722903	-0.018209
1154.877493	-0.031415
1155.032066	-0.033270
1155.186620	-0.038084
1155.341156	-0.036759
1155.495674	-0.032889
1155.650173	-0.039638
1155.804654	-0.043378
1155.959118	-0.039184
1156.113562	-0.037397
1156.267989	-0.030943
1156.422397	-0.029650
1156.576788	-0.017964
1156.731160	-0.014124
1156.885513	-0.008695
1157.039849	-0.010008
1157.194166	-0.005150
1157.348465	-0.004949
1157.502746	-0.010974
1157.657009	-0.004097
1157.811253	0.000908
1157.965479	-0.014813
1158.119687	-0.008683
1158.273877	-0.019410
1158.428048	-0.012646
1158.582201	-0.014417
1158.736337	-0.008201
1158.890453	-0.008979
1159.044552	-0.007874
1159.198632	-0.013493
1159.352694	-0.009072
1159.506738	-0.020544
1159.660764	-0.012837
1159.814771	-0.011343
1159.968761	-0.008055
1160.122732	-0.016560
1160.276685	-0.012600
1160.430619	-0.019542
1160.584535	-0.013229
1160.738434	-0.004461
1160.892313	0.004768
1161.046175	-0.008060
1161.200019	-0.015409
1161.353844	-0.017093
1161.507651	-0.010201
1161.661440	-0.005939
1161.815210	-0.001955
1161.968962	-0.005886
1162.122697	-0.018058
1162.276412	-0.021455
1162.430110	-0.008091
1162.583789	0.003706
1162.737451	0.002296
1162.891094	-0.002117
1163.044718	-0.008498
1163.198325	-0.004858
1163.351913	-0.006860
1163.505483	-0.003863
1163.659035	-0.010973
1163.812569	-0.015103
1163.966084	-0.022572
1164.119581	-0.024776
1164.273060	-0.028811
1164.426521	-0.025302
1164.579964	-0.029312
1164.733388	-0.033317
1164.886794	-0.033134
1165.040182	-0.023768
1165.193551	-0.027232
1165.346903	-0.021854
1165.500236	-0.019117
1165.653551	-0.020413
1165.806848	-0.018396
1165.960126	-0.019369
1166.113386	-0.015365
1166.266628	-0.010490
1166.419852	-0.012618
1166.573058	-0.014378
1166.726245	-0.015920
1166.879414	-0.012951
1167.032565	-0.004609
1167.185698	-0.012394
1167.338812	-0.016546
1167.491909	-0.014220
1167.644987	-0.015894
1167.798046	-0.021552
1167.951088	-0.022064
1168.104111	-0.024315
1168.257117	-0.018593
1168.410103	-0.027650
1168.563072	-0.025632
1168.716023	-0.021738
1168.868955	-0.016802
1169.021869	-0.016230
1169.174765	-0.012495
1169.327642	-0.006712
1169.480501	-0.006124
1169.633343	-0.018211
1169.786165	-0.013258
1169.938970	-0.014025
1170.091757	-0.006130
1170.244525	-0.008863
1170.397275	-0.008735
1170.550007	-0.005532
1170.702720	-0.018915
1170.855415	-0.015364
1171.008092	-0.009927
1171.160751	-0.008375
1171.313392	-0.003871
1171.466014	0.025848
1171.618619	-0.009710
1171.771205	-0.009710
1171.923772	-0.009710
