sample name	sample
index	1287
start time	 04-29-2021  02:58:03 PM


Wavelength (nm)	Absorbance
494.344910	0.809905
494.563924	0.809905
494.782919	0.809905
495.001897	0.456586
495.220856	0.176154
495.439797	0.128517
495.658719	0.045521
495.877624	0.045316
496.096510	0.021169
496.315378	0.085071
496.534227	0.155801
496.753059	0.116004
496.971872	0.223176
497.190667	0.054023
497.409444	0.034002
497.628203	0.029682
497.846943	0.026982
498.065665	0.024966
498.284369	0.022308
498.503055	0.022044
498.721723	0.022238
498.940372	0.021195
499.159003	0.019658
499.377616	0.019898
499.596210	0.020775
499.814787	0.021001
500.033345	0.021885
500.251885	0.022624
500.470406	0.022680
500.688910	0.023067
500.907395	0.024003
501.125862	0.025017
501.344311	0.024889
501.562742	0.024590
501.781154	0.023798
501.999548	0.023325
502.217924	0.023537
502.436282	0.023477
502.654621	0.022551
502.872942	0.021271
503.091245	0.021231
503.309530	0.021440
503.527797	0.021065
503.746045	0.021065
503.964275	0.020714
504.182487	0.020501
504.400681	0.020446
504.618856	0.020524
504.837013	0.021684
505.055152	0.021073
505.273273	0.020777
505.491376	0.021240
505.709460	0.021691
505.927526	0.022140
506.145574	0.021289
506.363604	0.021576
506.581615	0.021744
506.799608	0.021039
507.017583	0.021281
507.235540	0.020861
507.453478	0.020513
507.671399	0.020610
507.889301	0.020711
508.107185	0.021741
508.325050	0.021665
508.542898	0.022157
508.760727	0.022812
508.978538	0.023597
509.196330	0.024469
509.414105	0.025075
509.631861	0.024929
509.849599	0.024407
510.067319	0.023029
510.285021	0.022066
510.502704	0.021421
510.720369	0.020802
510.938016	0.020499
511.155645	0.020214
511.373255	0.019168
511.590848	0.019145
511.808422	0.019050
512.025977	0.020207
512.243515	0.020314
512.461034	0.020802
512.678536	0.020836
512.896018	0.020180
513.113483	0.019915
513.330930	0.020746
513.548358	0.020563
513.765768	0.021302
513.983160	0.021316
514.200533	0.021949
514.417889	0.022237
514.635226	0.021776
514.852545	0.022079
515.069845	0.022580
515.287128	0.022156
515.504392	0.022329
515.721638	0.022519
515.938866	0.022284
516.156075	0.022940
516.373267	0.022512
516.590440	0.023627
516.807594	0.024127
517.024731	0.024487
517.241850	0.025127
517.458950	0.024989
517.676032	0.024091
517.893095	0.023930
518.110141	0.023912
518.327168	0.023911
518.544177	0.023716
518.761168	0.023590
518.978141	0.023629
519.195095	0.023818
519.412031	0.025126
519.628949	0.025729
519.845849	0.026235
520.062731	0.025991
520.279594	0.026185
520.496439	0.026454
520.713266	0.027127
520.930074	0.026862
521.146865	0.026852
521.363637	0.025456
521.580391	0.025801
521.797127	0.025455
522.013844	0.025123
522.230543	0.024936
522.447224	0.025693
522.663887	0.024708
522.880532	0.024657
523.097158	0.024721
523.313766	0.025576
523.530356	0.025109
523.746928	0.025419
523.963481	0.025985
524.180017	0.026660
524.396534	0.026257
524.613032	0.027125
524.829513	0.027905
525.045975	0.027887
525.262420	0.028255
525.478845	0.028487
525.695253	0.028812
525.911643	0.028806
526.128014	0.029256
526.344367	0.028872
526.560702	0.028611
526.777018	0.028497
526.993316	0.028935
527.209597	0.028620
527.425858	0.028749
527.642102	0.028973
527.858328	0.029551
528.074535	0.028767
528.290724	0.029320
528.506894	0.029248
528.723047	0.029401
528.939181	0.029349
529.155297	0.029457
529.371395	0.029906
529.587475	0.030097
529.803536	0.029123
530.019579	0.029702
530.235604	0.029637
530.451611	0.030310
530.667600	0.030044
530.883570	0.030256
531.099522	0.030368
531.315456	0.030661
531.531372	0.030606
531.747269	0.031183
531.963148	0.031433
532.179009	0.031884
532.394852	0.031453
532.610676	0.031935
532.826482	0.032222
533.042271	0.033149
533.258040	0.032881
533.473792	0.032704
533.689525	0.033037
533.905240	0.033226
534.120937	0.033130
534.336616	0.034121
534.552277	0.034101
534.767919	0.034227
534.983543	0.033983
535.199149	0.034267
535.414736	0.034334
535.630306	0.034099
535.845857	0.034134
536.061390	0.034417
536.276904	0.033695
536.492401	0.033591
536.707879	0.033242
536.923339	0.033342
537.138781	0.033429
537.354204	0.033864
537.569610	0.034705
537.784997	0.034923
538.000366	0.034924
538.215716	0.035331
538.431049	0.035400
538.646363	0.035594
538.861659	0.035142
539.076937	0.035183
539.292196	0.035137
539.507438	0.034897
539.722661	0.034716
539.937866	0.034565
540.153052	0.034471
540.368221	0.034893
540.583371	0.034892
540.798503	0.035617
541.013617	0.035817
541.228712	0.035761
541.443789	0.035118
541.658848	0.035236
541.873889	0.035312
542.088912	0.035299
542.303916	0.035612
542.518902	0.035998
542.733870	0.035599
542.948820	0.035219
543.163752	0.035558
543.378665	0.036192
543.593560	0.036073
543.808437	0.036118
544.023295	0.036561
544.238136	0.036347
544.452958	0.036327
544.667762	0.036705
544.882548	0.037418
545.097315	0.037720
545.312064	0.037873
545.526795	0.038115
545.741508	0.038376
545.956203	0.038227
546.170879	0.038403
546.385537	0.038629
546.600177	0.038860
546.814799	0.039034
547.029402	0.038650
547.243988	0.039038
547.458555	0.039430
547.673103	0.039883
547.887634	0.040002
548.102146	0.040104
548.316640	0.039776
548.531116	0.039515
548.745574	0.039229
548.960013	0.039693
549.174435	0.039173
549.388838	0.038860
549.603222	0.038358
549.817589	0.038532
550.031937	0.038255
550.246267	0.038741
550.460579	0.038884
550.674873	0.038973
550.889148	0.038743
551.103405	0.039474
551.317644	0.039586
551.531865	0.039952
551.746068	0.039949
551.960252	0.040306
552.174418	0.039987
552.388566	0.040005
552.602696	0.039940
552.816807	0.040082
553.030900	0.040089
553.244975	0.040118
553.459032	0.040025
553.673070	0.039888
553.887091	0.039928
554.101093	0.040158
554.315077	0.039941
554.529042	0.039954
554.742990	0.039942
554.956919	0.039685
555.170830	0.039857
555.384722	0.039333
555.598597	0.039255
555.812453	0.039077
556.026291	0.038923
556.240111	0.039212
556.453913	0.039538
556.667696	0.039394
556.881461	0.039026
557.095208	0.038919
557.308937	0.039582
557.522647	0.040098
557.736339	0.040196
557.950013	0.040165
558.163669	0.040183
558.377307	0.040098
558.590926	0.040512
558.804527	0.041064
559.018110	0.041351
559.231675	0.041517
559.445221	0.041289
559.658749	0.041350
559.872259	0.041326
560.085751	0.041066
560.299225	0.040951
560.512680	0.040809
560.726117	0.040844
560.939536	0.040381
561.152937	0.040296
561.366319	0.040013
561.579683	0.040080
561.793029	0.040224
562.006357	0.040620
562.219667	0.040765
562.432958	0.040635
562.646231	0.040296
562.859486	0.040608
563.072723	0.040626
563.285941	0.041050
563.499141	0.040861
563.712323	0.041007
563.925487	0.040845
564.138632	0.040733
564.351760	0.040904
564.564869	0.041022
564.777960	0.040986
564.991032	0.040783
565.204087	0.040748
565.417123	0.040976
565.630141	0.040893
565.843140	0.041028
566.056122	0.041208
566.269085	0.040753
566.482030	0.040763
566.694957	0.040972
566.907866	0.040711
567.120756	0.040678
567.333628	0.040575
567.546482	0.040515
567.759318	0.040644
567.972135	0.040682
568.184935	0.040973
568.397716	0.040902
568.610478	0.040929
568.823223	0.041106
569.035949	0.041494
569.248657	0.041491
569.461347	0.041494
569.674019	0.041290
569.886672	0.041275
570.099308	0.041280
570.311925	0.041279
570.524523	0.041374
570.737104	0.041589
570.949666	0.041339
571.162210	0.041355
571.374736	0.041157
571.587244	0.041104
571.799733	0.041205
572.012205	0.041332
572.224658	0.041537
572.437092	0.041401
572.649509	0.041176
572.861907	0.041117
573.074287	0.041085
573.286649	0.041225
573.498993	0.041357
573.711318	0.041277
573.923625	0.041035
574.135914	0.040698
574.348185	0.040268
574.560438	0.040193
574.772672	0.040071
574.984888	0.040260
575.197086	0.040847
575.409266	0.040713
575.621427	0.040699
575.833570	0.040835
576.045695	0.041234
576.257802	0.041800
576.469890	0.042035
576.681961	0.042053
576.894013	0.042182
577.106046	0.041969
577.318062	0.042210
577.530059	0.042300
577.742039	0.042347
577.954000	0.041973
578.165942	0.041498
578.377867	0.041745
578.589773	0.041945
578.801661	0.041703
579.013531	0.041637
579.225382	0.041747
579.437216	0.041575
579.649031	0.041588
579.860828	0.041853
580.072606	0.042199
580.284367	0.041996
580.496109	0.042030
580.707833	0.041927
580.919539	0.041708
581.131227	0.041778
581.342896	0.041874
581.554547	0.042020
581.766180	0.042060
581.977795	0.041963
582.189391	0.041661
582.400969	0.041567
582.612529	0.041758
582.824071	0.042116
583.035595	0.042053
583.247100	0.041947
583.458587	0.041752
583.670056	0.041714
583.881506	0.042000
584.092939	0.042386
584.304353	0.042360
584.515749	0.042394
584.727127	0.042172
584.938486	0.042111
585.149828	0.042088
585.361151	0.042382
585.572456	0.042214
585.783742	0.041990
585.995011	0.042022
586.206261	0.042027
586.417493	0.042247
586.628706	0.042406
586.839902	0.042602
587.051079	0.042930
587.262238	0.043107
587.473379	0.043435
587.684502	0.043383
587.895606	0.043419
588.106692	0.043788
588.317760	0.043712
588.528810	0.043772
588.739841	0.043968
588.950855	0.044368
589.161850	0.044301
589.372827	0.044203
589.583785	0.044626
589.794726	0.045019
590.005648	0.044944
590.216552	0.045206
590.427437	0.045305
590.638305	0.045106
590.849154	0.045193
591.059985	0.045402
591.270798	0.045783
591.481592	0.045628
591.692369	0.045802
591.903127	0.046057
592.113867	0.046036
592.324588	0.046129
592.535292	0.046087
592.745977	0.045746
592.956644	0.045949
593.167293	0.045846
593.377923	0.045849
593.588536	0.045683
593.799130	0.045647
594.009706	0.045608
594.220263	0.045732
594.430803	0.045757
594.641324	0.045928
594.851827	0.045785
595.062312	0.045712
595.272778	0.046002
595.483227	0.045903
595.693657	0.045832
595.904069	0.046087
596.114462	0.045948
596.324838	0.046293
596.535195	0.046260
596.745534	0.046440
596.955855	0.046730
597.166157	0.046526
597.376441	0.046970
597.586707	0.046674
597.796955	0.046566
598.007185	0.046856
598.217396	0.046510
598.427589	0.046140
598.637764	0.046155
598.847921	0.046086
599.058060	0.046519
599.268180	0.046108
599.478282	0.046487
599.688366	0.046181
599.898431	0.046045
600.108479	0.046038
600.318508	0.046280
600.528519	0.046327
600.738511	0.046700
600.948486	0.046554
601.158442	0.046752
601.368380	0.046892
601.578300	0.047250
601.788202	0.047252
601.998085	0.047370
602.207950	0.047475
602.417797	0.047230
602.627626	0.046865
602.837436	0.046953
603.047228	0.046953
603.257002	0.046969
603.466758	0.046979
603.676496	0.046928
603.886215	0.047088
604.095916	0.047258
604.305599	0.047429
604.515264	0.047439
604.724910	0.047284
604.934538	0.047383
605.144148	0.047309
605.353740	0.047487
605.563314	0.047582
605.772869	0.047783
605.982406	0.047847
606.191925	0.047802
606.401425	0.048061
606.610908	0.048433
606.820372	0.048430
607.029818	0.048535
607.239246	0.048562
607.448655	0.048870
607.658047	0.048946
607.867420	0.049019
608.076775	0.049428
608.286111	0.049670
608.495430	0.049654
608.704730	0.049846
608.914012	0.050170
609.123275	0.050464
609.332521	0.050465
609.541748	0.050420
609.750957	0.050483
609.960148	0.050442
610.169321	0.050480
610.378475	0.050488
610.587611	0.050473
610.796729	0.050457
611.005829	0.050169
611.214910	0.050195
611.423974	0.050189
611.633019	0.050605
611.842045	0.050482
612.051054	0.050274
612.260044	0.050217
612.469017	0.050165
612.677970	0.050220
612.886906	0.050111
613.095824	0.050002
613.304723	0.050077
613.513604	0.049704
613.722467	0.049977
613.931311	0.050179
614.140138	0.050210
614.348946	0.050397
614.557736	0.050184
614.766507	0.050649
614.975261	0.050872
615.183996	0.050905
615.392713	0.050887
615.601412	0.050871
615.810092	0.050780
616.018754	0.050908
616.227399	0.050861
616.436024	0.051009
616.644632	0.051010
616.853222	0.051082
617.061793	0.051380
617.270346	0.051316
617.478880	0.051231
617.687397	0.051129
617.895895	0.051229
618.104375	0.050957
618.312837	0.050844
618.521281	0.050516
618.729706	0.050482
618.938113	0.050179
619.146502	0.050299
619.354873	0.050371
619.563226	0.050656
619.771560	0.050494
619.979876	0.050583
620.188174	0.050610
620.396453	0.050660
620.604715	0.050506
620.812958	0.050628
621.021183	0.050806
621.229390	0.050906
621.437578	0.050818
621.645748	0.051077
621.853900	0.051286
622.062034	0.051399
622.270150	0.051567
622.478247	0.051776
622.686326	0.052135
622.894387	0.052080
623.102430	0.051839
623.310454	0.051992
623.518461	0.051984
623.726449	0.051999
623.934418	0.052010
624.142370	0.051965
624.350303	0.051999
624.558218	0.051834
624.766115	0.052055
624.973994	0.052465
625.181855	0.052657
625.389697	0.052554
625.597521	0.052775
625.805327	0.052969
626.013114	0.053314
626.220883	0.053579
626.428634	0.053515
626.636367	0.053441
626.844082	0.053248
627.051778	0.053149
627.259457	0.053434
627.467117	0.053273
627.674758	0.053167
627.882382	0.053168
628.089987	0.053154
628.297574	0.053186
628.505143	0.053227
628.712694	0.053419
628.920226	0.053285
629.127740	0.053241
629.335236	0.053520
629.542714	0.053688
629.750174	0.053632
629.957615	0.053644
630.165038	0.053686
630.372443	0.053865
630.579829	0.054034
630.787198	0.054123
630.994548	0.054025
631.201880	0.054091
631.409194	0.054153
631.616489	0.054086
631.823766	0.053869
632.031025	0.054149
632.238266	0.054017
632.445489	0.054000
632.652693	0.053969
632.859879	0.054021
633.067047	0.053886
633.274197	0.053657
633.481329	0.053713
633.688442	0.053798
633.895537	0.053799
634.102614	0.053963
634.309672	0.053945
634.516713	0.053879
634.723735	0.053800
634.930739	0.053929
635.137724	0.054156
635.344692	0.054265
635.551641	0.054458
635.758572	0.054401
635.965485	0.054537
636.172379	0.054524
636.379256	0.054737
636.586114	0.055019
636.792954	0.055122
636.999775	0.055082
637.206579	0.055051
637.413364	0.055048
637.620131	0.055024
637.826880	0.055097
638.033610	0.055155
638.240323	0.055264
638.447017	0.055292
638.653692	0.055264
638.860350	0.055366
639.066990	0.055445
639.273611	0.055458
639.480214	0.055335
639.686798	0.055013
639.893365	0.054989
640.099913	0.054873
640.306443	0.055099
640.512955	0.055318
640.719449	0.055467
640.925924	0.055588
641.132381	0.055727
641.338820	0.056093
641.545241	0.056271
641.751644	0.056499
641.958028	0.056835
642.164394	0.056646
642.370742	0.056581
642.577071	0.056652
642.783383	0.056826
642.989676	0.056994
643.195951	0.057017
643.402207	0.057355
643.608446	0.057384
643.814666	0.057276
644.020868	0.057501
644.227052	0.057404
644.433218	0.057567
644.639365	0.057477
644.845494	0.057393
645.051605	0.057344
645.257698	0.057329
645.463772	0.057137
645.669828	0.057222
645.875866	0.057026
646.081886	0.057166
646.287888	0.056908
646.493871	0.057072
646.699836	0.056963
646.905783	0.057025
647.111712	0.056787
647.317622	0.056882
647.523514	0.056936
647.729388	0.057018
647.935244	0.057123
648.141082	0.057297
648.346901	0.057053
648.552702	0.057161
648.758485	0.057374
648.964250	0.057424
649.169996	0.057651
649.375724	0.057691
649.581434	0.057674
649.787126	0.057775
649.992800	0.057918
650.198455	0.058297
650.404092	0.058277
650.609711	0.058423
650.815311	0.058735
651.020894	0.058698
651.226458	0.058774
651.432004	0.058972
651.637532	0.059064
651.843041	0.059066
652.048532	0.059077
652.254006	0.059362
652.459460	0.059335
652.664897	0.059281
652.870315	0.059604
653.075716	0.059856
653.281097	0.060045
653.486461	0.060062
653.691807	0.060143
653.897134	0.060266
654.102443	0.060243
654.307734	0.060248
654.513006	0.060402
654.718261	0.060377
654.923497	0.060455
655.128715	0.060390
655.333915	0.060379
655.539096	0.060314
655.744259	0.060203
655.949404	0.060160
656.154531	0.060068
656.359640	0.060065
656.564730	0.059926
656.769802	0.059867
656.974856	0.059914
657.179892	0.060056
657.384909	0.060121
657.589908	0.060173
657.794889	0.060498
657.999852	0.060585
658.204797	0.060656
658.409723	0.060835
658.614631	0.060808
658.819521	0.060959
659.024393	0.060979
659.229246	0.061315
659.434081	0.061405
659.638898	0.061276
659.843697	0.061462
660.048478	0.061597
660.253240	0.061760
660.457984	0.061912
660.662710	0.061954
660.867417	0.061946
661.072107	0.061945
661.276778	0.062173
661.481431	0.062381
661.686066	0.062407
661.890682	0.062226
662.095281	0.062215
662.299861	0.062140
662.504422	0.062224
662.708966	0.062246
662.913491	0.062241
663.117999	0.062191
663.322488	0.062228
663.526958	0.062259
663.731411	0.062430
663.935845	0.062540
664.140261	0.062814
664.344659	0.062982
664.549038	0.063112
664.753400	0.063064
664.957743	0.063066
665.162068	0.063038
665.366375	0.063192
665.570663	0.063500
665.774933	0.063634
665.979185	0.063717
666.183419	0.063692
666.387635	0.063946
666.591832	0.064227
666.796011	0.064408
667.000172	0.064577
667.204315	0.064600
667.408439	0.064540
667.612545	0.064455
667.816634	0.064556
668.020703	0.064660
668.224755	0.064687
668.428788	0.064721
668.632803	0.064809
668.836800	0.064708
669.040779	0.064820
669.244739	0.065065
669.448681	0.065117
669.652605	0.065077
669.856511	0.065004
670.060399	0.065033
670.264268	0.065081
670.468119	0.065098
670.671952	0.065313
670.875767	0.065331
671.079563	0.065177
671.283341	0.065252
671.487101	0.065417
671.690843	0.065584
671.894567	0.065671
672.098272	0.065753
672.301959	0.065877
672.505628	0.065838
672.709278	0.066006
672.912911	0.066164
673.116525	0.066273
673.320121	0.066264
673.523699	0.066287
673.727258	0.066467
673.930799	0.066463
674.134322	0.066547
674.337827	0.067010
674.541314	0.067141
674.744782	0.067296
674.948232	0.067264
675.151664	0.067384
675.355078	0.067579
675.558474	0.067709
675.761851	0.067898
675.965210	0.067823
676.168551	0.067508
676.371873	0.067469
676.575178	0.067480
676.778464	0.067616
676.981732	0.067591
677.184981	0.067584
677.388213	0.067414
677.591426	0.067414
677.794621	0.067650
677.997798	0.067849
678.200956	0.067972
678.404097	0.067963
678.607219	0.068089
678.810323	0.068255
679.013408	0.068382
679.216476	0.068626
679.419525	0.068634
679.622556	0.068808
679.825569	0.069018
680.028563	0.069035
680.231540	0.069239
680.434498	0.069347
680.637438	0.069553
680.840359	0.069553
681.043263	0.069680
681.246148	0.069897
681.449015	0.070068
681.651864	0.069969
681.854694	0.070264
682.057506	0.070366
682.260301	0.070443
682.463076	0.070352
682.665834	0.070637
682.868573	0.070573
683.071295	0.070679
683.273998	0.070546
683.476682	0.070579
683.679349	0.070627
683.881997	0.070581
684.084627	0.070670
684.287239	0.070720
684.489833	0.070798
684.692408	0.070950
684.894965	0.071158
685.097504	0.071182
685.300025	0.071477
685.502527	0.071508
685.705012	0.071710
685.907478	0.071672
686.109925	0.071826
686.312355	0.071780
686.514766	0.071819
686.717159	0.071794
686.919534	0.071910
687.121891	0.071824
687.324230	0.071811
687.526550	0.071747
687.728852	0.071657
687.931136	0.071540
688.133401	0.071512
688.335649	0.071442
688.537878	0.071205
688.740089	0.071279
688.942281	0.071281
689.144456	0.071195
689.346612	0.071062
689.548750	0.071143
689.750870	0.071247
689.952971	0.071151
690.155055	0.071289
690.357120	0.071334
690.559167	0.071100
690.761195	0.071098
690.963206	0.071228
691.165198	0.071337
691.367172	0.071354
691.569128	0.071467
691.771065	0.071617
691.972984	0.071470
692.174885	0.071660
692.376768	0.071841
692.578633	0.071894
692.780479	0.071711
692.982308	0.071729
693.184118	0.071801
693.385909	0.071695
693.587683	0.071787
693.789438	0.071850
693.991175	0.071966
694.192894	0.072031
694.394595	0.072329
694.596277	0.072517
694.797941	0.072705
694.999587	0.072927
695.201215	0.073095
695.402824	0.073343
695.604416	0.073485
695.805989	0.073570
696.007543	0.073790
696.209080	0.073656
696.410598	0.073861
696.612099	0.074081
696.813580	0.074144
697.015044	0.074247
697.216490	0.074075
697.417917	0.074085
697.619326	0.074200
697.820717	0.074206
698.022089	0.074263
698.223444	0.074244
698.424780	0.073936
698.626098	0.073939
698.827397	0.073865
699.028679	0.073966
699.229942	0.074000
699.431187	0.073997
699.632414	0.073999
699.833622	0.074129
700.034813	0.074176
700.235985	0.074189
700.437139	0.074336
700.638274	0.074547
700.839392	0.074643
701.040491	0.074726
701.241572	0.074603
701.442635	0.074514
701.643679	0.074499
701.844706	0.074475
702.045714	0.074632
702.246704	0.074619
702.447675	0.074649
702.648629	0.074624
702.849564	0.074601
703.050481	0.074609
703.251380	0.074774
703.452260	0.074934
703.653122	0.074998
703.853966	0.075057
704.054792	0.075197
704.255600	0.075089
704.456389	0.075220
704.657160	0.075558
704.857913	0.075666
705.058648	0.075767
705.259365	0.075633
705.460063	0.075774
705.660743	0.075866
705.861405	0.075789
706.062048	0.075820
706.262674	0.075725
706.463281	0.075491
706.663870	0.075465
706.864441	0.075155
707.064993	0.075009
707.265527	0.074783
707.466043	0.074834
707.666541	0.074749
707.867021	0.074874
708.067482	0.074910
708.267925	0.075064
708.468350	0.075140
708.668757	0.075509
708.869145	0.075840
709.069516	0.076127
709.269868	0.075961
709.470201	0.075933
709.670517	0.075983
709.870814	0.076024
710.071093	0.075972
710.271354	0.075940
710.471597	0.075814
710.671821	0.075716
710.872028	0.075505
711.072216	0.075679
711.272385	0.075754
711.472537	0.075618
711.672670	0.075812
711.872785	0.075749
712.072882	0.075634
712.272961	0.075721
712.473021	0.075751
712.673063	0.075916
712.873087	0.075763
713.073093	0.075898
713.273081	0.075835
713.473050	0.075469
713.673001	0.075478
713.872934	0.075799
714.072849	0.075626
714.272745	0.075280
714.472623	0.075120
714.672483	0.075099
714.872325	0.075067
715.072148	0.075192
715.271954	0.075299
715.471741	0.075298
715.671509	0.075063
715.871260	0.075010
716.070992	0.075180
716.270707	0.075132
716.470403	0.075104
716.670080	0.074988
716.869740	0.074819
717.069381	0.074739
717.269004	0.074646
717.468609	0.074497
717.668195	0.074495
717.867764	0.074357
718.067314	0.074264
718.266846	0.074254
718.466360	0.074077
718.665855	0.074056
718.865332	0.073927
719.064791	0.073848
719.264232	0.073919
719.463655	0.073784
719.663059	0.073819
719.862445	0.073700
720.061813	0.073524
720.261163	0.073308
720.460494	0.073175
720.659807	0.073083
720.859102	0.073034
721.058379	0.072777
721.257638	0.072709
721.456878	0.072558
721.656100	0.072628
721.855304	0.072614
722.054490	0.072647
722.253657	0.072591
722.452806	0.072754
722.651937	0.072534
722.851050	0.072649
723.050145	0.072842
723.249221	0.072813
723.448279	0.073049
723.647319	0.073133
723.846340	0.073267
724.045344	0.073146
724.244329	0.072784
724.443296	0.072634
724.642245	0.072487
724.841175	0.072139
725.040088	0.072235
725.238982	0.071812
725.437857	0.071552
725.636715	0.071291
725.835554	0.071263
726.034376	0.071289
726.233179	0.071381
726.431963	0.071290
726.630730	0.071263
726.829478	0.071094
727.028208	0.070937
727.226920	0.071066
727.425614	0.071199
727.624289	0.071214
727.822946	0.071146
728.021585	0.070977
728.220206	0.070668
728.418808	0.070619
728.617392	0.070655
728.815958	0.070671
729.014506	0.070150
729.213036	0.069975
729.411547	0.069966
729.610040	0.069968
729.808515	0.070188
730.006972	0.070269
730.205410	0.070287
730.403831	0.070174
730.602233	0.070246
730.800616	0.070495
730.998982	0.070356
731.197329	0.070411
731.395658	0.070308
731.593969	0.070285
731.792262	0.070375
731.990536	0.070300
732.188793	0.070503
732.387031	0.070475
732.585250	0.070700
732.783452	0.071014
732.981635	0.071047
733.179800	0.071083
733.377947	0.071077
733.576076	0.071296
733.774186	0.071453
733.972278	0.071210
734.170352	0.071089
734.368408	0.071078
734.566446	0.070857
734.764465	0.070763
734.962466	0.070993
735.160449	0.071051
735.358413	0.071039
735.556360	0.070858
735.754288	0.070872
735.952198	0.070946
736.150090	0.070820
736.347963	0.070793
736.545818	0.070582
736.743655	0.070245
736.941474	0.069750
737.139275	0.069545
737.337057	0.069430
737.534821	0.069083
737.732567	0.068845
737.930295	0.068672
738.128005	0.068534
738.325696	0.068530
738.523369	0.068369
738.721024	0.068459
738.918660	0.068363
739.116279	0.068259
739.313879	0.068289
739.511461	0.068132
739.709024	0.068041
739.906570	0.067981
740.104097	0.067794
740.301606	0.068041
740.499097	0.068076
740.696569	0.067681
740.894024	0.067784
741.091460	0.067872
741.288878	0.068128
741.486277	0.067983
741.683659	0.067919
741.881022	0.067970
742.078367	0.067723
742.275694	0.067559
742.473002	0.067958
742.670293	0.067853
742.867565	0.067675
743.064819	0.067627
743.262054	0.067873
743.459272	0.067748
743.656471	0.067599
743.853652	0.067492
744.050815	0.067616
744.247959	0.067497
744.445085	0.067484
744.642194	0.067476
744.839283	0.067300
745.036355	0.067410
745.233408	0.067366
745.430444	0.067564
745.627461	0.067784
745.824459	0.067859
746.021440	0.067850
746.218402	0.067651
746.415346	0.067762
746.612272	0.067884
746.809180	0.067458
747.006069	0.067497
747.202940	0.067224
747.399793	0.066800
747.596628	0.066628
747.793444	0.066526
747.990243	0.066583
748.187023	0.066382
748.383784	0.066298
748.580528	0.066415
748.777253	0.066356
748.973960	0.066251
749.170649	0.066592
749.367320	0.066399
749.563973	0.066352
749.760607	0.066259
749.957223	0.066389
750.153821	0.066333
750.350400	0.066280
750.546962	0.066418
750.743505	0.066433
750.940030	0.066401
751.136536	0.066801
751.333025	0.066820
751.529495	0.066755
751.725947	0.066641
751.922381	0.066464
752.118796	0.066306
752.315194	0.065967
752.511573	0.065850
752.707934	0.065666
752.904276	0.065162
753.100601	0.065015
753.296907	0.065067
753.493195	0.065188
753.689465	0.065246
753.885716	0.065326
754.081949	0.065470
754.278164	0.065617
754.474361	0.065435
754.670540	0.065499
754.866700	0.065552
755.062843	0.065418
755.258967	0.065116
755.455072	0.065048
755.651160	0.065144
755.847229	0.064920
756.043280	0.064720
756.239313	0.064844
756.435328	0.064822
756.631324	0.064783
756.827302	0.064866
757.023262	0.064842
757.219204	0.064695
757.415127	0.064539
757.611033	0.064708
757.806920	0.064756
758.002788	0.064785
758.198639	0.064745
758.394471	0.064676
758.590286	0.064620
758.786081	0.064560
758.981859	0.064564
759.177619	0.064297
759.373360	0.064472
759.569083	0.064345
759.764788	0.064169
759.960474	0.064111
760.156143	0.063692
760.351793	0.063681
760.547425	0.063543
760.743038	0.063385
760.938634	0.063313
761.134211	0.062984
761.329770	0.063140
761.525311	0.062950
761.720833	0.062911
761.916338	0.063304
762.111824	0.063123
762.307292	0.063227
762.502741	0.063202
762.698173	0.063268
762.893586	0.063423
763.088981	0.063325
763.284358	0.063423
763.479716	0.063512
763.675057	0.063573
763.870379	0.063519
764.065683	0.063489
764.260968	0.063511
764.456236	0.063491
764.651485	0.063143
764.846716	0.063078
765.041929	0.063133
765.237123	0.062875
765.432299	0.062575
765.627457	0.062603
765.822597	0.062556
766.017719	0.062337
766.212822	0.062353
766.407907	0.062253
766.602974	0.062116
766.798023	0.061976
766.993054	0.061788
767.188066	0.061731
767.383060	0.061672
767.578036	0.061533
767.772993	0.061907
767.967933	0.061649
768.162854	0.061815
768.357757	0.061981
768.552642	0.062052
768.747508	0.062353
768.942356	0.062360
769.137186	0.062513
769.331998	0.062561
769.526792	0.062529
769.721567	0.062898
769.916324	0.062756
770.111063	0.062593
770.305784	0.062582
770.500486	0.062581
770.695171	0.062569
770.889837	0.062385
771.084484	0.062369
771.279114	0.062234
771.473725	0.062070
771.668318	0.062325
771.862893	0.062506
772.057450	0.062384
772.251988	0.062319
772.446509	0.062336
772.641011	0.062450
772.835494	0.062362
773.029960	0.062292
773.224407	0.062343
773.418836	0.062305
773.613247	0.062130
773.807640	0.062095
774.002014	0.062053
774.196370	0.062086
774.390708	0.062078
774.585028	0.062392
774.779330	0.062450
774.973613	0.062358
775.167878	0.062245
775.362125	0.062250
775.556354	0.062382
775.750564	0.062353
775.944756	0.062319
776.138930	0.062281
776.333086	0.062145
776.527223	0.062153
776.721343	0.062065
776.915444	0.062191
777.109526	0.062046
777.303591	0.061822
777.497637	0.062048
777.691666	0.062139
777.885676	0.062221
778.079667	0.062338
778.273641	0.062528
778.467596	0.062692
778.661533	0.062588
778.855452	0.062773
779.049352	0.062875
779.243235	0.062671
779.437099	0.062827
779.630945	0.062690
779.824773	0.062638
780.018582	0.062561
780.212373	0.062427
780.406146	0.062466
780.599901	0.062512
780.793638	0.062531
780.987356	0.062749
781.181056	0.062720
781.374738	0.062995
781.568402	0.062864
781.762047	0.062770
781.955674	0.062693
782.149283	0.062593
782.342874	0.062320
782.536447	0.062326
782.730001	0.062083
782.923537	0.061974
783.117055	0.061747
783.310555	0.061705
783.504036	0.061598
783.697499	0.061754
783.890944	0.061683
784.084371	0.062003
784.277780	0.062024
784.471170	0.062015
784.664542	0.062052
784.857896	0.062066
785.051231	0.062056
785.244549	0.062161
785.437848	0.062054
785.631129	0.062325
785.824392	0.062141
786.017636	0.062208
786.210863	0.062155
786.404071	0.062151
786.597260	0.062355
786.790432	0.062662
786.983585	0.062799
787.176721	0.062899
787.369838	0.062907
787.562936	0.063218
787.756017	0.063206
787.949079	0.063608
788.142123	0.063565
788.335149	0.063585
788.528156	0.063467
788.721146	0.063537
788.914117	0.063890
789.107070	0.063840
789.300005	0.063595
789.492921	0.063758
789.685819	0.063560
789.878699	0.063647
790.071561	0.063697
790.264405	0.063707
790.457230	0.063508
790.650037	0.063367
790.842826	0.063457
791.035597	0.063642
791.228349	0.063666
791.421084	0.063738
791.613800	0.063735
791.806497	0.063485
791.999177	0.063525
792.191838	0.063549
792.384481	0.063735
792.577106	0.063698
792.769713	0.063599
792.962301	0.063467
793.154871	0.063130
793.347423	0.063195
793.539957	0.063213
793.732473	0.063014
793.924970	0.062992
794.117449	0.062618
794.309910	0.062516
794.502353	0.062762
794.694777	0.062913
794.887183	0.063191
795.079571	0.063169
795.271941	0.063322
795.464293	0.063662
795.656626	0.063947
795.848941	0.064170
796.041238	0.064356
796.233516	0.064241
796.425777	0.064232
796.618019	0.064576
796.810243	0.064453
797.002449	0.064380
797.194636	0.064285
797.386805	0.064286
797.578956	0.064387
797.771089	0.064321
797.963204	0.064331
798.155300	0.064336
798.347378	0.063928
798.539438	0.064055
798.731480	0.064211
798.923503	0.064276
799.115509	0.064328
799.307496	0.064285
799.499465	0.064506
799.691415	0.064688
799.883348	0.064738
800.075262	0.065004
800.267158	0.065258
800.459035	0.065203
800.650895	0.065369
800.842736	0.065327
801.034559	0.065311
801.226364	0.065247
801.418150	0.065108
801.609919	0.065143
801.801669	0.065036
801.993401	0.065129
802.185114	0.065241
802.376810	0.065321
802.568487	0.065259
802.760146	0.065390
802.951787	0.065164
803.143409	0.065348
803.335014	0.065313
803.526600	0.065331
803.718168	0.065303
803.909717	0.065233
804.101249	0.064899
804.292762	0.065043
804.484257	0.064963
804.675734	0.065075
804.867192	0.064952
805.058632	0.065051
805.250054	0.065295
805.441458	0.064854
805.632844	0.065050
805.824211	0.065138
806.015561	0.065128
806.206891	0.065269
806.398204	0.065530
806.589499	0.065799
806.780775	0.065930
806.972033	0.065979
807.163273	0.066281
807.354495	0.066406
807.545698	0.066489
807.736883	0.066626
807.928050	0.066812
808.119199	0.066885
808.310329	0.066704
808.501441	0.066774
808.692535	0.066792
808.883611	0.066804
809.074669	0.066873
809.265708	0.067018
809.456729	0.066819
809.647732	0.066698
809.838717	0.066744
810.029683	0.066743
810.220632	0.066523
810.411562	0.066484
810.602474	0.066639
810.793367	0.066383
810.984242	0.066581
811.175100	0.066825
811.365938	0.067012
811.556759	0.067077
811.747562	0.067525
811.938346	0.067776
812.129112	0.068023
812.319860	0.068278
812.510589	0.068680
812.701300	0.068643
812.891994	0.068739
813.082668	0.068775
813.273325	0.068894
813.463964	0.068792
813.654584	0.069061
813.845186	0.069172
814.035769	0.069257
814.226335	0.069258
814.416882	0.069560
814.607411	0.069613
814.797922	0.069539
814.988415	0.069696
815.178889	0.069820
815.369345	0.069913
815.559783	0.069730
815.750203	0.069764
815.940605	0.069702
816.130988	0.069729
816.321353	0.069819
816.511700	0.070119
816.702028	0.070162
816.892339	0.070112
817.082631	0.070008
817.272905	0.070198
817.463161	0.070164
817.653398	0.070382
817.843617	0.070275
818.033819	0.070402
818.224001	0.070302
818.414166	0.070200
818.604312	0.070233
818.794440	0.070492
818.984550	0.070602
819.174642	0.070820
819.364716	0.071036
819.554771	0.071288
819.744808	0.071273
819.934827	0.071397
820.124827	0.071638
820.314810	0.071889
820.504774	0.071770
820.694720	0.071955
820.884647	0.071845
821.074557	0.071797
821.264448	0.071711
821.454321	0.071874
821.644176	0.072135
821.834012	0.072091
822.023831	0.072302
822.213631	0.072429
822.403413	0.072522
822.593176	0.072661
822.782922	0.072622
822.972649	0.072809
823.162358	0.072922
823.352049	0.072943
823.541721	0.073072
823.731376	0.073014
823.921012	0.073124
824.110629	0.073040
824.300229	0.073414
824.489811	0.073820
824.679374	0.073903
824.868919	0.074405
825.058445	0.074535
825.247954	0.074674
825.437444	0.074890
825.626916	0.074903
825.816370	0.075310
826.005806	0.075159
826.195223	0.075401
826.384622	0.075748
826.574003	0.075372
826.763366	0.075484
826.952711	0.075485
827.142037	0.075435
827.331345	0.075731
827.520635	0.075706
827.709906	0.075733
827.899160	0.075300
828.088395	0.074950
828.277612	0.075201
828.466810	0.075187
828.655991	0.075329
828.845153	0.075434
829.034297	0.075490
829.223423	0.075581
829.412531	0.075824
829.601620	0.075999
829.790691	0.076214
829.979744	0.076055
830.168779	0.076307
830.357795	0.076396
830.546793	0.076538
830.735773	0.076673
830.924735	0.076785
831.113679	0.077027
831.302604	0.077343
831.491511	0.077592
831.680400	0.077900
831.869271	0.078038
832.058123	0.078320
832.246957	0.078655
832.435773	0.078942
832.624571	0.079234
832.813351	0.079488
833.002112	0.079764
833.190855	0.079979
833.379580	0.080218
833.568287	0.080320
833.756975	0.080550
833.945645	0.080605
834.134297	0.080663
834.322931	0.080636
834.511547	0.080437
834.700144	0.080499
834.888723	0.080610
835.077284	0.080675
835.265826	0.080776
835.454351	0.080894
835.642857	0.080924
835.831345	0.080817
836.019815	0.080917
836.208266	0.080887
836.396699	0.081013
836.585114	0.080983
836.773511	0.080871
836.961890	0.080758
837.150250	0.080592
837.338592	0.080812
837.526916	0.080885
837.715222	0.080739
837.903510	0.080997
838.091779	0.080933
838.280030	0.080964
838.468263	0.081325
838.656477	0.081339
838.844674	0.081554
839.032852	0.081433
839.221012	0.081639
839.409153	0.081918
839.597277	0.081946
839.785382	0.082217
839.973469	0.082439
840.161538	0.082575
840.349589	0.083051
840.537621	0.083207
840.725635	0.083321
840.913631	0.083520
841.101609	0.083785
841.289568	0.084018
841.477509	0.083939
841.665432	0.084230
841.853337	0.084331
842.041224	0.084609
842.229092	0.084638
842.416942	0.084998
842.604774	0.085272
842.792588	0.085339
842.980383	0.085477
843.168160	0.085644
843.355919	0.085703
843.543660	0.085829
843.731382	0.085772
843.919087	0.085977
844.106773	0.086148
844.294441	0.086035
844.482090	0.086017
844.669722	0.086191
844.857335	0.086314
845.044930	0.086436
845.232507	0.086399
845.420065	0.086440
845.607605	0.086273
845.795127	0.085949
845.982631	0.086023
846.170117	0.086241
846.357584	0.086475
846.545033	0.086656
846.732464	0.086854
846.919877	0.087068
847.107272	0.087226
847.294648	0.087670
847.482006	0.088035
847.669346	0.088223
847.856667	0.088551
848.043971	0.088410
848.231256	0.088515
848.418523	0.088523
848.605771	0.088620
848.793002	0.088765
848.980214	0.089147
849.167408	0.089428
849.354584	0.089744
849.541742	0.090029
849.728881	0.090803
849.916002	0.091325
850.103105	0.091431
850.290190	0.091833
850.477256	0.092114
850.664304	0.091939
850.851334	0.092225
851.038346	0.092359
851.225340	0.092289
851.412315	0.091670
851.599272	0.091246
851.786211	0.091409
851.973132	0.091207
852.160034	0.091194
852.346918	0.091416
852.533784	0.091160
852.720632	0.091304
852.907462	0.091198
853.094273	0.091574
853.281066	0.091833
853.467841	0.092122
853.654598	0.092782
853.841336	0.093046
854.028056	0.093053
854.214758	0.093447
854.401442	0.093592
854.588107	0.094012
854.774755	0.094355
854.961384	0.094565
855.147995	0.094754
855.334587	0.094698
855.521162	0.094921
855.707718	0.095428
855.894256	0.095444
856.080775	0.095786
856.267277	0.096040
856.453760	0.096130
856.640225	0.096199
856.826672	0.095870
857.013101	0.095777
857.199511	0.095678
857.385903	0.095603
857.572277	0.095805
857.758633	0.095640
857.944970	0.095559
858.131290	0.095811
858.317591	0.095938
858.503873	0.096335
858.690138	0.096691
858.876384	0.096996
859.062612	0.097096
859.248822	0.096989
859.435014	0.097220
859.621188	0.097286
859.807343	0.097230
859.993480	0.097580
860.179599	0.097890
860.365699	0.097742
860.551781	0.097778
860.737846	0.097982
860.923891	0.098377
861.109919	0.098587
861.295929	0.098833
861.481920	0.098902
861.667893	0.098752
861.853848	0.098710
862.039784	0.098860
862.225702	0.098757
862.411603	0.098667
862.597484	0.098855
862.783348	0.098709
862.969193	0.098850
863.155021	0.099050
863.340830	0.099053
863.526620	0.098884
863.712393	0.099184
863.898147	0.099558
864.083883	0.099635
864.269601	0.099530
864.455301	0.099632
864.640982	0.099280
864.826645	0.099263
865.012290	0.099652
865.197917	0.099689
865.383526	0.099655
865.569116	0.099666
865.754688	0.099991
865.940242	0.100149
866.125777	0.100309
866.311295	0.100988
866.496794	0.101233
866.682275	0.101252
866.867737	0.101589
867.053182	0.101556
867.238608	0.101437
867.424016	0.101127
867.609406	0.101049
867.794778	0.100867
867.980131	0.100491
868.165466	0.100513
868.350783	0.100542
868.536082	0.100517
868.721362	0.100493
868.906625	0.100748
869.091869	0.101181
869.277094	0.101271
869.462302	0.101497
869.647491	0.101736
869.832662	0.101361
870.017815	0.101410
870.202950	0.101591
870.388066	0.101597
870.573165	0.101461
870.758245	0.101413
870.943306	0.101516
871.128350	0.101549
871.313375	0.101758
871.498382	0.102051
871.683371	0.102184
871.868342	0.102155
872.053294	0.102694
872.238229	0.102885
872.423144	0.102824
872.608042	0.103007
872.792922	0.103111
872.977783	0.103299
873.162626	0.103369
873.347451	0.103300
873.532258	0.103807
873.717046	0.103838
873.901816	0.103736
874.086568	0.103792
874.271302	0.103664
874.456017	0.103698
874.640715	0.103995
874.825394	0.104061
875.010055	0.103956
875.194697	0.103759
875.379322	0.103594
875.563928	0.103902
875.748516	0.104239
875.933085	0.104441
876.117637	0.104413
876.302170	0.103859
876.486685	0.104318
876.671182	0.104691
876.855661	0.104524
877.040121	0.104791
877.224563	0.104543
877.408987	0.104816
877.593393	0.104959
877.777780	0.104740
877.962150	0.104967
878.146501	0.104485
878.330833	0.104104
878.515148	0.104462
878.699444	0.104145
878.883722	0.104473
879.067982	0.104190
879.252224	0.103954
879.436447	0.104333
879.620653	0.104369
879.804840	0.104641
879.989008	0.105014
880.173159	0.104599
880.357291	0.104324
880.541405	0.104386
880.725501	0.104227
880.909579	0.104158
881.093638	0.103843
881.277680	0.103454
881.461703	0.103141
881.645707	0.102943
881.829694	0.103308
882.013662	0.103652
882.197612	0.103336
882.381544	0.103878
882.565458	0.104277
882.749353	0.104262
882.933230	0.104601
883.117089	0.104923
883.300930	0.105067
883.484753	0.104823
883.668557	0.104777
883.852343	0.104939
884.036111	0.104162
884.219861	0.104008
884.403592	0.104539
884.587305	0.104329
884.771000	0.104303
884.954677	0.104215
885.138335	0.104352
885.321976	0.104601
885.505598	0.104632
885.689201	0.104978
885.872787	0.105023
886.056354	0.104860
886.239904	0.104758
886.423434	0.104700
886.606947	0.105015
886.790442	0.104918
886.973918	0.105074
887.157376	0.105459
887.340816	0.105638
887.524237	0.105865
887.707641	0.105961
887.891026	0.106365
888.074393	0.106496
888.257741	0.106297
888.441072	0.106635
888.624384	0.106437
888.807678	0.106187
888.990954	0.106445
889.174211	0.106464
889.357451	0.106373
889.540672	0.106393
889.723875	0.106454
889.907059	0.106349
890.090226	0.106107
890.273374	0.106078
890.456504	0.105924
890.639616	0.105272
890.822709	0.104922
891.005785	0.104789
891.188842	0.104527
891.371881	0.104060
891.554901	0.104495
891.737904	0.104665
891.920888	0.104484
892.103854	0.104392
892.286802	0.104788
892.469731	0.104829
892.652643	0.104742
892.835536	0.104427
893.018410	0.104471
893.201267	0.103964
893.384106	0.103221
893.566926	0.103225
893.749728	0.103042
893.932511	0.102349
894.115277	0.102156
894.298024	0.101938
894.480753	0.102046
894.663464	0.102360
894.846157	0.102188
895.028831	0.102601
895.211487	0.102475
895.394125	0.102420
895.576745	0.102831
895.759346	0.102912
895.941930	0.103129
896.124495	0.103117
896.307041	0.103050
896.489570	0.102881
896.672080	0.102352
896.854573	0.102622
897.037046	0.102468
897.219502	0.102193
897.401940	0.101879
897.584359	0.101848
897.766760	0.101783
897.949143	0.101403
898.131507	0.101348
898.313854	0.101652
898.496182	0.101204
898.678492	0.101560
898.860783	0.101456
899.043057	0.101392
899.225312	0.101367
899.407549	0.101479
899.589768	0.101538
899.771968	0.101708
899.954151	0.101718
900.136315	0.101605
900.318461	0.101213
900.500588	0.101102
900.682698	0.101183
900.864789	0.101200
901.046862	0.100552
901.228917	0.100523
901.410953	0.100051
901.592971	0.099554
901.774972	0.099603
901.956953	0.099828
902.138917	0.099559
902.320862	0.099543
902.502790	0.099237
902.684699	0.099782
902.866589	0.099718
903.048462	0.100016
903.230316	0.099935
903.412152	0.099574
903.593970	0.099376
903.775770	0.099858
903.957551	0.099490
904.139314	0.099436
904.321059	0.098933
904.502786	0.098384
904.684494	0.098229
904.866185	0.098289
905.047857	0.098645
905.229510	0.098265
905.411146	0.097532
905.592763	0.097493
905.774363	0.097392
905.955943	0.097708
906.137506	0.097776
906.319051	0.097792
906.500577	0.097641
906.682085	0.097285
906.863575	0.097176
907.045046	0.096947
907.226500	0.096816
907.407935	0.096549
907.589352	0.096291
907.770750	0.095916
907.952131	0.095242
908.133493	0.095232
908.314837	0.094790
908.496163	0.094583
908.677470	0.094915
908.858760	0.094620
909.040031	0.094540
909.221284	0.093762
909.402518	0.093670
909.583735	0.093820
909.764933	0.093667
909.946113	0.093620
910.127275	0.093788
910.308418	0.093068
910.489544	0.093038
910.670651	0.092949
910.851740	0.093361
911.032810	0.093587
911.213863	0.093082
911.394897	0.093214
911.575913	0.093546
911.756911	0.093091
911.937890	0.093438
912.118851	0.093281
912.299794	0.092676
912.480719	0.092192
912.661626	0.091646
912.842514	0.091776
913.023384	0.091046
913.204236	0.090114
913.385070	0.089573
913.565886	0.088702
913.746683	0.087999
913.927462	0.087866
914.108223	0.087470
914.288965	0.086495
914.469690	0.086072
914.650396	0.085604
914.831084	0.085018
915.011754	0.084606
915.192405	0.084778
915.373038	0.084609
915.553653	0.084291
915.734250	0.083869
915.914829	0.084263
916.095389	0.083727
916.275931	0.083391
916.456455	0.083563
916.636961	0.083272
916.817448	0.082574
916.997917	0.081916
917.178368	0.081718
917.358801	0.081237
917.539216	0.080826
917.719612	0.080534
917.899990	0.080467
918.080350	0.079503
918.260692	0.079592
918.441015	0.079685
918.621320	0.079992
918.801607	0.079328
918.981876	0.079238
919.162127	0.078795
919.342359	0.078639
919.522573	0.078198
919.702769	0.078747
919.882947	0.077674
920.063106	0.076913
920.243247	0.076165
920.423370	0.076097
920.603475	0.075884
920.783562	0.075594
920.963630	0.075166
921.143680	0.074650
921.323712	0.074215
921.503725	0.074454
921.683721	0.074199
921.863698	0.073980
922.043657	0.073107
922.223598	0.072889
922.403520	0.073064
922.583424	0.072792
922.763311	0.072544
922.943178	0.072026
923.123028	0.071435
923.302859	0.071277
923.482673	0.071276
923.662467	0.070929
923.842244	0.070419
924.022003	0.069853
924.201743	0.069560
924.381465	0.069349
924.561169	0.068702
924.740854	0.068047
924.920522	0.067446
925.100171	0.066606
925.279802	0.066615
925.459414	0.066292
925.639009	0.065188
925.818585	0.064725
925.998143	0.064335
926.177683	0.064235
926.357205	0.064506
926.536708	0.064542
926.716193	0.064538
926.895660	0.064349
927.075109	0.064134
927.254539	0.064337
927.433951	0.064198
927.613345	0.063724
927.792721	0.063174
927.972079	0.062380
928.151418	0.061825
928.330739	0.061046
928.510042	0.060360
928.689327	0.059729
928.868593	0.059232
929.047841	0.058717
929.227071	0.058303
929.406283	0.057320
929.585476	0.057383
929.764652	0.057650
929.943809	0.057183
930.122948	0.056947
930.302068	0.056365
930.481171	0.056201
930.660255	0.055461
930.839321	0.054593
931.018369	0.054148
931.197398	0.053276
931.376409	0.052369
931.555402	0.051866
931.734377	0.051164
931.913334	0.051141
932.092272	0.050673
932.271192	0.049880
932.450094	0.049896
932.628978	0.049965
932.807844	0.049455
932.986691	0.048634
933.165520	0.048180
933.344331	0.046961
933.523123	0.046066
933.701898	0.044893
933.880654	0.044699
934.059392	0.044346
934.238111	0.044208
934.416813	0.043902
934.595496	0.043273
934.774161	0.042514
934.952808	0.043425
935.131437	0.043219
935.310047	0.043183
935.488639	0.043362
935.667213	0.042343
935.845769	0.041167
936.024306	0.040301
936.202825	0.039245
936.381326	0.039203
936.559809	0.037814
936.738274	0.037072
936.916720	0.035857
937.095148	0.034445
937.273558	0.034642
937.451950	0.034938
937.630323	0.035501
937.808678	0.036534
937.987015	0.035809
938.165334	0.035923
938.343635	0.034744
938.521917	0.036140
938.700181	0.036471
938.878427	0.035993
939.056655	0.034824
939.234864	0.033572
939.413055	0.032339
939.591228	0.032178
939.769383	0.031443
939.947519	0.032186
940.125638	0.030763
940.303738	0.029220
940.481820	0.028191
940.659883	0.027656
940.837929	0.027405
941.015956	0.026366
941.193965	0.025944
941.371955	0.024926
941.549928	0.023265
941.727882	0.021654
941.905818	0.021922
942.083736	0.021620
942.261636	0.022050
942.439517	0.020915
942.617380	0.021880
942.795225	0.021739
942.973052	0.022194
943.150860	0.021912
943.328651	0.022398
943.506423	0.021862
943.684176	0.021395
943.861912	0.020871
944.039629	0.020256
944.217328	0.018695
944.395009	0.019083
944.572672	0.019453
944.750317	0.020462
944.927943	0.020586
945.105551	0.021332
945.283141	0.021658
945.460712	0.020590
945.638265	0.021127
945.815801	0.020877
945.993317	0.019078
946.170816	0.017836
946.348297	0.016119
946.525759	0.015228
946.703203	0.014354
946.880629	0.013094
947.058036	0.013721
947.235425	0.013504
947.412797	0.012235
947.590149	0.012797
947.767484	0.011640
947.944800	0.010716
948.122099	0.009829
948.299379	0.009643
948.476640	0.009148
948.653884	0.008618
948.831109	0.008513
949.008316	0.009880
949.185505	0.009129
949.362676	0.009453
949.539828	0.011149
949.716962	0.012183
949.894078	0.010934
950.071176	0.010407
950.248256	0.009138
950.425317	0.008824
950.602360	0.009934
950.779385	0.009623
950.956391	0.008955
951.133380	0.006406
951.310350	0.004474
951.487302	0.004082
951.664235	0.004742
951.841151	0.005613
952.018048	0.003580
952.194927	0.000746
952.371788	0.000244
952.548631	0.000234
952.725455	0.001178
952.902261	0.002084
953.079049	0.000983
953.255819	0.001210
953.432570	0.000482
953.609303	0.003004
953.786018	0.002566
953.962715	0.001670
954.139394	0.002164
954.316054	0.004179
954.492696	0.003368
954.669320	0.003286
954.845926	0.001431
955.022513	0.001639
955.199083	-0.000296
955.375634	-0.000405
955.552166	0.000607
955.728681	0.000562
955.905177	-0.001156
956.081655	0.000226
956.258115	0.002703
956.434557	0.004318
956.610980	0.003857
956.787385	0.005241
956.963772	0.003849
957.140141	0.003767
957.316492	0.003016
957.492824	0.002752
957.669138	0.003720
957.845434	0.002365
958.021712	0.001259
958.197971	0.001668
958.374212	0.000332
958.550435	0.001148
958.726640	-0.000483
958.902826	-0.000059
959.078995	-0.001186
959.255145	-0.004111
959.431277	-0.003676
959.607390	-0.006307
959.783486	-0.006557
959.959563	-0.006189
960.135622	-0.003799
960.311662	-0.001823
960.487685	-0.002443
960.663689	-0.000053
960.839675	0.000474
961.015643	-0.000077
961.191593	0.000830
961.367524	-0.000087
961.543437	0.000993
961.719332	0.001234
961.895209	-0.000158
962.071067	0.002813
962.246907	0.002306
962.422730	0.003458
962.598533	0.005712
962.774319	0.008826
962.950086	0.011796
963.125835	0.013240
963.301566	0.012065
963.477279	0.012679
963.652973	0.009638
963.828650	0.009969
964.004308	0.009376
964.179947	0.008262
964.355569	0.006941
964.531172	0.003104
964.706757	0.000829
964.882324	0.001560
965.057873	0.002879
965.233403	0.004175
965.408916	0.006293
965.584410	0.005120
965.759885	0.005235
965.935343	0.006827
966.110782	0.009877
966.286203	0.008775
966.461606	0.007100
966.636991	0.007275
966.812357	0.006279
966.987705	0.002024
967.163035	0.002999
967.338347	0.003860
967.513641	0.002674
967.688916	0.001873
967.864173	0.005577
968.039412	0.005489
968.214632	0.004594
968.389835	0.006295
968.565019	0.010671
968.740185	0.010989
968.915333	0.010260
969.090462	0.011523
969.265573	0.012745
969.440667	0.011122
969.615741	0.012532
969.790798	0.012439
969.965836	0.012304
970.140856	0.009415
970.315858	0.011843
970.490842	0.012896
970.665808	0.012051
970.840755	0.010910
971.015684	0.012987
971.190595	0.012700
971.365487	0.012903
971.540362	0.013655
971.715218	0.013534
971.890056	0.009536
972.064875	0.008844
972.239677	0.011643
972.414460	0.014017
972.589225	0.012572
972.763972	0.013043
972.938700	0.012235
973.113411	0.011425
973.288103	0.013024
973.462777	0.015921
973.637432	0.014813
973.812070	0.012328
973.986689	0.008303
974.161290	0.006732
974.335873	0.006642
974.510437	0.008050
974.684984	0.007272
974.859512	0.008798
975.034022	0.008508
975.208513	0.011148
975.382987	0.011487
975.557442	0.012704
975.731879	0.013338
975.906298	0.013777
976.080698	0.015504
976.255080	0.017220
976.429445	0.015446
976.603790	0.013682
976.778118	0.013337
976.952427	0.012673
977.126719	0.013737
977.300992	0.015169
977.475246	0.013052
977.649483	0.012401
977.823701	0.009643
977.997901	0.010825
978.172083	0.013084
978.346247	0.009187
978.520392	0.009581
978.694519	0.009731
978.868628	0.009589
979.042719	0.009887
979.216791	0.011133
979.390845	0.012603
979.564882	0.012037
979.738899	0.011212
979.912899	0.014557
980.086880	0.012098
980.260843	0.010750
980.434788	0.010574
980.608715	0.011868
980.782623	0.010349
980.956514	0.010277
981.130386	0.009119
981.304240	0.009094
981.478075	0.006975
981.651892	0.009358
981.825692	0.011025
981.999472	0.010259
982.173235	0.010698
982.346980	0.008789
982.520706	0.009001
982.694414	0.007630
982.868104	0.007902
983.041775	0.009826
983.215428	0.010145
983.389064	0.009173
983.562680	0.008594
983.736279	0.010500
983.909860	0.012230
984.083422	0.014376
984.256966	0.012957
984.430491	0.011127
984.603999	0.008674
984.777488	0.010097
984.950959	0.010806
985.124412	0.012951
985.297847	0.010336
985.471263	0.010809
985.644661	0.009018
985.818041	0.011937
985.991403	0.014117
986.164747	0.014789
986.338072	0.014800
986.511379	0.014850
986.684668	0.012146
986.857938	0.013082
987.031191	0.011097
987.204425	0.011087
987.377641	0.011799
987.550839	0.010208
987.724018	0.011881
987.897179	0.010564
988.070322	0.010548
988.243447	0.011569
988.416554	0.011730
988.589642	0.012394
988.762712	0.011674
988.935764	0.010554
989.108798	0.009753
989.281813	0.008082
989.454811	0.007820
989.627790	0.006844
989.800751	0.006820
989.973693	0.005455
990.146617	0.004760
990.319524	0.005120
990.492412	0.004178
990.665281	0.007406
990.838133	0.008006
991.010966	0.007788
991.183781	0.009725
991.356578	0.008673
991.529356	0.009405
991.702117	0.008963
991.874859	0.007478
992.047583	0.007609
992.220288	0.005921
992.392976	0.004998
992.565645	0.005184
992.738296	0.002775
992.910929	0.002749
993.083543	0.002925
993.256139	0.005412
993.428718	0.007163
993.601277	0.009093
993.773819	0.009544
993.946342	0.010807
994.118848	0.008681
994.291335	0.008745
994.463803	0.009057
994.636254	0.009046
994.808686	0.007937
994.981100	0.006992
995.153496	0.005925
995.325874	0.004741
995.498233	0.005593
995.670574	0.006409
995.842897	0.007608
996.015202	0.008704
996.187488	0.009149
996.359757	0.008334
996.532007	0.008229
996.704239	0.008016
996.876452	0.009319
997.048648	0.006703
997.220825	0.006465
997.392984	0.006297
997.565124	0.004366
997.737247	0.002399
997.909351	0.002687
998.081437	0.002599
998.253505	0.002284
998.425554	0.001236
998.597586	0.003168
998.769599	0.004328
998.941594	0.003077
999.113571	0.004640
999.285529	0.005396
999.457469	0.003938
999.629391	0.004087
999.801295	0.003140
999.973181	0.003236
1000.145048	0.002878
1000.316897	0.003279
1000.488728	0.004102
1000.660541	0.005954
1000.832335	0.005198
1001.004111	0.006693
1001.175869	0.004522
1001.347609	0.004973
1001.519331	0.004647
1001.691034	0.003643
1001.862719	0.003924
1002.034386	0.004779
1002.206035	0.002076
1002.377665	0.003722
1002.549277	0.002833
1002.720871	0.006632
1002.892447	0.009462
1003.064004	0.010189
1003.235544	0.010826
1003.407065	0.010717
1003.578568	0.007867
1003.750052	0.008653
1003.921519	0.008418
1004.092967	0.010031
1004.264397	0.008708
1004.435809	0.005762
1004.607202	0.006802
1004.778577	0.005199
1004.949934	0.005956
1005.121273	0.006770
1005.292594	0.006117
1005.463896	0.005832
1005.635180	0.003171
1005.806446	0.003663
1005.977694	0.004017
1006.148923	0.002643
1006.320135	0.003145
1006.491328	0.001764
1006.662503	0.001531
1006.833659	0.002744
1007.004798	0.001547
1007.175918	0.003235
1007.347020	0.003086
1007.518103	0.004213
1007.689169	0.005272
1007.860216	0.006314
1008.031245	0.005069
1008.202256	0.004710
1008.373248	0.003494
1008.544223	0.003208
1008.715179	0.002032
1008.886117	0.000702
1009.057036	0.000889
1009.227938	0.000813
1009.398821	0.000332
1009.569686	0.002216
1009.740533	0.003535
1009.911361	0.003102
1010.082172	0.004141
1010.252964	0.006093
1010.423738	0.005522
1010.594493	0.004574
1010.765231	0.003199
1010.935950	0.003437
1011.106651	0.001368
1011.277334	0.002406
1011.447998	0.002296
1011.618645	0.003546
1011.789273	0.001198
1011.959882	0.002190
1012.130474	0.001744
1012.301048	0.002582
1012.471603	0.002467
1012.642140	0.004811
1012.812658	0.005352
1012.983159	0.006727
1013.153641	0.005564
1013.324105	0.007954
1013.494551	0.008348
1013.664979	0.009513
1013.835388	0.007948
1014.005779	0.007288
1014.176152	0.005887
1014.346507	0.003992
1014.516843	0.002281
1014.687162	0.001944
1014.857462	0.002754
1015.027744	0.001024
1015.198007	-0.000177
1015.368252	-0.000069
1015.538480	0.000772
1015.708689	0.001697
1015.878879	0.001012
1016.049052	0.001709
1016.219206	0.002706
1016.389342	0.000227
1016.559460	0.002235
1016.729559	0.002401
1016.899641	0.004419
1017.069704	0.003576
1017.239749	0.002464
1017.409775	0.003263
1017.579784	0.003821
1017.749774	0.004075
1017.919746	0.002959
1018.089700	0.001158
1018.259635	0.001457
1018.429553	0.000691
1018.599452	0.002180
1018.769333	0.001799
1018.939195	0.001091
1019.109040	0.001759
1019.278866	0.000988
1019.448674	0.001623
1019.618464	0.002554
1019.788235	0.000380
1019.957989	-0.000761
1020.127724	-0.001674
1020.297441	-0.001906
1020.467139	-0.001247
1020.636820	-0.002191
1020.806482	-0.001594
1020.976126	-0.001323
1021.145752	-0.001582
1021.315359	0.002618
1021.484948	0.004264
1021.654519	0.004439
1021.824072	0.006071
1021.993607	0.007377
1022.163123	0.007902
1022.332621	0.007491
1022.502101	0.008069
1022.671563	0.007555
1022.841007	0.004203
1023.010432	0.002522
1023.179839	0.002570
1023.349228	0.001669
1023.518598	0.000284
1023.687951	-0.001193
1023.857285	-0.001742
1024.026601	-0.001915
1024.195899	-0.001942
1024.365178	-0.000387
1024.534439	0.000428
1024.703682	-0.000462
1024.872907	0.001095
1025.042114	0.000014
1025.211302	-0.001146
1025.380472	-0.000338
1025.549624	-0.000956
1025.718758	-0.001490
1025.887873	-0.001506
1026.056970	-0.001682
1026.226049	-0.001788
1026.395110	-0.003801
1026.564153	-0.002799
1026.733177	-0.000636
1026.902183	-0.000861
1027.071171	-0.000015
1027.240141	0.001767
1027.409092	0.001018
1027.578026	-0.000195
1027.746940	-0.000529
1027.915837	-0.000810
1028.084716	-0.000079
1028.253576	0.000405
1028.422418	0.000165
1028.591242	0.000856
1028.760048	0.000669
1028.928835	0.000601
1029.097604	0.001153
1029.266355	0.003052
1029.435088	0.002458
1029.603803	0.001090
1029.772499	-0.000016
1029.941177	0.000415
1030.109837	0.000571
1030.278478	-0.000345
1030.447102	-0.000753
1030.615707	-0.000048
1030.784294	-0.000980
1030.952863	-0.000096
1031.121413	0.000300
1031.289945	0.000149
1031.458460	-0.000920
1031.626955	-0.000935
1031.795433	0.000934
1031.963892	0.002191
1032.132334	0.000543
1032.300756	-0.000074
1032.469161	-0.001568
1032.637548	-0.001301
1032.805916	-0.000908
1032.974266	0.000116
1033.142598	-0.000947
1033.310911	-0.003996
1033.479207	-0.004400
1033.647484	-0.002235
1033.815743	-0.002125
1033.983983	-0.000380
1034.152206	0.000443
1034.320410	-0.000159
1034.488596	-0.001079
1034.656764	-0.001860
1034.824914	-0.000279
1034.993045	-0.000052
1035.161158	-0.001714
1035.329253	-0.002908
1035.497330	-0.002624
1035.665388	-0.004646
1035.833428	-0.004401
1036.001450	-0.003863
1036.169454	-0.002777
1036.337440	-0.003564
1036.505407	-0.003441
1036.673356	-0.001327
1036.841287	-0.000459
1037.009200	-0.000986
1037.177094	0.001089
1037.344970	0.001831
1037.512828	0.000253
1037.680668	0.000407
1037.848489	0.001210
1038.016293	0.000118
1038.184078	-0.001405
1038.351845	-0.001951
1038.519593	-0.001075
1038.687324	-0.000701
1038.855036	-0.001273
1039.022730	-0.000418
1039.190406	0.000002
1039.358063	0.001224
1039.525702	0.001019
1039.693323	0.000672
1039.860926	0.001283
1040.028511	-0.000296
1040.196077	-0.001777
1040.363625	-0.000678
1040.531155	-0.000999
1040.698667	-0.001553
1040.866161	-0.003267
1041.033636	-0.004559
1041.201093	-0.004954
1041.368532	-0.005225
1041.535952	-0.003187
1041.703355	-0.002873
1041.870739	-0.005953
1042.038105	-0.006459
1042.205452	-0.007254
1042.372782	-0.005750
1042.540093	-0.004310
1042.707386	-0.002958
1042.874661	-0.001737
1043.041918	-0.002347
1043.209156	-0.002881
1043.376376	-0.000290
1043.543578	0.001220
1043.710762	0.002065
1043.877927	0.001125
1044.045074	0.002565
1044.212203	0.001095
1044.379314	0.000159
1044.546407	-0.000714
1044.713481	-0.001479
1044.880537	-0.002697
1045.047575	-0.004697
1045.214595	-0.005496
1045.381596	-0.005685
1045.548579	-0.007058
1045.715544	-0.005193
1045.882491	-0.005554
1046.049420	-0.006566
1046.216330	-0.003816
1046.383222	-0.002920
1046.550096	-0.001169
1046.716951	-0.000560
1046.883789	-0.000300
1047.050608	-0.001780
1047.217409	-0.004560
1047.384192	-0.003919
1047.550956	-0.003018
1047.717703	-0.004146
1047.884431	-0.003255
1048.051140	-0.005004
1048.217832	-0.004776
1048.384505	-0.004792
1048.551161	-0.003784
1048.717798	-0.002606
1048.884416	-0.003046
1049.051017	-0.003540
1049.217599	-0.003481
1049.384163	-0.006066
1049.550709	-0.004012
1049.717237	-0.005545
1049.883746	-0.005554
1050.050237	-0.004024
1050.216710	-0.003418
1050.383165	-0.001999
1050.549601	-0.001353
1050.716019	-0.000873
1050.882420	0.000287
1051.048801	0.000418
1051.215165	0.001431
1051.381510	0.001204
1051.547837	-0.000490
1051.714146	0.000230
1051.880437	-0.000963
1052.046709	-0.000005
1052.212964	-0.003031
1052.379200	-0.002957
1052.545417	-0.004204
1052.711617	-0.003614
1052.877798	-0.002663
1053.043961	-0.002567
1053.210106	-0.002350
1053.376233	-0.002020
1053.542341	-0.001749
1053.708432	0.000010
1053.874504	-0.001384
1054.040557	-0.001771
1054.206593	-0.002394
1054.372610	-0.003853
1054.538609	-0.002821
1054.704590	-0.004891
1054.870553	-0.005619
1055.036497	-0.006864
1055.202424	-0.006790
1055.368331	-0.005181
1055.534221	-0.003511
1055.700093	-0.002762
1055.865946	-0.002101
1056.031781	-0.003736
1056.197598	-0.003691
1056.363397	-0.002743
1056.529177	-0.002336
1056.694939	-0.001463
1056.860683	-0.001373
1057.026409	-0.001700
1057.192116	-0.003731
1057.357806	-0.005776
1057.523477	-0.002566
1057.689130	-0.002187
1057.854764	-0.002964
1058.020381	-0.003516
1058.185979	-0.005195
1058.351559	-0.006967
1058.517120	-0.008491
1058.682664	-0.007227
1058.848189	-0.005054
1059.013696	-0.007321
1059.179185	-0.007777
1059.344656	-0.006140
1059.510108	-0.006696
1059.675542	-0.005933
1059.840958	-0.005170
1060.006356	-0.006100
1060.171735	-0.005663
1060.337096	-0.006010
1060.502439	-0.005616
1060.667764	-0.004639
1060.833071	-0.006756
1060.998359	-0.005168
1061.163629	-0.006385
1061.328881	-0.005792
1061.494115	-0.004495
1061.659330	-0.005017
1061.824527	-0.002819
1061.989706	-0.003351
1062.154867	-0.003487
1062.320010	-0.002545
1062.485134	-0.003615
1062.650240	-0.002830
1062.815328	-0.001828
1062.980398	-0.003037
1063.145449	-0.003282
1063.310482	-0.006692
1063.475497	-0.005801
1063.640494	-0.006702
1063.805473	-0.005462
1063.970433	-0.003468
1064.135375	-0.005184
1064.300299	-0.004086
1064.465204	-0.003475
1064.630092	-0.002579
1064.794961	-0.001028
1064.959812	-0.002042
1065.124645	-0.001849
1065.289459	-0.002158
1065.454256	-0.003036
1065.619034	0.000025
1065.783793	-0.001588
1065.948535	-0.000322
1066.113258	-0.000568
1066.277964	-0.001275
1066.442651	-0.001372
1066.607319	-0.002426
1066.771970	-0.004762
1066.936602	-0.003720
1067.101216	-0.005151
1067.265812	-0.004060
1067.430389	-0.004713
1067.594949	-0.005842
1067.759490	-0.004445
1067.924013	-0.005390
1068.088518	-0.004454
1068.253004	-0.003097
1068.417472	-0.004390
1068.581922	-0.002656
1068.746354	-0.003494
1068.910768	-0.002228
1069.075163	-0.000240
1069.239540	-0.000689
1069.403899	-0.000038
1069.568240	0.000032
1069.732562	-0.001525
1069.896866	-0.000890
1070.061152	-0.001906
1070.225420	-0.002330
1070.389670	-0.002542
1070.553901	-0.004662
1070.718114	-0.004523
1070.882309	-0.002985
1071.046486	-0.003123
1071.210644	-0.001583
1071.374784	-0.003001
1071.538906	-0.004504
1071.703010	-0.003647
1071.867096	-0.003516
1072.031163	-0.002551
1072.195212	-0.002870
1072.359243	-0.006116
1072.523256	-0.004784
1072.687250	-0.004061
1072.851226	-0.003488
1073.015184	-0.003443
1073.179124	-0.003549
1073.343045	-0.003800
1073.506949	-0.004727
1073.670834	-0.004783
1073.834701	-0.002131
1073.998549	-0.000010
1074.162380	0.000086
1074.326192	0.001703
1074.489986	0.004114
1074.653761	0.001789
1074.817519	0.003165
1074.981258	0.003600
1075.144979	0.003329
1075.308682	0.003088
1075.472367	0.000279
1075.636033	0.000797
1075.799681	-0.000736
1075.963311	0.000417
1076.126923	0.002368
1076.290516	0.002057
1076.454092	0.003661
1076.617649	0.005231
1076.781187	0.008593
1076.944708	0.010397
1077.108210	0.011260
1077.271695	0.013505
1077.435160	0.010864
1077.598608	0.010424
1077.762038	0.009827
1077.925449	0.009709
1078.088842	0.008682
1078.252217	0.004499
1078.415573	0.003841
1078.578912	0.002897
1078.742232	-0.000108
1078.905534	0.002509
1079.068817	0.004219
1079.232083	0.004118
1079.395330	0.005254
1079.558559	0.004283
1079.721770	0.006174
1079.884962	0.006366
1080.048136	0.005715
1080.211293	0.006234
1080.374430	0.005452
1080.537550	0.002204
1080.700651	0.002707
1080.863735	-0.001325
1081.026800	-0.000542
1081.189846	-0.000737
1081.352875	0.000865
1081.515885	-0.000866
1081.678877	-0.000215
1081.841851	-0.001638
1082.004807	0.000012
1082.167744	-0.000250
1082.330663	0.002210
1082.493564	0.001116
1082.656447	0.002357
1082.819312	0.000039
1082.982158	0.001098
1083.144986	-0.000862
1083.307796	-0.003734
1083.470587	-0.002796
1083.633361	-0.003897
1083.796116	-0.005290
1083.958853	-0.004585
1084.121571	-0.004410
1084.284272	-0.003357
1084.446954	-0.001301
1084.609618	-0.000177
1084.772264	0.003013
1084.934892	0.004175
1085.097501	0.008045
1085.260092	0.009191
1085.422665	0.009914
1085.585220	0.007884
1085.747756	0.009316
1085.910274	0.010092
1086.072774	0.008502
1086.235256	0.011951
1086.397720	0.011801
1086.560165	0.005893
1086.722592	0.007392
1086.885001	0.007514
1087.047392	0.007600
1087.209764	0.007035
1087.372119	0.004106
1087.534455	0.007323
1087.696772	0.003269
1087.859072	0.002893
1088.021353	0.005612
1088.183616	0.002797
1088.345861	0.003360
1088.508088	0.002779
1088.670296	0.000734
1088.832486	0.001275
1088.994658	0.000479
1089.156812	0.000326
1089.318948	-0.001388
1089.481065	0.001539
1089.643164	0.004907
1089.805245	0.004873
1089.967308	0.006126
1090.129352	0.003953
1090.291378	0.002776
1090.453386	0.003497
1090.615376	0.006080
1090.777347	0.007807
1090.939301	0.005140
1091.101236	0.004920
1091.263153	0.003242
1091.425051	0.002225
1091.586932	0.003905
1091.748794	0.004977
1091.910638	0.003443
1092.072463	0.004025
1092.234271	0.002233
1092.396060	0.001478
1092.557831	0.002854
1092.719584	0.004382
1092.881319	0.001772
1093.043035	0.000520
1093.204733	0.001961
1093.366413	0.002129
1093.528075	-0.000188
1093.689718	-0.000082
1093.851343	0.003801
1094.012950	0.001544
1094.174539	0.001561
1094.336110	0.004786
1094.497662	0.009201
1094.659196	0.006344
1094.820712	0.008378
1094.982210	0.011488
1095.143689	0.014105
1095.305151	0.009841
1095.466594	0.008520
1095.628018	0.004785
1095.789425	0.005343
1095.950813	0.003249
1096.112183	0.006909
1096.273535	0.004720
1096.434869	0.001238
1096.596184	0.000359
1096.757482	0.001376
1096.918761	0.002843
1097.080021	0.003705
1097.241264	0.004556
1097.402488	0.004205
1097.563694	0.003812
1097.724882	0.000920
1097.886052	0.001011
1098.047203	0.000569
1098.208336	0.000566
1098.369451	0.000497
1098.530548	-0.000379
1098.691627	-0.001913
1098.852687	-0.001721
1099.013729	-0.003117
1099.174753	0.002263
1099.335758	0.004032
1099.496746	0.005349
1099.657715	0.004062
1099.818666	0.004546
1099.979599	0.009866
1100.140513	0.010456
1100.301409	0.011695
1100.462287	0.008110
1100.623147	0.004546
1100.783989	0.004321
1100.944812	0.001703
1101.105617	0.001182
1101.266404	0.002512
1101.427173	-0.001445
1101.587923	-0.003421
1101.748656	-0.004133
1101.909370	0.000125
1102.070066	0.004541
1102.230743	0.006330
1102.391403	0.007161
1102.552044	0.007026
1102.712667	0.003391
1102.873271	0.003763
1103.033858	0.003589
1103.194426	0.004844
1103.354976	0.004273
1103.515508	-0.000551
1103.676021	-0.001702
1103.836517	-0.001409
1103.996994	-0.000701
1104.157453	0.003788
1104.317893	0.002956
1104.478316	0.004399
1104.638720	-0.000926
1104.799106	-0.006952
1104.959474	-0.004256
1105.119823	-0.007056
1105.280155	-0.009269
1105.440468	-0.011164
1105.600763	-0.017459
1105.761039	-0.019192
1105.921298	-0.017287
1106.081538	-0.015726
1106.241760	-0.008001
1106.401964	-0.009695
1106.562149	-0.009362
1106.722316	-0.010504
1106.882465	-0.007394
1107.042596	-0.002684
1107.202709	-0.002817
1107.362803	-0.002921
1107.522879	0.001764
1107.682937	-0.000042
1107.842977	0.001413
1108.002999	0.002202
1108.163002	0.004164
1108.322987	0.002801
1108.482954	-0.001379
1108.642902	-0.001602
1108.802833	-0.004740
1108.962745	-0.006602
1109.122639	-0.004226
1109.282515	-0.005152
1109.442372	-0.004870
1109.602211	-0.005477
1109.762032	-0.006940
1109.921835	-0.007707
1110.081620	-0.004993
1110.241386	-0.002265
1110.401134	-0.004431
1110.560864	-0.009467
1110.720576	-0.011538
1110.880269	-0.011035
1111.039945	-0.012368
1111.199602	-0.012063
1111.359240	-0.007154
1111.518861	-0.006613
1111.678463	-0.007769
1111.838047	-0.009264
1111.997613	-0.010060
1112.157161	-0.006758
1112.316690	-0.007006
1112.476202	-0.006976
1112.635695	-0.004063
1112.795169	-0.005845
1112.954626	-0.005922
1113.114064	-0.000965
1113.273484	-0.000145
1113.432886	0.003393
1113.592270	0.003780
1113.751635	0.005019
1113.910983	0.005680
1114.070312	0.002577
1114.229622	0.002873
1114.388915	0.002900
1114.548189	-0.006291
1114.707445	-0.009224
1114.866683	-0.007525
1115.025903	-0.004745
1115.185104	-0.004770
1115.344287	-0.003537
1115.503452	-0.004904
1115.662599	-0.004421
1115.821727	-0.005717
1115.980838	-0.002625
1116.139930	-0.000163
1116.299004	0.003294
1116.458059	-0.001657
1116.617097	-0.003809
1116.776116	-0.006233
1116.935117	-0.002957
1117.094099	-0.000679
1117.253064	0.000872
1117.412010	0.001655
1117.570938	0.006887
1117.729848	0.006506
1117.888740	0.001646
1118.047613	0.001406
1118.206468	0.004659
1118.365305	-0.000489
1118.524124	-0.007744
1118.682924	-0.008114
1118.841707	-0.007773
1119.000471	-0.007144
1119.159216	-0.014715
1119.317944	-0.012296
1119.476653	-0.014894
1119.635344	-0.016560
1119.794017	-0.013544
1119.952672	-0.015817
1120.111308	-0.015376
1120.269927	-0.016500
1120.428527	-0.018905
1120.587108	-0.017308
1120.745672	-0.015422
1120.904217	-0.015572
1121.062744	-0.019002
1121.221253	-0.019602
1121.379744	-0.014584
1121.538216	-0.013308
1121.696671	-0.011065
1121.855107	-0.012458
1122.013524	-0.014019
1122.171924	-0.010145
1122.330305	-0.003088
1122.488668	0.002112
1122.647013	0.000010
1122.805340	-0.003648
1122.963648	-0.005752
1123.121938	-0.011318
1123.280210	-0.009792
1123.438464	-0.006288
1123.596700	-0.012233
1123.754917	-0.020534
1123.913116	-0.021782
1124.071297	-0.019927
1124.229459	-0.016823
1124.387604	-0.013781
1124.545730	-0.010949
1124.703838	-0.012143
1124.861928	-0.015443
1125.019999	-0.012629
1125.178052	-0.014608
1125.336088	-0.007948
1125.494104	-0.002825
1125.652103	0.000055
1125.810083	-0.001849
1125.968045	-0.004580
1126.125989	-0.006411
1126.283915	-0.003381
1126.441823	-0.002063
1126.599712	0.014031
1126.757583	0.008769
1126.915436	0.009376
1127.073270	0.006130
1127.231087	0.003375
1127.388885	0.006008
1127.546665	0.007123
1127.704426	0.003492
1127.862170	0.001065
1128.019895	-0.011803
1128.177602	-0.015022
1128.335291	-0.015555
1128.492961	-0.014959
1128.650614	-0.013747
1128.808248	-0.014514
1128.965864	-0.015360
1129.123461	-0.016392
1129.281041	-0.018957
1129.438602	-0.012719
1129.596145	-0.016035
1129.753670	-0.017148
1129.911176	-0.018414
1130.068665	-0.017388
1130.226135	-0.008427
1130.383587	-0.004648
1130.541020	-0.003445
1130.698436	-0.000832
1130.855833	-0.002794
1131.013212	-0.000230
1131.170573	-0.001146
1131.327915	0.002061
1131.485239	0.004018
1131.642545	-0.004828
1131.799833	-0.007421
1131.957103	-0.002489
1132.114354	0.002517
1132.271588	-0.000228
1132.428803	0.003877
1132.585999	0.001992
1132.743178	-0.004278
1132.900338	-0.004758
1133.057480	-0.001115
1133.214604	0.002148
1133.371710	0.002730
1133.528797	0.002706
1133.685866	0.010022
1133.842917	0.009570
1133.999950	-0.001153
1134.156964	0.002119
1134.313960	-0.000983
1134.470938	0.006519
1134.627898	0.006171
1134.784840	0.004465
1134.941763	0.005435
1135.098668	0.001507
1135.255555	-0.001544
1135.412424	0.007311
1135.569274	0.014476
1135.726107	0.013849
1135.882921	0.004634
1136.039716	0.005957
1136.196494	0.000911
1136.353253	-0.009594
1136.509995	-0.018872
1136.666717	-0.007884
1136.823422	-0.005748
1136.980109	-0.014944
1137.136777	-0.008465
1137.293427	-0.003713
1137.450059	-0.009462
1137.606672	-0.011331
1137.763267	-0.010056
1137.919844	-0.003766
1138.076403	-0.008998
1138.232944	-0.010525
1138.389466	-0.009221
1138.545971	-0.013741
1138.702457	-0.018531
1138.858924	-0.016334
1139.015374	-0.014840
1139.171805	-0.007647
1139.328218	-0.009047
1139.484613	-0.008278
1139.640990	-0.002881
1139.797348	0.001378
1139.953688	0.004756
1140.110010	0.010550
1140.266314	0.017999
1140.422600	0.022675
1140.578867	0.009827
1140.735116	0.013848
1140.891347	0.019850
1141.047559	0.020827
1141.203754	0.016009
1141.359930	0.016419
1141.516088	0.010932
1141.672228	0.003227
1141.828349	0.001051
1141.984452	0.012106
1142.140537	0.011997
1142.296604	0.009473
1142.452653	0.018144
1142.608683	0.024860
1142.764695	0.020184
1142.920689	0.024283
1143.076665	0.035148
1143.232622	0.038194
1143.388562	0.032893
1143.544483	0.030660
1143.700385	0.024215
1143.856270	0.013965
1144.012136	0.011361
1144.167985	0.012321
1144.323814	0.005402
1144.479626	-0.003596
1144.635420	-0.005788
1144.791195	-0.001390
1144.946952	-0.000316
1145.102691	-0.007676
1145.258411	-0.005319
1145.414113	-0.006064
1145.569798	-0.011064
1145.725463	-0.005096
1145.881111	-0.007815
1146.036741	-0.004259
1146.192352	0.003212
1146.347945	0.009509
1146.503519	0.009400
1146.659076	0.006107
1146.814614	0.006835
1146.970134	0.013244
1147.125636	0.009863
1147.281120	0.015259
1147.436585	0.005787
1147.592032	0.000986
1147.747461	0.000023
1147.902872	0.005849
1148.058265	-0.002476
1148.213639	-0.006374
1148.368995	-0.002119
1148.524333	-0.000782
1148.679653	-0.002007
1148.834954	0.002228
1148.990237	0.000889
1149.145502	-0.006567
1149.300749	-0.012976
1149.455977	-0.000959
1149.611188	0.000742
1149.766380	-0.006898
1149.921553	-0.008876
1150.076709	-0.012656
1150.231846	-0.007357
1150.386966	-0.011556
1150.542066	-0.007622
1150.697149	0.000800
1150.852214	-0.001272
1151.007260	0.003772
1151.162288	0.013658
1151.317298	0.012572
1151.472289	0.014454
1151.627263	0.009704
1151.782218	0.005048
1151.937155	0.002156
1152.092073	-0.007862
1152.246974	-0.007439
1152.401856	-0.008774
1152.556720	-0.019309
1152.711566	-0.018264
1152.866393	-0.018515
1153.021203	-0.022393
1153.175994	-0.010196
1153.330767	-0.007921
1153.485521	0.001496
1153.640258	0.008567
1153.794976	0.011002
1153.949676	0.018157
1154.104358	0.023647
1154.259021	0.015594
1154.413667	0.019349
1154.568294	0.014440
1154.722903	0.012918
1154.877493	0.005124
1155.032066	-0.007058
1155.186620	-0.019151
1155.341156	-0.029008
1155.495674	-0.036909
1155.650173	-0.031578
1155.804654	-0.024272
1155.959118	-0.034151
1156.113562	-0.029141
1156.267989	-0.022686
1156.422397	-0.017186
1156.576788	-0.006007
1156.731160	0.007890
1156.885513	0.016889
1157.039849	0.011192
1157.194166	0.002521
1157.348465	0.027484
1157.502746	0.022472
1157.657009	0.026676
1157.811253	0.028110
1157.965479	0.033844
1158.119687	0.031616
1158.273877	0.021676
1158.428048	0.034112
1158.582201	0.041108
1158.736337	0.032164
1158.890453	0.029035
1159.044552	0.027594
1159.198632	0.021701
1159.352694	0.014514
1159.506738	0.014404
1159.660764	0.011667
1159.814771	-0.002860
1159.968761	-0.001578
1160.122732	-0.011625
1160.276685	0.000128
1160.430619	-0.003740
1160.584535	-0.002717
1160.738434	-0.000353
1160.892313	-0.008387
1161.046175	-0.001509
1161.200019	-0.001966
1161.353844	-0.011058
1161.507651	-0.000231
1161.661440	-0.009251
1161.815210	-0.017560
1161.968962	-0.028530
1162.122697	-0.031275
1162.276412	-0.029637
1162.430110	-0.020422
1162.583789	-0.009191
1162.737451	0.002193
1162.891094	0.001795
1163.044718	0.011320
1163.198325	0.020290
1163.351913	0.025376
1163.505483	0.014784
1163.659035	0.010000
1163.812569	0.005073
1163.966084	-0.003188
1164.119581	-0.010492
1164.273060	-0.021202
1164.426521	-0.038563
1164.579964	-0.049770
1164.733388	-0.045247
1164.886794	-0.031454
1165.040182	-0.024621
1165.193551	-0.030868
1165.346903	-0.029688
1165.500236	-0.032721
1165.653551	-0.018422
1165.806848	-0.010405
1165.960126	0.003132
1166.113386	0.005092
1166.266628	0.003730
1166.419852	0.001872
1166.573058	-0.007583
1166.726245	-0.002334
1166.879414	-0.003625
1167.032565	-0.018802
1167.185698	-0.017966
1167.338812	-0.013554
1167.491909	-0.018041
1167.644987	-0.018052
1167.798046	-0.002496
1167.951088	0.003296
1168.104111	0.004357
1168.257117	0.013369
1168.410103	0.017666
1168.563072	0.008204
1168.716023	0.006416
1168.868955	0.002067
1169.021869	0.007332
1169.174765	-0.017259
1169.327642	-0.007737
1169.480501	-0.019296
1169.633343	-0.025762
1169.786165	-0.027125
1169.938970	-0.014107
1170.091757	-0.014386
1170.244525	0.004616
1170.397275	0.013212
1170.550007	0.033518
1170.702720	0.044194
1170.855415	0.047078
1171.008092	0.058729
1171.160751	0.067317
1171.313392	0.070027
1171.466014	-0.086829
1171.618619	0.060312
1171.771205	0.060312
1171.923772	0.060312
