sample name	sample
index	1093
start time	 04-22-2021  11:49:16 AM
880	0.215923
Peak Time (s)	102.538
Peak Height 	0.2159
calc peak height	100,103
Baseline Time (s)	9.537
Baseline Value 	-0.005417
subtract baseline	10,4
Abs	0.150516
Peak Time (s)	102.538
Peak Height 	0.1505
calc peak height	100,103
Baseline Time (s)	9.537
Baseline Value 	0.004646
subtract baseline	10,3
PK_550	0.092093
Peak Time (s)	102.538
Peak Height 	0.09209
calc peak height	100,103
Baseline Time (s)	9.537
Baseline Value 	5.9801E-4
subtract baseline	10,2
PK_880	0.145985
Peak Time (s)	101.538
Peak Height 	0.146
calc peak height	100,103
Baseline Time (s)	9.537
Baseline Value 	0.002863
subtract baseline	10,1


Time (s)	A880-A510	A880-A775	A880-A975	A880	I510	I775	I975	I880	
0.036500	-0.000517	-0.000879	-0.002135	0.001633	6262.139120	43234.113766	3893.959045	22713.599491
0.537000	-0.003203	-0.000799	-0.006454	0.003902	6223.992781	43031.577265	3878.538382	22610.357005
1.037500	-0.000549	0.000289	-0.002292	0.004801	6237.455596	43049.075810	3886.147505	22569.614867
1.539000	-0.002681	-0.000069	0.000918	0.004178	6225.877071	43073.524411	3895.158311	22597.842799
2.040500	0.000021	-0.000111	-0.002370	0.000706	6273.504101	43391.618138	3895.594749	22755.942881
2.535500	-0.000600	-0.000517	-0.005403	0.000154	6272.966389	43405.217076	3889.748229	22781.196017
3.038000	0.000427	-0.000291	0.005407	-0.000101	6282.942450	43450.073093	3916.076191	22792.887757
3.535500	-0.001070	-0.000147	-0.000194	0.000674	6265.285993	43391.234786	3900.823001	22757.408467
4.036000	-0.000080	-0.000673	-0.003733	-0.000445	6281.668947	43446.498373	3895.093467	22808.641976
4.539000	0.000567	-0.000235	0.001173	0.000254	6281.264193	43422.182323	3905.075955	22776.624122
5.037000	0.000209	-0.000414	-0.000647	0.000029	6280.225924	43426.420934	3901.280181	22786.921353
5.537000	-0.002304	-0.000673	-0.003213	-0.000061	6261.424229	43410.679793	3895.415485	22791.040535
6.037000	0.000293	0.000482	-0.006300	0.000181	6279.697895	43495.903330	3887.581859	22779.973209
6.534500	-0.001770	-0.000477	-0.002001	-0.000473	6268.748142	43467.406659	3899.256858	22809.915285
7.040000	0.000326	0.000572	-0.000698	0.000512	6277.379700	43473.426478	3900.012697	22764.828938
7.535500	0.000902	-0.000150	0.002752	0.000173	6284.501187	43437.606707	3909.040855	22780.318475
8.035500	-0.001317	-0.000399	-0.001839	-0.000140	6269.682407	43443.660767	3898.852730	22794.682547
8.535500	0.001834	-0.000649	0.005538	-0.000209	6294.756109	43426.650239	3916.651406	22797.801007
9.036500	-0.001185	0.000250	-0.002969	0.000418	6266.378414	43452.179719	3894.860857	22769.140816
9.536500	0.000000	0.000000	0.000000	0.000000	6278.827170	43467.764285	3902.887414	22788.249896
10.036500	-0.000436	-0.000675	-0.001787	-0.000402	6278.557845	43442.332199	3899.596537	22806.657705
10.537000	-0.001654	0.000449	-0.004957	0.004591	6230.588117	43083.158189	3880.415716	22579.117700
11.037500	0.001238	-0.000162	0.000687	-0.000126	6289.452161	43464.342807	3904.822982	22794.011298
11.535500	0.000296	0.000472	0.000280	0.000426	6277.819781	43472.052042	3902.541279	22768.758248
12.035000	-0.001818	-0.000298	0.002161	-0.000713	6270.241908	43506.500122	3909.748530	22820.939084
12.535500	-0.002141	-0.000372	-0.000638	0.004264	6229.363529	43037.632478	3891.290549	22593.952892
13.035500	-0.000937	-0.000215	0.000217	-0.000653	6276.619699	43508.646482	3904.958747	22818.165860
13.535500	0.000912	0.000704	-0.002042	0.000572	6281.467953	43480.027221	3896.684776	22762.054392
14.036500	0.000688	0.000444	0.001338	0.002906	6261.614698	43238.771820	3899.164076	22655.634904
14.536500	-0.002890	0.000450	-0.011082	0.004751	6219.902354	43068.547147	3865.893044	22571.886948
15.036500	0.001533	0.000778	0.002834	0.000270	6288.664442	43515.121962	3909.005463	22775.876169
15.537000	0.001102	0.000133	-0.000617	0.000123	6286.453513	43468.707743	3901.127891	22782.603128
16.040000	-0.001204	-0.000138	0.000273	-0.000796	6275.656333	43529.155101	3905.433881	22824.730778
16.538000	-0.003213	-0.001066	0.000268	0.004512	6219.258018	42950.764697	3892.839186	22582.709686
17.035000	0.003087	-0.000457	-0.001685	-0.003524	6330.662220	43754.955630	3907.273207	22950.292433
17.535500	0.001178	0.000516	0.001664	0.001590	6275.619524	43367.724662	3903.063304	22715.568510
18.035500	0.000063	0.000013	-0.003978	0.001220	6269.831769	43355.299988	3890.592117	22732.441849
18.536000	-0.000386	-0.000296	0.001659	0.002303	6257.972752	43226.082812	3901.356438	22683.082667
19.035500	-0.000213	-0.000458	0.003888	0.000930	6269.946742	43338.440028	3909.950327	22745.705835
19.536500	-0.001409	-0.000461	-0.003762	0.000765	6261.955617	43353.483441	3892.171257	22753.232614
20.037000	-0.001680	0.000046	0.002238	0.001243	6256.160302	43356.251521	3905.258077	22731.418201
20.537000	-0.002063	-0.000030	0.002022	0.002589	6242.830247	43224.170830	3901.539697	22670.053028
21.040000	-0.001377	0.000296	0.001673	0.001543	6256.188810	43351.651073	3903.198690	22717.732718
21.535000	-0.000168	0.000047	-0.000353	0.001004	6269.719018	43378.634164	3899.663774	22742.335126
22.035000	-0.002385	-0.000434	-0.003539	0.000609	6255.613103	43370.537274	3893.064290	22760.363710
22.535500	-0.000262	0.000001	-0.008197	0.002443	6257.846711	43240.547296	3877.877442	22676.687373
23.036000	-0.003220	0.000157	-0.000305	0.001190	6244.688598	43371.501460	3899.336798	22733.825406
23.536000	0.001106	0.001092	0.000551	0.001831	6273.193372	43398.893374	3899.846653	22704.578103
24.036500	0.000633	0.000374	0.004191	0.001959	6268.523136	43320.142039	3908.212597	22698.749979
24.537000	-0.002509	0.000147	0.003432	0.003164	6234.973167	43187.283291	3903.523566	22643.879184
25.037500	0.000089	0.000616	0.000919	0.001792	6265.605172	43358.240683	3900.813912	22706.377102
25.535000	-0.001919	-0.000454	0.000332	0.001311	6253.785188	43303.449146	3900.559286	22728.297579
26.037500	0.000421	-0.000058	-0.000904	0.001269	6272.237960	43344.120257	3897.730169	22730.219971
26.534500	-0.003541	-0.000354	-0.000170	0.002652	6230.987436	43188.301053	3896.194459	22667.190527
27.035500	-0.000599	0.000120	-0.001299	-0.001129	6282.954505	43584.474828	3902.484181	22840.018056
27.535500	0.001049	0.000064	0.000801	-0.001064	6295.307458	43573.180509	3907.334368	22837.042840
28.036500	-0.000216	-0.000024	0.000476	-0.000155	6278.351317	43479.984411	3904.389091	22795.335656
28.536000	-0.000493	-0.000081	0.002111	0.005053	6235.951800	42991.622559	3895.909107	22558.182576
29.036500	-0.004189	0.000203	-0.001666	0.004978	6208.251841	43024.800171	3887.198457	22561.609598
29.537000	0.000363	0.000454	0.003924	0.000298	6279.335633	43482.335300	3911.550502	22774.611186
30.037000	-0.001323	-0.000214	-0.003576	-0.000152	6269.725293	43461.945444	3894.772275	22795.209589
30.540500	0.000800	-0.000794	-0.001952	0.002312	6267.086783	43179.092631	3892.790574	22682.662529
31.037500	-0.000902	0.000053	-0.001947	0.005115	6232.332088	42998.211327	3886.218133	22555.379841
31.535500	0.002902	0.000170	-0.000993	0.000569	6297.026922	43430.573576	3899.176022	22762.201126
32.035500	0.001046	0.000325	-0.000675	0.000052	6286.567202	43493.238211	3901.157344	22785.846425
32.536000	0.003873	0.000814	0.002047	0.000898	6302.055912	43459.924568	3905.625849	22747.179066
33.036000	-0.003421	0.000543	-0.000188	0.004157	6220.377070	43131.994673	3892.601016	22598.803002
33.536500	-0.000242	0.000090	-0.001389	-0.001831	6291.208830	43647.292449	3903.938005	22872.249085
34.036500	0.000569	-0.000140	0.000518	0.001694	6270.080936	43296.973776	3900.092793	22710.807378
34.537000	-0.000684	-0.000530	0.003917	0.002613	6253.274206	43175.671153	3905.995808	22668.964169
35.034500	-0.001246	0.000847	0.003799	0.004480	6234.566437	43130.272535	3901.268011	22584.135747
35.537500	0.000527	0.000979	-0.001853	0.002769	6261.428478	43301.104006	3891.948270	22661.844719
36.035000	-0.000981	0.000388	0.000537	0.002064	6255.213092	43311.652055	3899.258665	22693.946947
36.535500	-0.001652	0.000834	0.001364	0.003506	6238.933650	43219.300043	3897.804928	22628.359263
37.035500	-0.002790	0.000735	-0.002214	0.004367	6223.596920	43130.340560	3887.345342	22589.267564
37.535500	0.000244	-0.000854	-0.001344	0.002021	6265.031046	43200.418346	3894.911724	22695.905166
38.036000	-0.002958	-0.000397	0.003713	0.002040	6240.165057	43241.073637	3906.875603	22695.048377
38.536500	-0.004035	-0.000391	-0.004806	0.002449	6228.759264	43203.760100	3885.769886	22676.434934
39.036500	-0.001655	-0.000669	0.001322	0.001658	6253.146880	43251.239250	3902.088609	22712.463858
39.537000	-0.000512	-0.000008	0.001799	0.001909	6260.044300	43289.282650	3902.625885	22701.023808
40.037000	0.000610	-0.000532	-0.002169	0.001375	6272.875033	43290.205673	3894.488799	22725.367576
40.537500	0.000330	-0.000307	0.000285	0.002314	6263.423344	43223.933304	3898.070296	22682.555503
41.035000	-0.003232	-0.000000	0.002096	0.001347	6243.382831	43342.248814	3904.671071	22726.647567
41.538000	-0.000653	-0.000243	0.003541	0.001432	6262.643283	43311.789806	3907.916864	22722.766444
42.035500	-0.001232	0.000276	-0.000568	0.002309	6251.386951	43278.605382	3896.065907	22682.802282
42.536500	0.000534	-0.000512	-0.000799	0.002382	6264.480833	43198.687859	3895.347869	22679.490406
43.036500	-0.000074	0.000224	-0.004055	0.001893	6263.553832	43312.383072	3888.829737	22701.739424
43.537000	0.000558	0.000348	0.003709	0.001750	6269.562987	43337.109153	3907.558715	22708.256150
44.037000	0.000813	-0.000136	-0.001215	-0.000746	6290.982094	43524.701651	3901.772822	22822.449494
44.537500	-0.002093	0.000119	-0.006517	0.004699	6226.401344	43042.843551	3876.542411	22574.256608
45.034500	-0.002343	-0.000061	-0.001213	0.005861	6215.592158	42919.067393	3886.190488	22521.655426
45.534500	0.000189	0.000881	0.001376	0.000356	6277.524714	43516.748261	3905.316759	22771.955459
46.035000	-0.000316	-0.000259	0.000601	-0.000512	6280.354188	43491.442885	3905.541106	22811.728397
46.535500	-0.002514	-0.000073	-0.003156	0.005440	6217.507625	42956.811542	3882.636636	22540.712166
47.036000	-0.004398	-0.000484	-0.000469	0.005218	6204.834406	42939.312265	3889.443184	22550.740805
47.536000	-0.002139	0.001156	0.001017	0.003611	6234.388714	43239.447630	3896.734662	22623.601171
48.039000	0.000957	0.000079	-0.000918	0.000896	6279.302480	43391.621508	3898.581716	22747.278789
48.536500	-0.000511	-0.000107	-0.000441	0.005283	6234.048834	42968.116262	3889.357546	22547.800515
49.037500	-0.002963	0.000199	0.002384	0.005734	6211.835337	42954.642459	3894.947184	22527.392166
49.537500	0.001742	0.000667	-0.000150	-0.002055	6308.500799	43722.514528	3907.430541	22882.571131
50.035500	0.001827	0.000703	-0.003603	-0.002586	6313.342087	43775.761377	3900.471307	22907.035650
50.535000	-0.004141	-0.003863	0.002334	0.050574	5878.852460	38694.943993	3794.249696	20602.123452
51.036000	0.023813	-0.012391	0.005307	0.309399	4650.509330	22265.638416	3382.580948	12654.912212
51.535500	0.005369	-0.020529	-0.022259	-0.037266	6627.371535	45059.584803	3939.219278	24570.074471
52.037000	0.000877	-0.090350	-0.019443	-0.277030	9307.378170	65224.196028	4739.507295	40536.944246
52.536500	-0.007533	-0.084710	-0.017798	-0.268922	9068.255739	64871.354894	4711.886906	39840.862419
53.036500	0.002096	-0.084016	-0.013644	-0.270090	9223.530693	65137.315887	4734.603092	39940.319234
53.536500	0.003632	-0.069829	-0.010360	-0.252299	8991.228258	64623.518177	4673.331505	38453.694239
54.041000	-0.002682	-0.046886	-0.011424	-0.218459	8453.277581	63095.340854	4534.034651	35788.602047
54.534500	-0.014016	-0.035842	-0.015042	-0.197972	8060.923037	61801.863379	4444.165347	34273.233754
55.035000	-0.010986	-0.049045	-0.015617	-0.223935	8417.236190	63556.517556	4538.961095	36205.955330
55.535500	-0.004846	-0.042795	-0.005864	-0.212269	8347.462957	62805.345155	4531.620713	35323.166003
56.035500	0.001560	-0.021600	0.001284	-0.154084	7735.200732	57918.816978	4347.338168	31257.838186
56.536000	-0.003259	-0.017867	-0.005545	-0.134832	7474.487993	55989.416874	4261.200464	30028.234950
57.036000	0.001742	-0.011253	-0.002795	-0.105224	7222.506765	53254.555589	4177.744322	28240.497664
57.536500	0.002710	-0.008344	0.001952	-0.098924	7169.757610	52863.278602	4173.074313	27875.575975
58.037000	0.006003	-0.004026	0.004821	-0.062694	6857.913201	49327.575040	4076.693039	25876.701561
58.537500	0.007942	0.001070	0.004071	-0.040643	6678.787552	47551.922965	4014.950071	24739.226651
59.037500	0.015078	0.003512	0.007816	-0.030204	6650.149919	46738.228350	3997.427348	24220.551380
59.535000	0.017928	0.006883	0.019767	-0.008954	6494.583900	44972.429580	3973.536081	23202.526017
60.035000	0.026221	0.010081	0.019891	0.012847	6384.502313	43210.517857	3919.783538	22208.571170
60.535500	0.024680	0.013936	0.029115	0.041421	6151.056963	40983.262672	3874.017581	20979.147634
61.036000	0.031115	0.017513	0.033131	0.057023	6083.145243	39944.720177	3847.574666	20341.211274
61.536000	0.033097	0.016310	0.037567	0.088539	5873.865270	37260.357582	3788.452546	19120.461489
62.039000	0.038181	0.021624	0.043065	0.107768	5778.571534	36178.650409	3759.854828	18418.013075
62.537000	0.036584	0.021821	0.038960	0.103623	5795.509048	36512.446368	3759.936421	18566.809307
63.034500	0.039678	0.025447	0.041956	0.096852	5862.036689	37325.558904	3780.186906	18812.971356
63.553500	0.044651	0.029448	0.051346	0.091231	5935.177799	38095.544575	3812.212695	19020.240176
64.037500	0.049198	0.031847	0.050980	0.086146	6003.248910	38706.294855	3822.510350	19210.064400
64.535000	0.052071	0.034297	0.054481	0.082684	6048.848712	39196.341711	3837.913661	19340.601720
65.035000	0.049777	0.036521	0.057820	0.082967	6030.219798	39358.682721	3844.752761	19329.896387
65.535500	0.055358	0.037516	0.054170	0.076863	6115.583819	39958.639661	3850.276729	19562.420512
66.036500	0.057766	0.040136	0.055199	0.079532	6113.657383	39954.503444	3846.581191	19460.358568
66.536500	0.061348	0.042074	0.063396	0.080267	6134.788340	40057.107148	3863.514565	19432.356481
67.036500	0.059101	0.042043	0.062951	0.086223	6074.267878	39549.149922	3848.972958	19207.194140
67.536500	0.065560	0.043561	0.069326	0.083186	6144.432030	39934.902833	3870.428872	19321.606166
68.037000	0.068105	0.044857	0.070524	0.082245	6170.586345	40125.927338	3875.372219	19357.227737
68.537500	0.069761	0.046223	0.072843	0.082741	6179.328825	40200.413402	3879.600902	19338.431495
69.037000	0.071029	0.047736	0.074034	0.084553	6175.228121	40174.802787	3878.159645	19270.001405
69.535000	0.075502	0.049536	0.075628	0.083109	6220.151026	40453.865472	3885.237499	19324.510299
70.035000	0.076732	0.050693	0.080604	0.083857	6223.845247	40489.213194	3895.175662	19296.262967
70.535500	0.075917	0.052261	0.081549	0.090743	6165.417677	40032.358654	3881.240221	19038.353256
71.036000	0.081422	0.055147	0.080767	0.090535	6208.665834	40297.558417	3879.905345	19046.103681
71.536000	0.082532	0.054843	0.085030	0.088362	6233.769725	40458.540317	3894.990615	19127.082927
72.036500	0.083618	0.055542	0.091063	0.089856	6230.645876	40389.974297	3905.764851	19071.369395
72.537000	0.083686	0.056316	0.095245	0.096627	6179.623398	39876.586820	3899.603750	18821.195910
73.040000	0.084418	0.058208	0.088438	0.096691	6184.675462	40032.330584	3883.435820	18818.855968
73.537500	0.086102	0.058420	0.088947	0.094544	6213.783018	40234.355998	3889.655826	18897.759772
74.035000	0.088561	0.058848	0.091272	0.097060	6213.343085	40055.492585	3889.207356	18805.335572
74.535000	0.086288	0.060531	0.086590	0.105877	6129.805251	39451.061082	3858.001718	18485.719996
75.035500	0.088124	0.061079	0.095053	0.106094	6141.864273	39478.808993	3876.946470	18477.919576
75.536000	0.093264	0.062375	0.096281	0.107865	6167.115105	39438.882467	3875.688298	18414.516171
76.036000	0.092487	0.064066	0.097037	0.111612	6133.259050	39266.602805	3868.782340	18281.261214
76.536000	0.090455	0.063802	0.097459	0.120443	6053.383716	38513.987138	3849.621504	17971.661979
77.039500	0.093995	0.065944	0.100077	0.121534	6071.218586	38600.234023	3853.074672	17933.873970
77.537500	0.094900	0.067122	0.099896	0.122944	6067.533506	38581.210748	3849.476495	17885.140348
78.037000	0.096915	0.068615	0.096905	0.127540	6048.760962	38327.479842	3832.505629	17727.395851
78.537500	0.095544	0.067639	0.102561	0.135370	5982.750529	37617.504178	3827.698116	17462.487884
79.035000	0.096356	0.070001	0.106945	0.133998	5998.295466	37916.850207	3840.482077	17508.583407
79.536000	0.099710	0.069988	0.109027	0.137409	5997.885277	37642.304582	3837.515765	17394.296784
80.035000	0.101891	0.071761	0.114480	0.140384	5992.231567	37546.426941	3843.054915	17295.352276
80.536000	0.103790	0.071760	0.113872	0.141356	5998.834809	37468.980534	3839.518346	17263.161009
81.037000	0.106417	0.073168	0.108394	0.143743	6000.554618	37391.278933	3822.111714	17184.459619
81.536500	0.105905	0.073604	0.114162	0.145355	5985.422884	37298.189440	3831.271574	17131.536244
82.040000	0.109242	0.073968	0.110730	0.147051	5997.097163	37192.931036	3819.980270	17076.058662
82.539500	0.111006	0.073986	0.115177	0.149226	5994.171392	37023.362489	3824.966153	17005.247151
83.035000	0.107106	0.074901	0.116860	0.151705	5949.056534	36900.883185	3823.216528	16924.983009
83.535000	0.112056	0.075427	0.116788	0.154004	5967.728285	36762.550332	3818.024046	16850.941230
84.035500	0.113328	0.076328	0.124162	0.156146	5961.585777	36666.125658	3829.520159	16782.305390
84.535500	0.115533	0.075797	0.119073	0.157686	5966.279135	36505.715949	3814.977570	16733.165286
85.036000	0.118018	0.077297	0.126224	0.162658	5948.767742	36238.521512	3819.734062	16575.709110
85.536500	0.118109	0.078085	0.124735	0.163351	5944.546976	36245.837745	3814.971631	16553.913981
86.036500	0.120828	0.078963	0.126682	0.165636	5947.585250	36138.183535	3814.235416	16482.257443
86.536000	0.119251	0.079445	0.128153	0.167288	5925.015765	36048.944228	3813.843372	16430.715250
87.040000	0.122328	0.080484	0.131266	0.170612	5923.296895	35875.273339	3813.384160	16327.553708
87.536500	0.122518	0.080606	0.125856	0.171419	5919.001274	35823.338012	3799.968041	16302.626822
88.035000	0.123641	0.081118	0.129855	0.174029	5908.678663	35664.929934	3802.948330	16222.321444
88.535000	0.122204	0.081128	0.129276	0.181650	5846.576191	35096.656473	3785.491416	15990.599989
89.035000	0.125747	0.081708	0.131599	0.179487	5885.546465	35300.318074	3795.001696	16055.956680
89.535500	0.126360	0.083133	0.127484	0.180418	5883.361821	35337.133029	3784.310637	16027.788642
90.035500	0.127461	0.082405	0.137459	0.181363	5884.429291	35212.603515	3803.528864	15999.245643
90.536000	0.127011	0.082871	0.131041	0.183490	5866.775602	35089.506079	3785.332516	15935.266162
91.036500	0.127760	0.083404	0.133328	0.185704	5856.783632	34965.347393	3785.485856	15868.972853
91.536500	0.130452	0.084189	0.133355	0.187519	5862.766254	34889.596153	3781.724560	15814.913632
92.037500	0.130758	0.084562	0.136093	0.189083	5854.193641	34802.105480	3784.191776	15768.485598
92.537500	0.128764	0.085018	0.133570	0.196462	5791.112190	34298.454633	3763.574637	15551.702816
93.037500	0.130470	0.084941	0.131486	0.192275	5830.619040	34596.516387	3767.914298	15674.268258
93.535000	0.133329	0.085838	0.138408	0.193285	5843.119477	34588.254041	3780.227100	15644.585747
94.035500	0.133365	0.085808	0.139633	0.194752	5833.433840	34479.321783	3779.718003	15601.599505
94.536000	0.131155	0.086520	0.132326	0.201510	5773.479302	34043.548840	3750.714351	15405.508916
95.036000	0.134175	0.087030	0.134711	0.198639	5812.729574	34286.552527	3761.445467	15488.457815
95.536500	0.136042	0.087548	0.142680	0.199429	5819.955016	34266.911578	3776.308266	15465.563296
96.037000	0.137174	0.087541	0.144423	0.200661	5819.283604	34177.687761	3777.375743	15429.968738
96.539500	0.133053	0.087316	0.141117	0.206373	5753.930601	33753.780706	3758.721972	15266.283859
97.034000	0.135744	0.087185	0.137499	0.202882	5794.848506	33992.987143	3758.462475	15366.081970
97.537000	0.139970	0.087829	0.140582	0.204045	5815.337450	33955.928490	3762.400848	15332.746915
98.035000	0.138429	0.088870	0.144751	0.205152	5797.614836	33951.180989	3768.716339	15301.084019
98.535500	0.134737	0.088809	0.139549	0.211630	5730.546222	33487.956000	3744.855885	15117.497884
99.036000	0.141480	0.088951	0.142091	0.207907	5799.585888	33760.889369	3757.573728	15222.666137
99.536000	0.141918	0.090460	0.146470	0.209328	5793.037588	33767.201262	3763.644284	15182.437179
100.036500	0.140429	0.091028	0.150387	0.210514	5775.265121	33723.376136	3769.284789	15148.936111
100.536500	0.138788	0.089456	0.137181	0.215351	5732.694897	33272.646811	3732.669535	15013.286046
101.037000	0.144956	0.091292	0.145129	0.213499	5785.497068	33531.178210	3752.367337	15065.044277
101.537500	0.145985	0.091048	0.144124	0.213385	5793.096236	33522.001722	3750.557017	15068.221364
102.037500	0.144061	0.091805	0.146819	0.215146	5768.655456	33451.487866	3752.456522	15019.007351
102.538000	0.145129	0.092093	0.150516	0.215923	5770.573492	33417.116911	3758.411006	14997.335103
103.034500	0.148854	0.091732	0.150048	0.216348	5792.474035	33362.097314	3756.586931	14985.512271
103.552000	0.147080	0.091523	0.153279	0.217492	5773.102266	33267.463479	3760.859802	14953.718313
104.036000	0.148724	0.092995	0.148220	0.218575	5776.819214	33294.661740	3748.342414	14923.705727
104.536000	0.152078	0.093467	0.150281	0.220014	5789.523906	33227.139081	3749.599983	14883.914260
105.036000	0.148869	0.092473	0.155699	0.220087	5767.775491	33152.835483	3760.498261	14881.908304
105.539500	0.149576	0.092864	0.151080	0.220679	5768.533516	33138.885493	3749.871960	14865.592329
106.040000	0.149879	0.092496	0.153101	0.221288	5766.519528	33071.124941	3752.740824	14848.837992
