sample name	sample
index	1202
start time	 04-26-2021  12:47:46 PM
880	0.009566
Peak Time (s)	92.037
Peak Height 	0.009566
calc peak height	90,93
Baseline Time (s)	10.037
Baseline Value 	-0.004781
subtract baseline	10,4
Abs	-0.017253
Peak Time (s)	91.037
Peak Height 	-0.01725
calc peak height	90,93
Baseline Time (s)	8.536
Baseline Value 	3.3576E-4
subtract baseline	10,3
PK_550	-0.005841
Peak Time (s)	92.535
Peak Height 	-0.005841
calc peak height	90,93
Baseline Time (s)	10.537
Baseline Value 	6.8537E-4
subtract baseline	10,2
PK_880	-0.012687
Peak Time (s)	92.535
Peak Height 	-0.01269
calc peak height	90,93
Baseline Time (s)	10.037
Baseline Value 	0.002469
subtract baseline	10,1


Time (s)	A880-A510	A880-A775	A880-A975	A880	I510	I775	I975	I880	
0.034000	0.000015	-0.000066	0.008949	0.002676	6162.475404	43591.391614	3891.942779	22543.609563
0.537000	-0.001300	-0.000099	0.001329	0.007930	6113.624922	43099.392546	3862.886004	22307.560258
1.037000	-0.000101	-0.001445	0.004130	0.003516	6155.322147	43384.103857	3879.062954	22505.693745
1.534500	0.000087	0.000372	0.004125	0.001803	6169.561811	43714.289335	3882.932506	22583.127808
2.038000	0.000319	0.000157	-0.000087	0.001700	6172.086435	43703.849813	3873.648604	22587.797732
2.535500	-0.004133	-0.001522	-0.002496	0.006491	6103.345642	43100.772421	3857.593149	22371.901549
3.036000	0.002702	0.000385	0.001981	-0.000325	6205.380765	43915.890307	3882.896444	22679.769676
3.536000	0.000575	-0.000627	0.003883	0.000741	6181.227592	43720.176438	3884.794589	22631.281926
4.036000	-0.000126	-0.000475	0.001288	0.000590	6177.082568	43748.676972	3879.252289	22638.146148
4.536500	-0.000970	-0.000576	0.003027	0.000647	6170.308521	43733.891063	3883.064966	22635.573442
5.033500	-0.000757	-0.001093	0.004006	0.000315	6174.402506	43716.524446	3886.045479	22650.646423
5.537500	-0.001176	-0.000438	0.004266	0.000799	6167.619219	43732.551545	3885.534798	22628.653694
6.037000	-0.000271	-0.000537	0.001293	-0.000147	6181.540001	43812.238775	3880.932628	22671.656930
6.535000	0.002379	0.000848	0.002869	0.000978	6193.058050	43836.744157	3881.956606	22620.557162
7.038500	0.000084	0.000366	-0.000508	0.000054	6182.708066	43878.385057	3876.408970	22662.533534
7.535000	-0.000781	-0.000535	-0.000211	-0.000069	6177.119822	43805.124637	3877.355796	22668.134278
8.036000	0.000449	-0.000159	-0.002236	0.000024	6185.689471	43831.727801	3872.588029	22663.904100
8.536000	-0.000557	-0.000993	0.000000	-0.000861	6184.772895	43836.513314	3879.621645	22704.170451
9.036000	0.000537	0.000344	0.003403	0.000484	6182.880700	43835.839976	3884.288573	22642.982784
9.536500	-0.000605	0.000293	-0.001785	0.000506	6174.111737	43828.899735	3872.516661	22641.966446
10.037000	0.000000	-0.000175	0.003480	0.000000	6182.478959	43832.473247	3885.564922	22664.977225
10.537000	0.000285	0.000000	-0.002490	-0.000504	6188.433567	43896.450976	3873.200513	22687.897942
11.035000	0.000442	-0.000395	-0.004877	-0.000891	6192.542967	43895.761342	3868.717048	22705.553917
11.539000	-0.000320	0.000028	0.008349	0.000213	6178.458396	43831.522611	3896.219402	22655.286239
12.039500	0.000214	0.000458	-0.003044	-0.000375	6186.922113	43927.560270	3871.669761	22682.052160
12.535500	0.000428	-0.000671	0.004515	-0.001192	6194.714469	43898.044573	3890.645842	22719.257838
13.036000	0.001327	0.000571	0.006259	-0.002398	6210.680909	44129.719187	3897.419494	22774.353095
13.536500	-0.000762	-0.000322	-0.002047	0.001164	6167.988794	43709.184794	3870.452007	22612.108414
14.036500	-0.001408	0.000550	0.001992	-0.000055	6172.295828	43906.063790	3882.310487	22667.488387
14.536500	-0.001654	-0.000229	0.004890	0.002096	6154.326369	43630.453601	3884.005251	22569.880779
15.037000	-0.000530	-0.000059	-0.000677	0.000457	6175.042642	43800.298272	3875.117524	22644.186758
15.541500	-0.001672	0.000013	-0.000530	0.002169	6153.646114	43646.328629	3871.601388	22566.558585
16.041000	0.000254	0.000414	0.007179	0.000306	6182.090609	43859.135957	3893.317712	22651.071793
16.537500	0.001392	0.000241	0.004378	-0.000143	6194.074135	43885.223766	3887.938443	22671.491247
17.039000	-0.001235	0.000467	0.001768	-0.000165	6174.419897	43908.531904	3882.048425	22672.462792
17.536000	0.000949	-0.000407	0.003009	-0.001035	6197.477735	43908.266528	3886.850447	22712.130926
18.036500	-0.000180	0.000264	0.003331	-0.001339	6191.229641	44000.334688	3888.277141	22725.978542
18.535500	-0.000636	-0.000276	-0.002012	0.000454	6174.266484	43780.217976	3872.123705	22644.325129
19.036500	-0.001413	-0.000073	0.002678	0.001355	6161.674740	43714.655915	3880.669515	22603.451150
19.537000	-0.002321	-0.000608	0.002184	0.000544	6160.943545	43740.542215	3881.385901	22640.233650
20.039500	-0.000411	-0.000286	0.002040	0.001069	6171.334834	43721.448847	3879.871606	22616.402306
20.537500	-0.000252	-0.000038	-0.001804	0.000783	6174.691051	43771.731782	3871.853982	22629.412928
21.039000	-0.002504	0.000022	0.000193	0.001163	6154.947532	43741.602348	3875.489272	22612.144754
21.535000	0.001367	0.000634	-0.001078	0.001593	6180.773034	43758.703900	3871.663753	22592.647995
22.035500	-0.001725	-0.000388	-0.000764	0.000785	6163.608982	43738.534028	3874.183694	22629.298020
22.536000	0.000154	-0.000000	-0.002533	0.000985	6176.215746	43756.208191	3869.763869	22620.204854
23.036000	-0.002749	-0.000520	0.003836	0.000741	6156.271679	43730.375760	3884.690910	22631.313934
23.536500	-0.000495	-0.000389	0.003190	0.001098	6170.495681	43709.143576	3882.412892	22615.117984
24.036500	-0.000523	-0.000174	0.000828	0.001136	6169.993938	43725.708698	3876.980433	22613.377429
24.540000	0.001435	0.000825	0.003858	0.002152	6177.073527	43724.114533	3881.535420	22567.330452
25.034500	0.001874	0.000479	0.000960	0.001746	6183.441436	43729.664097	3875.902885	22585.694320
25.535000	0.000033	-0.000495	0.007034	0.001427	6171.981788	43668.198831	3890.416227	22600.156031
26.035500	-0.002142	-0.000163	0.002189	0.000879	6159.779580	43750.848801	3880.638410	22625.026903
26.535500	0.000311	-0.000209	0.005242	0.000852	6178.405233	43749.136185	3887.639784	22626.269714
27.035500	-0.003278	-0.000555	0.006033	0.001045	6150.051748	43698.475977	3889.003218	22617.514116
27.536000	-0.000525	0.000080	0.002967	0.001106	6170.206246	43752.408761	3881.887717	22614.729191
28.036500	0.001524	0.000369	0.001674	-0.002176	6210.493749	44089.518477	3886.408517	22764.211985
28.541000	0.000535	-0.000503	0.000398	0.000860	6180.024348	43720.669471	3876.632938	22625.879026
29.053500	-0.001024	-0.000238	0.001632	-0.000760	6180.486366	43898.138233	3883.091114	22699.570100
29.537000	0.000203	-0.000741	0.000685	-0.000833	6190.300268	43857.669125	3881.109413	22702.909830
30.034500	0.001542	0.000470	0.007935	0.000277	6192.026204	43867.180259	3895.120217	22652.374224
30.537500	-0.000427	0.000087	0.000960	0.000457	6175.818997	43814.150556	3878.813217	22644.196535
31.035500	0.000022	0.000481	0.006025	-0.000244	6184.490131	43917.347196	3891.933914	22676.092287
31.535500	-0.000159	0.000144	0.002242	0.002759	6160.548969	43603.291614	3876.509119	22539.859019
32.036000	-0.002672	-0.000057	-0.000058	0.001991	6147.510325	43656.517277	3873.062045	22574.640650
32.571000	-0.003827	-0.000680	0.001702	0.000955	6146.619392	43695.211860	3879.364385	22621.579184
33.036500	-0.001406	0.000238	0.002027	-0.000126	6172.841297	43883.258920	3882.548657	22670.689807
33.537000	-0.000869	-0.000110	-0.001440	0.001173	6167.118168	43728.157293	3871.794027	22611.671678
34.037000	-0.000787	-0.000737	0.001117	-0.001273	6186.150205	43899.526951	3883.087809	22722.978273
34.537500	-0.001514	-0.000221	0.008245	-0.001540	6182.675457	43973.428428	3900.019307	22735.136559
35.038000	-0.000947	0.000379	0.005573	0.001165	6166.595031	43774.963361	3887.679685	22612.061519
35.535000	-0.003182	-0.000443	-0.003381	0.001109	6150.282782	43702.934883	3867.588858	22614.580898
36.036000	-0.001145	0.000442	0.004447	0.001449	6162.982928	43754.210678	3884.468663	22599.192094
36.536000	-0.001293	-0.000515	-0.000248	0.001103	6164.464440	43696.769201	3874.631786	22614.879232
37.036000	-0.001003	-0.000261	-0.000152	0.001528	6163.446577	43680.720789	3873.888203	22595.575560
37.536500	0.000198	-0.000888	0.000368	0.001544	6172.350770	43620.450550	3875.024053	22594.880039
38.036500	-0.001691	-0.000863	-0.000461	0.000920	6162.851650	43681.355565	3874.564015	22623.185607
38.536500	-0.000904	-0.000643	0.001350	0.001547	6164.050990	43643.082128	3877.232046	22594.734176
39.037000	-0.002431	0.000022	-0.000775	0.002163	6148.018886	43647.710884	3871.064869	22566.817608
39.537500	-0.002722	-0.000990	-0.001641	0.001358	6151.858170	43628.341299	3870.928725	22603.301651
40.038000	-0.001589	-0.000130	0.002074	0.002017	6155.404610	43647.172825	3877.804111	22573.440129
40.535500	0.000190	0.000012	0.005928	0.001573	6172.067561	43702.084865	3887.557519	22593.553872
41.036000	-0.001644	-0.000499	0.002031	0.001390	6159.683036	43671.421418	3879.125991	22601.869932
41.536000	-0.002211	-0.000617	0.001832	0.001455	6154.953116	43654.148992	3878.526659	22598.903231
42.036500	-0.001024	0.000044	0.004076	0.002310	6157.442511	43636.025503	3881.672080	22560.202846
42.536500	-0.001466	-0.000981	-0.005758	0.000774	6165.634383	43683.977911	3863.039878	22629.819288
43.036500	-0.000547	0.000011	0.005289	0.002043	6163.008571	43657.974330	3885.033584	22572.266263
43.537500	-0.001939	-0.000522	0.003152	0.001500	6156.659140	43658.919272	3881.414906	22596.881993
44.034000	-0.001078	0.000566	0.001239	0.002506	6155.564496	43666.512728	3874.818418	22551.307104
44.537500	-0.001438	-0.000302	-0.002181	0.000902	6164.883128	43735.741155	3870.739838	22624.006569
45.035000	0.001701	0.000767	0.007343	-0.002061	6210.968169	44116.270982	3899.139580	22758.937643
45.535500	0.000259	-0.000140	0.000684	0.003526	6157.942030	43504.980080	3871.280420	22505.242201
46.045000	0.000948	-0.000892	0.001270	-0.000766	6195.425851	43837.031140	3882.283737	22699.834355
46.536000	0.001388	0.000004	0.001531	0.000834	6186.661385	43770.823994	3879.251617	22627.084840
47.036000	-0.000035	0.000172	0.005373	0.000350	6179.575225	43832.169308	3889.083158	22649.064181
47.536500	0.000638	-0.000353	0.004852	0.001815	6173.619579	43645.149257	3884.558605	22582.595229
48.037000	-0.000145	0.000404	0.003112	0.000165	6180.140705	43871.439872	3884.351386	22657.458603
48.536500	-0.002173	-0.000293	0.001567	0.001861	6152.206401	43646.480425	3877.012364	22580.517289
49.037500	-0.000951	-0.000135	0.002756	0.002688	6155.152676	43583.796454	3877.830104	22543.075241
49.537500	-0.001508	0.000139	0.003605	0.000780	6165.270589	43788.540747	3884.075501	22629.514150
50.035500	-0.001324	-0.000037	0.005239	-0.000395	6175.483661	43882.703044	3890.480332	22682.955363
50.535000	0.001888	0.000113	0.005423	0.000609	6192.137571	43802.256581	3888.605322	22637.294292
51.036000	0.001429	0.000985	0.007092	0.000761	6187.514224	43870.040332	3892.074636	22630.379448
51.536500	0.001566	0.001146	0.005361	0.001341	6184.171397	43830.537002	3886.793641	22604.065308
52.036000	0.001843	0.000120	0.002838	0.003448	6170.400125	43536.537106	3876.299352	22508.772375
52.536500	0.011802	-0.002902	0.012030	0.136629	5364.510079	32603.431176	3633.104747	17332.849491
53.037000	0.001686	-0.021539	-0.022801	0.120167	5400.668815	32455.201785	3602.623154	17890.022040
53.537000	-0.011017	-0.067994	-0.041800	-0.232957	8366.563919	62758.669185	4419.890231	36687.690239
54.037500	-0.004233	-0.117664	-0.024346	-0.302324	9412.727464	65535.000000	4756.886369	42537.487078
54.535000	-0.006555	-0.099029	-0.016485	-0.282925	9095.405485	65424.932553	4708.124872	40806.397574
55.035000	-0.008512	-0.052668	-0.017793	-0.212049	8140.088717	61994.527660	4430.798424	35100.085537
55.538000	-0.012287	-0.037015	-0.018158	-0.177440	7697.524317	59471.710348	4312.130879	32634.459017
56.036000	-0.023981	-0.031722	-0.028143	-0.161326	7400.464448	58080.146799	4229.596241	31551.794656
56.536500	-0.023114	-0.038719	-0.024382	-0.193630	7757.041294	61389.772058	4344.977041	33763.471584
57.036500	-0.014656	-0.039571	-0.022631	-0.198703	7910.481662	61960.629028	4367.904733	34125.912226
57.536500	-0.014833	-0.025500	-0.019810	-0.142285	7299.282559	56475.913601	4197.145359	30323.169732
58.037000	-0.016491	-0.019616	-0.018788	-0.093888	6821.250845	51482.082870	4062.788255	27432.417095
58.534000	-0.015533	-0.013329	-0.023254	-0.055313	6496.572738	48002.866414	3952.801218	25348.237870
59.035500	-0.014993	-0.010365	-0.018267	-0.034606	6333.748963	46198.319155	3915.270398	24303.515378
59.535000	-0.013161	-0.010945	-0.020005	-0.029754	6310.003409	45660.353895	3899.935751	24065.815399
60.035000	-0.011245	-0.005569	-0.018468	-0.016114	6219.400710	44854.891981	3872.376007	23411.733322
60.535500	-0.012748	-0.009231	-0.021398	-0.002902	6109.080184	43256.827613	3836.790360	22797.410709
61.036000	-0.011076	-0.007916	-0.023071	0.029236	5892.217891	40493.528709	3766.406612	21378.895565
61.536500	-0.011572	-0.006355	-0.022437	0.035244	5847.861157	40110.763441	3755.716982	21125.166402
62.036000	-0.013600	-0.006173	-0.013842	0.045243	5767.564665	39279.598315	3752.944515	20710.580569
62.537000	-0.015585	-0.007319	-0.020126	0.041205	5781.122344	39522.561645	3748.532419	20876.885019
63.037000	-0.016512	-0.005901	-0.019445	0.028385	5860.880926	40742.274661	3775.416058	21415.119020
63.542000	-0.017221	-0.005366	-0.027815	0.021596	5902.511352	41385.475821	3772.223231	21706.664222
64.062000	-0.017693	-0.004669	-0.026749	0.010587	5976.051386	42436.224672	3796.896760	22189.221986
64.535500	-0.019120	-0.005976	-0.021122	0.006310	5996.251537	42707.404886	3817.653640	22380.042722
65.035500	-0.018873	-0.005220	-0.030745	-0.002775	6063.327908	43619.198833	3816.514484	22791.605902
65.536000	-0.019113	-0.004698	-0.029652	-0.000524	6045.281570	43457.513802	3814.066291	22688.843107
66.036500	-0.018147	-0.004208	-0.025136	0.000742	6043.115454	43385.136543	3820.952866	22631.266528
66.536500	-0.019228	-0.003606	-0.025118	-0.002164	6056.315120	43713.272964	3827.194355	22763.650497
67.037000	-0.018941	-0.004246	-0.028338	-0.006831	6092.434279	44093.293315	3830.298152	22978.143211
67.537000	-0.022729	-0.004529	-0.022260	-0.009447	6083.854798	44315.075420	3849.167852	23099.399876
68.037500	-0.018599	-0.003660	-0.024318	-0.007704	6101.352109	44231.794737	3840.870729	23018.513099
68.535000	-0.019409	-0.003609	-0.023054	-0.009254	6106.797168	44384.376448	3847.005390	23090.415577
69.035000	-0.016702	-0.002952	-0.029318	-0.007227	6111.811977	44253.805033	3829.042769	22996.445108
69.535500	-0.018073	-0.002901	-0.020904	-0.004842	6084.227288	44032.264025	3842.072405	22886.455051
70.035500	-0.018590	-0.002749	-0.025637	-0.001743	6057.893077	43754.242778	3825.181927	22744.411592
70.536000	-0.016510	-0.002091	-0.017887	-0.003685	6087.194858	43999.478151	3846.129192	22833.311276
71.036500	-0.015796	-0.001657	-0.020558	-0.003238	6089.149160	43998.223137	3839.337430	22812.804020
71.539000	-0.017977	-0.003075	-0.029970	-0.001093	6057.626766	43662.667852	3814.597025	22714.777450
72.037000	-0.017418	-0.002818	-0.026386	0.002004	6039.271822	43397.115755	3815.625290	22574.040965
72.537000	-0.015801	-0.003461	-0.022241	-0.001469	6076.189175	43661.690629	3831.878497	22731.919679
73.037500	-0.017291	-0.003214	-0.020386	-0.001340	6064.397651	43672.781608	3835.600854	22726.024207
73.535000	-0.016691	-0.002773	-0.024612	0.000200	6057.568266	43569.756302	3823.223827	22655.868241
74.035500	-0.019518	-0.002398	-0.021836	0.002092	6023.538788	43428.030387	3825.112057	22570.058888
74.535500	-0.016393	-0.002576	-0.023640	-0.001459	6071.799778	43743.854342	3828.850956	22731.453487
75.036000	-0.016477	-0.002561	-0.021279	-0.001284	6069.908916	43728.800566	3833.552518	22723.470962
75.536000	-0.015665	-0.001572	-0.018827	-0.000261	6068.368855	43725.564501	3836.638138	22676.837865
76.036500	-0.019690	-0.002565	-0.030748	0.004376	6005.965239	43200.077419	3801.491649	22466.916296
76.536500	-0.015696	-0.000354	-0.024140	0.001721	6053.762481	43653.874643	3820.989823	22586.857173
77.037000	-0.017817	-0.002594	-0.019829	0.000443	6047.659105	43563.759298	3832.955821	22644.819597
77.539500	-0.015027	-0.001634	-0.018634	0.001211	6062.315578	43581.774864	3833.877326	22609.988062
78.034500	-0.017033	-0.001403	-0.017569	0.000945	6049.701008	43628.290267	3836.752713	22622.046004
78.535000	-0.015858	-0.001558	-0.022453	0.000477	6061.607209	43657.636517	3827.244619	22643.278804
79.035500	-0.016403	-0.002226	-0.027873	-0.000794	6066.885465	43714.246268	3818.402043	22701.127100
79.535500	-0.013974	-0.001251	-0.023290	-0.000018	6078.925761	43732.901499	3826.513809	22665.794154
80.036000	-0.018048	-0.001766	-0.028418	0.004653	6015.723013	43248.506106	3805.777740	22454.469323
80.536000	-0.017135	-0.001965	-0.018982	-0.000799	6061.604640	43739.248383	3837.469719	22701.372863
81.036500	-0.013438	-0.001949	-0.016024	-0.000610	6087.171291	43722.947887	3843.483693	22692.738788
81.536500	-0.014074	-0.002151	-0.019003	-0.000726	6083.376919	43714.992666	3837.265357	22698.049341
82.036500	-0.019605	-0.002884	-0.022136	0.004356	6006.711603	43172.353404	3819.646753	22467.808096
82.537500	-0.016896	-0.003338	-0.020926	-0.001204	6066.276012	43648.336505	3834.140438	22719.802806
83.034500	-0.014123	-0.002707	-0.021655	-0.001154	6086.145522	43702.840125	3832.461975	22717.531664
83.535500	-0.013040	-0.002508	-0.021543	-0.001023	6093.115325	43709.302220	3832.421178	22711.560869
84.035500	-0.018513	-0.002795	-0.022074	0.004521	6013.335201	43165.333822	3819.428345	22460.396530
84.536000	-0.015819	-0.003182	-0.017607	-0.001035	6072.892940	43647.163230	3840.963908	22712.126504
85.036000	-0.016912	-0.003192	-0.023366	-0.000488	6060.960453	43594.906092	3827.355665	22687.176369
85.536500	-0.015880	-0.004042	-0.023287	0.000924	6058.208550	43383.683536	3824.507010	22623.012584
86.036500	-0.019731	-0.004999	-0.025102	0.005725	5996.066552	42850.752101	3810.485396	22406.270260
86.536500	-0.015550	-0.004291	-0.019711	0.000950	6060.411130	43358.068233	3832.117114	22621.803311
87.037000	-0.013112	-0.005007	-0.019502	0.001128	6076.854855	43274.920651	3832.183680	22613.721910
87.535000	-0.014942	-0.006381	-0.020262	0.001662	6059.655131	43098.025288	3829.402950	22589.541327
88.035000	-0.017763	-0.006513	-0.018525	0.006724	6002.967776	42620.443665	3822.292028	22361.477319
88.535000	-0.014625	-0.006288	-0.023970	0.002128	6058.577088	43063.559245	3820.486441	22568.431706
89.035500	-0.015358	-0.006175	-0.016605	0.002184	6052.851192	43068.799578	3836.155568	22565.869380
89.536000	-0.015161	-0.007287	-0.020112	0.003369	6045.707817	42857.077744	3826.067438	22512.341922
90.036500	-0.017409	-0.006154	-0.020480	0.009259	5987.462317	42422.009232	3812.776256	22248.286529
90.536500	-0.013378	-0.007007	-0.020204	0.002603	6064.180649	42953.259032	3827.509694	22546.921018
91.036500	-0.013436	-0.006441	-0.017253	0.003869	6054.566851	42888.808704	3831.124465	22489.754710
91.537500	-0.013415	-0.006869	-0.019321	0.004654	6049.045951	42777.384673	3825.011149	22454.421435
92.036500	-0.016344	-0.007156	-0.023200	0.009566	5992.840970	42303.145976	3806.415234	22234.596868
92.535000	-0.012687	-0.005841	-0.017402	0.004761	6053.533621	42861.931832	3828.888293	22449.584439
93.035000	-0.010806	-0.006769	-0.020833	0.004335	6070.287830	42815.810456	3822.464614	22468.754911
93.535500	-0.013271	-0.007087	-0.017426	0.005886	6041.184176	42644.574667	3826.427929	22399.047840
94.036000	-0.016990	-0.006815	-0.018192	0.011243	5976.389043	42182.164870	3813.417521	22160.148607
94.536000	-0.010976	-0.007208	-0.011734	0.005250	6062.392557	42691.606945	3840.067638	22427.589243
95.036500	-0.011333	-0.007403	-0.018157	0.004967	6061.864776	42699.779147	3826.830714	22440.342347
95.550500	-0.013453	-0.006522	-0.016294	0.006801	6033.278923	42612.568133	3826.891719	22358.027821
96.053000	-0.012945	-0.008661	-0.016544	0.010125	6013.078673	42116.436529	3819.273129	22209.766422
96.534000	-0.011046	-0.008145	-0.015478	0.005160	6062.545525	42614.231566	3832.167378	22431.660445
97.034500	-0.010120	-0.009051	-0.014409	0.005771	6064.829579	42475.777532	3833.152678	22404.195268
97.535500	-0.010397	-0.008805	-0.014636	0.006306	6058.938708	42449.547192	3831.513272	22380.232709
98.035500	-0.009473	-0.008828	-0.012231	0.006580	6063.660427	42422.492085	3836.110932	22367.942247
98.535500	-0.009048	-0.008223	-0.009859	0.007364	6061.043558	42406.169360	3839.549004	22332.822330
