sample name	sample
index	698
start time	 03-22-2021  12:43:48 PM
880	0.127759
Peak Time (s)	90.535
Peak Height 	0.1278
calc peak height	90,93
Baseline Time (s)	11.537
Baseline Value 	-0.001689
subtract baseline	10,4
Abs	0.074655
Peak Time (s)	91.536
Peak Height 	0.07465
calc peak height	90,93
Baseline Time (s)	11.037
Baseline Value 	0.001112
subtract baseline	10,3
PK_550	0.036612
Peak Time (s)	90.035
Peak Height 	0.03661
calc peak height	90,93
Baseline Time (s)	9.036
Baseline Value 	9.5882E-4
subtract baseline	10,2
PK_880	0.068057
Peak Time (s)	91.536
Peak Height 	0.06806
calc peak height	90,93
Baseline Time (s)	9.036
Baseline Value 	0.002511
subtract baseline	10,1


Time (s)	A880-A510	A880-A775	A880-A975	A880	I510	I775	I975	I880	
0.035500	-0.001763	-0.000885	0.004389	-0.000189	7380.638170	45715.986369	3990.071112	24211.832694
0.536000	-0.006023	-0.000704	-0.001500	0.004987	7283.720527	45226.357711	3961.270995	23958.936011
1.036500	-0.003365	-0.001187	-0.001391	0.001883	7342.647023	45482.518646	3969.557067	24110.222378
1.536500	-0.002634	-0.001191	-0.001124	-0.001222	7382.319392	45787.675403	3978.320752	24262.659027
2.036500	-0.001772	-0.000090	0.001322	-0.000661	7385.434792	45841.021312	3983.248245	24235.005453
2.537000	-0.002359	-0.000560	-0.000896	0.004300	7328.151325	45307.424889	3964.593269	23992.319459
3.037500	-0.000277	-0.000470	0.003075	-0.002749	7422.830864	46010.192718	3993.358684	24338.007536
3.535000	-0.002473	-0.000864	-0.002021	-0.000758	7379.169059	45774.131177	3974.774870	24239.785266
4.038000	-0.001866	-0.001208	0.001031	-0.000609	7383.924672	45725.420983	3982.350788	24232.444119
4.536000	-0.003680	-0.000649	-0.003895	0.003481	7323.003359	45378.813903	3958.988088	24032.200837
5.036000	-0.000804	-0.000355	-0.002515	-0.000326	7392.023212	45781.680121	3972.368747	24218.527705
5.536000	-0.000272	-0.000523	0.006981	-0.000499	7399.371731	45782.235703	3997.745527	24227.068709
6.036500	-0.002624	-0.000359	0.002605	-0.000577	7375.717533	45806.108141	3986.394647	24230.875503
6.536500	-0.001556	0.000199	0.000676	-0.000089	7381.749762	45813.016759	3980.062252	24206.907078
7.034000	-0.002404	-0.000587	0.000720	-0.000250	7374.610734	45751.258320	3980.598168	24214.792895
7.537500	-0.001956	-0.000556	0.004911	0.000138	7375.237036	45716.184930	3990.583738	24195.761933
8.037500	-0.001846	-0.000275	0.005101	0.000180	7375.938537	45739.703238	3990.973303	24193.676928
8.540500	-0.001376	-0.000321	-0.001836	-0.000343	7386.243856	45786.763476	3974.177191	24219.367317
9.035500	0.000000	0.000000	0.001661	0.000333	7393.529873	45751.689738	3981.533495	24186.150332
9.538500	-0.000317	-0.000531	0.000760	-0.000403	7397.901533	45771.992105	3981.103513	24222.332995
10.036000	0.000099	-0.000622	0.004660	-0.000212	7400.246507	45744.088719	3990.843701	24212.939929
10.536500	-0.001089	0.000082	-0.003663	0.000449	7381.003496	45748.379222	3967.390163	24180.483079
11.036500	0.002133	0.000726	0.000000	0.000719	7411.756404	45785.222303	3976.190668	24167.219422
11.537000	0.000307	0.000213	-0.001630	0.000000	7400.207672	45805.607343	3973.820384	24202.527790
12.037000	-0.000146	0.000501	0.004932	-0.000143	7396.969245	45848.215743	3991.379548	24209.531705
12.537500	-0.004471	-0.001012	-0.001333	0.003571	7313.985477	45334.544047	3965.345804	24027.834937
13.038000	0.000750	0.000307	0.003293	-0.000911	7414.348322	45905.081990	3989.085297	24247.334332
13.535000	0.000127	0.000314	0.002689	0.000010	7398.216808	45814.562583	3985.073438	24202.014312
14.035500	-0.001611	0.000380	0.000505	0.003701	7341.991521	45457.915264	3969.757969	24021.471224
14.536000	-0.001084	-0.000254	0.001376	0.004407	7340.153823	45326.841386	3970.187796	23987.123815
15.044500	0.000509	0.000324	0.005306	0.000291	7399.278200	45787.840290	3991.223798	24188.248007
15.539000	0.001352	0.000926	0.005922	0.000610	7404.737439	45815.836915	3992.006680	24172.574104
16.036500	-0.000086	-0.000348	-0.001236	-0.000573	7402.079956	45806.784153	3976.338535	24230.699112
16.537000	-0.002764	-0.000173	0.000454	0.003012	7337.219159	45471.345634	3971.413521	24055.080311
17.037500	0.000937	0.000138	0.005569	-0.002480	7432.749166	46043.911686	3999.257946	24324.728115
17.543000	-0.000249	0.000534	0.003306	0.001712	7376.617113	45668.455345	3982.230653	24118.609637
18.035000	-0.002006	0.000026	0.002356	0.001266	7363.038880	45662.385263	3980.912302	24140.423508
18.538500	-0.000515	0.000479	0.005950	0.003139	7359.091293	45522.798036	3985.421604	24048.895585
19.035500	-0.000338	0.000612	0.004735	0.002120	7371.468554	45635.984543	3984.907773	24098.645516
19.535500	-0.001320	-0.000308	-0.001724	0.001349	7369.281736	45621.298738	3970.078490	24136.362564
20.036500	0.000646	0.000446	0.002268	0.002112	7381.755394	45620.478639	3978.473129	24099.025556
20.536500	-0.001251	-0.000255	0.003328	0.002391	7359.220002	45524.171777	3980.511462	24085.398730
21.037000	0.000024	0.000685	0.004404	0.002606	7370.184725	45595.397368	3982.764693	24074.905220
21.540000	0.000230	0.000314	0.004347	0.001947	7379.146233	45623.623169	3984.341578	24107.088246
22.040500	-0.000899	0.000222	0.000203	0.002218	7364.638824	45588.019190	3972.821572	24093.851145
22.535000	0.001147	-0.000673	0.002781	0.002104	7387.042296	45511.295873	3979.833016	24099.424662
23.035000	0.001090	0.000113	0.002447	0.002089	7386.607551	45589.947964	3978.999422	24100.159562
23.535500	-0.000530	-0.000204	0.001936	0.001944	7371.293154	45572.987587	3978.043593	24107.225021
24.035500	0.000504	0.000064	0.005324	0.002495	7376.304357	45545.212577	3985.466911	24080.284091
24.536000	-0.001918	0.000891	0.000387	0.003875	7337.039460	45491.018279	3969.003713	24013.007139
25.036500	0.000077	-0.000261	0.001657	0.001944	7377.587297	45567.402574	3977.316604	24107.231520
25.536500	-0.000949	0.000006	0.012707	0.001991	7366.465257	45589.002491	4006.362482	24104.917356
26.037000	-0.000403	0.000600	0.003986	0.002423	7367.653135	45604.973102	3982.149129	24083.830778
26.539500	-0.000821	-0.000346	0.002118	0.001735	7370.451827	45579.620484	3979.064714	24117.477282
27.037500	0.003974	0.000222	0.003624	0.000236	7436.124257	45783.271209	3986.936657	24190.942480
27.535000	0.001916	0.000629	0.002845	0.000190	7415.030208	45827.992441	3985.013638	24193.213476
28.035000	0.002385	0.001535	0.006040	0.001293	7408.396728	45808.443521	3990.514470	24139.089550
28.536000	0.001014	-0.000483	0.002478	0.000428	7403.113433	45694.748857	3983.426080	24181.526219
29.036000	0.001053	0.000340	0.003308	0.000572	7402.011180	45761.676309	3985.223715	24174.429056
29.536000	0.001546	0.000563	0.004435	0.001210	7400.514202	45720.843734	3986.508774	24143.187376
30.036500	0.000899	0.001034	0.006674	0.001769	7387.952252	45712.095880	3990.933109	24115.808497
30.536500	-0.001926	0.000953	0.002472	0.006173	7313.401024	45272.355655	3968.453819	23901.431776
31.039500	-0.000974	0.001580	0.009661	0.004347	7341.898090	45512.255773	3992.009228	23990.019317
31.536500	0.001802	0.001072	0.007331	0.001857	7396.433015	45707.194680	3992.434632	24111.509136
32.037500	0.003559	0.001994	0.011254	0.002311	7410.025527	45753.386168	4001.635064	24089.308549
32.535000	-0.003240	0.000242	0.004454	0.006840	7293.177404	45138.051131	3971.858755	23869.107163
33.035500	0.001926	0.001348	0.008216	0.001092	7405.699817	45809.885267	3996.800129	24148.960449
33.535500	0.000051	0.000826	0.002476	0.003217	7364.137872	45549.193905	3976.134465	24045.084162
34.036000	-0.001084	0.000388	0.003468	0.004193	7342.355711	45410.582216	3976.175417	23997.528133
34.536500	-0.000104	0.000854	0.003585	0.005555	7338.422749	45322.938813	3972.937799	23931.374425
35.037000	0.000226	0.000780	0.002545	0.004051	7357.319357	45462.816868	3974.142557	24004.426252
35.539500	-0.000029	0.000879	0.004234	0.004063	7354.566368	45471.393718	3978.511136	24003.844883
36.037000	-0.000604	0.000851	0.007567	0.004510	7344.026804	45424.805035	3986.066621	23982.089760
36.535000	-0.000190	0.000910	0.005600	0.005129	7341.921510	45370.103787	3979.295000	23952.058675
37.035000	0.000748	0.000807	0.001605	0.003869	7364.601076	45483.332958	3972.174610	24013.292701
37.535500	0.000532	-0.000078	0.000369	0.003719	7363.916374	45411.299921	3969.360365	24020.594134
38.035500	-0.000260	0.000218	0.000037	0.004106	7351.737388	45402.374985	3967.500159	24001.740173
38.539000	0.002204	0.001466	0.007261	0.005080	7367.135927	45429.351979	3983.769220	23954.438080
39.039000	-0.000002	0.001538	0.001721	0.005000	7345.185086	45444.223253	3969.544966	23958.322213
39.539000	-0.000208	0.000878	0.004189	0.004350	7349.759864	45443.247422	3977.646884	23989.909733
40.039500	-0.000245	-0.000057	0.002572	0.003641	7356.696909	45421.074747	3975.281489	24024.413537
40.537000	0.000042	0.000780	0.002696	0.004563	7350.136999	45412.655460	3973.204148	23979.511639
41.037500	0.001824	0.000905	0.002226	0.005005	7363.977838	45381.653944	3970.840182	23958.040087
41.537500	0.000037	0.000902	0.002604	0.004619	7349.509660	45419.173531	3972.821125	23976.819061
42.035000	0.000592	0.000820	0.007663	0.004814	7353.226954	45392.082479	3985.522511	23967.347847
42.535500	0.000690	0.001220	0.000395	0.005755	7344.536996	45339.232368	3964.171033	23921.689334
43.035000	0.000438	0.001477	0.004926	0.005356	7346.047264	45403.262906	3976.943117	23941.011024
43.536000	0.003837	0.001333	0.008034	0.000313	7433.865649	45885.442634	3998.383108	24187.138962
44.036500	0.002573	0.000732	0.006360	0.001771	7405.369917	45682.180389	3990.099962	24115.705686
44.536500	-0.003474	-0.000588	0.002763	0.008102	7277.973089	44935.141569	3964.224447	23808.183094
45.037000	0.002636	0.001996	0.007802	0.003060	7392.593731	45679.736004	3990.502076	24052.740613
45.537000	0.000540	0.001091	0.001416	0.002120	7380.567269	45683.141498	3976.230639	24098.625903
46.035000	0.003818	0.001445	0.009172	0.002820	7407.413549	45649.112109	3994.755702	24064.442970
46.534500	0.000628	0.000062	0.004953	0.008698	7313.693275	44940.342405	3968.339158	23779.465567
47.035000	0.000003	0.000626	0.002318	0.005666	7338.382530	45289.953938	3969.368112	23926.004581
47.535000	0.001255	0.001099	0.002070	0.004757	7360.656305	45424.987061	3971.077749	23970.099862
48.038500	0.003637	0.000656	0.008592	0.002221	7411.785011	45630.336705	3994.805140	24093.687929
48.536000	-0.000290	0.000983	0.007668	0.009188	7299.311710	44982.049700	3974.106408	23755.878597
49.039000	0.002463	0.000674	0.006800	0.002266	7399.055615	45627.739519	3989.955109	24091.499350
49.536500	0.004308	0.001668	0.010592	0.000967	7431.942968	45853.854388	4003.451324	24155.063810
50.037000	0.002624	0.001560	0.008226	0.003731	7385.486967	45570.774852	3989.850225	24020.025886
50.537500	-0.007368	-0.000033	0.009144	0.017024	7149.848227	44133.134659	3957.696332	23382.372072
51.034500	-0.054742	-0.013456	-0.011503	0.171488	5559.648810	30914.732411	3588.563222	17242.216231
51.535000	-0.064337	-0.029148	-0.030228	-0.130925	8146.854266	57108.439251	4273.666763	31709.266078
52.035500	-0.060371	-0.173275	-0.016990	-0.337808	11443.715888	65535.000000	5216.477442	49309.185282
52.535500	-0.059304	-0.133649	-0.010526	-0.298182	10715.448250	65535.000000	5042.152736	45259.224273
53.036000	-0.061097	-0.128433	-0.002610	-0.292966	10589.880424	65535.000000	5055.858270	44753.132183
53.539000	-0.050824	-0.092793	-0.001207	-0.257285	10151.280360	65529.043756	4888.088585	41449.403420
54.036500	-0.026500	-0.093298	-0.003557	-0.257830	10580.316628	65535.000000	4879.617155	41497.911862
54.537000	-0.008969	-0.080359	0.002521	-0.244892	10662.259310	65535.000000	4847.733294	40363.969563
55.037000	0.004055	-0.056548	0.011532	-0.216058	10383.753254	64814.779476	4758.388873	37955.294482
55.537500	0.004160	-0.025992	0.013144	-0.168029	9598.911604	62373.448986	4564.460265	34281.687015
56.035000	0.007783	-0.009848	0.020204	-0.125780	9026.425407	58904.173416	4430.658012	31369.537332
56.534500	0.022940	0.004058	0.019368	-0.068427	8456.579695	53573.204643	4231.856753	27843.474710
57.035500	0.016761	0.005307	0.024947	-0.029185	7901.999812	49329.052364	4128.439696	25685.590999
57.535500	0.016259	0.007779	0.028931	-0.010371	7683.172496	47614.564126	4085.360482	24718.166155
58.038500	0.018737	0.011612	0.033337	0.016075	7424.818813	45346.228476	4023.996027	23427.228817
58.536500	0.019805	0.013685	0.034507	0.043222	7159.459851	42965.250238	3955.559707	22181.393383
59.036500	0.025805	0.017829	0.042991	0.064793	7008.456900	41389.579922	3922.601380	21245.490566
59.537000	0.030182	0.020520	0.043094	0.086497	6846.662896	39741.141889	3870.326915	20349.585211
60.034500	0.032049	0.021835	0.045432	0.099300	6747.820250	38779.580288	3845.921525	19841.724705
60.535000	0.033440	0.023745	0.050099	0.111321	6654.098049	37954.002519	3829.121505	19378.308060
61.035000	0.033128	0.024084	0.048532	0.117021	6602.102571	37524.027689	3812.795191	19163.015442
61.535500	0.047449	0.030880	0.049667	0.117997	6718.502461	37991.073934	3813.149072	19126.431017
62.035500	0.049133	0.031024	0.049782	0.115072	6759.550015	38239.872840	3819.948115	19236.331645
62.538000	0.049467	0.031294	0.054807	0.115692	6756.983838	38211.426231	3829.884023	19212.955749
63.045000	0.051583	0.032870	0.054378	0.111967	6809.592624	38644.962066	3837.384132	19353.759168
63.539500	0.055104	0.031984	0.058360	0.110056	6859.159727	38729.421572	3850.940234	19426.473763
64.037000	0.055317	0.032642	0.052655	0.109748	6863.947208	38809.236830	3838.519758	19438.217362
64.537000	0.050473	0.032845	0.058395	0.114955	6772.617562	38397.893482	3839.738941	19240.730218
65.037500	0.056337	0.033365	0.056437	0.109363	6876.878932	38900.893092	3848.095107	19452.909128
65.535000	0.054183	0.034610	0.056088	0.110534	6846.336208	38907.129800	3844.593706	19408.276998
66.035500	0.056798	0.034221	0.054442	0.110401	6871.571080	38885.933103	3841.118676	19413.349225
66.538500	0.054158	0.035143	0.057179	0.117687	6781.181875	38362.432418	3830.739634	19138.055561
67.039000	0.059496	0.035639	0.053701	0.112652	6875.678751	38816.944216	3834.279284	19327.786171
67.536000	0.060024	0.036394	0.057960	0.114074	6867.450070	38761.798715	3840.761714	19273.996444
68.036500	0.059555	0.037027	0.060518	0.114469	6859.507117	38781.468796	3845.731743	19259.071068
68.536500	0.058421	0.036815	0.058638	0.121961	6781.085825	38150.666273	3824.373500	18978.706229
69.037000	0.063295	0.038361	0.063671	0.117850	6862.807059	38612.780847	3845.206413	19131.942454
69.537500	0.061985	0.038465	0.063598	0.118273	6846.914978	38586.584730	3844.066276	19116.117188
70.037500	0.063290	0.037902	0.063258	0.118779	6854.228417	38498.817584	3842.119967	19097.182422
70.534500	0.057134	0.037650	0.058861	0.124631	6745.623155	38002.013831	3818.871170	18879.950960
71.035000	0.064176	0.038293	0.060057	0.120109	6850.159236	38421.958951	3831.774956	19047.563346
71.541000	0.064554	0.037955	0.062223	0.120116	6853.560415	38393.696638	3836.690210	19047.295113
72.036000	0.065811	0.039404	0.065013	0.120974	6857.220099	38442.052082	3841.112669	19015.367237
72.536000	0.061402	0.038130	0.052835	0.125149	6779.219717	37998.964279	3804.311299	18860.877372
73.039000	0.065135	0.038585	0.062018	0.120066	6859.350690	38449.350242	3836.337466	19049.146971
73.537000	0.066454	0.039159	0.063918	0.119954	6872.513300	38505.528649	3840.939257	19053.342315
74.037000	0.066421	0.039856	0.065762	0.120832	6864.133675	38490.710311	3843.156115	19020.650715
74.534500	0.063142	0.039807	0.056164	0.126764	6780.343957	38004.005722	3808.104215	18801.505705
75.035000	0.066620	0.038759	0.061436	0.120335	6870.530440	38441.612040	3834.397767	19039.148952
75.535000	0.068473	0.039920	0.067243	0.121151	6880.095866	38469.833300	3845.830464	19008.799041
76.038000	0.065203	0.039196	0.064833	0.121653	6845.430155	38369.575377	3839.145393	18990.154314
76.535500	0.066176	0.039605	0.061515	0.126354	6811.468416	38020.826405	3820.962402	18816.558171
77.039000	0.068699	0.040138	0.064861	0.121848	6875.745106	38430.652970	3838.762817	18982.903589
77.539000	0.070463	0.039050	0.065681	0.120945	6900.407928	38415.440990	3842.710434	19016.439881
78.036500	0.067311	0.040419	0.067279	0.122958	6852.791027	38362.902490	3841.760302	18941.778859
78.537000	0.068324	0.039647	0.064878	0.121997	6870.914442	38378.248944	3838.459132	18977.364244
79.037000	0.067507	0.039322	0.065804	0.121440	6868.520899	38397.284121	3841.856768	18998.043110
79.537500	0.068507	0.039537	0.065828	0.121881	6873.675139	38378.790024	3840.901163	18981.672510
80.035000	0.067043	0.038831	0.064009	0.123092	6849.097745	38222.546782	3833.978972	18936.803285
80.537500	0.068532	0.039219	0.068995	0.122261	6870.406474	38321.850590	3847.309591	18967.577932
81.035500	0.067413	0.039513	0.063463	0.122351	6859.289918	38338.447059	3834.421280	18964.234833
81.535500	0.067859	0.039155	0.063481	0.122020	6866.421830	38336.232877	3835.218364	18976.509952
82.039000	0.068292	0.038643	0.063240	0.123728	6854.715091	38155.560131	3830.783891	18913.279600
82.536000	0.070670	0.039065	0.066238	0.122537	6887.586781	38286.827663	3840.337447	18957.366640
83.036500	0.068677	0.038688	0.068032	0.122568	6868.912165	38253.551906	3844.385971	18956.219910
83.537000	0.069065	0.038986	0.065180	0.122438	6873.679685	38288.380610	3838.141624	18961.005193
84.037500	0.068308	0.039113	0.065772	0.125101	6842.292521	38082.416277	3833.419766	18862.653572
84.535000	0.067015	0.038697	0.058712	0.128459	6799.990091	37777.984585	3809.995750	18739.419379
85.038000	0.069780	0.038335	0.065899	0.122154	6882.899253	38258.520453	3840.437510	18971.552182
85.535000	0.068637	0.038573	0.069229	0.122598	6868.266198	38241.721157	3847.071576	18955.084546
86.036000	0.065675	0.037728	0.067279	0.124212	6826.383000	38042.306718	3838.885809	18895.427231
86.536000	0.063753	0.038296	0.063288	0.126973	6783.962484	37865.278529	3823.556810	18793.837881
87.039500	0.069005	0.038845	0.070149	0.122559	6872.015361	38267.038965	3849.286782	18956.521467
87.536500	0.066838	0.037477	0.065427	0.121687	6860.103082	38226.674796	3840.425650	18988.860576
88.037000	0.066461	0.037155	0.065447	0.125260	6823.995583	37911.367770	3832.318326	18856.787970
88.537000	0.066018	0.037222	0.076364	0.122416	6845.906848	38146.793106	3864.093688	18961.833883
89.035000	0.068282	0.037054	0.064063	0.122525	6865.676850	38124.301404	3835.395149	18957.809607
89.539000	0.067198	0.037665	0.070553	0.122863	6852.622445	38146.450862	3849.519925	18945.298685
90.035500	0.063721	0.036612	0.064054	0.125971	6792.719391	37810.444566	3827.549509	18830.643454
90.535500	0.063805	0.036000	0.067805	0.127759	6777.359390	37618.017811	3831.997582	18765.027916
91.038500	0.065956	0.035347	0.064316	0.121516	6853.577362	38067.742868	3838.273773	18995.215413
91.536000	0.068057	0.035806	0.074655	0.122428	6864.501077	38031.120449	3860.064633	18961.394467
92.036500	0.063936	0.035147	0.067939	0.121509	6835.170886	38052.120582	3846.609886	18995.480004
92.536500	0.064501	0.034552	0.065586	0.127366	6787.164794	37533.824488	3827.856723	18779.417497
93.036500	0.066396	0.035862	0.064324	0.122520	6848.416946	38028.193066	3836.001023	18958.000800
93.537500	0.063683	0.035871	0.069220	0.123150	6817.919579	37977.940855	3845.779976	18934.644906
94.037500	0.062936	0.034335	0.068616	0.126861	6777.626245	37556.820612	3835.889598	18797.958146
94.535000	0.061191	0.033895	0.060266	0.127557	6755.729605	37466.289267	3815.468714	18772.440536
95.035500	0.066102	0.034850	0.068179	0.123256	6838.993914	37887.108428	3843.140193	18930.740862
95.535500	0.066064	0.036014	0.069481	0.123715	6834.458268	37943.926024	3845.081010	18913.784776
