sample name	sample
index	61
start time	 02-11-2021  03:10:18 PM
880	0.016177
Peak Time (s)	92.037
Peak Height 	0.01618
calc peak height	90,93
Baseline Time (s)	11.037
Baseline Value 	-0.001063
subtract baseline	10,4
Abs	0.012597
Peak Time (s)	90.536
Peak Height 	0.0126
calc peak height	90,93
Baseline Time (s)	8.536
Baseline Value 	8.6456E-4
subtract baseline	10,3
PK_550	0.007338
Peak Time (s)	91.537
Peak Height 	0.007338
calc peak height	90,93
Baseline Time (s)	8.536
Baseline Value 	7.6273E-4
subtract baseline	10,2
PK_880	0.014215
Peak Time (s)	91.036
Peak Height 	0.01422
calc peak height	90,93
Baseline Time (s)	9.536
Baseline Value 	0.003812
subtract baseline	10,1


Time (s)	A880-A510	A880-A775	A880-A975	A880	I510	I775	I975	I880	
0.036000	-0.004349	-0.000874	0.003241	-0.000889	4516.065918	19356.977445	3295.486142	10629.316908
0.539500	-0.006504	-0.000182	0.000433	0.004747	4488.043074	19171.219238	3288.334870	10530.066957
1.037000	-0.003879	0.000013	0.015321	0.001520	4509.043692	19299.544354	3303.848849	10586.728785
1.534000	-0.000786	0.000222	0.005409	-0.000153	4526.357106	19370.565177	3296.712227	10616.274338
2.037500	0.001084	0.001257	0.006344	0.000471	4530.915974	19386.107024	3296.979849	10605.243412
2.535000	-0.005246	-0.001459	-0.004576	0.003162	4498.210543	19182.756338	3285.474579	10557.850478
3.035000	-0.000226	0.000404	0.007599	-0.002485	4536.956997	19465.928124	3300.613642	10657.655898
3.535500	0.001401	0.000177	0.000852	-0.000238	4534.682479	19372.101022	3292.896020	10617.791637
4.036000	-0.001113	0.001312	0.002175	0.000893	4521.352919	19372.234342	3293.058759	10597.794545
4.536000	-0.001046	-0.000705	0.005065	0.000642	4522.511893	19305.616431	3295.737153	10602.234476
5.036000	0.000269	0.000141	0.010381	-0.000421	4531.199134	19377.669171	3301.235885	10621.023799
5.536500	0.000350	0.000471	-0.012450	-0.000540	4531.929489	19394.629052	3282.019379	10623.127699
6.037000	-0.000271	-0.000165	-0.011646	-0.000548	4529.687383	19370.883783	3282.689787	10623.278100
6.534500	-0.003477	-0.001011	0.010026	-0.000936	4519.406522	19353.587571	3301.374955	10630.146561
7.035000	0.001882	-0.000243	0.006149	-0.001161	4539.843093	19391.147350	3298.215557	10634.139584
7.535000	-0.000965	-0.000126	0.003383	-0.000971	4528.692297	19388.340323	3295.677284	10630.760596
8.035000	-0.003584	0.000292	0.001313	-0.000155	4516.176247	19373.281474	3293.216609	10616.312480
8.536000	-0.000142	0.000000	0.000000	0.000189	4527.462372	19349.275131	3291.811260	10610.234330
9.035500	0.001569	0.001185	0.012698	0.000043	4534.264632	19399.641600	3302.849056	10612.821112
9.536000	0.000000	0.000323	0.000821	-0.000444	4530.298121	19385.414588	3293.044403	10621.432924
10.039000	-0.000416	-0.000632	-0.001524	-0.000680	4529.639111	19358.212793	3291.256701	10625.607035
10.536500	0.000769	-0.000751	-0.000752	-0.000272	4532.484050	19338.317747	3291.564897	10618.388014
11.036500	-0.002641	-0.000042	-0.001655	0.000000	4519.039763	19354.803528	3290.572092	10613.573007
11.537500	0.000799	0.000158	0.007053	0.000216	4530.806880	19354.216506	3297.808709	10609.757009
12.035000	0.000384	0.001605	-0.002259	0.001584	4524.288571	19357.183568	3288.729995	10585.606114
12.534500	-0.002261	0.000434	0.003401	-0.000272	4521.414729	19383.101290	3295.095819	10618.384554
13.035500	-0.004397	-0.001990	-0.004723	0.002808	4502.530620	19176.121519	3285.646475	10564.061828
13.536000	-0.003896	-0.001150	0.009724	-0.001541	4520.082627	19371.195320	3301.638894	10640.880443
14.039000	-0.002514	0.000159	0.005487	-0.000151	4520.052439	19368.096769	3296.777742	10616.240045
14.536000	0.000929	0.000447	-0.007243	0.003331	4519.908660	19247.820148	3283.121869	10554.881249
15.036500	-0.003512	-0.000639	0.006310	0.004857	4498.353828	19150.095856	3293.204129	10528.152989
15.534000	0.000185	0.000285	0.005947	0.000346	4528.083634	19354.123122	3296.746637	10607.458578
16.040000	-0.004760	0.000205	0.010009	-0.000047	4511.528937	19365.957239	3300.589370	10614.413070
16.537500	-0.003474	-0.000644	0.001945	-0.000889	4519.243820	19365.655663	3294.379210	10629.312035
17.035000	-0.002570	-0.000246	-0.009515	0.003613	4506.215948	19211.291919	3281.017176	10549.941771
17.535500	-0.001282	-0.000060	0.014577	-0.003114	4535.385710	19472.186091	3307.266178	10668.841348
18.035500	0.000351	-0.000962	0.010921	-0.000818	4532.953875	19350.954752	3302.050922	10628.054934
18.536000	-0.001042	-0.000435	-0.006911	0.000679	4522.390150	19314.409787	3285.598243	10601.581184
19.036500	-0.003671	-0.001168	-0.008097	0.001486	4509.920149	19256.444881	3283.943070	10587.338489
19.539000	-0.001557	-0.001068	0.006585	0.001127	4518.885658	19273.688376	3296.624023	10593.672988
20.036500	-0.001241	-0.000673	0.005913	0.000913	4520.812538	19296.599667	3296.230551	10597.438211
20.537000	-0.000422	-0.000142	0.004338	0.001045	4523.315274	19311.628523	3294.771477	10595.120770
21.037500	-0.001124	0.000081	-0.005373	0.001898	4517.657216	19287.898525	3285.863231	10580.073688
21.535000	-0.000877	0.000127	0.003737	0.001956	4518.343697	19287.457091	3293.482958	10579.060961
22.035000	-0.002390	-0.000480	0.008233	0.001103	4515.944818	19296.698032	3298.060702	10594.084733
22.535000	0.003235	-0.000390	-0.004061	0.001452	4535.208679	19286.982057	3287.330877	10587.936943
23.035500	-0.002550	-0.000248	-0.000740	0.002054	4511.918770	19269.688244	3289.612201	10577.332618
23.536000	-0.000630	-0.000512	-0.005952	0.001355	4521.426784	19286.030707	3285.833710	10589.647208
24.036000	-0.002612	-0.000045	-0.008402	0.000929	4515.774359	19319.666325	3284.151563	10597.163394
24.536500	-0.004729	-0.001266	-0.003780	0.000551	4509.476609	19287.929598	3288.321271	10603.837111
25.039500	-0.001449	-0.000054	0.007355	0.001418	4518.219533	19300.917563	3297.034624	10588.539217
25.537000	-0.002437	-0.001611	0.003666	0.000987	4516.196208	19258.562254	3294.247731	10596.142158
26.034500	-0.000005	0.000636	-0.008005	0.002271	4520.368406	19294.770669	3283.369283	10573.514306
26.535000	-0.002389	-0.001052	-0.004178	0.000539	4517.999962	19296.437087	3287.997670	10604.050232
27.035000	-0.003495	-0.001938	-0.004938	-0.000178	4516.587078	19290.052025	3287.961314	10616.728105
27.535500	-0.000145	-0.001158	0.001617	0.000653	4525.756842	19288.116403	3292.788503	10602.031491
28.035500	0.001060	-0.000175	0.004786	-0.001010	4536.264340	19388.011976	3296.913731	10631.462800
28.538000	-0.000669	-0.001089	-0.003130	-0.000626	4528.516452	19338.946993	3289.856533	10624.658051
29.050000	-0.000596	0.000551	-0.006845	0.001118	4522.412829	19335.008696	3285.287345	10593.820173
29.537000	0.001291	0.000399	0.005350	0.001886	4526.497574	19300.331127	3294.917313	10580.291109
30.037000	0.000025	0.000020	-0.009914	0.000266	4527.791581	19347.134686	3283.448553	10608.878322
30.537000	0.002521	-0.000939	-0.007083	0.001018	4534.178414	19282.637702	3285.172012	10595.581152
31.037500	-0.004198	-0.001043	0.007683	-0.000890	4516.617563	19350.613385	3299.304827	10629.329029
31.535500	0.000745	0.000536	-0.008924	0.003333	4519.232159	19251.093475	3281.733803	10554.848224
32.035500	-0.001664	-0.000600	-0.000049	0.002560	4513.295289	19237.449511	3289.768020	10568.428934
32.562500	0.001441	0.001103	0.002327	0.002536	4524.670202	19302.359365	3291.793978	10568.847897
33.035500	-0.001705	0.000749	0.009912	0.006896	4497.521740	19125.806686	3294.534960	10492.573982
33.539000	0.003487	-0.000803	0.010071	0.000407	4539.977385	19310.754719	3300.249020	10606.375798
34.036000	-0.002373	0.000441	-0.000227	0.000006	4519.991469	19372.832826	3291.773235	10613.460748
34.537000	-0.001950	0.000231	-0.003512	0.001663	4515.510320	19302.386135	3287.613149	10584.208297
35.037000	-0.001832	0.000181	-0.000142	0.003073	4510.832229	19247.526720	3289.257649	10559.416116
35.534500	-0.000699	-0.000419	-0.002240	0.002292	4517.767347	19254.310185	3288.152146	10573.138085
36.035000	-0.005446	-0.001628	-0.006813	0.001086	4504.957811	19254.213981	3285.341138	10594.396486
36.535000	-0.003476	-0.000988	0.000403	0.002330	4507.575421	19231.534375	3290.342409	10572.467561
37.035500	0.000199	-0.000039	0.003867	0.003018	4518.392611	19241.308871	3292.690453	10560.370904
37.535500	-0.000764	-0.000444	0.005733	0.002804	4515.676925	19234.187610	3294.461182	10564.146476
38.036000	-0.006177	-0.000683	-0.002267	0.002087	4498.727948	19252.110743	3288.301286	10576.752724
38.536000	-0.000053	-0.000637	0.004747	0.002126	4520.719897	19252.351840	3294.197759	10576.056477
39.036500	-0.002886	-0.000440	0.003587	0.002442	4509.303531	19247.896632	3292.942601	10570.510876
39.537500	-0.001773	0.000244	0.002897	0.003135	4510.822100	19247.564055	3291.769930	10558.329243
40.036500	0.001930	0.001039	-0.001693	0.003153	4524.206010	19276.760707	3287.889257	10558.012312
40.537500	-0.001943	0.000288	-0.004766	0.002338	4513.092517	19279.171142	3286.003127	10572.339776
41.035000	-0.001732	0.000554	0.002553	0.002902	4511.811010	19267.935124	3291.676166	10562.419394
41.535000	-0.003072	0.000791	0.008505	0.003146	4506.086003	19267.654129	3296.538299	10558.123821
42.035000	-0.001104	0.000365	0.004277	0.003316	4512.584549	19245.302943	3292.785869	10555.142892
42.536000	0.003171	-0.000305	0.002893	0.002624	4530.674811	19246.092499	3292.198931	10567.296579
43.039000	-0.002522	-0.000636	0.007352	0.003119	4508.171534	19215.155180	3295.574569	10558.601410
43.535500	-0.004417	-0.001232	-0.006366	0.002552	4503.382373	19214.058901	3284.494168	10568.572026
44.036500	-0.003401	0.000079	0.004175	0.002581	4506.939831	19262.143823	3293.324195	10568.060235
44.536500	-0.003367	-0.001318	0.003920	-0.001919	4523.384001	19379.146421	3296.950396	10647.588965
45.037500	-0.004247	0.000836	-0.001215	0.004451	4497.172422	19220.403789	3287.203375	10535.259416
45.535000	-0.001988	0.000644	-0.006207	0.000751	4518.684961	19352.338819	3286.124020	10600.295869
46.035000	0.001400	0.000348	0.000968	0.000912	4530.458649	19335.120537	3292.018548	10597.456648
46.535000	0.002150	-0.000367	0.009467	0.001013	4532.839840	19304.359055	3299.202715	10595.684901
47.035000	-0.005540	-0.000273	0.014149	0.007049	4483.279655	19082.090839	3298.034709	10489.900505
47.536000	-0.000525	-0.001015	-0.000023	-0.000046	4526.920609	19319.839232	3291.990748	10614.387743
48.067000	0.002204	0.000404	0.005614	0.002379	4528.034325	19281.981575	3294.721592	10571.618142
48.536500	-0.004802	-0.000852	0.009747	0.003074	4500.122551	19208.735273	3297.667539	10559.396143
49.036000	-0.002606	-0.001492	0.004699	0.005488	4499.338341	19094.801709	3291.303437	10517.119956
49.537500	-0.001987	-0.001204	0.003127	0.000738	4518.737383	19283.214140	3294.000542	10600.536516
50.037500	0.001932	-0.000314	0.003418	0.002343	4527.168442	19256.318152	3292.882421	10572.237531
50.535000	0.001536	0.000902	0.005244	0.002252	4526.055368	19305.510724	3294.514751	10573.853433
51.035500	-0.003263	-0.000583	0.000406	0.006432	4493.600735	19093.494912	3286.901342	10500.642300
51.535500	0.000469	-0.001095	-0.002261	-0.002326	4538.929333	19402.961162	3292.026587	10654.822482
52.035000	-0.018865	-0.011234	0.010458	0.055577	4278.420898	17016.889662	3255.670451	9690.896132
52.539000	-0.070111	-0.035158	-0.017640	0.116374	3974.069280	14523.659092	3194.295255	8807.997611
53.036000	-0.041896	-0.013307	-0.014950	-0.053050	4570.004235	20928.695328	3325.702280	11611.564524
53.536500	-0.014194	-0.009405	0.000798	-0.111904	4929.500626	23723.935672	3400.970848	12871.174932
54.037000	-0.031989	-0.010496	-0.019359	-0.101663	4805.127695	23188.826439	3368.732746	12639.542790
54.537000	-0.027493	-0.007945	-0.002786	-0.143006	5012.753127	25341.400716	3432.165142	13609.047316
55.037500	-0.037267	-0.011764	-0.012812	-0.130699	4910.001778	24525.175053	3406.697680	13310.734363
55.535500	-0.021119	-0.002309	0.005128	-0.121562	4942.060897	24540.992384	3416.580243	13094.662989
56.035500	-0.014591	-0.002713	0.006710	-0.075107	4766.208756	22332.590606	3368.235285	12063.761098
56.535000	-0.010389	0.000520	-0.000618	-0.061077	4725.342828	21856.583518	3346.920472	11773.465322
57.036500	-0.007903	-0.001571	0.008090	-0.036285	4635.965754	20721.730059	3331.547595	11282.914531
57.536000	-0.010842	-0.000902	0.005686	-0.019115	4559.222570	20059.077887	3313.590087	10959.196263
58.036500	-0.009855	-0.000655	-0.005483	-0.009422	4527.088054	19690.966343	3295.323179	10782.034782
58.536500	-0.011595	-0.000910	0.009406	-0.011963	4530.019705	19779.345195	3310.525502	10828.107682
59.037000	-0.007024	0.000220	0.002571	-0.005174	4521.920523	19561.449641	3298.590542	10705.628904
59.534500	-0.009398	-0.001856	0.006352	-0.006445	4517.907470	19530.706726	3302.972341	10728.416634
60.035000	-0.005028	-0.002649	0.006684	0.000817	4507.436633	19225.977614	3296.975115	10599.138608
60.534500	-0.009758	-0.002966	0.007299	-0.003222	4504.940962	19366.078804	3300.992379	10670.769789
61.035500	-0.008591	-0.002155	-0.004015	0.002006	4490.378217	19199.962462	3286.906076	10578.182129
61.535500	-0.010082	-0.000549	0.003769	0.008322	4462.755829	19024.654434	3288.134192	10467.786131
62.038500	-0.006691	-0.002609	-0.001063	0.002057	4496.994156	19181.061520	3289.337590	10577.279888
62.536500	-0.012376	-0.002881	0.001610	0.007680	4456.972124	18962.232782	3286.864900	10478.925892
63.036500	-0.006474	-0.000473	0.002127	0.006725	4481.116158	19086.682388	3288.096322	10495.538941
63.537000	-0.002565	0.000940	-0.005021	-0.008592	4550.874469	19720.534225	3295.008597	10767.058179
64.034500	-0.007234	0.001388	-0.002002	-0.008497	4533.298894	19734.146732	3297.514492	10765.337268
64.537500	-0.007941	0.001397	0.003820	-0.014420	4552.552973	19964.970851	3307.750712	10872.900385
65.040000	-0.009131	0.001531	0.000681	-0.014833	4549.667173	19986.396780	3305.349993	10880.445571
65.535000	-0.001611	0.003812	-0.002221	-0.017605	4588.269700	20185.794520	3305.236021	10931.345210
66.036000	-0.001376	0.002644	0.005537	-0.019426	4596.091700	20211.750291	3313.736438	10964.962239
66.539000	-0.002016	0.004514	0.005280	-0.019373	4593.453190	20284.133904	3313.458832	10963.979536
67.036500	-0.000472	0.005240	0.008831	-0.018393	4595.596924	20273.976513	3315.769677	10945.863294
67.536500	-0.003320	0.004754	0.000278	-0.018072	4583.562903	20241.829553	3307.848383	10939.949232
68.039500	-0.004468	0.004955	0.003016	-0.013318	4561.377964	20061.495464	3306.070665	10852.779181
68.536500	0.004047	0.005783	0.000312	-0.017461	4609.330843	20258.480863	3307.338528	10928.693515
69.034500	-0.005301	0.004276	-0.004216	-0.013051	4557.276272	20024.250775	3299.531808	10847.910664
69.534500	-0.003158	0.003671	0.014812	-0.016676	4578.896867	20143.372084	3319.634203	10914.248256
70.035000	-0.003865	0.004653	0.008282	-0.014788	4569.135931	20107.571814	3312.041226	10879.624609
70.535500	-0.007576	0.004570	0.009754	-0.013854	4551.802557	20067.417192	3312.522523	10862.552982
71.036000	-0.004932	0.004215	0.011176	-0.007734	4538.954828	19814.113511	3308.343502	10751.588584
71.536000	-0.005470	0.002749	0.011768	-0.013001	4556.459748	19962.352003	3313.562287	10846.986709
72.036500	-0.004592	0.003596	-0.007161	-0.007820	4540.524979	19793.387965	3292.529143	10753.129766
72.536500	-0.002568	0.002882	0.014047	-0.010942	4559.600841	19887.070065	3313.759057	10809.556057
73.040000	-0.001942	0.002981	0.004947	-0.011285	4563.220949	19904.351757	3305.981412	10815.791503
73.537000	-0.001089	0.003214	0.002271	-0.008864	4557.368370	19819.106430	3301.525300	10771.954521
74.037500	-0.003127	0.003381	-0.007138	-0.002819	4527.544934	19592.294693	3288.330584	10663.587887
74.535500	0.000899	0.002767	-0.003309	-0.008291	4562.647564	19779.542895	3296.215231	10761.620896
75.035500	-0.007384	0.003452	0.021474	-0.003764	4515.483343	19631.281790	3313.983026	10680.427835
75.535000	0.001664	0.003991	0.006187	-0.005594	4555.445986	19722.559441	3302.087296	10713.161243
76.039000	0.002875	0.003866	0.012413	-0.005677	4560.265879	19720.899395	3307.618320	10714.635795
76.536000	0.000050	0.005031	0.007860	-0.003842	4542.975144	19695.074271	3302.018767	10681.831066
77.036500	0.000975	0.004635	0.009795	-0.003741	4546.018013	19675.886547	3303.617737	10680.018618
77.537000	-0.000841	0.003206	0.009467	-0.004716	4542.910468	19658.469595	3304.184311	10697.444387
78.040000	0.001844	0.005353	0.007889	-0.002103	4543.177472	19640.532454	3300.533546	10650.855718
78.536500	0.000282	0.003521	0.006710	-0.002611	4539.290311	19589.712961	3299.951652	10659.884330
79.037500	0.002232	0.003897	0.000638	-0.002030	4544.338076	19581.846254	3294.238040	10649.560688
79.534500	0.006921	0.006727	0.000330	0.000305	4553.057285	19600.806357	3291.992245	10608.177837
80.035500	0.001237	0.004225	0.013533	-0.000993	4536.850472	19554.708053	3304.483486	10631.152788
80.535500	0.002919	0.005283	0.017450	0.000369	4538.029556	19543.131749	3306.728523	10607.055227
81.036000	0.001234	0.004739	0.007924	0.000758	4530.413638	19507.501402	3298.092186	10600.181503
81.536500	0.004783	0.004089	0.008494	0.000253	4545.331779	19501.967000	3299.018269	10609.101914
82.036500	0.002343	0.003464	0.001851	0.007161	4511.144935	19217.326845	3287.500226	10487.956697
82.536500	0.008005	0.005362	0.025844	0.003216	4546.285659	19437.668796	3311.646256	10556.894697
83.037500	0.001499	0.005774	0.005871	0.007142	4508.161603	19304.793037	3290.896142	10488.280785
83.535000	0.003973	0.003856	0.014382	0.002065	4535.664373	19424.213102	3302.554012	10577.129908
84.035000	0.003572	0.003686	0.006333	0.001943	4534.644089	19422.408036	3295.709284	10579.292434
84.535500	0.004496	0.005114	0.006196	0.003524	4532.231672	19416.591960	3294.241569	10551.494563
85.035000	0.005807	0.005110	0.009695	0.007453	4522.663577	19268.145953	3293.875673	10482.880681
85.538000	0.009734	0.005113	0.005280	0.005379	4544.681169	19346.337531	3291.886915	10519.017052
86.036000	0.004486	0.003061	0.007441	0.010070	4508.374899	19093.726835	3289.750668	10437.511123
86.536000	0.005085	0.006608	0.021274	0.006153	4524.769414	19373.625550	3305.005132	10505.516323
87.037000	0.009104	0.006638	0.008318	0.007256	4535.447075	19333.104147	3292.872283	10486.310024
87.534000	0.006802	0.004979	0.009083	0.007004	4527.933779	19280.081220	3293.736379	10490.694605
88.037500	0.002050	0.004537	-0.000305	0.011623	4494.036764	19090.890786	3282.004575	10410.728025
88.534500	0.005978	0.005596	0.024842	0.007792	4522.047651	19273.630313	3306.700499	10476.978953
89.035000	0.010351	0.006118	0.008624	0.008375	4535.915862	19271.336278	3292.182406	10466.862566
89.535500	0.008381	0.006789	0.015524	0.010128	4522.295681	19230.743591	3296.570299	10436.515123
90.036000	0.002540	0.005369	0.007833	0.014775	4484.541201	19004.904463	3286.137842	10356.653132
90.536000	0.008721	0.007019	0.012597	0.010213	4523.223720	19236.167507	3293.996187	10435.043580
91.036000	0.014215	0.006976	0.003777	0.010445	4542.523699	19225.863539	3286.366097	10431.040720
91.536500	0.008429	0.007338	0.006600	0.011297	4518.218446	19207.521916	3288.014057	10416.350453
92.037000	0.010422	0.005060	0.006335	0.016177	4507.759023	18941.731615	3283.727519	10332.711959
92.537000	0.008078	0.005899	0.011635	0.010951	4518.198584	19166.663962	3292.551383	10422.308554
93.040500	0.009482	0.005602	0.020655	0.015663	4506.224594	18980.699193	3296.224544	10341.486933
93.535000	0.015088	0.006488	0.001395	0.012161	4539.416006	19143.476344	3282.963503	10401.461324
94.035500	0.007570	0.004916	0.013463	0.014526	4503.433016	18997.342171	3291.071877	10360.912158
94.535500	0.008993	0.006395	0.017550	0.011768	4518.553584	19154.662027	3296.901561	10408.224837
95.147000	0.010990	0.006668	0.016992	0.016079	4510.165165	19004.684295	3292.745004	10334.387334
95.536000	0.010807	0.006185	0.014291	0.012594	4522.147357	19116.022009	3293.411349	10394.017634
96.064500	0.011954	0.007661	0.021290	0.013771	4522.039004	19127.188282	3298.395424	10373.830464
96.537000	0.009356	0.006965	0.012600	0.013612	4513.179575	19107.209849	3291.115376	10376.560101
97.037000	0.011238	0.007756	0.019571	0.014260	4517.655289	19112.531426	3296.497502	10365.455297
97.537500	0.013803	0.005657	0.018579	0.013427	4530.047620	19065.463974	3296.361514	10379.725097
98.040500	0.009921	0.006880	0.025019	0.013995	4513.838189	19089.762519	3301.428300	10369.985077
98.535000	0.014277	0.007715	0.016738	0.015126	4525.571264	19078.816047	3293.338775	10350.648708
