sample name	sample
index	570
start time	 03-16-2021  02:57:44 PM
880	0.021353
Peak Time (s)	181.537
Peak Height 	0.02135
calc peak height	180,183
Baseline Time (s)	11.035
Baseline Value 	-0.004928
subtract baseline	10,4
Abs	0.018043
Peak Time (s)	181.037
Peak Height 	0.01804
calc peak height	180,183
Baseline Time (s)	9.036
Baseline Value 	8.5486E-4
subtract baseline	10,3
PK_550	0.014304
Peak Time (s)	180.036
Peak Height 	0.0143
calc peak height	180,183
Baseline Time (s)	10.537
Baseline Value 	6.9779E-4
subtract baseline	10,2
PK_880	0.013221
Peak Time (s)	180.539
Peak Height 	0.01322
calc peak height	180,183
Baseline Time (s)	11.035
Baseline Value 	0.002611
subtract baseline	10,1


Time (s)	A880-A510	A880-A775	A880-A975	A880	I510	I775	I975	I880	
0.037000	-0.003312	0.000081	-0.003332	0.002031	5568.547075	34040.316255	3599.221524	18419.297726
0.537500	-0.006226	-0.001823	0.000886	0.005861	5526.359964	33631.353734	3599.930249	18282.374711
1.037500	-0.002976	-0.000494	-0.000150	0.003427	5561.875204	33899.075518	3602.481381	18369.247414
1.538000	-0.001158	-0.000189	-0.000862	0.000365	5592.745358	34140.774020	3606.790986	18479.265417
2.035500	0.000009	-0.000295	0.003973	0.000281	5600.710099	34139.135800	3615.883902	18482.264632
2.535500	-0.004292	-0.000878	-0.007018	0.005680	5539.519263	33711.191771	3585.978506	18288.815335
3.035500	-0.002622	-0.000353	0.000333	-0.001206	5593.425515	34242.226769	3611.891357	18535.984001
3.539000	-0.001047	-0.000447	-0.001629	-0.000400	5598.314827	34177.270351	3606.785874	18506.838912
4.036500	-0.001677	-0.000661	0.004774	-0.000637	5595.815303	34178.918880	3619.088159	18515.412253
4.536500	-0.001229	-0.000282	0.006064	0.000088	5594.050235	34153.990539	3620.143621	18489.241563
5.037000	-0.000783	-0.000915	0.003680	-0.000424	5600.158997	34145.265666	3616.650706	18507.723975
5.537500	-0.000474	0.000164	0.002975	0.000531	5596.044262	34154.244765	3613.567789	18473.281685
6.035000	0.001907	-0.000553	-0.000018	-0.000226	5616.095644	34157.124558	3609.433472	18500.573059
6.535500	0.001464	0.001137	0.004636	0.000828	5606.512677	34202.946097	3616.101415	18462.579300
7.035500	-0.000171	0.000281	0.001463	-0.000292	5603.219900	34222.017365	3612.292042	18502.959804
7.535500	-0.002529	-0.000094	0.005944	-0.000332	5588.460311	34197.840787	3620.703809	18504.404126
8.038500	-0.002105	0.000753	0.005470	0.000075	5588.562883	34229.560998	3619.057433	18489.704838
8.536500	0.000221	-0.000338	-0.003572	-0.000672	5608.154866	34204.786284	3603.720842	18516.682528
9.036000	-0.000444	0.000624	0.000000	0.000353	5597.359070	34200.184096	3608.397771	18479.666058
9.536500	0.001392	-0.000184	-0.000171	-0.000222	5612.765564	34183.413163	3609.143833	18500.428578
10.034500	-0.000946	0.000666	0.001198	0.000321	5594.373119	34205.550919	3610.667372	18480.834119
10.537500	0.000512	0.000000	0.002868	0.001535	5595.926966	34070.164088	3611.511639	18437.140173
11.035000	0.000000	0.000119	0.006891	0.000000	5602.446164	34189.281259	3621.855135	18492.413655
11.535000	-0.000646	-0.000412	-0.000679	-0.000677	5602.644342	34199.742205	3609.045336	18516.852030
12.035500	0.001276	0.000012	0.001541	-0.000398	5613.150901	34210.272364	3612.631119	18506.777879
12.535500	-0.000595	-0.000666	0.001426	0.001096	5591.675171	34053.860572	3609.657596	18452.932742
13.036000	0.001740	-0.000263	-0.000733	-0.001987	5626.336781	34305.276898	3611.363704	18564.271522
13.536500	-0.002021	-0.000582	0.007630	-0.000627	5593.565637	34183.902076	3624.417835	18515.061151
14.042500	-0.002038	-0.000690	-0.000989	-0.000866	5594.976347	34193.337770	3608.822641	18523.689330
14.537000	-0.001568	0.000575	0.000015	0.003561	5569.899829	33965.994548	3602.537808	18364.441823
15.037500	0.001239	0.001085	0.002787	0.001410	5601.354040	34157.240611	3611.592182	18441.627840
15.537500	-0.003001	-0.000496	-0.001482	-0.000624	5587.318778	34189.897523	3607.468606	18514.955988
16.036500	-0.002711	-0.000971	-0.000894	-0.000847	5590.573560	34171.680175	3608.961040	18522.987278
16.535500	-0.001752	-0.000447	0.000866	0.002914	5572.822833	33939.188026	3605.283301	18387.640482
17.035500	-0.001926	0.000277	0.002441	-0.000014	5590.268660	34201.658417	3613.587551	18492.912003
17.538500	0.001122	0.000232	-0.004101	-0.000422	5612.317874	34227.844042	3602.294457	18507.638785
18.036500	0.001984	0.000013	0.003664	-0.003168	5635.526654	34410.941817	3621.743349	18607.127092
18.536000	-0.003493	-0.000393	0.002995	0.000587	5576.527379	34110.090779	3613.502497	18471.262974
19.036500	-0.001727	-0.000503	-0.001916	0.001405	5582.526455	34043.366173	3602.949235	18441.799541
19.537000	-0.003327	-0.000280	0.006283	0.001224	5573.548643	34072.359777	3618.431574	18448.325562
20.037500	-0.001904	-0.000238	-0.000141	0.001147	5583.040550	34080.933862	3606.678959	18451.086665
20.538000	-0.001477	-0.001030	0.004072	0.000751	5588.263369	34052.449569	3615.194938	18465.348132
21.035500	-0.001285	-0.000153	0.002525	0.001363	5585.598771	34071.485662	3611.194355	18443.320568
21.535500	0.000630	0.000296	0.004926	0.001589	5596.331720	34087.482127	3615.224459	18435.175667
22.036000	-0.002046	-0.000734	0.006244	0.000776	5584.491429	34071.910360	3619.193869	18464.441683
22.535500	0.000141	-0.000467	-0.001922	0.001975	5590.768279	34005.050199	3601.897904	18421.334094
23.036000	-0.002705	-0.000132	0.002151	0.001892	5573.257874	34034.989459	3609.527614	18424.302902
23.537000	-0.000504	-0.000987	0.007115	0.000998	5592.879156	34037.845998	3620.407113	18456.460747
24.036500	-0.002183	-0.000417	0.003469	0.001147	5581.268565	34068.021593	3613.341566	18451.075926
24.534000	-0.003237	-0.001432	0.003162	0.000464	5578.923541	34044.176695	3614.037897	18475.674448
25.037000	-0.001501	-0.000606	0.006869	0.001311	5584.554178	34042.663720	3619.361634	18445.172212
25.535000	-0.003179	0.000618	0.010097	0.002061	5569.204158	34076.743848	3624.001898	18418.235399
26.038000	-0.001055	0.000140	0.007630	0.001600	5585.551438	34075.591026	3620.244752	18434.805884
26.536000	-0.002506	-0.000089	0.003348	0.001469	5577.187773	34068.461196	3612.521123	18439.497650
27.038000	-0.000181	0.000581	0.000023	0.002097	5587.944932	34071.521862	3605.234534	18416.951498
27.536500	-0.002248	0.000632	0.001747	0.001871	5576.277719	34091.456423	3608.821591	18425.058409
28.036000	-0.000085	0.000355	0.007253	-0.000637	5605.972841	34252.261094	3623.727976	18515.412551
28.536500	0.000644	-0.000400	0.005841	0.000021	5606.423890	34150.336076	3619.851125	18491.653550
29.036500	-0.001212	-0.000378	0.003000	-0.000074	5595.197450	34158.760581	3614.737981	18495.100818
29.534500	-0.000832	0.000316	-0.000310	-0.000144	5598.056174	34213.887826	3608.743303	18497.614538
30.040000	-0.004190	-0.000301	0.004667	0.004296	5548.807459	33850.822706	3609.732424	18338.166002
30.535500	-0.000283	0.000010	0.004130	0.000180	5599.496727	34168.462164	3616.365733	18485.935522
31.038000	-0.001517	-0.000034	0.002743	0.000102	5592.132496	34170.885106	3613.933995	18488.735517
31.555500	0.001321	0.000862	-0.001616	0.000794	5605.807767	34185.528778	3604.618299	18463.778553
32.036000	-0.002891	-0.000553	-0.001515	0.004718	5554.306422	33802.764957	3597.639923	18323.121295
32.536500	-0.003931	0.000043	-0.002720	0.002428	5562.148878	34009.048299	3599.614015	18405.038938
33.063500	-0.000803	-0.000507	0.003132	-0.000377	5599.731170	34171.286715	3615.544446	18506.021501
33.537000	-0.002165	-0.000426	0.000038	0.000003	5588.639022	34149.753174	3609.114020	18492.300312
34.042000	-0.003314	-0.000479	0.000293	0.003754	5557.697127	33876.866625	3602.694230	18357.557422
34.563500	-0.002545	-0.000622	0.004695	-0.000282	5588.038363	34156.163577	3618.277477	18502.599109
35.037000	-0.002173	0.000087	0.001956	0.001731	5577.637587	34062.284784	3609.464354	18430.081329
35.535000	-0.003005	-0.000290	0.003091	0.002311	5568.721388	33993.654658	3610.488332	18409.259341
36.036500	-0.000667	-0.000212	0.004028	0.003476	5576.127270	33915.749405	3610.066388	18367.490735
36.535000	-0.004115	0.000426	0.007272	0.002816	5558.557476	34008.714496	3617.305949	18391.139281
37.036000	-0.002288	0.000414	0.000067	0.002900	5569.525411	34001.849859	3603.843008	18388.125082
37.536500	-0.005860	-0.001070	0.005568	0.001432	5556.293680	34000.687772	3616.710438	18440.829592
38.037000	0.001028	0.000569	-0.001347	0.003652	5585.746651	33959.096549	3599.886079	18361.209868
38.536500	-0.002356	-0.000725	0.008473	0.002218	5573.398392	33969.060122	3620.663236	18412.575761
39.037000	-0.001397	-0.000196	0.003384	0.002551	5577.356305	33983.128124	3610.584729	18400.629024
39.537000	-0.002107	0.000452	0.002089	0.003306	5568.109316	33975.487664	3606.809543	18373.589942
40.035000	0.000515	0.000366	-0.000618	0.002988	5586.711302	33992.138589	3602.430291	18384.994592
40.535500	-0.001858	-0.000275	-0.001073	0.002238	5576.424462	33999.928410	3602.968996	18411.876536
41.038500	-0.002196	-0.001207	0.005373	0.001730	5577.503246	33969.549657	3615.793375	18430.121792
41.536000	-0.002590	-0.000591	0.001158	0.002558	5569.777394	33954.321032	3606.471602	18400.380953
42.039000	-0.000306	-0.000118	0.004744	0.002415	5585.131367	33998.461779	3613.353891	18405.521522
42.537000	0.000251	-0.000372	0.004455	0.002768	5586.427549	33955.002666	3612.166416	18392.877911
43.037000	-0.004374	-0.000017	0.008249	0.002689	5557.731120	33986.110073	3619.365628	18395.690538
43.536500	-0.000429	0.000048	0.005305	0.002755	5582.199075	33986.022786	3613.763820	18393.329632
44.034500	-0.002136	0.000451	-0.000686	0.002962	5570.095041	34000.047026	3602.352605	18385.909916
44.534500	-0.001398	0.000438	0.001999	0.003365	5572.210267	33970.204685	3606.533968	18371.457646
45.038000	0.000882	0.001653	0.008631	-0.001063	5614.893092	34377.230797	3627.123668	18530.828301
45.535500	0.000515	0.000222	0.000447	-0.000134	5606.594349	34206.355820	3610.121989	18497.255104
46.036000	-0.000160	0.001835	0.010541	0.001638	5590.997583	34194.865961	3625.632352	18433.434570
46.536000	-0.002130	0.000542	0.003791	0.004419	5560.953490	33902.232444	3607.891377	18333.768964
47.036500	-0.000073	0.000206	0.001658	0.000822	5596.743342	34136.259430	3610.592320	18462.793200
47.536500	0.000923	0.000478	-0.000986	0.000861	5602.839949	34153.072552	3605.652210	18461.381910
48.037000	-0.001869	-0.000582	0.004239	0.005696	5554.576439	33731.137209	3606.368509	18288.249127
48.550500	-0.002816	-0.000805	0.004131	0.005648	5548.943431	33718.687559	3606.257997	18289.954037
49.038000	-0.001959	0.000385	0.002554	0.004337	5562.553533	33896.909951	3605.769556	18336.730043
49.538000	-0.001812	-0.000004	0.005191	0.001545	5581.101960	34069.172199	3615.799382	18436.782182
50.057000	-0.002738	-0.000133	0.006204	0.004906	5554.084924	33819.302905	3611.445968	18316.401554
50.538500	-0.006457	-0.000829	-0.002055	0.005889	5524.754190	33699.816226	3594.535884	18281.370408
51.036000	0.000161	0.000369	0.000417	0.000381	5601.042075	34179.836813	3609.115964	18478.689938
51.536000	0.000614	-0.000611	0.008448	-0.002249	5620.778676	34299.020579	3629.014600	18573.755375
52.036500	-0.003020	0.000153	0.002412	0.005000	5551.720977	33832.979078	3604.291547	18313.032013
52.537000	-0.004267	0.000446	0.003123	0.008166	5524.215390	33628.795000	3599.805983	18200.547131
53.037000	-0.002924	-0.007003	0.002689	0.282290	4267.837213	18947.553147	3228.958347	11003.274641
53.537500	-0.013600	-0.018089	-0.000546	-0.076549	6034.819133	38694.154436	3762.179427	21512.622513
54.035000	-0.028708	-0.032205	-0.011580	-0.268335	7643.518310	56808.828870	4254.519749	31888.981047
54.535000	-0.008346	-0.061901	0.006142	-0.354016	8974.651723	64232.149948	4643.288537	38228.095606
55.035500	-0.001689	-0.050851	0.005378	-0.339114	8859.102300	63689.982131	4578.278653	37033.805977
55.535500	-0.005188	-0.024794	0.007755	-0.271550	7949.121888	58145.137732	4331.592474	32104.948947
56.036000	-0.016440	-0.009730	-0.005589	-0.196052	7022.312908	50962.789210	4049.797832	27432.498527
56.536500	-0.007403	-0.008523	-0.000460	-0.200142	7150.948900	51553.158790	4076.430977	27665.335818
57.037000	-0.007673	-0.007363	-0.003957	-0.195884	7106.135038	51207.046886	4053.990366	27422.968650
57.537000	-0.008798	-0.002613	-0.009545	-0.188251	7020.774724	50887.124745	4016.642201	26994.408561
58.038000	-0.005032	-0.003361	-0.002963	-0.220511	7383.196639	54501.790031	4129.687040	28858.239667
58.535000	-0.001509	0.000541	0.001510	-0.193727	7145.760963	51851.105334	4063.520116	27301.077764
59.035500	-0.000245	0.000650	-0.002254	-0.175004	6975.726914	49795.503841	4000.183806	26268.254053
59.535000	-0.002138	-0.000898	0.004484	-0.157539	6795.008978	47784.917540	3971.106599	25344.102329
60.038500	-0.005999	-0.000906	0.000551	-0.129549	6514.656874	44979.897096	3888.704937	23938.443611
60.536000	-0.005625	-0.001769	-0.000456	-0.113953	6387.760060	43413.313235	3848.185497	23193.636378
61.036000	-0.004876	-0.001626	-0.000670	-0.096700	6255.111064	41846.584334	3807.192780	22400.250285
61.536500	-0.005492	-0.000654	-0.000733	-0.081275	6130.926823	40570.308405	3772.199786	21717.114412
62.036500	-0.010987	-0.001103	-0.002707	-0.072022	6020.723741	39737.154556	3747.604236	21318.829362
62.537000	-0.005968	0.000054	-0.004134	-0.066249	6015.197159	39347.274692	3732.161109	21074.610281
63.037500	-0.007422	-0.000790	-0.003855	-0.071618	6044.029164	39729.445651	3744.253248	21301.623725
63.535000	-0.009255	0.005611	-0.009943	-0.075432	6058.720866	40606.965321	3739.365347	21464.614977
64.055000	-0.015042	0.001571	-0.006507	-0.073681	6003.173513	40106.942424	3742.985317	21389.624391
64.536000	-0.010345	0.006490	-0.012165	-0.086705	6135.308711	41678.168958	3758.970815	21954.823357
65.035500	-0.008715	0.005474	-0.007101	-0.082229	6113.721416	41190.344799	3760.259868	21758.659250
65.541500	-0.011001	0.006134	-0.002254	-0.075902	6049.247982	40693.359991	3757.020150	21484.791707
66.035500	-0.014502	0.004829	-0.005446	-0.065385	5947.014137	39677.377534	3727.543687	21038.327688
66.536500	-0.011680	0.005892	-0.009491	-0.064166	5958.543847	39664.110971	3716.470947	20987.272202
67.037000	-0.010595	0.005343	-0.006214	-0.062429	5953.849352	39470.885339	3719.695413	20914.760142
67.537000	-0.008456	0.005661	-0.004061	-0.059092	5945.240670	39217.272592	3717.215219	20776.291913
68.035000	-0.012236	0.005238	-0.006584	-0.052837	5874.095316	38662.424813	3699.029749	20519.564102
68.535000	-0.011264	0.004767	-0.008756	-0.052372	5877.654009	38585.385198	3693.638155	20500.649431
69.035000	-0.010988	0.004797	-0.004508	-0.053351	5886.467143	38668.419693	3704.356120	20540.511652
69.541000	-0.010358	0.005444	-0.004317	-0.051813	5880.089599	38595.060560	3701.583808	20477.909680
70.036000	-0.008668	0.004811	-0.010984	-0.050753	5884.512692	38455.945749	3685.831212	20434.852270
70.536500	-0.010591	0.004814	-0.008236	-0.048075	5852.330448	38237.400660	3685.972158	20326.608999
71.036500	-0.009493	0.005405	-0.011232	-0.048813	5865.137119	38345.862517	3681.421078	20356.377388
71.536500	-0.009358	0.005128	-0.007616	-0.047684	5858.187919	38231.074266	3686.434072	20310.820578
72.037000	-0.012025	0.004318	-0.010994	-0.043225	5808.918057	37804.577879	3670.732498	20132.221603
72.537500	-0.009934	0.005170	-0.008760	-0.045532	5839.230538	38059.679450	3679.795427	20224.388345
73.035000	-0.009279	0.004755	-0.004219	-0.046475	5850.326441	38102.489212	3690.868770	20262.209081
73.535000	-0.009667	0.003880	-0.004098	-0.046774	5849.704240	38055.757046	3691.723106	20274.214110
74.038000	-0.009830	0.004315	-0.003172	-0.041113	5809.486156	37634.700103	3682.145279	20048.227768
74.535500	-0.007971	0.004069	-0.003758	-0.044179	5843.460050	37861.278415	3687.147600	20170.260241
75.035500	-0.008230	0.006172	-0.003922	-0.044764	5845.722759	38078.579622	3688.000061	20193.646693
75.536500	-0.007103	0.005015	-0.002192	-0.046331	5864.491597	38111.941806	3694.704893	20256.443013
76.036500	-0.007315	0.004198	-0.001732	-0.043767	5845.156538	37838.461991	3690.419783	20153.805627
76.536500	-0.007139	0.004898	-0.007433	-0.043548	5844.862805	37877.329482	3678.479710	20145.097856
77.037000	-0.006604	0.005636	-0.000080	-0.044827	5857.473522	38040.250758	3695.945179	20196.163179
77.534500	-0.003191	0.005785	0.001345	-0.044523	5879.223913	38027.812479	3698.240928	20184.036597
78.035000	-0.008334	0.005173	-0.004344	-0.041273	5820.872630	37716.390613	3680.110766	20054.595293
78.535500	-0.007387	0.006449	-0.001408	-0.042341	5834.775575	37905.031525	3688.186158	20097.018665
79.035500	-0.005885	0.006215	-0.003041	-0.043218	5851.280123	37956.928656	3686.654512	20131.931954
79.536000	-0.002307	0.005361	0.000151	-0.043805	5880.394646	37935.406999	3694.332077	20155.357998
80.036000	-0.004454	0.006054	0.002076	-0.039427	5834.902555	37638.917107	3689.340875	19981.480959
80.536500	-0.004637	0.006159	-0.005688	-0.041116	5845.339102	37782.977907	3677.102608	20048.345861
81.037000	-0.003525	0.005997	-0.001097	-0.042330	5861.537120	37867.649890	3688.793908	20096.575246
81.537000	-0.002090	0.006400	0.002488	-0.041733	5867.389996	37852.048588	3694.870937	20072.839525
82.037000	-0.004054	0.006826	-0.004283	-0.038578	5831.798074	37632.802530	3674.838636	19947.975171
82.534500	-0.001231	0.006086	-0.000955	-0.041122	5869.122800	37777.592334	3686.635577	20048.593847
83.035500	-0.002835	0.006562	0.000842	-0.041008	5857.128848	37806.700160	3690.045917	20044.090234
83.538500	-0.002308	0.006027	0.002103	-0.040588	5857.872199	37729.885235	3691.754435	20027.422950
84.036000	-0.001719	0.005588	-0.003696	-0.038637	5848.390766	37538.512607	3676.129634	19950.298509
84.535500	0.000622	0.007189	0.005735	-0.039444	5870.355046	37731.443034	3696.829485	19982.185386
85.036500	0.000423	0.006071	0.001519	-0.039945	5872.457821	37681.857021	3689.261003	20001.959819
85.536500	0.001197	0.006414	0.001990	-0.039269	5873.147909	37655.113616	3688.844930	19975.238447
86.036500	-0.000162	0.006162	0.006367	-0.037420	5850.760099	37487.217421	3693.987147	19902.388789
86.537000	-0.000324	0.007740	0.005439	-0.038048	5853.998378	37663.587725	3693.373924	19927.105533
87.037000	0.001032	0.007472	-0.000773	-0.037642	5860.621631	37609.618740	3679.989719	19911.114279
87.534500	-0.001363	0.006309	0.007104	-0.038251	5848.181917	37565.275953	3697.189149	19935.079183
88.035000	-0.002145	0.006768	0.000596	-0.034620	5817.676447	37312.772979	3676.679614	19792.640103
88.535500	0.000475	0.007316	0.004670	-0.034891	5837.627876	37377.793612	3685.410834	19803.236935
89.036000	0.001286	0.006343	0.003116	-0.036929	5857.417740	37462.483283	3686.388610	19883.081993
89.536000	0.000169	0.006266	0.004384	-0.036697	5848.032604	37437.915535	3688.486539	19873.995326
90.036500	-0.000160	0.006447	0.005181	-0.035802	5839.537513	37381.059450	3688.286239	19838.874600
90.537000	0.000555	0.006866	0.003574	-0.033874	5831.143708	37261.333083	3681.153835	19763.504004
91.037000	0.001020	0.007715	0.004726	-0.033594	5832.419632	37306.427853	3682.907194	19752.567831
91.537000	0.000824	0.006186	0.004937	-0.034765	5839.168135	37278.000763	3685.695068	19798.280128
92.036500	0.002014	0.006897	0.007499	-0.031717	5826.323469	37093.304044	3684.713607	19679.557094
92.535500	-0.001873	0.007185	-0.000332	-0.030830	5793.574460	37046.152784	3667.297352	19645.191844
93.038500	0.000885	0.006446	0.005251	-0.032419	5823.388558	37113.172558	3681.599740	19706.854572
93.538000	-0.000202	0.006218	0.003533	-0.031740	5811.235610	37041.633104	3676.792916	19680.452324
94.036000	-0.000029	0.006836	-0.000474	-0.029216	5795.141449	36891.919669	3663.829983	19582.764040
94.536000	0.000030	0.006703	0.005735	-0.030564	5804.768192	36987.331011	3678.847034	19634.888503
95.036000	-0.000881	0.005837	0.006118	-0.030723	5799.618893	36931.738180	3679.934273	19641.024653
95.542000	0.000404	0.006337	0.004896	-0.030098	5804.132700	36921.974450	3676.235499	19616.856283
96.037000	-0.002435	0.006333	0.002822	-0.028050	5770.856404	36761.394158	3668.036133	19537.830743
96.543000	-0.001834	0.005334	0.002006	-0.030295	5790.193242	36858.864133	3670.871860	19624.479976
97.035000	-0.001489	0.005867	0.003350	-0.029222	5785.240341	36816.629730	3671.409808	19583.028088
97.537000	0.000049	0.006304	0.005582	-0.028473	5790.610052	36792.223628	3674.361539	19554.144641
98.035500	0.000374	0.005586	0.006609	-0.026763	5781.182623	36602.971139	3673.001118	19488.384026
98.536000	0.001330	0.006012	0.000815	-0.027057	5789.686163	36658.997256	3662.118693	19499.662876
99.035500	-0.002884	0.004685	0.005789	-0.028053	5767.837350	36633.215307	3673.936669	19537.945651
99.536500	0.000308	0.006457	0.009136	-0.026126	5776.410656	36621.229815	3676.772173	19463.977866
100.036500	0.002862	0.006050	0.010784	-0.025995	5792.895588	36579.379771	3679.809112	19458.939694
100.537000	0.001962	0.005602	0.007031	-0.025525	5783.562183	36508.213690	3671.378926	19440.966490
101.037500	0.001391	0.006688	0.011994	-0.024234	5770.924144	36492.249305	3678.704728	19391.619819
101.540500	0.001476	0.006616	0.012794	-0.023861	5768.980909	36457.895561	3679.562817	19377.411204
102.035000	0.003048	0.006558	0.004674	-0.023228	5775.334589	36404.373997	3662.178941	19353.275561
102.538000	0.003002	0.006867	0.007838	-0.020872	5759.097292	36246.679322	3663.768530	19263.864927
103.036000	0.002666	0.006385	0.008373	-0.022204	5765.817582	36312.049634	3667.454308	19314.359053
103.536000	0.003981	0.006407	0.012596	-0.021935	5772.903594	36293.057615	3675.311670	19304.155100
104.036000	-0.001885	0.006644	0.000688	-0.020399	5723.167120	36193.178998	3648.884317	19245.944483
104.536500	0.000828	0.005953	0.004463	-0.019734	5736.848962	36089.291186	3654.927073	19220.850410
105.037000	0.003186	0.005508	0.002280	-0.020885	5760.421784	36143.294942	3652.915850	19264.342309
105.539500	0.003243	0.006969	0.013967	-0.019194	5749.423660	36125.701145	3672.581429	19200.456527
106.037500	0.001875	0.006480	0.003309	-0.018684	5736.828260	36049.289128	3650.640310	19181.228658
106.537000	0.002576	0.006437	0.005473	-0.017417	5733.039916	35949.298688	3652.382034	19133.574570
107.037500	0.003708	0.006412	0.013434	-0.018204	5745.899701	36007.456058	3669.556883	19163.180491
107.535500	0.002106	0.006616	0.007588	-0.017368	5729.570455	35959.198448	3656.406355	19131.737544
108.035500	0.003564	0.006322	0.009403	-0.016832	5735.736037	35895.978560	3658.905950	19111.612070
108.536000	0.000015	0.005902	0.004252	-0.015943	5706.193686	35796.547969	3647.159118	19078.301897
109.036500	0.002508	0.006415	0.006784	-0.015753	5721.491679	35821.054945	3651.696978	19071.210868
109.536500	0.003129	0.006490	0.008457	-0.015385	5723.174877	35798.846912	3654.234580	19057.456593
110.036500	0.005099	0.006745	0.008371	-0.014532	5730.625325	35753.496708	3652.408027	19025.598502
110.537500	0.002600	0.007046	0.007003	-0.012804	5702.531630	35645.620335	3646.411851	18961.255615
111.037500	0.006119	0.008244	0.011975	-0.012555	5724.241062	35717.345038	3655.575463	18952.013614
111.535000	0.004224	0.008153	0.004034	-0.012485	5711.178603	35705.199638	3640.091471	18949.411397
112.035500	0.001586	0.005660	0.011012	-0.013831	5702.620467	35618.509691	3656.186897	18999.467611
112.535000	0.004725	0.007561	0.008847	-0.011882	5710.493061	35614.824319	3648.191445	18927.017333
113.036000	0.004605	0.007637	0.007463	-0.011650	5708.160587	35603.125425	3645.072689	18918.412708
113.536500	0.004785	0.007696	0.008837	-0.011210	5706.442457	35574.400420	3646.874592	18902.140863
114.036500	0.005486	0.008325	0.013481	-0.010217	5704.510933	35546.966025	3653.953204	18865.405624
114.537000	0.000895	0.007229	0.011803	-0.009978	5672.726574	35446.707132	3650.230760	18856.594913
115.037000	0.005353	0.007968	0.012124	-0.009987	5702.109237	35502.846555	3650.869839	18856.917741
115.537500	0.007655	0.007517	0.007555	-0.010282	5719.332777	35491.171373	3642.619382	18867.827441
116.037500	0.003127	0.007233	0.005829	-0.010067	5687.951097	35453.639280	3638.897989	18859.855235
116.535000	0.004974	0.007832	0.010672	-0.007975	5686.341123	35341.810968	3644.177108	18782.812218
117.035500	0.005298	0.008609	0.011393	-0.008807	5693.954965	35462.407239	3647.170307	18813.429003
117.535500	0.004959	0.007744	0.006236	-0.008121	5687.202263	35346.111451	3635.961130	18788.176769
118.036000	0.004070	0.007226	0.005877	-0.008979	5686.994302	35371.487469	3636.910504	18819.728880
118.537000	0.004011	0.007897	0.008753	-0.007338	5675.845186	35299.060057	3639.272974	18759.430303
119.036000	0.007532	0.009404	0.013363	-0.006275	5691.987570	35332.210771	3646.085099	18720.447226
119.537000	0.006895	0.008582	0.016053	-0.006676	5690.432587	35300.688627	3652.067900	18735.131444
120.037500	0.006675	0.008416	0.010157	-0.006821	5689.944580	35299.207641	3640.970372	18740.471539
120.537500	0.003630	0.008593	0.008674	-0.004684	5656.022367	35153.107745	3634.058631	18662.327000
121.035000	0.005246	0.008718	0.010520	-0.005550	5672.214456	35226.822618	3639.229630	18693.923754
121.538000	0.004439	0.009169	0.013935	-0.004710	5661.461793	35197.828629	3644.170790	18663.261938
122.035500	0.008117	0.010518	0.013804	-0.003202	5675.645280	35186.057188	3641.023786	18608.378656
122.536000	0.007070	0.008906	0.008679	-0.003891	5673.301788	35117.420379	3632.561687	18633.430768
123.039000	0.005581	0.009558	0.017235	-0.004057	5664.650466	35178.179898	3649.281163	18639.462297
123.537000	0.005837	0.008495	0.008522	-0.003683	5663.887650	35071.522393	3631.871139	18625.876470
124.039500	0.006888	0.009329	0.017323	-0.002816	5665.079974	35068.950567	3647.052203	18594.332301
124.537500	0.006411	0.009352	0.010746	-0.002114	5657.398986	35018.678636	3633.113233	18568.877983
125.040000	0.008120	0.009094	0.011303	-0.003427	5677.137662	35096.889769	3636.672266	18616.546843
125.535000	0.004857	0.009666	0.008645	-0.001800	5645.263232	35018.681474	3628.538639	18557.474686
126.037500	0.008503	0.009160	0.007377	-0.002548	5673.887525	35036.636724	3627.558676	18584.620349
126.535500	0.009095	0.010098	0.011246	-0.001803	5672.884286	35050.938389	3633.472519	18557.603701
127.037000	0.005881	0.009790	0.011491	-0.002058	5653.585888	35046.978998	3634.423098	18566.853766
127.536000	0.008237	0.010057	0.015596	0.001028	5648.840898	34838.727203	3636.363244	18455.365992
128.036500	0.004400	0.010194	0.012360	-0.000856	5636.199400	34987.848855	3633.788082	18523.325321
128.539500	0.006030	0.009237	0.009657	-0.001443	5650.554482	34960.519014	3629.777273	18544.549277
129.037000	0.007975	0.010444	0.017271	-0.000674	5658.203849	34992.888283	3642.826670	18516.745455
129.537000	0.007163	0.010437	0.011543	0.002326	5633.493299	34771.138808	3626.222527	18408.707751
130.037500	0.005279	0.009707	0.012154	-0.000239	5637.892529	34906.307797	3632.225915	18501.030133
130.535500	0.007810	0.010329	0.015395	0.000525	5649.335279	34895.827057	3636.939354	18473.483616
131.035500	0.010829	0.010933	0.010466	0.001183	5664.700023	34891.869168	3626.347016	18449.783601
131.535500	0.008175	0.009775	0.010105	0.003834	5630.289507	34612.090846	3620.694720	18354.686314
132.036000	0.009378	0.011583	0.011358	0.002114	5649.204495	34871.169715	3626.274443	18416.334966
132.536500	0.009347	0.010454	0.015116	0.003273	5641.484079	34702.880518	3631.182846	18374.752290
133.036000	0.005437	0.008747	0.018880	0.000724	5632.694710	34764.710350	3643.232313	18466.309626
133.537000	0.004909	0.010098	0.011040	0.005128	5601.047954	34541.169816	3620.024158	18308.485568
134.037000	0.007299	0.010538	0.015849	0.002883	5630.777810	34737.724622	3633.314135	18388.756294
134.537500	0.009403	0.010932	0.010850	0.003297	5641.693027	34736.188905	3623.095508	18373.908043
135.037500	0.009881	0.011181	0.014014	0.002529	5649.773285	34810.976051	3630.506655	18401.433503
135.538000	0.005809	0.010578	0.013952	0.006252	5599.622718	34494.279648	3623.372598	18268.467836
136.035500	0.005648	0.010976	0.016262	0.003258	5617.744157	34742.352499	3633.387087	18375.310854
136.535500	0.007738	0.010418	0.010495	0.002599	5635.441968	34749.701069	3623.739922	18398.926526
137.035500	0.011042	0.011605	0.020354	0.004439	5644.914804	34701.821355	3638.933828	18333.064026
137.536000	0.007146	0.010285	0.012557	0.007432	5600.622795	34387.159725	3618.554946	18226.556285
138.036000	0.004020	0.009921	0.008988	0.002935	5609.379455	34688.612050	3620.287425	18386.874602
138.536500	0.007945	0.010567	0.010609	0.004914	5621.857016	34591.081503	3619.618447	18316.113653
139.034500	0.008918	0.010844	0.015114	0.004570	5630.339755	34636.535968	3628.726235	18328.409652
139.534000	0.008262	0.010873	0.010895	0.008568	5600.491319	34347.306991	3613.350586	18186.295439
140.038000	0.008815	0.011875	0.013123	0.005704	5622.373087	34628.924292	3622.844118	18287.950244
140.535500	0.008698	0.011007	0.013121	0.005901	5620.353467	34551.075472	3622.471078	18280.935110
141.038000	0.008762	0.011743	0.018657	0.005202	5625.257750	34655.984160	3634.241871	18305.829627
141.536000	0.006169	0.010715	0.011428	0.009254	5582.824931	34286.233115	3613.067557	18162.055597
142.036000	0.007753	0.010392	0.014961	0.005129	5619.245334	34562.627551	3627.383096	18308.457805
142.536500	0.007878	0.011419	0.014905	0.006840	5609.075988	34512.659009	3624.055846	18247.544894
143.036500	0.008505	0.011666	0.011525	0.006095	5617.872323	34585.048391	3619.123017	18274.036358
143.537500	0.012879	0.011465	0.016336	0.006445	5643.817195	34544.826935	3627.494142	18261.595044
144.037000	0.008727	0.011442	0.015481	0.006647	5615.755368	34528.451842	3625.502905	18254.432426
144.537500	0.009353	0.010878	0.017088	0.007594	5613.694443	34418.404078	3626.745068	18220.808539
145.038000	0.009650	0.010957	0.011462	0.005671	5627.954908	34564.230614	3619.796282	18289.118488
145.535500	0.009959	0.010465	0.018248	0.005601	5630.401565	34533.480009	3632.709622	18291.639724
146.036000	0.011017	0.011323	0.014403	0.006291	5632.781224	34545.779694	3624.145255	18267.086623
146.536000	0.013327	0.012230	0.015225	0.008731	5631.931893	34433.995474	3621.110054	18180.531509
147.036000	0.009678	0.011766	0.016437	0.007366	5617.243650	34499.622173	3625.947760	18228.881126
147.536000	0.005074	0.011018	0.006834	0.011955	5558.871269	34113.100267	3599.662403	18066.952085
148.037000	0.012726	0.012363	0.013826	0.007707	5634.668479	34518.269035	3620.411244	18216.805618
148.537500	0.008813	0.012236	0.012940	0.008957	5601.526871	34418.070201	3616.426583	18172.550215
149.037500	0.007833	0.012214	0.017458	0.007899	5602.027724	34493.432688	3626.867991	18209.996417
149.538000	0.005417	0.011394	0.004636	0.012632	5556.774967	34091.440841	3594.441294	18043.206045
150.035000	0.012312	0.012184	0.023468	0.008642	5625.972641	34437.178035	3636.854009	18183.696926
150.535500	0.010886	0.011613	0.015242	0.007804	5622.183605	34456.572175	3622.879870	18213.355913
151.035500	0.010832	0.012939	0.016210	0.008785	5615.544691	34481.751701	3622.855909	18178.647832
151.536500	0.005490	0.011719	0.014262	0.013979	5548.785967	34018.024853	3609.570442	17996.075746
152.036000	0.010313	0.013318	0.017937	0.009557	5607.274901	34453.111090	3624.647518	18151.352341
152.536500	0.010822	0.011723	0.014974	0.008293	5618.634596	34429.013010	3621.461817	18196.031518
153.036500	0.009707	0.012234	0.011002	0.008983	5607.069017	34415.967348	3612.779347	18171.624999
153.537000	0.010961	0.011075	0.016386	0.013978	5583.253253	33971.935978	3613.500174	17996.105197
154.037500	0.012308	0.013341	0.015730	0.009937	5617.625083	34427.174344	3619.800947	18137.970370
154.535000	0.008495	0.012394	0.012197	0.009655	5595.053770	34378.859110	3613.750221	18147.920531
155.035000	0.009481	0.011867	0.015943	0.009620	5601.564372	34343.206114	3620.792236	18149.159943
155.538000	0.007440	0.012291	0.016636	0.015694	5550.261056	33936.194010	3610.786904	17936.283612
156.035500	0.010594	0.013462	0.015034	0.010453	5603.349647	34398.463713	3617.540280	18119.782960
156.539000	0.009802	0.012195	0.019284	0.010107	5600.498335	34331.570904	3626.147767	18131.957674
157.036000	0.011590	0.013865	0.017587	0.011348	5603.988202	34362.723484	3620.633405	18088.267998
157.537000	0.008283	0.013357	0.011636	0.017247	5545.814147	33901.275089	3598.770058	17882.326484
158.037000	0.008940	0.012915	0.017050	0.010567	5592.079431	34350.499147	3621.091566	18115.764550
158.537000	0.010513	0.012331	0.012446	0.011424	5596.637114	34246.127657	3610.935597	18085.607276
159.037500	0.011509	0.011853	0.018218	0.010364	5609.766273	34288.262158	3623.661169	18122.925517
159.535000	0.004815	0.012092	0.014394	0.016456	5529.125355	33867.444370	3605.255948	17909.779058
160.035500	0.009448	0.012930	0.018765	0.010702	5594.450048	34341.713226	3624.053144	18110.992710
160.536000	0.009946	0.012614	0.019882	0.011163	5594.692940	34285.536650	3625.286597	18094.798983
161.036000	0.011669	0.012891	0.014107	0.011638	5602.641624	34271.174688	3613.614748	18078.098911
161.536000	0.005657	0.012372	0.011300	0.016983	5531.090231	33849.859235	3598.640301	17891.506039
162.036500	0.011356	0.013982	0.013150	0.012021	5598.202769	34322.370686	3611.132144	18064.631391
162.537000	0.010330	0.013590	0.017851	0.011929	5592.257202	34300.697691	3620.041062	18067.869090
163.037000	0.008717	0.013664	0.019356	0.012243	5580.028462	34283.337739	3622.270468	18056.852753
163.535500	0.006971	0.011953	0.011265	0.018069	5532.506820	33742.682073	3596.603981	17853.882216
164.035000	0.012675	0.013132	0.012100	0.012472	5603.736515	34228.289303	3608.362311	18048.813977
164.535500	0.008905	0.013052	0.011517	0.011878	5583.540218	34265.460804	3608.385378	18069.680789
165.035500	0.009048	0.012761	0.018711	0.012387	5581.214908	34207.667597	3620.794491	18051.821707
165.539000	0.006317	0.013736	0.013134	0.019210	5521.363485	33788.337259	3597.926239	17814.441576
166.036000	0.008730	0.012689	0.015786	0.012065	5581.242675	34225.733407	3615.938452	18063.108982
166.539500	0.008517	0.012358	0.017818	0.013387	5571.536829	34106.532062	3617.260487	18016.775401
167.037000	0.010313	0.012585	0.012649	0.012966	5585.565421	34153.177930	3608.465163	18031.521584
167.536500	0.012556	0.013330	0.018566	0.013176	5598.489338	34191.770779	3619.048257	18024.166872
168.034500	0.009571	0.013119	0.009467	0.012587	5583.258095	34219.001962	3603.316559	18044.781910
168.540500	0.011154	0.014690	0.020841	0.015169	5576.935147	34146.131559	3619.574414	17954.556089
169.035500	0.008543	0.013358	0.019243	0.013609	5570.297863	34162.542981	3619.502512	18009.001666
169.535500	0.010672	0.013964	0.017324	0.014004	5581.262241	34177.799402	3615.192907	17995.212854
170.035500	0.013004	0.013342	0.014939	0.013732	5597.806711	34152.549233	3611.277532	18004.735660
170.535500	0.011804	0.013031	0.018044	0.013729	5590.191682	34130.421382	3617.045676	18004.838775
171.036000	0.011597	0.012586	0.021107	0.013559	5589.952743	34110.580370	3623.086487	18010.764509
171.536500	0.010686	0.013106	0.013598	0.014222	5579.963540	34100.242106	3607.898813	17987.585701
172.036500	0.007655	0.013008	0.011389	0.014180	5561.113820	34096.235217	3603.920315	17989.073129
172.537000	0.010531	0.012559	0.022556	0.014162	5579.361893	34065.264206	3624.674113	17989.681810
173.040000	0.010690	0.012037	0.019059	0.013977	5581.545845	34041.095154	3618.474402	17996.164335
173.535000	0.008272	0.011447	0.010954	0.019429	5532.141889	33610.220574	3593.575545	17806.879457
174.035000	0.009561	0.013341	0.012479	0.014960	5568.200672	34064.126453	3604.487870	17961.852113
174.535500	0.011270	0.013261	0.018178	0.014683	5580.746071	34078.264733	3615.519211	17971.513472
175.036000	0.012059	0.013306	0.020993	0.015250	5582.154162	34040.726469	3619.706426	17951.739040
175.538500	0.005769	0.012140	0.017758	0.020662	5508.994227	33571.967901	3603.712424	17764.375799
176.035500	0.009160	0.013145	0.014606	0.014949	5565.740427	34050.800308	3608.417533	17962.243824
176.536500	0.010723	0.013955	0.021814	0.017289	5560.852894	33941.136666	3617.434794	17880.883788
177.036500	0.008834	0.013453	0.024078	0.015626	5559.431759	34024.312593	3624.785159	17938.665697
177.537500	0.008761	0.012960	0.014220	0.019156	5536.884459	33736.947644	3600.001703	17816.298154
178.037500	0.011369	0.013038	0.015636	0.015348	5577.166873	34014.513085	3609.580805	17948.334092
178.535000	0.012210	0.013292	0.016674	0.016741	5573.679081	33932.884227	3608.926027	17899.903318
179.035000	0.010953	0.012617	0.020250	0.015547	5573.277094	33970.054776	3617.766882	17941.400085
179.538500	0.008435	0.013189	0.012610	0.020424	5526.968726	33663.186244	3594.772780	17772.584772
180.036000	0.011133	0.014304	0.017380	0.016939	5565.630296	33991.172335	3609.861579	17893.015426
180.539000	0.013221	0.013293	0.015833	0.016762	5579.934932	33931.489520	3607.338917	17899.177261
181.036500	0.009662	0.013340	0.018043	0.016803	5557.242421	33931.898526	3611.338003	17897.748490
181.537000	0.009977	0.013410	0.011996	0.021353	5530.778612	33612.921308	3591.982652	17740.628980
182.036500	0.011029	0.013715	0.016146	0.017245	5563.050384	33927.067455	3607.025404	17882.413507
182.535000	0.009880	0.013660	0.017743	0.017600	5553.601759	33897.730141	3609.311530	17870.089507
183.034500	0.013359	0.013835	0.019789	0.017373	5576.946215	33926.512422	3613.515872	17877.972796
183.535500	0.008892	0.013662	0.007532	0.020694	5528.126712	33677.519972	3585.147770	17763.284114
184.035500	0.009929	0.013280	0.018781	0.017539	5554.295454	33875.007944	3611.342513	17872.223997
184.536000	0.009795	0.012612	0.012572	0.017940	5550.937359	33798.704381	3599.212056	17858.314112
185.035500	0.009636	0.013138	0.018855	0.017095	5555.244195	33896.573254	3612.301734	17887.628528
185.612500	0.010360	0.014109	0.018043	0.022376	5526.798958	33590.017744	3601.099994	17705.536979
186.036500	0.010994	0.013608	0.011487	0.017544	5560.951464	33898.036442	3597.959376	17872.047124
186.536500	0.011548	0.014583	0.017960	0.018546	5558.137603	33896.116549	3607.970044	17837.360338
187.037000	0.012196	0.013528	0.016199	0.018367	5563.331469	33833.561119	3605.061588	17843.542298
187.534500	0.011615	0.013801	0.014628	0.018761	5557.210701	33824.947904	3601.465890	17829.951300
188.035500	0.010083	0.013376	0.015095	0.018905	5546.702956	33784.391528	3602.055599	17824.959810
188.539500	0.012635	0.013636	0.021287	0.018930	5562.554323	33801.123753	3613.406634	17824.102211
189.035500	0.011336	0.013735	0.016638	0.018737	5555.607545	33821.923969	3605.187128	17830.750272
