sample name	sample
index	38
start time	 02-11-2021  01:47:30 PM
880	-0.031679
Peak Time (s)	82.061
Peak Height 	-0.03168
calc peak height	80,83
Baseline Time (s)	10.536
Baseline Value 	-0.001966
subtract baseline	10,4
Abs	-0.012940
Peak Time (s)	81.538
Peak Height 	-0.01294
calc peak height	80,83
Baseline Time (s)	11.037
Baseline Value 	0.003675
subtract baseline	10,3
PK_550	0.000359
Peak Time (s)	82.536
Peak Height 	3.589E-4
calc peak height	80,83
Baseline Time (s)	10.536
Baseline Value 	5.9921E-4
subtract baseline	10,2
PK_880	-0.021556
Peak Time (s)	81.035
Peak Height 	-0.02156
calc peak height	80,83
Baseline Time (s)	9.536
Baseline Value 	0.00266
subtract baseline	10,1


Time (s)	A880-A510	A880-A775	A880-A975	A880	I510	I775	I975	I880	
0.038500	-0.003077	-0.001057	0.003952	0.000638	4581.727231	19873.538163	3301.181937	10846.194656
0.535500	-0.000720	0.000688	-0.003478	0.006941	4567.073079	19697.468575	3289.017448	10732.335626
1.036000	-0.002893	-0.000659	-0.003262	0.000004	4584.780377	19913.686101	3295.305673	10857.742579
1.539000	-0.000852	0.000025	0.007343	0.000150	4591.878938	19934.616965	3304.688674	10855.070187
2.036500	-0.001870	0.001206	0.000326	0.001656	4582.431696	19921.964340	3297.025156	10827.686856
2.537000	-0.003992	-0.001992	-0.001770	0.004019	4565.777392	19706.771169	3293.075284	10784.905378
3.036500	-0.003858	-0.001066	0.002079	0.001215	4576.668250	19850.802562	3298.983635	10835.695402
3.534500	-0.004481	-0.000734	-0.004603	0.002154	4570.868241	19827.286982	3292.223737	10818.654516
4.035000	0.000986	-0.000615	-0.005612	0.001802	4592.577771	19845.533536	3291.646714	10825.045358
4.535500	-0.002022	-0.000381	0.005181	0.002344	4579.299250	19833.560129	3300.752557	10815.201168
5.035000	0.000116	0.000185	-0.004852	0.001694	4589.715540	19880.732703	3292.408716	10826.990762
5.536000	-0.000443	0.001289	0.006252	0.000436	4592.342044	19972.780666	3303.440349	10849.874146
6.039000	-0.001027	0.000254	0.011829	-0.000378	4593.202146	19964.115944	3309.267331	10864.692825
6.536500	-0.004259	-0.000600	-0.004170	0.001158	4575.392227	19871.100645	3293.482200	10836.740405
7.037000	-0.000879	-0.000741	-0.000599	-0.000082	4592.646350	19913.793969	3297.749804	10859.295700
7.533500	-0.001110	0.000745	-0.002827	0.000020	4591.397206	19967.761416	3295.676973	10857.435333
8.037500	0.000781	0.000235	0.006056	-0.000518	4600.537720	19968.865916	3304.126610	10867.255426
8.535000	-0.000505	-0.001599	0.008851	-0.001770	4600.409060	19946.134803	3307.813593	10890.124673
9.035000	0.000477	-0.000096	-0.005836	-0.000932	4600.952603	19972.103702	3293.856135	10874.808189
9.535500	0.000000	0.001019	-0.003126	-0.003064	4607.213642	20099.428213	3298.155980	10913.843400
10.038000	0.000827	0.000462	-0.004176	0.000370	4597.361350	19943.068093	3294.172301	10851.060377
10.536000	-0.000568	0.000000	0.009843	0.000000	4593.507935	19939.480684	3307.102011	10857.806377
11.036500	-0.001102	-0.000200	0.000000	0.000494	4589.648344	19912.448446	3297.769944	10848.804060
11.536000	0.000834	0.001372	0.006148	0.001669	4592.501732	19927.885886	3302.231547	10827.443383
12.039000	-0.000537	0.001298	-0.001129	0.001314	4588.694761	19938.863980	3296.035657	10833.903468
12.537000	-0.000673	0.000193	0.015918	-0.000024	4593.206049	19947.939576	3312.712907	10858.247542
13.037500	0.001854	0.001905	0.000406	0.001712	4596.178561	19947.006079	3297.046794	10826.669707
13.535000	0.002409	0.000969	0.009879	0.001164	4600.335392	19931.858571	3306.072317	10836.621373
14.036500	0.002644	0.000925	-0.010436	0.001202	4601.076075	19928.670407	3287.955531	10835.930121
14.535500	-0.003316	-0.000509	0.006313	-0.000251	4584.151456	19929.394063	3304.117143	10862.372589
15.035500	-0.001741	0.000960	0.011805	0.001045	4585.192443	19936.158486	3307.939891	10838.783388
15.539500	-0.000827	-0.000052	0.012822	-0.000376	4593.945002	19952.106336	3310.178386	10864.653903
16.036500	-0.002804	0.000375	-0.001896	0.000696	4582.529575	19926.977493	3295.903575	10845.139907
16.536500	0.001667	0.001844	-0.002259	0.001355	4596.815386	19958.562150	3294.996651	10833.149016
17.037000	0.001703	0.000689	-0.003800	0.001061	4598.063691	19925.017243	3293.894677	10838.502346
17.534500	0.001714	0.001369	0.004527	0.001043	4598.170364	19952.209883	3301.334761	10838.824929
18.034500	-0.000780	0.000107	-0.005011	0.000676	4590.176125	19917.335328	3293.165364	10845.499372
18.535500	0.000472	0.000982	0.012134	0.000680	4594.861825	19951.266901	3308.576714	10845.426455
19.035500	0.001417	0.000795	0.008284	0.001179	4596.539736	19924.520347	3304.607907	10836.345533
19.535500	0.003625	0.001305	-0.001233	-0.001997	4616.934557	20068.709688	3298.894382	10894.287473
20.036000	0.000489	0.001855	-0.004292	0.000926	4594.001031	19975.739361	3293.579200	10840.956714
20.536000	-0.001834	-0.000236	-0.002826	-0.001452	4594.205138	19986.958954	3296.986012	10884.306569
21.036000	0.001623	-0.000770	-0.004365	-0.001499	4607.434349	19967.930644	3295.660672	10885.177374
21.537000	0.000555	-0.000306	0.000476	-0.000680	4600.297249	19954.061385	3299.244716	10870.210938
22.037500	0.000600	0.001658	-0.000576	0.001232	4593.266822	19956.068272	3296.599752	10835.380189
22.537500	-0.001657	0.000447	-0.003787	0.001046	4585.506582	19916.150700	3293.918725	10838.767716
23.035000	-0.001961	0.000819	-0.002540	0.002261	4579.835875	19883.354536	3293.946749	10816.706225
23.535000	0.000061	-0.000055	0.006943	-0.000340	4597.154180	19950.609438	3304.770199	10864.005545
24.035000	0.001655	0.000882	0.010150	0.000358	4600.530408	19959.897474	3307.055206	10851.277737
24.535500	-0.002007	-0.000058	0.002419	0.000272	4587.092198	19926.619153	3300.133687	10852.853785
25.039000	-0.002975	0.000724	0.009210	-0.000066	4584.734871	19970.338388	3306.584943	10859.015590
25.536500	0.001280	0.000494	0.014109	-0.000265	4601.467686	19969.110474	3311.263233	10862.638982
26.036500	0.001717	0.000947	0.001638	-0.001577	4608.085849	20038.179269	3301.093510	10886.597813
26.537500	0.001002	0.001525	-0.001730	0.002464	4590.152459	19902.898841	3294.483422	10813.031424
27.037500	-0.003956	0.000462	-0.006112	0.001072	4576.836584	19915.734059	3291.848528	10838.298399
27.535000	-0.003443	0.001654	-0.005504	0.002323	4574.092044	19913.418838	3291.283296	10815.584547
28.035000	-0.000019	0.001094	-0.012760	0.002345	4586.773415	19890.805975	3284.953449	10815.196899
28.535500	-0.000152	0.001115	-0.003776	0.001913	4587.895135	19908.429270	3293.163866	10823.028870
29.035500	-0.005387	0.000931	0.002397	0.000934	4572.031168	19939.362946	3299.519707	10840.796805
29.536000	-0.000143	0.000840	0.005948	0.001618	4589.030689	19909.167758	3302.097348	10828.375854
30.036000	0.003698	0.001089	0.004808	0.002138	4601.520701	19898.607239	3300.602367	10818.935321
30.537000	0.000291	0.001023	0.005628	0.002165	4588.604838	19894.982549	3301.315378	10818.444764
31.036500	0.000444	0.001724	0.006213	0.001999	4589.802894	19928.776352	3301.992619	10821.467807
31.536500	-0.005011	0.001062	0.001948	0.001305	4572.051129	19930.014154	3298.786039	10834.060009
32.035000	-0.003097	0.001719	-0.006063	0.002495	4574.738158	19909.241624	3290.642944	10812.471745
32.535000	-0.000400	0.000589	0.002295	0.001225	4589.544488	19914.715784	3299.168236	10835.524304
33.037000	-0.000849	0.001198	-0.002844	0.001761	4585.855159	19917.562124	3294.120832	10825.788347
33.535500	-0.001441	0.000164	0.000075	0.000873	4586.960030	19911.860106	3297.499240	10841.913970
34.036000	0.000135	-0.000321	-0.005333	0.000927	4592.666608	19890.906702	3292.660932	10840.940232
34.539000	-0.003417	0.001438	-0.007088	0.002215	4574.588352	19909.210495	3289.991317	10817.540239
35.036500	0.001146	0.001722	-0.000288	0.002025	4592.339672	19927.683681	3296.150610	10820.991753
35.537000	0.002235	0.001821	0.000532	0.002712	4593.847025	19904.751442	3296.269024	10808.533890
36.037000	0.003711	0.000790	0.002799	-0.001767	4616.382763	20039.451531	3302.309904	10890.065596
36.537000	0.005785	0.001020	0.004266	-0.001241	4622.293447	20027.833790	3303.160178	10880.451436
37.035000	0.001580	0.002132	0.012494	0.000973	4597.926187	19984.712472	3308.637272	10840.088377
37.535000	-0.000519	0.000097	0.001223	-0.000124	4594.157458	19948.105434	3299.415873	10860.072470
38.035500	0.001190	0.000739	-0.004405	0.000544	4598.075499	19947.065241	3293.816767	10847.897336
38.535500	0.003378	0.001505	-0.008251	-0.000012	4608.448112	19998.704833	3290.922513	10858.017725
39.039000	0.002126	0.002030	0.005179	0.000891	4600.297002	19983.934177	3302.059185	10841.584528
39.536000	-0.001310	0.000822	0.002957	0.001543	4584.941547	19911.382618	3299.475226	10829.732580
40.037000	0.000905	0.002656	0.011079	0.003229	4586.924901	19917.178534	3305.285235	10799.189132
40.536500	-0.002574	0.000540	-0.002816	0.001709	4579.606373	19893.963926	3294.190702	10826.725087
41.037000	0.000274	0.000897	0.003436	0.000034	4596.549915	19973.165612	3301.261654	10857.194748
41.534500	0.002527	-0.000599	-0.008266	-0.001312	4610.152852	19967.302111	3292.050325	10881.756035
42.035000	-0.000221	0.001745	0.005469	0.001739	4588.285412	19939.716287	3301.556474	10826.183457
42.535500	-0.003412	0.000925	0.000339	-0.002605	4592.608454	20077.665770	3300.849625	10905.418328
43.035500	-0.001696	-0.002349	0.007156	-0.001260	4594.006614	19897.074526	3305.800340	10880.804615
43.535500	-0.064252	-0.030764	0.012321	0.291642	3681.683402	11067.598796	3114.225268	6987.314910
44.036000	-0.062264	-0.032502	0.002073	0.116564	4044.130614	15020.606473	3208.330846	8994.888221
44.536000	-0.060646	-0.023502	-0.017537	-0.094156	4726.714505	22930.572887	3373.043780	12773.744921
45.036500	-0.035628	-0.015506	-0.011798	-0.186160	5272.558233	28088.802894	3489.824661	15093.191174
45.537000	-0.027321	-0.010360	-0.002305	-0.182442	5297.110083	28171.430672	3497.582476	14989.625556
46.037000	-0.044155	-0.014531	-0.010340	-0.119915	4907.058962	24589.126947	3409.520635	13374.415442
46.537500	-0.034539	-0.013651	-0.011745	-0.092981	4831.007496	23332.574127	3377.988848	12747.195337
47.035000	-0.042679	-0.012700	-0.019718	-0.093203	4797.239092	23387.531504	3369.716977	12752.215674
47.535000	-0.047551	-0.009572	-0.032654	-0.089183	4760.035219	23345.755270	3352.128292	12661.843874
48.036000	-0.045080	-0.009876	-0.024484	-0.083821	4748.104708	23082.098438	3354.993093	12542.589857
48.538500	-0.039587	-0.007782	-0.020235	-0.100646	4842.306715	23975.862116	3377.101082	12921.744319
49.036000	-0.036382	-0.006066	-0.018776	-0.077120	4756.339467	22948.964663	3353.978428	12395.630438
49.536500	-0.042753	-0.005094	-0.015791	-0.060819	4665.050188	22257.400021	3340.582517	12047.437272
50.036500	-0.035640	-0.004339	-0.014753	-0.063611	4704.344680	22415.239699	3344.393095	12106.144281
50.537000	-0.027952	-0.004235	-0.015147	-0.059880	4720.296199	22253.881130	3340.290555	12027.771912
51.034000	-0.030569	-0.005588	-0.015047	-0.060734	4713.172192	22231.771517	3341.235487	12045.652800
51.535000	-0.027032	-0.003213	-0.013020	-0.059284	4721.609525	22272.749716	3341.808379	12015.312970
52.057000	-0.024684	-0.002334	-0.022858	-0.060713	4736.984052	22375.380666	3333.535527	12045.212573
52.535500	-0.023592	-0.003138	-0.027017	-0.062237	4747.705192	22407.527735	3330.974634	12077.197212
53.036000	-0.020157	-0.002010	-0.017145	-0.059634	4751.131371	22341.724375	3338.074368	12022.620787
53.536000	-0.022865	-0.002454	-0.021803	-0.059652	4740.082110	22322.769711	3333.529519	12022.999018
54.036500	-0.022773	-0.000220	-0.017203	-0.058331	4735.056183	22363.453639	3336.736479	11995.427808
54.536000	-0.024679	-0.000674	-0.021525	-0.058598	4728.376111	22355.124935	3332.773990	12000.996665
55.037000	-0.019221	0.000164	-0.024294	-0.056858	4743.565455	22314.962165	3328.410437	11964.777334
55.537000	-0.020334	0.000825	-0.010380	-0.055977	4735.402487	22305.195890	3341.146234	11946.497845
56.037000	-0.021097	-0.000091	-0.021224	-0.056468	4734.296084	22286.353488	3330.999130	11956.692893
56.535000	-0.023614	-0.000360	-0.011812	-0.056031	4722.279355	22255.034080	3339.781973	11947.628879
57.036000	-0.018662	-0.000359	-0.021128	-0.055234	4739.204616	22219.744349	3329.897534	11931.109712
57.535500	-0.024785	-0.001709	-0.018299	-0.055681	4716.121531	22179.893208	3333.074507	11940.370333
58.038000	-0.025965	-0.001313	-0.011730	-0.050288	4689.766766	21960.566309	3334.220359	11829.340176
58.536000	-0.026200	-0.002392	-0.011960	-0.054390	4705.222619	22092.904375	3338.016065	11913.656150
59.037000	-0.024600	-0.002384	-0.019801	-0.053500	4708.074722	22054.196242	3329.504217	11895.294389
59.536500	-0.022549	-0.002904	-0.009341	-0.052612	4712.758198	21992.560850	3338.845372	11877.010753
60.036500	-0.026754	-0.003375	-0.023130	-0.048646	4680.123026	21799.593912	3321.681488	11795.813812
60.534500	-0.027620	-0.003179	-0.014438	-0.049389	4679.636650	21840.281467	3330.714827	11810.972648
61.043000	-0.027188	-0.003953	-0.017924	-0.048318	4677.110198	21760.428250	3326.327691	11789.126829
61.535500	-0.026500	-0.002317	-0.022503	-0.046595	4673.028566	21756.686701	3320.335113	11754.108377
62.035500	-0.028968	-0.002173	-0.014171	-0.042769	4648.403146	21598.407475	3324.610979	11676.828747
62.536000	-0.024733	-0.004173	-0.017000	-0.044668	4672.394606	21594.070078	3323.724487	11715.095697
63.036000	-0.028774	-0.003608	-0.022077	-0.043613	4652.440113	21573.138080	3317.928990	11693.825235
63.536000	-0.029349	-0.003131	-0.017702	-0.042812	4647.090660	21559.286125	3321.296433	11677.688240
64.037000	-0.032390	-0.002972	-0.009207	-0.038315	4618.088788	21374.918962	3325.097389	11587.724031
64.537000	-0.030260	-0.004526	-0.021444	-0.041088	4636.893941	21426.528030	3316.157142	11643.091791
65.037000	-0.030708	-0.003963	-0.025471	-0.041423	4636.459443	21464.654342	3312.722599	11649.806148
65.537500	-0.031409	-0.002086	-0.013098	-0.039563	4626.613129	21465.382832	3322.581200	11612.604655
66.034500	-0.034508	-0.003362	-0.035588	-0.035952	4601.086203	21258.864545	3298.535922	11540.819010
66.535500	-0.031981	-0.001453	-0.022180	-0.038007	4618.474372	21426.220777	3312.606527	11581.597572
67.035500	-0.030768	-0.003063	-0.021174	-0.039319	4628.135404	21413.553468	3314.758695	11607.730296
67.538500	-0.028395	-0.002743	-0.013600	-0.038245	4633.127881	21381.665348	3320.857430	11586.338640
68.036000	-0.029295	-0.002554	-0.013854	-0.032169	4606.490203	21134.253402	3314.917148	11466.253435
68.536500	-0.029442	-0.002960	-0.022585	-0.037917	4627.843103	21358.607004	3312.148589	11579.815354
69.036500	-0.031304	-0.003497	-0.018016	-0.037702	4619.894123	21326.849091	3316.196063	11575.525617
69.537000	-0.027698	-0.001778	-0.027679	-0.036428	4628.822132	21345.599537	3306.103199	11550.241045
70.034000	-0.031756	-0.002114	-0.018131	-0.036920	4615.188364	21352.244208	3315.359456	11560.010722
70.535000	-0.028827	-0.001721	-0.019714	-0.037463	4628.459672	21391.791574	3314.390321	11570.782441
71.035500	-0.031320	-0.001827	-0.018946	-0.037270	4618.184443	21379.157939	3314.925721	11566.955766
71.535000	-0.028081	-0.002311	-0.014561	-0.037544	4631.636783	21370.246425	3319.289119	11572.391155
72.038500	-0.029528	-0.001093	-0.011177	-0.035883	4619.729494	21351.553492	3320.915286	11539.463124
72.536000	-0.025225	-0.001666	-0.007834	-0.037089	4640.896866	21378.278770	3325.237887	11563.351957
73.036500	-0.025168	-0.001689	-0.017133	-0.037984	4644.582588	21415.214228	3317.286606	11581.136916
73.536500	-0.026435	-0.000727	-0.027365	-0.036735	4634.857127	21403.056176	3306.669773	11556.330415
74.037000	-0.027928	-0.001999	-0.023212	-0.031964	4610.896746	21148.877958	3306.106280	11462.231114
74.537000	-0.027509	-0.001101	-0.009310	-0.037024	4631.839160	21399.466953	3323.768744	11562.076839
75.042500	-0.027187	-0.001050	-0.012533	-0.037322	4634.223513	21414.231567	3320.992903	11567.976642
75.535000	-0.028579	-0.000333	-0.012112	-0.036962	4627.488104	21429.379790	3321.050896	11560.835021
76.035500	-0.026761	-0.002485	-0.015671	-0.032373	4616.894240	21145.680639	3313.417433	11470.262161
76.535500	-0.023102	-0.001115	-0.024948	-0.037288	4649.898444	21410.028534	3309.389428	11567.302385
77.036000	-0.028169	-0.002103	-0.021009	-0.038906	4636.545019	21436.769101	3314.527893	11599.495546
77.536500	-0.024385	-0.001265	-0.018473	-0.036882	4643.345895	21386.533645	3315.005506	11559.256208
78.036500	-0.026600	-0.000444	-0.019727	-0.032538	4618.139036	21238.011466	3309.822561	11473.502564
78.536500	-0.023141	0.000492	-0.024707	-0.035806	4643.998481	21415.366115	3308.251236	11537.932772
79.037500	-0.023731	-0.000856	-0.026353	-0.037466	4648.145777	21428.577965	3308.263561	11570.847506
79.536500	-0.024482	-0.000819	-0.014438	-0.037394	4644.953053	21427.106080	3319.264176	11569.418016
80.034500	-0.027725	-0.001202	-0.017404	-0.033669	4618.161616	21253.695477	3313.012014	11495.749504
80.535000	-0.022754	-0.000530	-0.018138	-0.036895	4649.722895	21418.188816	3315.329556	11559.510389
81.035500	-0.021556	-0.000924	-0.016386	-0.037258	4655.800629	21416.855964	3317.305920	11566.713256
81.538000	-0.021698	0.000081	-0.012940	-0.036297	4651.504564	21418.754507	3319.642310	11547.661206
82.060500	-0.028620	-0.001207	-0.022777	-0.031679	4607.195311	21170.057499	3306.243250	11456.651908
82.536000	-0.022128	0.000359	-0.020764	-0.036256	4649.674030	21428.777112	3312.296455	11546.838984
83.036000	-0.025202	-0.000155	-0.013172	-0.036411	4638.367845	21413.562221	3319.530438	11549.913857
83.537000	-0.021146	-0.000482	-0.018742	-0.036591	4654.798625	21407.333569	3314.483189	11553.470801
84.036500	-0.028545	-0.002029	-0.017417	-0.031742	4607.716175	21138.373506	3311.217479	11457.884973
84.537000	-0.021896	0.000580	-0.023413	-0.035478	4647.550801	21405.193416	3309.136523	11531.441793
85.037500	-0.023518	-0.000230	-0.015672	-0.035961	4643.135464	21391.303870	3316.760003	11540.991491
