sample name	sample
index	181
start time	 02-18-2021  11:17:54 AM
880	-0.013222
Peak Time (s)	92.536
Peak Height 	-0.01322
calc peak height	90,93
Baseline Time (s)	11.537
Baseline Value 	-0.00529
subtract baseline	10,4
Abs	-0.012393
Peak Time (s)	91.535
Peak Height 	-0.01239
calc peak height	90,93
Baseline Time (s)	9.037
Baseline Value 	0.00121
subtract baseline	10,3
PK_550	-0.002527
Peak Time (s)	91.535
Peak Height 	-0.002527
calc peak height	90,93
Baseline Time (s)	10.536
Baseline Value 	1.9219E-4
subtract baseline	10,2
PK_880	-0.013249
Peak Time (s)	92.038
Peak Height 	-0.01325
calc peak height	90,93
Baseline Time (s)	9.534
Baseline Value 	0.001697
subtract baseline	10,1


Time (s)	A880-A510	A880-A775	A880-A975	A880	I510	I775	I975	I880	
0.034500	-0.000242	-0.000529	-0.003081	0.001449	6658.978320	43320.118455	3852.928390	22836.775155
0.535500	-0.003234	0.000582	0.000541	0.006172	6591.775908	42985.059407	3850.282512	22620.395718
1.035500	-0.001328	0.000882	-0.001840	0.004997	6618.471097	43121.556909	3847.392476	22674.005868
1.539000	-0.000745	-0.000421	0.002049	0.000479	6663.076504	43420.609179	3867.702451	22881.474244
2.036500	0.001378	0.000067	-0.001582	0.000799	6678.980492	43436.326168	3858.109527	22866.739007
2.536000	-0.001886	0.000311	-0.006116	0.004547	6617.530805	43110.313841	3838.277681	22694.559301
3.036500	0.003163	0.000119	0.002818	-0.000778	6708.790044	43588.750225	3872.655353	22939.594738
3.540000	0.000376	-0.000398	-0.002448	0.000670	6671.267190	43404.907571	3856.326783	22872.649640
4.037500	-0.001185	0.000303	-0.002095	0.001051	6654.184910	43434.728946	3856.260665	22855.078222
4.534500	-0.000449	-0.000710	-0.001202	0.004314	6632.071712	43037.301439	3850.558329	22705.217379
5.035500	-0.000160	0.000075	-0.001385	0.000611	6667.062877	43454.582940	3859.038469	22875.379606
5.538500	0.000393	0.000199	-0.000912	0.000682	6671.310818	43459.504649	3860.013388	22872.112730
6.035500	0.001288	-0.000303	0.002160	0.000157	6683.857649	43461.748129	3868.760547	22896.377510
6.536000	-0.002619	-0.000535	-0.001230	0.004315	6613.175796	43053.398338	3850.486358	22705.151979
7.036000	0.000639	0.000562	0.005103	0.000454	6675.496010	43514.815953	3875.239983	22882.636257
7.539500	0.001667	0.000392	0.000265	0.000415	6684.930060	43502.566128	3863.516752	22884.461941
8.037000	-0.000049	0.000066	0.004734	0.000190	6671.755593	43493.084767	3874.983033	22894.821015
8.536500	0.001574	0.000365	0.004448	0.000258	6685.489364	43514.759996	3874.113668	22891.687729
9.037000	0.001805	-0.000369	0.000000	-0.000087	6690.586241	43478.321911	3864.090383	22907.612895
9.534500	0.000000	0.000362	-0.001589	0.000302	6671.196783	43510.356809	3859.293921	22889.652262
10.035500	-0.000034	-0.000018	-0.002048	-0.000387	6676.981080	43539.256919	3859.852164	22921.526659
10.536000	-0.001129	0.000000	0.002578	0.000042	6663.543760	43500.780764	3870.060721	22901.666464
11.035500	-0.000211	-0.000089	-0.004226	-0.000292	6674.570985	43523.752370	3854.360868	22917.106731
11.536500	0.002958	0.000357	0.000366	0.000000	6700.045143	43538.105965	3864.771239	22903.614219
12.036500	-0.002147	0.000355	0.000097	0.000224	6653.005233	43517.011715	3863.572868	22893.280801
12.536000	-0.002920	-0.000364	0.000574	0.003289	6619.476312	43164.357003	3857.302305	22752.192155
13.037000	0.001334	-0.000284	0.004107	-0.002913	6711.515365	43751.480025	3881.082439	23038.715369
13.537500	0.001666	-0.000106	0.002448	-0.000547	6693.437355	43546.031211	3871.186501	22928.924477
14.035000	0.003347	0.000688	-0.001092	-0.000129	6704.647244	43581.247809	3861.542934	22909.574964
14.535000	-0.003173	0.000498	-0.003727	0.004277	6608.695783	43152.645273	3844.604068	22706.904205
15.035500	0.002486	0.000543	-0.000026	-0.000361	6699.063990	43589.414646	3864.696032	22920.318829
15.566500	0.001829	0.000128	-0.002795	-0.001506	6703.398346	43657.894972	3860.751945	22973.355851
16.036000	0.002813	0.000841	0.000035	-0.000386	6702.187592	43619.681685	3864.903165	22921.439185
16.537500	-0.001278	0.000377	-0.001598	0.002998	6636.326966	43260.279195	3852.770161	22765.550029
17.037000	0.001665	0.000969	0.001374	-0.000590	6693.805053	43650.816119	3868.664305	22930.890640
17.536500	0.001175	0.000933	0.006066	-0.003647	6716.643320	43935.572968	3887.754290	23072.888677
18.037000	0.000584	0.000506	-0.003405	-0.000812	6686.189679	43628.175716	3857.594647	22941.155862
18.534000	0.000488	0.001045	-0.004162	0.002300	6657.915198	43387.524933	3848.291051	22797.607707
19.035000	-0.000545	-0.000011	0.001693	0.000195	6667.337093	43485.455879	3867.527474	22894.586990
19.535500	0.000965	0.001426	0.004587	0.001144	6672.289056	43531.118060	3872.282313	22850.828338
20.038000	0.000904	0.000714	0.002164	0.001003	6672.988136	43477.742689	3866.705223	22857.315017
20.536000	-0.001019	0.000506	-0.000858	0.001804	6649.039069	43383.495357	3857.430926	22820.433068
21.036000	-0.001273	-0.000209	0.002485	0.000446	6658.729795	43443.442577	3868.848819	22883.011211
21.536500	0.001337	-0.000435	-0.001351	-0.000440	6689.569860	43505.217130	3861.669455	22923.967974
22.037000	0.000839	0.000955	0.003853	0.000845	6673.812022	43515.051667	3871.217538	22864.596063
22.536500	-0.000179	0.000716	0.001087	0.001645	6657.804524	43417.819401	3862.523724	22827.709929
23.037500	-0.000681	0.001048	0.000070	0.001196	6657.338700	43490.893602	3861.147293	22848.411753
23.535000	0.000247	-0.000123	0.003171	-0.000260	6678.340850	43517.564002	3872.253084	22915.640152
24.037500	-0.001579	0.000174	-0.001794	0.000486	6655.688112	43475.600321	3858.353481	22881.182518
24.535500	-0.001552	-0.000119	-0.001229	0.001613	6646.043236	43342.929972	3856.994041	22829.194982
25.035500	-0.000168	0.000086	0.001117	-0.000026	6672.608135	43515.163398	3866.660898	22904.800535
25.535500	0.000947	0.000617	-0.001914	0.000346	6679.168392	43530.140453	3858.401956	22887.650668
26.036500	-0.001555	0.000416	0.002571	-0.000049	6660.600449	43548.336305	3870.268612	22905.901034
26.536500	0.000258	-0.000335	-0.002301	-0.000208	6677.979427	43492.833746	3858.805101	22913.241158
27.036500	0.000116	0.000579	0.005205	0.000190	6673.212450	43541.187341	3876.141726	22894.846792
27.537500	0.000865	-0.000185	0.001436	-0.001114	6691.357902	43591.795620	3870.095510	22955.172292
28.038000	0.002028	0.000448	0.001360	-0.003339	6721.509261	43860.636407	3875.365075	23058.540881
28.537500	-0.001971	0.000757	0.000571	0.004537	6616.877823	43152.556814	3854.283027	22695.003949
29.051500	0.003882	0.000912	0.005000	-0.000922	6716.476862	43676.695186	3878.373388	22946.277628
29.535500	0.001733	0.000712	-0.001652	-0.001632	6703.662583	43724.599785	3863.831023	22979.181204
30.036000	0.001762	0.000117	0.000706	-0.002277	6709.663931	43729.405111	3871.156601	23009.149270
30.536500	-0.002016	0.000211	0.001391	0.003550	6625.074635	43193.489402	3858.645151	22740.216546
31.052500	0.001788	0.000589	0.001466	-0.001745	6705.157386	43723.648454	3871.712881	22984.407535
31.543500	-0.001615	0.000343	0.001057	0.001446	6646.956799	43401.625748	3862.934703	22836.896106
32.037000	0.001353	0.000330	-0.000678	0.000079	6685.117071	43528.288804	3862.043253	22899.978761
32.581000	-0.001675	-0.000444	0.001847	0.003703	6626.705855	43118.513235	3859.379198	22733.191819
33.038000	0.001443	0.000799	0.001594	-0.001231	6697.523286	43695.181318	3870.768620	22960.603710
33.538000	0.001690	0.000323	0.008125	-0.002115	6707.572175	43733.478449	3889.063105	23001.581255
34.035500	0.001809	0.000237	0.002072	-0.001895	6706.684700	43704.723653	3873.568129	22991.400108
34.536000	-0.000636	0.000288	-0.000965	0.002674	6644.765485	43282.088860	3855.070867	22780.390338
35.036000	0.000420	0.000300	0.002286	0.000875	6669.846154	43450.954460	3867.315899	22863.209856
35.536500	-0.000413	-0.000051	0.000008	0.000474	6666.049361	43455.706886	3862.748673	22881.740278
36.036500	-0.001403	0.000439	-0.000006	0.000515	6656.982416	43497.622263	3862.615077	22879.839540
36.539500	-0.002348	-0.000073	0.003838	0.001685	6638.441203	43340.517704	3869.126220	22825.868488
37.037000	-0.000319	0.000569	0.001872	0.001062	6661.700627	43458.656700	3865.851042	22854.593683
37.537500	0.001769	0.000605	0.000007	0.001051	6680.200485	43462.940154	3861.344064	22855.083302
38.038000	0.000674	0.000951	0.001303	0.001237	6668.893855	43477.914773	3864.040498	22846.506202
38.535000	0.000249	0.000742	0.002155	0.001116	6666.213743	43469.682658	3866.407546	22852.084958
39.035500	-0.000027	0.000125	0.004201	0.000678	6667.651628	43453.051619	3872.478859	22872.310392
39.535500	-0.001205	-0.000319	0.003113	0.000259	6660.971803	43450.709829	3870.839540	22891.649136
40.036000	0.002319	0.001550	0.004960	0.001898	6677.579021	43472.211692	3871.349843	22816.102088
40.539000	0.001059	0.000557	-0.000064	0.001949	6666.021495	43374.669866	3858.998275	22813.734566
41.036500	-0.000954	0.000455	0.003033	0.001082	6655.936834	43446.036560	3868.633200	22853.653452
41.537000	-0.002119	-0.000150	-0.005809	0.000203	6653.432765	43471.700147	3849.368685	22894.240371
42.036000	0.000918	0.000473	0.003414	0.001212	6671.269068	43435.651347	3869.244323	22847.669482
42.537500	-0.000106	0.001063	0.002295	0.002521	6650.751368	43368.454380	3863.330033	22787.422978
43.035000	0.000250	-0.000933	-0.001420	-0.000260	6678.355673	43441.789892	3861.062998	22915.613589
43.535000	-0.000942	0.000440	0.002022	0.000797	6658.552271	43471.349534	3866.862402	22866.826603
44.035500	-0.000553	0.000570	0.002187	0.000815	6661.807646	43481.762304	3867.220328	22865.965422
44.539000	-0.001268	0.000612	0.005012	0.001885	6646.151688	43385.813470	3871.508674	22816.700572
45.036000	0.001345	0.000330	0.004294	-0.002152	6704.836083	43737.691957	3879.666038	23003.332701
45.536500	0.000406	0.000368	0.003872	-0.001554	6691.191049	43684.953156	3877.151882	22975.557903
46.036500	0.001467	0.000458	0.002444	-0.001869	6703.408228	43723.013659	3874.415633	22990.178866
46.536500	-0.002966	-0.000596	-0.000673	0.002305	6627.638144	43234.130960	3856.667066	22797.355092
47.037500	0.003016	0.000646	0.002917	-0.001513	6714.027142	43707.241957	3874.702259	22973.654192
47.537500	0.001134	-0.000219	0.004839	-0.002543	6706.439437	43722.727206	3881.975094	23021.473215
48.062500	0.001207	0.000792	0.002002	-0.001793	6700.421537	43747.296072	3873.145514	22986.661385
48.535500	-0.001033	0.000616	-0.000607	0.003284	6635.970286	43255.818604	3854.465372	22752.414662
49.036000	0.000595	0.001102	-0.001579	0.000039	6678.771593	43604.315711	3859.954861	22901.832330
49.560500	0.002835	0.000530	-0.000117	-0.001732	6714.372458	43716.990270	3867.814031	22983.840304
50.036000	0.002901	0.001226	0.006606	-0.001435	6712.305702	43754.502460	3883.606374	22970.039943
50.536500	-0.000941	-0.000631	-0.001560	0.002309	6645.302011	43230.538258	3854.517892	22797.191272
51.037000	0.005469	0.000763	0.001866	-0.004148	6759.648288	43966.796923	3878.598716	23096.226463
51.537500	0.003555	0.001169	0.003914	-0.001437	6718.151019	43749.250023	3876.966076	22970.130938
52.034000	0.001985	-0.000183	0.000436	-0.001433	6704.138386	43621.885448	3868.432969	22969.970456
52.534500	-0.002089	0.000940	0.000272	0.002523	6633.395760	43356.924457	3858.424488	22787.363541
53.038000	0.000380	-0.002523	0.004147	-0.020246	6860.218550	45197.348671	3924.867453	23861.492704
53.535000	-0.027159	-0.007886	-0.008065	0.183853	5199.398495	29000.699178	3486.832357	15975.944679
54.036000	-0.025122	-0.013077	-0.019372	0.088717	5790.407971	35014.006209	3631.301862	19195.015302
54.536500	-0.051719	-0.035969	-0.026086	-0.155466	7707.691687	56375.307153	4230.209775	31543.098013
55.036500	-0.026982	-0.073702	-0.000772	-0.254341	9309.630059	64464.244902	4700.908911	38883.702498
55.537000	-0.024806	-0.035794	-0.001881	-0.188474	8427.467889	60623.873715	4430.428191	33810.359945
56.037000	-0.026424	-0.034161	-0.012388	-0.188934	8412.603406	60902.904248	4393.335977	33843.239302
56.534000	-0.022571	-0.028199	-0.017573	-0.184273	8402.247444	61077.004668	4357.800370	33512.144175
57.040000	-0.012453	-0.028419	-0.014258	-0.189849	8606.831687	61799.282636	4389.852753	33908.608809
57.535000	-0.006220	-0.023162	-0.017480	-0.182408	8590.825325	61503.599603	4351.491644	33380.674567
58.035500	-0.006434	-0.014674	-0.013601	-0.158092	8275.141632	59405.097913	4280.554766	31717.239192
58.535500	-0.007181	-0.011110	-0.016465	-0.134257	7976.187838	56827.020273	4192.772339	30174.686880
59.035500	-0.006000	-0.008122	-0.014110	-0.115167	7768.795169	54863.111078	4140.439725	28998.839230
59.535500	-0.008824	-0.007642	-0.014423	-0.091223	7474.328256	52128.460292	4068.072469	27595.201215
60.036500	-0.011219	-0.007738	-0.019548	-0.067727	7206.265812	49523.942106	3987.727647	26291.065880
60.536500	-0.013323	-0.007399	-0.020198	-0.049844	7009.992070	47676.745139	3938.454815	25344.688540
61.037000	-0.011958	-0.006648	-0.018981	-0.036743	6898.873598	46420.447936	3907.946317	24675.663191
61.537500	-0.013995	-0.006162	-0.010765	-0.029897	6816.741434	45787.280936	3911.420520	24334.021318
62.035000	-0.016665	-0.005387	-0.015264	-0.028508	6779.783714	45726.718660	3896.567568	24265.403733
62.535500	-0.015148	-0.005345	-0.019193	-0.034630	6849.640151	46339.326394	3902.074631	24569.636438
63.035000	-0.016924	-0.005176	-0.016874	-0.042355	6904.908643	47136.665105	3927.666291	24959.766055
63.536000	-0.013219	-0.002590	-0.015641	-0.040395	6921.262939	47200.585156	3925.794586	24860.132549
64.036000	-0.016360	-0.002568	-0.015244	-0.035375	6845.335588	46693.309930	3913.962478	24606.970917
64.536500	-0.014895	-0.002609	-0.018499	-0.032854	6835.615562	46435.571019	3899.355286	24480.957244
65.041000	-0.012879	-0.001355	-0.014837	-0.032588	6851.737095	46534.758517	3907.919498	24467.671920
65.536500	-0.011469	-0.001526	-0.018704	-0.033110	6869.615741	46570.037847	3899.481962	24493.717353
66.035000	-0.013426	-0.001276	-0.015286	-0.033686	6856.834614	46653.257720	3909.563775	24522.458579
66.538000	-0.015427	-0.002074	-0.023704	-0.029241	6797.690029	46127.809658	3877.424685	24301.575091
67.038000	-0.015586	-0.002137	-0.017426	-0.037025	6867.744099	46903.837431	3912.607616	24689.869004
67.535500	-0.012591	-0.001491	-0.018384	-0.036883	6894.274709	46955.002191	3909.816593	24682.743810
68.035500	-0.013979	-0.002032	-0.014349	-0.038477	6896.194820	47062.035120	3924.186304	24763.091241
68.536000	-0.015547	-0.001935	-0.020314	-0.032407	6825.532976	46458.324471	3893.686912	24458.699078
69.045000	-0.012053	-0.001941	-0.013224	-0.039364	6922.537727	47161.599012	3929.366771	24807.898891
69.539500	-0.015298	-0.002333	-0.013717	-0.040588	6903.587708	47246.461810	3931.254174	24869.910047
70.042500	-0.013429	-0.002842	-0.015538	-0.040764	6922.763375	47212.512110	3927.009327	24878.844863
70.536500	-0.017386	-0.003139	-0.019550	-0.035199	6834.279310	46618.010177	3902.611305	24598.172365
71.037500	-0.014113	-0.002620	-0.021931	-0.040642	6915.196174	47222.635370	3910.352217	24872.653462
71.535000	-0.015272	-0.002818	-0.017326	-0.040365	6901.754802	47174.262989	3921.390547	24858.605657
72.035500	-0.015628	-0.003965	-0.018779	-0.041111	6905.397194	47133.333312	3919.579400	24896.466308
72.535000	-0.019014	-0.003914	-0.016158	-0.033733	6805.937782	46392.801869	3907.474264	24524.810374
73.036000	-0.015814	-0.004262	-0.017797	-0.039695	6890.441107	46959.089391	3918.469008	24824.655482
73.539000	-0.017293	-0.004659	-0.019968	-0.039505	6874.917070	46899.621398	3912.451195	24815.060760
74.036500	-0.015747	-0.004931	-0.016261	-0.038832	6883.025096	46803.849390	3920.190454	24780.982898
74.537000	-0.020357	-0.004993	-0.019102	-0.031065	6769.497369	46018.954543	3893.361211	24391.939338
75.034000	-0.016304	-0.004758	-0.015739	-0.036460	6855.865270	46581.867022	3915.464155	24661.428707
75.534000	-0.018061	-0.004711	-0.016590	-0.035713	6832.791671	46511.523951	3911.397006	24623.917471
76.037500	-0.015397	-0.004405	-0.020786	-0.034698	6847.984424	46440.368123	3898.243776	24573.088098
76.534500	-0.016121	-0.003740	-0.015884	-0.032932	6825.075800	46330.031326	3906.141488	24484.827867
77.035500	-0.016784	-0.004199	-0.017250	-0.032049	6810.918796	46195.923166	3900.468828	24440.843370
77.536000	-0.019021	-0.005275	-0.019715	-0.031807	6788.342098	46064.667152	3893.684502	24428.826641
78.035500	-0.014881	-0.004238	-0.018146	-0.030158	6811.034906	46003.790774	3893.483222	24346.952464
78.536000	-0.020219	-0.004980	-0.020955	-0.024696	6713.564086	45392.056112	3873.010955	24078.067902
79.036000	-0.014710	-0.004434	-0.015993	-0.028434	6796.865847	45813.576773	3894.556345	24261.722981
79.536500	-0.016595	-0.004043	-0.014424	-0.027240	6768.932976	45734.230213	3895.494823	24202.908610
80.037000	-0.016954	-0.004470	-0.018394	-0.027350	6766.683903	45702.917397	3885.873720	24208.301381
80.537500	-0.015171	-0.003649	-0.012711	-0.026460	6774.755663	45696.102584	3897.831523	24164.530937
81.037500	-0.015744	-0.003907	-0.017526	-0.025450	6760.445395	45571.224104	3883.316356	24114.971176
81.535500	-0.015416	-0.002942	-0.016929	-0.024610	6755.832424	45583.589452	3882.714098	24073.857604
82.035500	-0.015536	-0.003608	-0.020088	-0.024882	6757.207659	45544.802015	3875.596187	24087.163199
82.535500	-0.015842	-0.003343	-0.015570	-0.022593	6733.891118	45346.493999	3881.091081	23975.462067
83.035500	-0.014017	-0.004048	-0.014635	-0.024305	6765.703491	45445.006291	3887.647978	24058.958578
83.536000	-0.014798	-0.002718	-0.014424	-0.022654	6743.795339	45413.601830	3884.074675	23978.407199
84.037000	-0.018341	-0.004271	-0.016709	-0.023688	6721.326351	45362.701037	3880.979140	24028.805611
84.536500	-0.013576	-0.002769	-0.014312	-0.022287	6751.493719	45372.710185	3883.444840	23960.568937
85.037000	-0.013652	-0.002904	-0.016427	-0.022174	6749.781865	45348.390106	3877.940995	23955.047846
85.537500	-0.013616	-0.002091	-0.019034	-0.021181	6741.187857	45330.812441	3869.111037	23906.819186
86.038000	-0.014984	-0.003766	-0.018670	-0.022520	6740.922831	45297.891324	3873.278869	23971.868278
86.535500	-0.017961	-0.003848	-0.018571	-0.016429	6660.363684	44699.108336	3858.685793	23677.440596
87.036000	-0.013350	-0.002602	-0.013052	-0.021622	6747.537733	45323.877052	3884.915481	23928.203264
87.535500	-0.013708	-0.001967	-0.018806	-0.021192	6740.461899	45344.016674	3869.695651	23907.355042
88.036000	-0.014927	-0.003320	-0.016107	-0.021632	6733.477372	45254.824444	3877.395164	23928.725312
88.536500	-0.019400	-0.003164	-0.021760	-0.014759	6633.142986	44604.250709	3846.999830	23597.475788
89.037000	-0.015587	-0.003081	-0.015197	-0.021336	6724.918297	45249.263765	3878.908409	23914.352098
89.536500	-0.015826	-0.002308	-0.013722	-0.020976	6719.571265	45289.585417	3881.659083	23896.871735
90.040500	-0.014618	-0.002592	-0.020445	-0.020540	6726.461322	45219.256866	3864.109387	23875.705741
90.535000	-0.018957	-0.003443	-0.019592	-0.014153	6631.711129	44519.264716	3850.743532	23568.502546
91.035000	-0.015220	-0.002709	-0.016421	-0.019699	6713.573474	45125.940687	3871.877049	23834.992573
91.535500	-0.014704	-0.002527	-0.012393	-0.019651	6717.753132	45138.978751	3881.669756	23832.701061
92.038500	-0.013249	-0.002616	-0.014898	-0.019086	6725.706855	45075.394078	3874.107661	23805.383489
92.536000	-0.017011	-0.003493	-0.019122	-0.013222	6640.584640	44425.316800	3849.638631	23524.116325
93.036500	-0.014836	-0.002866	-0.012053	-0.018923	6710.087905	45035.218362	3880.710983	23797.503148
93.536500	-0.015927	-0.003034	-0.020322	-0.019334	6704.037148	45058.843715	3861.480655	23817.351338
94.037000	-0.013679	-0.002424	-0.020145	-0.018241	6714.319492	45011.960175	3859.262368	23764.610671
94.537000	-0.018443	-0.002622	-0.019290	-0.011731	6615.104652	44366.045775	3845.667501	23453.179588
95.093000	-0.012945	-0.003074	-0.019815	-0.017884	6717.682083	44914.365174	3859.196698	23747.435599
95.534500	-0.016311	-0.003007	-0.017952	-0.017855	6687.513035	44918.052286	3863.644099	23746.039134
96.054500	-0.014766	-0.002250	-0.014956	-0.017122	6694.704238	44920.354084	3869.156878	23710.742918
96.535500	-0.012599	-0.001861	-0.018341	-0.015935	6703.400768	44843.116255	3858.047025	23653.762235
97.036000	-0.013463	-0.002733	-0.019129	-0.016916	6704.448770	44853.719896	3858.515773	23700.850244
97.536000	-0.013590	-0.002263	-0.011343	-0.016455	6699.222146	44854.600878	3876.378467	23678.725758
98.058500	-0.013707	-0.001429	-0.013505	-0.015805	6692.414798	44872.384996	3869.486177	23647.531607
98.536500	-0.015104	-0.002877	-0.015200	-0.015732	6679.405997	44725.532238	3865.174248	23644.026400
