sample name	sample
index	1322
start time	 05-03-2021  10:56:34 AM
880	0.009164
Peak Time (s)	91.537
Peak Height 	0.009164
calc peak height	90,93
Baseline Time (s)	10.037
Baseline Value 	-0.004559
subtract baseline	10,4
Abs	0.003821
Peak Time (s)	91.037
Peak Height 	0.003821
calc peak height	90,93
Baseline Time (s)	9.537
Baseline Value 	0.002418
subtract baseline	10,3
PK_550	0.008418
Peak Time (s)	91.037
Peak Height 	0.008418
calc peak height	90,93
Baseline Time (s)	11.536
Baseline Value 	3.2992E-4
subtract baseline	10,2
PK_880	-0.001069
Peak Time (s)	92.535
Peak Height 	-0.001069
calc peak height	90,93
Baseline Time (s)	8.536
Baseline Value 	0.00175
subtract baseline	10,1


Time (s)	A880-A510	A880-A775	A880-A975	A880	I510	I775	I975	I880	
0.039500	-0.006105	-0.000942	-0.004928	0.007388	6032.276277	42298.419330	3845.077189	21921.203350
0.536500	-0.000684	0.000329	-0.003947	0.005351	6086.521718	42598.911974	3851.854147	22010.551538
1.035000	-0.000274	-0.000431	-0.002435	0.004220	6097.848951	42632.734140	3857.828840	22060.329835
1.536000	-0.001127	-0.000744	-0.002527	0.003331	6098.117486	42685.412223	3859.636750	22099.590166
2.035000	-0.000048	0.000179	-0.001433	0.003199	6107.043765	42781.902046	3862.426276	22105.414319
2.535500	-0.000323	-0.000477	-0.001410	0.000991	6121.352503	42924.410705	3867.521914	22203.255532
3.036000	0.000262	0.000120	-0.001496	-0.001465	6143.987651	43206.126334	3872.961585	22312.644065
3.536000	-0.000187	0.000027	-0.004799	0.002933	6107.981736	42792.337430	3855.390853	22117.183397
4.036500	-0.001002	-0.000267	-0.000346	0.001115	6115.400266	42932.279976	3869.674685	22197.722021
4.536500	-0.000386	-0.000540	0.001200	0.000592	6123.842738	42955.203242	3874.432605	22220.951695
5.034500	-0.000774	0.000211	0.003990	0.000732	6119.922078	43011.542617	3880.562824	22214.739322
5.540000	-0.000478	0.000535	0.003262	0.001109	6119.328979	43006.704753	3878.003808	22198.016750
6.034500	-0.000584	-0.000894	-0.006678	-0.000340	6129.298469	43008.513885	3858.547257	22262.451350
6.535000	-0.001027	-0.000048	-0.000326	-0.000024	6123.651379	43057.326967	3872.337690	22248.351716
7.035500	-0.000055	0.000614	-0.001915	0.000701	6125.492931	43051.531601	3867.027844	22216.112019
7.538000	-0.000060	0.000194	-0.004080	0.000325	6128.249082	43047.505998	3862.944239	22232.844733
8.036000	-0.000654	-0.000466	0.002063	-0.000291	6128.408029	43043.410211	3878.468425	22260.259251
8.536000	0.000000	0.001829	0.000745	0.001396	6120.741765	43099.559174	3871.536543	22185.257658
9.036500	0.000853	-0.000030	-0.002642	-0.000196	6138.920715	43074.877020	3867.418459	22256.033616
9.537000	0.002628	0.000515	0.000000	0.000454	6147.323364	43065.185947	3871.988474	22227.097438
10.037000	0.001199	-0.000284	0.001630	0.000000	6140.044807	43033.410933	3876.792372	22247.303527
10.534500	-0.000183	0.000320	-0.004699	-0.000164	6130.963978	43104.238138	3862.646561	22254.592364
11.035000	-0.000845	-0.000096	0.000022	-0.000465	6128.284657	43093.621112	3874.154396	22267.998248
11.535500	-0.000007	0.000000	-0.007935	0.000346	6128.484217	43027.613698	3854.148243	22231.884829
12.035500	0.000160	0.000236	-0.000420	0.000402	6129.310475	43044.197497	3871.143226	22229.404591
12.536000	-0.001251	0.000018	-0.005152	-0.000019	6121.958300	43062.984784	3861.285537	22248.159829
13.036500	0.003541	0.000609	0.000589	0.000050	6157.186476	43111.176952	3874.275357	22245.093831
13.536000	-0.001285	0.000129	-0.001159	0.000003	6121.536599	43071.115403	3870.361704	22247.149691
14.037000	-0.000985	-0.000017	-0.002359	0.002689	6103.895063	42810.690003	3861.480208	22127.982880
14.537000	-0.001525	-0.000966	0.002032	0.001348	6109.809601	42846.716555	3874.610751	22187.405024
15.034500	0.000182	-0.000367	-0.003474	-0.000324	6134.875448	43055.635995	3865.807766	22261.735520
15.535000	-0.000725	0.000261	-0.004363	-0.000041	6126.027777	43087.436406	3863.133349	22249.135108
16.035000	-0.000619	0.000267	-0.000343	0.000419	6123.400483	43045.564627	3871.280798	22228.671616
16.535500	-0.002079	-0.000669	0.000629	-0.000796	6121.582697	43071.364392	3876.319940	22282.791479
17.038500	0.003418	0.000395	0.004194	-0.002971	6178.989191	43371.276531	3889.666189	22380.012066
17.535500	-0.000752	-0.000020	0.001872	0.000769	6119.815010	42986.827505	3875.575978	22213.097491
18.036500	-0.000949	0.000137	0.000797	0.001356	6114.003193	42947.285137	3871.747894	22187.024777
18.536500	0.001136	0.000076	-0.004314	0.001419	6129.007502	42935.842995	3859.922482	22184.241234
19.036500	0.000534	0.000270	0.006099	0.001695	6122.485389	42928.370023	3883.225072	22172.004770
19.537000	-0.001993	0.000328	-0.001863	0.001819	6102.875718	42922.240340	3864.592802	22166.499168
20.035000	0.000970	-0.000957	-0.002557	0.000550	6134.235756	42920.740513	3865.905058	22222.814468
20.534500	-0.001292	-0.000089	0.002863	0.001282	6112.017615	42933.334304	3876.681773	22190.332803
21.035500	0.000937	0.000717	0.002638	0.001397	6127.689828	42996.908778	3875.894915	22185.218858
21.538500	-0.001431	-0.000041	-0.001532	0.001202	6111.583315	42945.036915	3866.760222	22193.875038
22.036000	-0.003013	-0.000081	-0.004049	0.000551	6104.710896	43001.354940	3862.498849	22222.805532
22.536000	-0.000268	-0.000005	-0.001162	0.001164	6120.472093	42951.836476	3867.692157	22195.547732
23.036500	0.000091	0.000032	-0.001926	0.000810	6125.765962	42987.856565	3866.752562	22211.264169
23.536500	-0.001916	-0.000093	-0.002848	0.000790	6111.037895	42978.184883	3864.692504	22212.144719
24.037000	-0.002569	0.000433	0.000393	0.001020	6104.521266	43005.487184	3871.590715	22201.958906
24.537500	-0.000341	0.000593	-0.003063	0.001508	6117.385103	42975.206321	3862.564073	22180.290715
25.035000	0.002170	0.000947	-0.000642	0.001971	6132.595544	42965.240954	3867.036933	22159.766733
25.535000	-0.000934	0.000100	-0.004809	0.000717	6118.852484	43002.741041	3860.391609	22215.418690
26.035500	-0.000142	-0.000117	-0.004607	0.000953	6122.980462	42961.026239	3860.315197	22204.945458
26.535500	-0.000532	0.000167	-0.000286	0.001270	6117.731456	42957.993276	3869.457550	22190.855485
27.036000	-0.000986	0.000177	0.000117	-0.000974	6131.021243	43165.908576	3875.549830	22290.729064
27.536000	0.000766	0.000484	0.004322	-0.001364	6146.995341	43230.505775	3886.212039	22308.138259
28.036500	0.002173	-0.000154	-0.000276	-0.000716	6152.675633	43111.477246	3874.046724	22279.201746
28.537000	0.000271	0.000551	0.002969	-0.000241	6134.922435	43132.676288	3880.450728	22258.039243
29.037000	-0.001063	0.000565	0.000131	-0.000267	6125.194405	43136.388046	3873.948829	22259.185735
29.537000	-0.005186	-0.000996	-0.000722	0.004805	6057.630373	42527.888844	3860.388149	22034.556577
30.035500	-0.002314	0.000509	0.001849	0.000059	6113.508516	43101.197119	3877.163983	22244.698667
30.534500	-0.000546	-0.000147	-0.002491	0.002024	6112.052251	42859.841522	3862.692762	22157.428266
31.038000	-0.001557	-0.000540	0.002982	0.001492	6108.508331	42872.522399	3876.469373	22180.983380
31.536000	-0.000232	0.000513	-0.001990	0.005000	6092.420445	42647.789327	3857.070298	22026.003086
32.035500	-0.000701	-0.000217	0.002043	-0.000938	6132.878852	43126.157339	3879.921043	22289.120411
32.536500	-0.000573	-0.000350	0.000283	-0.000792	6132.738236	43100.400788	3875.511805	22282.602723
33.036000	0.002978	0.000312	0.001087	-0.000338	6155.877696	43119.615739	3876.321369	22262.371636
33.536500	-0.004678	-0.000071	0.002000	0.004994	6059.956226	42595.044795	3866.164263	22026.265630
34.039000	0.002222	0.000007	-0.006686	0.001587	6135.838369	42914.135027	3854.167471	22176.798117
34.538000	-0.000450	0.000508	0.000754	0.001850	6114.042967	42935.926419	3870.513168	22165.117054
35.036500	-0.001570	0.000011	0.001034	0.001945	6105.065204	42881.520523	3870.937969	22160.910460
35.535500	-0.000731	0.000245	-0.001207	0.003799	6097.587086	42733.031687	3861.575623	22078.929348
36.036500	-0.000731	-0.000389	-0.004006	0.001409	6115.233463	42894.090657	3860.645632	22184.690945
36.535500	0.000108	0.000016	0.002255	0.001826	6118.350643	42892.936498	3874.021179	22166.181519
37.036500	0.002868	0.001159	-0.002013	0.002567	6133.349863	42929.908852	3862.544914	22133.373567
37.536500	-0.000720	-0.000697	0.006081	0.000869	6119.315293	42915.351955	3885.104815	22208.671338
38.035500	-0.001346	-0.000868	-0.000746	0.001010	6113.630653	42886.618692	3868.997822	22202.377929
38.537000	-0.002436	-0.000216	0.001826	0.001430	6102.478227	42907.980789	3873.945593	22183.748424
39.040000	-0.000271	-0.000559	-0.003172	0.001233	6119.937148	42894.548460	3862.943034	22192.476679
39.534500	0.000467	0.000851	0.000214	0.002290	6117.571323	42926.974621	3868.263775	22145.608144
40.040000	0.000482	0.000933	0.001061	0.002407	6116.821599	42923.880592	3869.941481	22140.463756
40.538500	-0.001744	0.000530	0.002702	0.001840	6104.560447	42938.963813	3875.020748	22165.579032
41.041000	0.000238	0.000094	0.005322	0.001594	6121.039846	42921.449392	3881.654126	22176.489397
41.536000	-0.001584	0.000437	-0.000077	0.001733	6106.521765	42940.130294	3868.873401	22170.285448
42.039000	0.000951	0.000720	0.000743	0.001977	6123.481068	42943.699888	3870.196262	22159.474349
42.536500	0.000979	0.000667	0.000038	0.002170	6122.256776	42921.093872	3868.135447	22150.921072
43.037000	-0.000552	0.000041	-0.003106	0.001982	6112.307693	42880.847788	3861.387787	22159.255996
43.537000	0.000881	0.001635	0.003557	0.002543	6118.766069	42975.865762	3875.370343	22134.419862
44.037000	0.000736	0.000436	-0.001535	-0.000419	6139.716191	43138.553283	3870.467035	22265.978515
44.535000	0.000166	0.000465	-0.002820	-0.000752	6137.949098	43172.013521	3868.283382	22280.816052
45.038500	-0.000199	0.000539	0.001198	-0.000210	6131.196692	43128.790322	3876.280796	22256.675299
45.535500	-0.004654	0.000788	0.003943	0.005709	6054.933215	42608.171537	3868.977235	21994.825959
46.038500	-0.000453	0.000386	-0.003183	-0.000014	6127.844773	43096.471078	3865.763510	22247.918525
46.536000	0.002339	0.000092	-0.001831	-0.000511	6152.381307	43115.248148	3869.999715	22270.067612
47.036000	-0.000293	0.000577	-0.002481	-0.000366	6131.659155	43146.712778	3868.176243	22263.619198
47.536500	-0.000291	0.000840	0.003525	0.003247	6104.895140	42838.116433	3873.673547	22103.277630
48.040000	0.001685	-0.000028	-0.002984	0.000636	6138.919332	42998.304253	3864.732766	22218.994438
48.537000	-0.000716	0.000905	0.004136	0.000233	6124.054750	43121.603711	3882.058942	22236.913858
49.037500	0.002550	-0.000372	-0.001579	-0.000573	6154.420493	43078.089299	3870.719853	22272.810789
49.535000	-0.000497	0.000065	0.001005	0.003698	6100.049801	42725.817610	3866.852264	22083.379598
50.040500	0.002620	0.000254	0.006031	-0.001356	6160.820073	43208.366755	3890.183704	22307.746189
50.536000	0.003174	0.000068	0.003863	0.010839	6074.584883	42078.027024	3857.101111	21770.735690
51.038000	0.019028	-0.008824	0.003657	0.044004	5950.544371	38470.385055	3784.328367	20384.284990
51.536500	0.030407	-0.018454	0.013281	0.249343	4851.793978	24618.553891	3453.774707	13802.039363
52.036500	0.014349	-0.016489	0.000475	-0.037125	6537.665649	45009.448352	3963.456679	23972.759682
52.537000	-0.016161	-0.037835	-0.022309	-0.179744	7608.975033	58544.766055	4309.901696	32159.323076
53.037000	-0.013694	-0.068695	-0.017935	-0.252956	8505.335807	64235.157605	4590.922718	37529.427003
53.534500	-0.006408	-0.071465	-0.021060	-0.258291	8670.634304	64598.004224	4599.687676	37957.344720
54.034500	0.005748	-0.074241	-0.004801	-0.262263	8888.942881	64767.866858	4682.018331	38279.317920
54.538000	0.010635	-0.057906	0.001494	-0.238425	8633.235070	63709.799083	4610.407207	36390.387990
55.035500	0.008599	-0.032878	-0.001576	-0.190084	8005.342481	60536.290261	4416.462986	32863.965032
55.538500	-0.002845	-0.019478	-0.007773	-0.143817	7370.089318	56342.013468	4240.848401	29837.258849
56.035500	-0.003403	-0.013651	-0.007195	-0.131633	7240.841501	55566.685419	4204.783264	29092.410885
56.536000	-0.003836	-0.012544	-0.009539	-0.124684	7167.684926	54864.246139	4176.591568	28676.864879
57.041500	-0.001124	-0.010884	-0.017425	-0.131338	7260.716149	55866.836733	4172.898646	29074.634021
57.537000	-0.001741	-0.009755	-0.011379	-0.115579	7099.358966	54115.389105	4144.155558	28142.367107
58.037500	0.001916	-0.007454	-0.006896	-0.109822	7079.107973	53710.074566	4140.432960	27810.137432
58.535000	0.003754	-0.007424	-0.005498	-0.089443	6904.453542	51388.494173	4086.238109	26668.840512
59.035000	0.000614	-0.006732	0.000444	-0.069465	6696.873713	49286.272375	4047.660381	25600.804088
59.535500	0.000368	-0.005159	-0.001977	-0.051359	6539.785173	47557.063468	3993.439227	24674.425612
60.035500	0.001946	-0.005708	-0.008306	-0.046090	6508.983795	46963.911307	3963.917612	24411.968944
60.535500	-0.000043	-0.005334	-0.008357	-0.031526	6374.018038	45550.377964	3927.821973	23702.964724
61.036500	0.000804	-0.005423	-0.005438	-0.017860	6272.983188	44223.535687	3902.045334	23058.963151
61.536500	0.000812	-0.008010	-0.002748	-0.001414	6147.713246	42455.602955	3869.967784	22310.350056
62.037000	-0.006196	-0.005170	-0.002364	0.009269	6018.083749	41749.363512	3846.607407	21839.043592
62.537000	-0.006048	-0.000823	-0.009863	0.011462	6003.435427	41942.030540	3825.123245	21743.702169
63.037500	-0.006712	-0.000285	-0.008597	0.005512	6041.442187	42528.350200	3841.072699	22003.480726
63.537500	-0.004566	0.001528	-0.008287	-0.001048	6105.050727	43297.948489	3856.507029	22294.037456
64.041000	-0.006482	0.003288	-0.001509	-0.003558	6109.425253	43696.181301	3877.761284	22406.340892
64.538000	-0.005176	0.002318	-0.012706	-0.007612	6149.288832	43986.268718	3861.373964	22589.179456
65.035500	-0.006803	0.002650	-0.009137	-0.011516	6166.361527	44388.125358	3878.526057	22766.846685
65.539000	-0.007306	0.003778	-0.007785	-0.014685	6186.476498	44799.732124	3889.045822	22912.251358
66.036500	-0.007325	0.004242	-0.003731	-0.017558	6208.143488	45122.160923	3905.378746	23044.978578
66.536500	-0.008628	0.003890	-0.010551	-0.021421	6227.699650	45464.177443	3898.375788	23224.845301
67.037000	-0.007004	0.003659	-0.011447	-0.024069	6260.593920	45701.215511	3902.520020	23349.065840
67.537000	-0.009779	0.002535	-0.010921	-0.028336	6272.155152	46011.448098	3913.941529	23550.848496
68.037500	-0.008138	0.003609	-0.005845	-0.031083	6306.402373	46391.647472	3932.858704	23681.795155
68.535000	-0.008314	0.004641	-0.005974	-0.033310	6322.524648	46718.610252	3937.993038	23788.586374
69.040000	-0.008794	0.003759	-0.012147	-0.036287	6342.252405	46929.957907	3930.184063	23932.144397
69.536000	-0.010847	0.004018	-0.007317	-0.035294	6318.196269	46855.772248	3939.562486	23884.132257
70.036000	-0.008824	0.004268	-0.012702	-0.037165	6348.980650	47070.508569	3930.969648	23974.668418
70.536000	-0.010583	0.003376	-0.011580	-0.037454	6337.328408	47009.301061	3934.411162	23988.686322
71.036500	-0.010765	0.002900	-0.006061	-0.036113	6325.293695	46825.549394	3944.669915	23923.726275
71.537000	-0.011848	0.003202	-0.011675	-0.032644	6289.583637	46507.093169	3922.493795	23756.562813
72.037000	-0.012708	0.003660	-0.008803	-0.033406	6288.824180	46629.506719	3931.310980	23793.189284
72.537500	-0.010925	0.003918	-0.009003	-0.032444	6295.235915	46558.854417	3928.485546	23746.991035
73.037500	-0.007915	0.003899	-0.010015	-0.031087	6308.175445	46421.013589	3922.742637	23681.973684
73.537500	-0.011459	0.003930	-0.015237	-0.028808	6262.790521	46196.851444	3904.772270	23573.303264
74.035500	-0.012305	0.003633	-0.009842	-0.028467	6253.616014	46133.399377	3916.845698	23557.077955
74.535500	-0.012015	0.003280	-0.014446	-0.027615	6249.268663	46013.812831	3903.815305	23516.582871
75.036000	-0.012032	0.003483	-0.011005	-0.025885	6235.832380	45862.787380	3907.883883	23434.691578
75.536500	-0.014032	0.003707	-0.009969	-0.021686	6188.556841	45472.227824	3900.377388	23237.244775
76.036500	-0.013260	0.004024	-0.010433	-0.021228	6190.939366	45458.466782	3898.198693	23215.838287
76.537000	-0.012202	0.004339	-0.011350	-0.019313	6184.450258	45302.289384	3891.536844	23126.507696
77.036500	-0.013605	0.003912	-0.007270	-0.019256	6173.424762	45255.092072	3901.011130	23123.816263
77.534500	-0.015375	0.004221	-0.010467	-0.016597	6140.216205	45027.032884	3887.246243	23000.487012
78.035500	-0.011228	0.005653	-0.012204	-0.015316	6161.663475	45041.616918	3880.223455	22941.305301
78.535500	-0.011986	0.005287	-0.006930	-0.014309	6148.444936	44908.953160	3890.167247	22894.948318
79.035500	-0.013541	0.006331	-0.009816	-0.012177	6120.974281	44804.037129	3878.482558	22797.069926
79.536000	-0.011551	0.005924	-0.010160	-0.009998	6119.577553	44555.814313	3872.659173	22697.553521
80.036000	-0.010761	0.006630	-0.007360	-0.009447	6121.347759	44570.663651	3877.849710	22672.480626
80.536000	-0.011653	0.005671	-0.008261	-0.008513	6107.832571	44389.820598	3873.613436	22630.037549
81.036500	-0.009806	0.006110	-0.004033	-0.007072	6110.835074	44294.328945	3880.053727	22564.701166
81.537000	-0.009006	0.006078	-0.010630	-0.004323	6096.460673	44030.725013	3858.618556	22440.709870
82.037000	-0.008467	0.006660	-0.009501	-0.003587	6095.007718	44016.180731	3859.509248	22407.640703
82.535000	-0.009096	0.006767	-0.009286	-0.002744	6084.201695	43946.766560	3858.085342	22369.862531
83.037500	-0.010866	0.005664	-0.010604	-0.003568	6077.266131	43920.383582	3856.964657	22406.780515
83.535500	-0.011013	0.005600	-0.007867	-0.003003	6072.063421	43861.217661	3861.897418	22381.449621
84.035000	-0.010154	0.006207	-0.005086	-0.002291	6073.141415	43851.349212	3866.620325	22349.578263
84.536000	-0.010061	0.006058	-0.008744	-0.001756	6069.917069	43787.015175	3857.074206	22325.654955
85.036500	-0.006712	0.006243	-0.002335	-0.000607	6086.007623	43696.603124	3869.063406	22274.343425
85.537000	-0.007907	0.006116	-0.003586	-0.000222	6074.443328	43648.578224	3865.318276	22257.190549
86.037000	-0.005017	0.006127	-0.004391	0.000350	6091.430003	43596.074167	3862.177055	22231.721040
86.537500	-0.005602	0.006512	-0.000416	0.002189	6073.663366	43460.373399	3867.053389	22150.077160
87.034500	-0.006107	0.006161	-0.003054	0.002394	6068.481605	43408.630883	3860.568997	22141.026985
87.538000	-0.005812	0.005490	0.000689	0.003437	6063.035114	43249.424423	3866.727085	22094.917112
88.035000	-0.005704	0.005995	0.006736	0.003770	6061.392629	43265.410433	3879.884378	22080.198990
88.535000	-0.004246	0.006876	-0.005001	0.004516	6066.573006	43277.902307	3851.359767	22047.281399
89.035500	-0.000810	0.007422	-0.004046	0.005870	6081.796096	43202.939708	3850.462466	21987.723351
89.536000	-0.003620	0.006405	-0.002399	0.006340	6057.859628	43065.569190	3853.116364	21967.123413
90.036500	-0.004220	0.007088	0.003570	0.006732	6050.655727	43092.454466	3865.780345	21949.922167
90.536500	-0.001206	0.008032	-0.003048	0.007935	6063.819671	43068.563974	3848.064760	21897.265728
91.037000	-0.001136	0.008418	0.003821	0.008222	6062.232869	43077.609523	3862.951675	21884.694704
91.537000	-0.002150	0.007318	-0.000485	0.009164	6048.027395	42889.626678	3851.063226	21843.599510
92.035000	-0.001497	0.007590	-0.000813	0.008812	6055.316871	42946.906472	3851.116416	21858.939670
92.535000	-0.001069	0.007442	-0.003460	0.008364	6061.693180	42974.618145	3846.179456	21878.530792
93.035500	-0.001736	0.007436	0.002769	0.008805	6053.637429	42933.482163	3859.233965	21859.272151
93.552500	-0.002558	0.007920	0.003044	0.009770	6040.682483	42889.211319	3857.666325	21817.203792
94.036000	0.000870	0.008981	0.001979	0.010392	6061.044497	42929.618884	3853.851702	21790.165727
94.536500	0.001836	0.007797	0.002947	0.009412	6075.239248	42910.834948	3858.259425	21832.817441
95.036500	0.000252	0.006900	0.002969	0.008675	6069.052520	42896.175401	3859.983264	21864.946080
95.537000	-0.000566	0.007533	0.002409	0.010791	6047.713602	42760.085642	3853.919989	21772.810347
96.037000	-0.000326	0.007960	0.001560	0.010138	6054.196534	42859.115192	3853.478662	21801.209109
