sample name	sample
index	361
start time	 03-04-2021  10:46:49 AM
880	2.532765
Peak Time (s)	91.535
Peak Height 	2.533
calc peak height	90,93
Baseline Time (s)	10.536
Baseline Value 	0.001042
subtract baseline	10,4
Abs	1.460799
Peak Time (s)	90.535
Peak Height 	1.461
calc peak height	90,93
Baseline Time (s)	9.035
Baseline Value 	0.00223
subtract baseline	10,3
PK_550	-0.281311
Peak Time (s)	91.535
Peak Height 	-0.2813
calc peak height	90,93
Baseline Time (s)	11.037
Baseline Value 	0.001117
subtract baseline	10,2
PK_880	1.113182
Peak Time (s)	91.535
Peak Height 	1.113
calc peak height	90,93
Baseline Time (s)	9.035
Baseline Value 	0.00178
subtract baseline	10,1


Time (s)	A880-A510	A880-A775	A880-A975	A880	I510	I775	I975	I880	
0.037500	-0.003085	-0.001043	-0.004023	0.004444	6805.551853	47014.411041	3899.775733	24712.973154
0.535000	-0.004471	-0.001219	-0.004892	0.002079	6814.710401	47237.949286	3903.871956	24833.013090
1.039000	-0.004006	-0.000923	-0.003057	0.001642	6823.185877	47313.089883	3910.124117	24855.280996
1.536000	-0.000304	-0.000871	-0.001473	-0.000878	6882.060050	47577.797400	3921.502643	24984.067351
2.037500	-0.002249	-0.001154	-0.000279	-0.001122	6865.874236	47573.696340	3925.513520	24996.552740
2.536500	0.000802	-0.000591	-0.000978	-0.001672	6900.214791	47688.760880	3925.098410	25024.795260
3.037500	0.000721	-0.000164	-0.001184	-0.002692	6909.206684	47838.624261	3927.372229	25077.193870
3.537500	-0.000348	0.000425	-0.002988	0.000924	6864.502065	47525.592356	3912.299352	24891.903166
4.034500	-0.001641	-0.000298	0.004072	-0.000217	6863.059239	47568.660353	3935.180153	24950.186426
4.535000	0.000887	-0.000489	-0.001505	-0.000439	6889.226746	47571.805652	3920.188647	24961.546952
5.034500	-0.000035	-0.000835	0.001722	-0.000853	6884.383483	47578.858650	3930.362054	24982.762125
5.535500	-0.002226	-0.000558	0.004514	-0.000824	6863.276735	47604.543735	3938.140905	24981.300175
6.036000	0.000993	-0.000290	0.001938	-0.000135	6887.352189	47561.103188	3928.955413	24946.033707
6.536000	-0.000339	-0.000440	0.000550	-0.000291	6876.142993	47561.743202	3925.509768	24954.017858
7.039500	0.000498	0.000251	-0.005073	0.000372	6877.792543	47564.517928	3908.068191	24920.066606
7.536500	-0.000437	0.000334	-0.000421	0.000202	6870.510923	47590.573475	3921.423081	24928.756567
8.037000	0.000315	-0.000140	0.000532	-0.000191	6881.417889	47582.330739	3925.179177	24948.882674
8.537000	0.000310	-0.000652	-0.001378	-0.001002	6889.103423	47613.138072	3922.112045	24990.418576
9.035000	0.000000	-0.000620	0.000000	-0.000512	6881.469817	47565.885223	3924.588486	24965.305011
9.535000	-0.001233	0.000361	0.001243	-0.000126	6866.064360	47627.238502	3926.983714	24945.537406
10.035000	-0.000255	0.000742	0.004385	0.000340	6870.934897	47618.596448	3934.493805	24921.746549
10.535500	0.000511	0.000244	0.001094	0.000000	6881.457465	47602.185484	3926.215343	24939.105176
11.036500	0.000020	0.000000	-0.000062	0.000134	6875.509231	47563.181048	3922.611674	24932.244810
11.536500	-0.000926	-0.000050	-0.000842	0.000069	6867.131385	47564.784495	3920.622606	24935.573290
12.036500	-0.000894	0.000420	0.002814	0.000400	6864.293907	47579.085703	3929.909968	24918.649535
12.537000	-0.003097	0.000173	0.001974	0.003444	6814.801263	47240.783669	3919.067824	24763.655853
13.037500	0.001765	-0.000338	0.001495	-0.002292	6915.393265	47779.157788	3933.768779	25056.645170
13.535000	0.000157	0.000157	-0.001945	0.002980	6849.811796	47286.682772	3909.502700	24787.207660
14.035000	-0.000306	0.000078	-0.000251	0.000185	6871.918916	47565.986006	3921.943143	24929.627883
14.535500	-0.001298	0.000026	0.001132	0.002729	6838.435203	47298.918791	3918.712446	24799.960253
15.035500	-0.000006	0.000756	0.004327	-0.000017	6876.693600	47656.804480	3935.334854	24939.972551
15.563000	0.000084	0.000042	0.001722	-0.001038	6887.284895	47688.639975	3930.883097	24992.266761
16.036000	0.002604	0.001516	0.002577	0.000581	6895.896195	47673.631920	3928.741136	24909.423505
16.539000	-0.001569	0.000769	0.002849	0.005287	6811.847626	47113.232472	3916.380324	24670.353929
17.037000	-0.000886	-0.000008	0.002043	-0.000645	6874.298180	47642.704947	3930.678959	24972.094988
17.537000	0.002332	0.000535	0.001646	-0.002014	6918.171057	47840.852781	3933.411232	25042.350342
18.034500	0.000843	0.000387	0.000535	0.001524	6870.113828	47459.848268	3920.406160	24861.298144
18.535000	-0.000154	0.000595	0.000234	0.002942	6847.227487	47335.492284	3915.629373	24789.133214
19.035000	0.000941	-0.000150	-0.000332	0.001790	6868.521640	47377.284448	3917.255472	24847.751062
19.535500	-0.000797	0.000286	0.003153	0.001872	6851.266677	47413.623418	3926.737350	24843.554031
20.035500	-0.002449	0.000419	0.001046	0.001832	6836.043735	47431.401787	3920.968895	24845.599182
20.535500	0.000736	0.000271	0.005692	0.002370	6861.077170	47361.034381	3932.461324	24818.237907
21.036500	-0.000191	-0.000291	-0.000753	0.001396	6861.518041	47403.327324	3917.182073	24867.837461
21.536000	0.001380	0.000588	0.001858	0.002686	6864.181157	47361.004406	3920.851239	24802.130753
22.039500	-0.000795	0.000310	-0.001087	0.002111	6849.018444	47391.561998	3914.272033	24831.378202
22.537000	-0.001612	-0.000078	0.003213	0.001895	6843.345267	47373.808276	3926.839462	24842.373909
23.037500	0.001644	0.000862	0.008021	0.002969	6864.003979	47360.215289	3937.331651	24787.787311
23.535000	0.000232	0.000679	0.004984	0.002282	6857.132399	47411.994445	3930.718551	24822.708787
24.035000	0.001169	0.000795	0.002450	0.003069	6858.556499	47343.041136	3921.435027	24782.713525
24.535500	0.000194	0.001056	0.001085	0.003686	6843.487514	47306.426994	3915.926604	24751.357960
25.036000	0.001215	0.000707	0.003674	0.002474	6864.624301	47394.988695	3926.509250	24812.918206
25.536000	-0.000704	0.000474	-0.001631	0.002353	6847.598198	47383.578378	3912.100482	24819.103985
26.039500	0.001079	0.000677	0.000696	0.002347	6864.542728	47405.012638	3918.563082	24819.393122
26.536500	0.000837	0.000648	0.004280	0.002960	6856.435542	47339.103864	3926.845538	24788.222793
27.037000	-0.000476	0.001192	0.005986	0.003029	6843.371157	47387.965232	3931.434712	24784.747725
27.537500	0.000485	0.000856	0.004595	0.000432	6877.092376	47620.755460	3934.825446	24917.002984
28.034500	0.000641	0.000226	0.004280	-0.000385	6886.362983	47640.115615	3936.238318	24958.782541
28.535000	-0.000953	-0.000011	-0.000581	0.006071	6810.283206	46953.833585	3904.750254	24630.785658
29.035500	0.003029	0.001397	0.004380	0.000814	6897.740020	47637.260944	3933.148722	24897.537088
29.536000	-0.002535	0.000929	-0.001170	0.006071	6795.483349	47049.569173	3903.133554	24630.765715
30.035500	0.002449	0.000806	0.001634	0.000492	6895.258629	47609.422358	3926.347648	24913.937644
30.539000	0.002938	0.000715	0.005677	0.000619	6898.725768	47586.960961	3937.348176	24907.460985
31.059500	0.003465	0.001343	0.006132	0.000969	6900.421169	47615.654471	3937.644046	24889.593967
31.537000	-0.002523	0.000004	0.000121	0.005378	6802.062084	47025.856588	3908.585327	24665.720881
32.063500	0.002798	0.000969	0.004817	0.001148	6892.329597	47558.546944	3933.436019	24880.455922
32.545000	0.001975	0.001013	0.002686	0.000836	6887.445275	47595.307554	3928.330088	24896.387373
33.035000	0.000346	0.000089	0.000278	-0.000150	6881.314822	47601.742714	3924.354224	24946.787076
33.535500	-0.000313	0.001247	0.001748	0.006148	6815.552222	47074.181544	3910.950946	24626.897736
34.035500	0.001940	0.000402	0.004246	-0.000053	6895.601573	47623.973544	3935.208625	24941.807890
34.536000	0.000104	0.000778	0.000435	0.002913	6849.945594	47357.315830	3916.268607	24790.630266
35.036500	0.000725	0.000747	0.005163	0.004001	6845.524526	47242.473012	3926.406019	24735.406926
35.536500	-0.002438	0.000595	0.005576	0.005001	6806.384089	47124.674504	3924.765048	24684.778369
36.036500	0.000483	0.000760	0.002076	0.003926	6843.950817	47251.581824	3918.010554	24739.217448
36.537000	0.000454	0.000900	0.006347	0.004146	6841.598727	47243.300179	3929.314699	24728.059913
37.037500	-0.000812	0.001148	0.006883	0.003997	6831.070874	47284.050264	3931.236444	24735.614692
37.535000	0.000082	0.001122	0.004295	0.004782	6832.101583	47200.977316	3921.802197	24695.865248
38.035500	0.000654	0.001231	0.003253	0.004390	6841.185129	47252.228575	3919.991876	24715.712024
38.535500	-0.000100	0.000564	-0.001044	0.004033	6837.441204	47220.498972	3909.083080	24733.783715
39.035500	-0.000420	0.000633	0.000549	0.004099	6833.799159	47220.739336	3913.297338	24730.425181
39.536000	0.002067	0.001323	0.005174	0.004146	6856.851858	47286.677425	3926.031035	24728.057477
40.039000	0.000033	0.000838	0.001299	0.004238	6836.764407	47227.602270	3914.992550	24723.421389
40.536500	-0.000536	0.000518	0.005825	0.004079	6832.896812	47211.131192	3928.038126	24731.467145
41.037000	0.000759	0.000003	0.002973	0.003690	6848.786966	47198.201509	3921.162826	24751.185387
41.537500	0.001019	0.001810	0.004021	0.005351	6835.560422	47213.143517	3919.455047	24667.093249
42.034000	0.000269	0.000880	0.001612	0.004259	6838.790055	47229.772195	3915.800530	24722.345766
42.535000	0.000135	0.001631	0.002623	0.006278	6818.531305	47100.059971	3913.008233	24620.312005
43.035500	-0.000265	0.000663	0.001350	0.003751	6838.542370	47259.569564	3916.483039	24748.095958
43.535500	0.000849	0.001487	0.003334	0.004809	6839.070695	47235.611654	3919.054828	24694.510416
44.036000	0.000864	0.000802	0.004300	0.004192	6845.041558	47228.680219	3923.462551	24725.758412
44.536500	0.000975	0.001518	0.001141	0.005499	6833.759385	47168.162768	3911.067552	24659.643991
45.036000	0.003175	0.001209	0.003106	0.001923	6888.531470	47503.400894	3926.464478	24840.971250
45.537000	0.002077	0.000851	0.003487	0.001576	6881.364379	47502.285334	3928.501314	24858.640522
46.037000	0.004506	0.001198	0.003208	0.001572	6904.616787	47538.423967	3927.732633	24858.852559
46.537000	-0.000316	0.000454	0.002722	0.006326	6813.850496	46975.179533	3913.151210	24617.899208
47.035000	0.002572	0.000783	0.005285	0.001843	6883.531335	47467.735391	3932.797699	24845.029308
47.535000	-0.000664	0.001609	0.009299	0.007574	6798.921189	46965.767094	3927.979134	24555.088781
48.040500	0.001372	0.000423	0.006692	0.001361	6876.695182	47480.350057	3938.119491	24869.604909
48.535500	-0.001415	0.000055	0.003288	0.005647	6809.921289	47003.664723	3916.598664	24652.151420
49.036000	0.001973	0.001272	0.004181	0.002593	6870.691610	47440.909844	3927.597626	24806.876663
49.544500	-0.000781	0.000213	0.005721	0.005822	6814.217799	47001.994149	3922.879297	24643.332621
50.036500	0.000711	0.000914	0.005062	0.001521	6868.892698	47514.491763	3933.076062	24861.465904
50.537000	-0.001156	0.000939	0.002789	0.008124	6789.196173	46841.708055	3908.371497	24527.454942
51.037000	0.004120	0.001531	0.003709	0.000707	6909.200360	47662.111519	3931.560941	24902.951299
51.534500	-0.001557	0.001380	0.000414	0.007507	6791.210852	46949.218928	3903.540315	24558.463347
52.035000	0.026817	0.003399	0.012732	0.082471	6379.396740	40117.606599	3743.475324	21097.373136
52.535000	-0.051305	-0.012686	-0.048381	0.210749	5003.780947	29553.882425	3378.890660	16399.226789
53.035500	-0.084756	-0.029625	-0.097784	-0.062731	6672.183964	51126.674269	3829.242398	28390.821362
53.535500	-0.092067	-0.065435	-0.088596	-0.193300	7961.733050	62918.594613	4253.381712	37391.971890
54.036500	-0.061745	-0.095315	-0.068023	-0.240178	8977.000798	65319.614218	4512.373928	41343.102812
54.536000	-0.025662	-0.109920	-0.039137	-0.256275	9772.901047	65535.000000	4708.859366	42801.304200
55.036500	-0.007169	-0.094989	-0.022785	-0.241340	9830.726822	65534.377602	4715.384642	41446.601051
55.537000	0.001778	-0.038493	-0.006364	-0.158925	8727.622358	61897.744848	4432.949474	34753.921972
56.037000	0.020724	-0.014411	0.013496	-0.077505	7925.751592	54584.034787	4205.501681	29278.850798
56.534500	0.035627	0.004739	0.034704	0.004908	7179.579566	47559.664537	4009.176348	24689.518926
57.035000	0.062388	0.023650	0.060687	0.084505	6671.351728	41717.793834	3858.522314	21011.566938
57.535000	0.094077	0.045249	0.100455	0.165585	6249.036986	36731.921455	3754.479914	17897.627113
58.035500	0.128008	0.057516	0.142641	0.263042	5771.910929	30681.672851	3629.896806	14848.212042
58.536000	0.162834	0.071516	0.176048	0.350598	5425.582928	26332.058626	3522.292154	12635.066428
59.039000	0.213534	0.082944	0.225085	0.433245	5235.323282	22767.519958	3461.944844	10918.090061
59.536500	0.260464	0.093471	0.282828	0.534442	4942.547521	18998.449674	3390.535310	9215.484716
60.036500	0.301981	0.100661	0.324764	0.643152	4627.229895	15614.466342	3293.824135	7778.624178
60.537500	0.355218	0.103221	0.377480	0.737014	4458.951131	13178.033519	3241.226446	6796.742794
61.037500	0.415134	0.109524	0.443843	0.816676	4382.673522	11559.532878	3225.265581	6114.685071
61.534500	0.460564	0.113726	0.490862	0.942570	4105.332764	9410.198474	3140.012940	5262.152041
62.035000	0.520102	0.117592	0.565921	1.047992	3968.725460	8024.451788	3111.108164	4715.740594
62.535500	0.583868	0.117835	0.621330	1.118316	3950.352581	7240.569979	3097.632381	4418.414133
63.035500	0.628746	0.125059	0.669527	1.201479	3848.462175	6522.466590	3067.797011	4123.631592
63.560500	0.657241	0.124378	0.692182	1.245855	3808.760211	6152.107392	3050.436735	3987.962005
64.036000	0.670801	0.126759	0.713214	1.278363	3763.253149	5925.053625	3041.609256	3897.015061
64.536500	0.696078	0.126644	0.737654	1.314613	3737.795148	5671.167444	3032.765251	3803.311589
65.039500	0.719244	0.132427	0.774098	1.357593	3693.420182	5432.554017	3027.972989	3701.885608
65.548000	0.736147	0.132426	0.776761	1.396810	3645.812124	5202.159778	3002.462028	3617.702024
66.037500	0.758866	0.129421	0.801623	1.428828	3626.682407	5013.279216	2997.714246	3554.391447
66.535000	0.783398	0.133591	0.840828	1.471748	3590.042828	4821.301604	2995.280477	3476.524582
67.035000	0.793565	0.129336	0.840014	1.504257	3547.559613	4654.332845	2974.354024	3422.460580
67.536000	0.817477	0.129233	0.886954	1.544862	3517.214424	4485.218110	2978.209307	3360.375728
68.035000	0.844600	0.126471	0.909695	1.581988	3499.583413	4334.199344	2969.534651	3308.472657
68.536500	0.848548	0.121699	0.931548	1.616817	3447.638825	4197.373531	2961.951589	3263.652581
69.036500	0.877701	0.126201	0.963281	1.653797	3435.050787	4094.108117	2958.949370	3219.840328
69.536000	0.904443	0.126710	0.989541	1.692804	3415.774326	3981.296155	2951.805019	3177.495738
70.037000	0.920918	0.125027	1.013043	1.728135	3387.182545	3881.869629	2945.359995	3142.290333
70.543000	0.924703	0.118538	1.009167	1.759929	3346.937236	3787.566962	2926.955066	3112.966294
71.035000	0.951954	0.119390	1.063773	1.794038	3337.472849	3712.132954	2937.346348	3083.805953
71.535000	0.975523	0.116371	1.084477	1.830809	3319.668514	3629.145316	2929.159754	3054.830938
72.035500	0.975456	0.104586	1.076531	1.855496	3287.708953	3559.479136	2913.436009	3036.709977
72.535500	1.003357	0.109446	1.119565	1.903378	3263.206807	3484.478414	2911.199165	3004.368248
73.038500	1.006371	0.092552	1.136234	1.921384	3245.549907	3428.864873	2910.586837	2993.099625
73.536500	1.029819	0.086827	1.152408	1.951997	3237.324239	3375.518524	2904.091169	2974.981550
74.039500	1.019933	0.057303	1.133396	1.961665	3215.552998	3322.771704	2891.812329	2969.519841
74.536500	1.032199	0.063189	1.170267	2.001837	3186.133031	3280.374354	2890.450324	2948.084476
75.037500	1.071886	0.070064	1.199732	2.041897	3185.751401	3242.404690	2886.147932	2928.594576
75.537500	1.054659	0.050098	1.230401	2.056534	3154.417450	3205.785530	2892.698890	2921.910028
76.037500	1.081357	0.034378	1.250297	2.080965	3156.571955	3166.795760	2890.821401	2911.242777
76.535500	1.090793	0.022813	1.248151	2.102320	3145.370910	3137.409868	2881.399032	2902.397628
77.036000	1.079608	0.013452	1.261335	2.123570	3116.401598	3112.013287	2878.280723	2894.017075
77.536000	1.115248	0.014598	1.288777	2.156883	3118.409459	3087.186406	2876.047563	2881.677580
78.035500	1.104511	-0.009130	1.278181	2.179642	3090.529801	3054.404816	2863.915453	2873.775189
78.536000	1.128367	-0.008970	1.314226	2.207771	3087.125806	3036.307549	2866.711055	2864.563808
79.036500	1.121059	-0.048950	1.320004	2.207156	3081.860199	3012.732514	2869.006133	2864.758942
79.537000	1.143456	-0.027586	1.338316	2.243314	3071.285456	3004.410347	2862.682827	2853.745912
80.037000	1.124649	-0.076988	1.303657	2.247283	3054.503579	2976.638633	2849.854540	2852.592049
80.537500	1.185502	-0.012256	1.420002	2.315011	3049.608190	2975.178191	2866.190167	2834.442362
81.037500	1.144837	-0.078094	1.342057	2.292922	3036.762832	2954.965326	2847.574938	2840.053661
81.535000	1.183575	-0.078524	1.385204	2.339770	3031.324839	2935.293688	2846.424060	2828.482787
82.035500	1.149755	-0.136970	1.340971	2.311311	3027.785465	2923.882309	2841.627219	2835.362467
82.538500	1.191965	-0.074313	1.382553	2.368934	3017.849721	2925.743516	2836.924676	2821.885323
83.036000	1.182974	-0.155777	1.373992	2.363553	3015.572436	2899.791206	2836.012793	2823.069477
83.536500	1.172890	-0.108635	1.417609	2.395765	2990.261870	2904.532115	2839.314411	2816.194669
84.037000	1.143145	-0.179932	1.354874	2.359470	2994.022495	2893.669561	2831.791237	2823.977943
84.537000	1.161119	-0.189525	1.416248	2.402131	2980.140944	2878.998057	2837.068101	2814.895187
85.037500	1.146545	-0.198618	1.355592	2.390059	2978.777913	2879.787925	2823.825083	2817.375485
85.535000	1.183810	-0.173747	1.375986	2.441274	2971.319015	2872.987650	2816.160359	2807.311079
86.035000	1.169421	-0.224922	1.409256	2.434382	2967.408731	2862.446852	2826.257646	2808.597387
86.535500	1.107777	-0.263023	1.389350	2.427081	2940.993244	2855.724214	2822.987581	2809.982540
87.036000	1.154693	-0.258630	1.397881	2.452187	2951.199498	2851.463704	2818.829440	2805.315710
87.536000	1.093525	-0.307197	1.358350	2.403495	2945.298746	2851.488863	2821.108216	2814.619438
88.036500	1.107953	-0.369218	1.377755	2.422545	2943.155061	2836.633318	2821.197401	2810.854788
88.536500	1.057555	-0.329606	1.317500	2.425850	2919.852800	2842.944606	2806.322948	2810.218222
89.036500	1.102696	-0.352539	1.405668	2.459327	2924.672100	2833.359222	2818.988874	2804.037163
89.537000	1.060720	-0.370092	1.364024	2.440391	2915.275799	2833.579554	2813.535449	2807.474747
90.037000	1.082991	-0.331398	1.367477	2.482422	2907.605285	2833.048984	2804.900540	2800.042246
90.535000	1.111282	-0.316606	1.460799	2.516384	2905.467578	2830.078150	2818.515014	2794.540348
91.037500	1.089998	-0.320263	1.444675	2.504863	2901.851720	2831.280905	2817.391557	2796.358692
91.535500	1.113182	-0.281311	1.403851	2.532765	2900.133491	2833.008408	2801.958121	2792.036556
92.039000	1.058389	-0.390208	1.323139	2.464967	2904.915637	2826.799916	2799.320972	2803.041765
92.536000	1.048698	-0.437608	1.361978	2.491240	2892.033075	2817.040159	2801.886151	2798.572025
93.036000	1.063715	-0.407243	1.395583	2.508967	2891.105085	2818.599039	2805.235330	2795.705491
93.537000	1.046552	-0.504402	1.342155	2.481691	2894.598707	2810.520972	2799.783334	2800.165426
94.036500	1.010505	-0.435644	1.381383	2.502690	2875.915988	2815.899770	2803.548829	2796.707236
94.537500	0.969101	-0.530083	1.372328	2.471596	2872.793621	2808.889838	2808.317422	2801.888384
95.107500	0.988385	-0.531651	1.353576	2.485572	2874.391935	2807.320375	2801.321900	2799.513699
95.535000	1.063658	-0.431515	1.394988	2.571436	2871.222333	2808.759265	2792.626278	2786.487343
96.054500	1.015469	-0.510006	1.346854	2.513961	2873.997310	2806.656705	2794.380327	2794.918823
96.538500	1.049501	-0.345411	1.375369	2.568963	2867.813842	2818.829259	2789.502943	2786.827615
97.035500	1.066455	-0.445248	1.425155	2.611011	2860.796310	2803.617901	2790.897172	2781.297442
97.536500	1.007407	-0.513357	1.379568	2.557943	2859.183025	2802.277816	2792.269024	2788.367713
98.037000	1.051235	-0.452788	1.433728	2.579003	2865.445991	2805.899595	2798.630424	2785.458104
98.536500	0.979468	-0.470783	1.316008	2.544702	2855.310885	2807.493063	2783.481223	2790.270644
