sample name	sample
index	791
start time	 03-31-2021  02:21:15 PM
880	0.029405
Peak Time (s)	91.537
Peak Height 	0.0294
calc peak height	90,93
Baseline Time (s)	10.037
Baseline Value 	-6.4615E-4
subtract baseline	10,4
Abs	0.024003
Peak Time (s)	92.037
Peak Height 	0.024
calc peak height	90,93
Baseline Time (s)	9.036
Baseline Value 	-1.0174E-5
subtract baseline	10,3
PK_550	0.014934
Peak Time (s)	91.537
Peak Height 	0.01493
calc peak height	90,93
Baseline Time (s)	10.037
Baseline Value 	-5.9443E-4
subtract baseline	10,2
PK_880	0.012006
Peak Time (s)	91.537
Peak Height 	0.01201
calc peak height	90,93
Baseline Time (s)	9.036
Baseline Value 	7.1897E-5
subtract baseline	10,1


Time (s)	A880-A510	A880-A775	A880-A975	A880	I510	I775	I975	I880	
0.036000	0.000091	0.000744	-0.006597	-0.000513	6847.314347	41286.631446	4086.834428	22531.145742
0.536000	-0.001322	0.000322	-0.001509	0.001243	6820.395140	41095.960686	4094.305238	22452.896102
1.037000	-0.002710	-0.000199	-0.004912	0.000608	6814.024019	41105.958023	4088.095836	22481.174151
1.539000	0.000987	-0.000170	-0.003892	-0.000092	6851.369150	41169.638407	4091.948261	22512.364453
2.034500	0.000444	0.001058	-0.005832	0.001974	6829.162423	41096.437917	4082.997341	22420.396060
2.535000	-0.000606	-0.000169	-0.005654	0.001639	6823.104551	41018.601109	4084.140181	22435.290092
3.038000	-0.001119	0.001324	-0.002654	-0.000480	6836.729030	41334.645543	4095.606083	22529.673206
3.535500	-0.000214	0.000384	0.000762	0.000419	6836.779081	41173.406744	4101.294597	22489.582046
4.036000	-0.001323	0.000434	-0.000472	0.000757	6824.497869	41148.247341	4097.738353	22474.521156
4.536000	0.000108	-0.000062	0.002111	-0.000011	6843.177772	41171.990706	4105.333877	22508.739946
5.039000	0.003037	-0.000060	-0.007410	0.000475	6864.050126	41129.725229	4082.823103	22487.097990
5.536500	0.000933	0.000152	-0.002491	0.000722	6843.970481	41126.698163	4093.269022	22476.098762
6.037000	-0.000121	0.000519	-0.000537	0.000496	6836.914856	41178.483343	4098.179301	22486.145516
6.534500	0.000863	0.000503	-0.001710	0.000504	6845.230348	41176.436923	4095.516296	22485.786892
7.035000	0.001545	0.000377	-0.000118	0.000412	6851.829093	41173.457977	4099.317716	22489.907639
7.535000	-0.000056	-0.000511	-0.001985	-0.000058	6842.190740	41136.909387	4096.163568	22510.860268
8.035500	0.001322	0.000137	0.000317	0.000727	6847.237566	41124.868395	4099.588265	22475.844704
8.535500	0.000705	0.000218	-0.002731	0.000611	6842.966798	41142.127619	4092.977041	22481.012135
9.036000	0.000000	-0.001047	0.000000	-0.000557	6846.914978	41133.685774	4101.779354	22533.121857
9.539500	-0.000245	-0.000065	-0.001972	-0.000543	6844.710916	41218.366784	4097.287025	22532.516338
10.036500	0.001388	0.000000	-0.005686	0.000000	6854.007907	41176.511979	4087.724380	22508.265184
10.537000	-0.001453	-0.000175	0.002107	-0.000459	6833.712101	41201.339995	4106.345238	22528.735564
11.037000	-0.000020	0.000491	0.001568	0.000528	6837.509388	41173.242955	4102.874632	22484.727636
11.537500	0.000180	0.000748	0.000220	0.000723	6837.551286	41178.695252	4099.379927	22476.060626
12.034500	-0.000530	-0.000202	0.000347	-0.000052	6838.106785	41163.385823	4101.423442	22510.604674
12.535500	0.001384	0.000787	0.002866	0.000288	6851.516042	41220.184796	4106.373485	22495.427554
13.035500	0.002951	0.001188	0.001397	0.000503	6863.081424	41236.579848	4102.544575	22485.862275
13.536000	-0.001081	-0.000882	-0.001445	0.000814	6826.064414	41028.338838	4095.414270	22471.976579
14.036000	-0.000372	-0.000559	-0.005082	0.001586	6825.532779	40989.270808	4085.533204	22437.656749
14.536500	-0.001889	-0.000137	-0.007577	0.002722	6803.114583	40927.179499	4077.470361	22387.245315
15.037000	0.000183	0.000895	0.004013	0.002552	6822.058475	41031.856008	4103.832199	22394.782436
15.546000	0.000058	0.001173	-0.002648	0.002433	6822.002248	41066.365301	4089.078502	22400.034393
16.037000	-0.003679	-0.000477	0.000575	0.001238	6800.538080	41026.820993	4099.017560	22453.140391
16.535500	-0.000921	-0.000047	0.002786	0.001511	6821.520368	41040.425241	4103.410479	22440.997771
17.043500	-0.002811	-0.000099	-0.001984	0.001635	6804.507654	41025.153622	4092.356003	22435.487900
17.576500	0.001415	-0.000378	0.005390	-0.002612	6876.627591	41372.563039	4118.808678	22625.144790
18.036000	-0.002312	-0.000032	0.004426	0.002082	6804.947291	40992.063974	4105.841322	22415.639351
18.536000	-0.001111	0.000417	0.000895	0.002034	6815.484780	41035.300997	4097.942181	22417.757388
19.036000	0.000187	0.000577	-0.001361	0.002742	6820.477454	40987.503590	4091.269435	22386.342594
19.536500	-0.001124	0.000323	0.001224	0.002219	6813.814774	41010.984014	4098.266609	22409.531360
20.036500	0.000702	0.000431	0.005850	0.002644	6825.667911	40983.321028	4107.803864	22390.683228
20.535000	-0.001242	0.000433	0.005021	0.002369	6811.550582	41007.442161	4106.540803	22402.877914
21.037500	0.001140	0.001174	-0.000931	0.002708	6828.837463	41042.495190	4092.310920	22387.828067
21.594000	-0.001965	0.000324	-0.003541	0.002296	6806.067381	41004.393964	4087.387782	22406.129361
22.035000	-0.001018	0.000262	0.001975	0.002054	6816.106288	41020.032840	4100.338837	22416.877411
22.535500	0.000061	0.000519	0.000229	0.002434	6822.021271	41009.365368	4095.538020	22400.012496
23.035500	-0.002100	0.000019	-0.002745	0.001972	6807.659716	41006.034143	4089.893452	22420.517047
23.536000	-0.001488	0.000133	-0.000198	0.002084	6811.880038	41006.166236	4095.364161	22415.535364
24.039000	-0.002815	-0.000007	-0.005229	0.002286	6798.989076	40976.363794	4083.644682	22406.554761
24.536500	-0.000354	0.001234	0.000255	0.002704	6816.219137	41048.067019	4094.987369	22388.019802
25.037000	0.001391	0.000092	0.001693	0.001874	6838.052090	41020.892966	4100.107501	22424.834700
25.537500	0.000110	-0.000312	0.000508	0.001445	6830.823386	41023.109876	4098.397640	22443.915926
26.035000	-0.002382	0.000106	-0.002551	0.001908	6805.819498	41019.085244	4090.470320	22423.323328
26.534500	-0.001171	0.000806	-0.003217	0.002663	6809.663970	41014.372350	4087.291316	22389.834534
27.035000	-0.000783	-0.000453	0.002537	0.002044	6818.182926	40958.677547	4101.634724	22417.324227
27.536000	0.002127	0.000791	0.000469	0.000089	6859.567495	41237.985010	4101.378600	22504.302781
28.038500	0.000991	-0.000006	0.002085	0.000085	6849.889960	41168.549434	4105.056184	22504.458572
28.536000	-0.001187	0.000264	0.000615	0.001356	6820.578099	41081.049367	4098.841893	22447.876849
29.036000	0.000259	0.000567	-0.005749	0.001729	6829.672318	41074.949109	4083.728909	22431.299719
29.537000	0.002739	0.000198	0.002079	0.001760	6850.512506	41040.075250	4101.238996	22429.898924
30.037000	-0.002612	-0.000600	-0.001601	0.000467	6816.040921	41083.246337	4095.844631	22487.449360
30.537000	-0.001113	0.000344	-0.000867	0.001443	6820.468709	41080.487027	4095.299919	22443.993051
31.035000	-0.003160	0.000009	-0.002113	0.003263	6787.877906	40892.827916	4088.417028	22363.253848
31.535000	0.000322	-0.000044	0.001114	0.002873	6820.507643	40922.097297	4096.541858	22380.528461
32.035500	-0.000173	0.000260	-0.003983	0.001431	6828.535676	41074.210822	4088.332732	22444.544641
32.539000	0.000757	-0.000248	-0.001498	0.001332	6837.275636	41038.565535	4094.129211	22448.951631
33.036000	0.000887	-0.000382	-0.002013	0.000864	6842.367078	41067.677060	4094.024017	22469.786045
33.536500	0.000944	0.000065	-0.002788	0.001630	6836.329069	41039.815898	4090.561089	22435.674585
34.039000	0.001537	0.000521	0.004123	-0.000491	6859.475891	41265.104095	4111.022615	22530.169026
34.537000	-0.000056	0.000422	-0.000181	0.002352	6821.727488	41008.065639	4094.798258	22403.646443
35.037000	-0.001308	-0.000890	-0.001072	0.001788	6815.897686	40942.901341	4094.062937	22428.676750
35.535000	-0.001181	0.000134	-0.005318	0.002628	6809.877118	40958.941678	4082.687183	22391.391450
36.034500	0.001131	-0.000258	-0.004401	0.002956	6826.660527	40896.297405	4083.996377	22376.842891
36.534500	-0.000829	0.000006	-0.002050	0.003096	6808.903821	40907.124198	4088.933940	22370.671158
37.036500	-0.001935	0.001262	0.001741	0.003448	6796.615395	40985.691254	4096.658843	22355.065780
37.535500	-0.003022	-0.000464	-0.004574	0.002340	6796.787732	40931.946190	4084.983018	22404.166902
38.038500	-0.001734	0.000433	-0.001091	0.002895	6802.956624	40961.655888	4091.530672	22379.546659
38.536500	0.000118	-0.000320	-0.000329	0.002501	6821.929272	40930.438818	4094.129434	22397.016344
39.036500	-0.000434	-0.000194	-0.002068	0.002538	6816.947270	40938.207050	4090.142071	22395.380769
39.536500	-0.001324	-0.000278	0.003201	0.002668	6808.330831	40919.663277	4101.725785	22389.633596
40.037500	-0.002118	0.000260	-0.005143	0.002968	6799.111164	40940.326053	4082.319498	22376.324151
40.538000	-0.000489	-0.000000	-0.001656	0.002585	6816.086476	40950.973860	4090.960414	22393.313781
41.035000	-0.001706	0.000089	-0.002521	0.002850	6803.571463	40935.653223	4088.427924	22381.546810
41.535500	-0.002803	-0.000594	-0.003606	0.002210	6799.731537	40931.965801	4087.435120	22409.937866
42.035500	0.000119	0.000251	-0.001206	0.002184	6824.631272	41007.811615	4092.871934	22411.107195
42.535500	-0.001189	0.000392	-0.001537	0.002925	6807.302641	40955.511941	4090.464089	22378.234934
43.036500	-0.002611	0.000167	-0.006020	0.002501	6798.895744	40972.834850	4081.409405	22397.034033
43.536500	-0.003254	-0.000019	0.000857	0.001997	6797.726542	41000.477987	4097.938876	22419.377261
44.037000	-0.002509	0.000041	-0.000117	0.002456	6800.127002	40965.754697	4094.705992	22399.001365
44.537000	0.001569	0.001242	0.005452	-0.001116	6865.105737	41383.351398	4115.504650	22558.102710
45.034500	0.000115	0.000680	-0.002087	0.002131	6825.042647	41049.737264	4091.010299	22413.430051
45.534500	-0.002122	0.000033	-0.001599	0.001443	6811.945208	41053.405827	4093.653164	22444.025297
46.035500	-0.003698	0.000818	-0.008253	0.007739	6746.049847	40575.685830	4064.959428	22166.109534
46.538000	0.000854	-0.000137	-0.002067	0.001319	6838.217065	41049.355139	4092.879973	22449.531465
47.035500	-0.001022	0.000154	-0.001638	0.001438	6821.274907	41064.309433	4093.575633	22444.212007
47.536000	-0.001157	-0.000309	0.003067	0.000949	6824.272962	41066.566444	4105.324186	22465.959278
48.036000	-0.003886	-0.000590	0.002165	0.004218	6773.801784	40758.182026	4095.880023	22321.037884
48.536500	-0.001368	-0.000043	0.002324	0.001586	6817.097027	41034.258845	4102.188525	22437.637976
49.037000	-0.000575	0.000123	-0.000905	0.001563	6824.011690	41050.757224	4094.945298	22438.675518
49.537500	-0.000526	0.000765	-0.003628	0.001911	6821.478963	41076.338212	4088.053834	22423.210588
50.037500	-0.005376	-0.000565	-0.001530	0.005726	6748.839201	40630.048275	4084.222824	22254.546431
50.535000	-0.000317	0.000804	-0.002102	0.000236	6837.468230	41226.281776	4095.236503	22497.752846
51.038000	0.003503	0.000606	-0.003541	-0.002896	6897.062630	41484.202586	4099.058133	22637.865343
51.538500	-0.033689	-0.002014	0.016747	0.231347	5152.893580	25379.651870	3717.046541	14508.049174
52.036000	-0.046528	-0.005723	-0.017475	0.016035	6346.027902	39319.576330	4027.485637	21806.069927
52.536500	-0.052760	-0.041895	-0.028578	-0.236552	8790.457359	62666.605108	4704.648413	36534.662384
53.036000	-0.032254	-0.166034	-0.013607	-0.381141	11401.908531	65535.000000	5409.525428	49728.605493
53.537000	-0.039952	-0.162096	-0.007788	-0.377204	11183.608946	65535.000000	5419.477259	49308.086647
54.037000	-0.047369	-0.121488	-0.017812	-0.336596	10341.973072	65535.000000	5166.102481	45186.563737
54.534500	-0.037365	-0.118885	-0.009277	-0.333993	10465.681213	65535.000000	5194.279529	44935.281871
55.034500	-0.030258	-0.086323	-0.008245	-0.301417	10048.667306	65533.065678	5048.756971	41914.737767
55.535500	-0.021584	-0.087909	-0.008474	-0.303016	10213.932204	65535.000000	5054.860440	42057.790103
56.035000	-0.012121	-0.073759	-0.010433	-0.287695	10119.211311	65367.013222	4979.269544	40708.636465
56.536000	-0.010146	-0.048508	-0.005665	-0.252870	9611.072260	64010.942872	4854.741812	37813.412522
57.036000	-0.006991	-0.031520	-0.006029	-0.224291	9243.356279	62408.740108	4742.704340	35604.917645
57.536500	-0.005525	-0.019366	-0.008677	-0.197104	8892.623613	60393.632480	4634.775794	33634.742107
58.036500	-0.004585	-0.007017	-0.011972	-0.142038	8219.019658	55033.536490	4443.928606	30002.833332
58.537000	-0.006983	-0.005541	-0.008624	-0.114264	7878.409549	51986.518550	4371.357075	28338.423738
59.037000	-0.006449	-0.005126	-0.002729	-0.120874	7956.930943	52782.481196	4407.997650	28724.932644
59.534500	-0.001863	-0.003222	-0.006991	-0.104734	7830.587899	51182.822133	4348.755911	27791.461062
60.035000	-0.006836	-0.001634	-0.005449	-0.074080	7461.472917	48074.935414	4268.893970	26111.178009
60.535500	-0.002972	0.000002	-0.003290	-0.072888	7488.120576	48120.885567	4271.461404	26048.212577
61.035500	-0.004525	0.000396	-0.006719	-0.063382	7378.899586	47187.790717	4237.585548	25552.188888
61.535500	-0.004879	0.001351	-0.004592	-0.049269	7240.158824	45874.305823	4207.081199	24835.456415
62.036000	-0.006182	0.003176	-0.006558	-0.038466	7127.552713	45000.629124	4175.498614	24302.348998
62.536500	0.005219	0.006728	-0.001756	-0.047768	7322.044786	46257.067282	4210.435870	24760.571954
63.036500	0.005718	0.006761	-0.005725	-0.047382	7323.128857	46222.069973	4199.525335	24741.358649
63.537000	0.008878	0.007334	-0.001236	-0.043669	7317.820808	45911.946828	4201.463985	24557.456607
64.043500	0.009417	0.007582	0.002732	-0.038851	7276.895589	45464.603294	4199.342387	24321.114438
64.540500	0.009005	0.007491	-0.000985	-0.033125	7218.892834	44901.964377	4176.063380	24043.631477
65.038000	0.005805	0.008076	-0.001441	-0.029071	7151.399653	44569.915788	4165.122652	23849.375989
65.535500	0.003699	0.008060	0.000186	-0.025802	7102.108595	44258.048936	4161.166171	23694.063689
66.036000	0.007159	0.008386	0.001755	-0.022364	7102.310330	43964.658034	4156.681880	23531.953950
66.536000	0.008036	0.008007	-0.003477	-0.018893	7078.738299	43604.726292	4136.055671	23369.608741
67.036500	0.008475	0.008357	-0.002866	-0.014677	7044.660943	43246.409680	4127.631200	23174.111856
67.537000	0.006060	0.009835	0.002624	-0.009873	6980.362563	42940.643213	4129.229567	22953.686910
68.037000	0.007052	0.009362	-0.000388	-0.007802	6970.844420	42708.400492	4117.451786	22859.421652
68.538000	0.006802	0.009617	0.002531	-0.005274	6946.438176	42502.010014	4118.350895	22744.928584
69.034500	0.008818	0.009704	0.004999	-0.002746	6941.966513	42281.682638	4118.213167	22631.140186
69.537500	0.008421	0.008765	0.002999	-0.002003	6932.004880	42130.482266	4111.910536	22597.812508
70.035500	0.002036	0.009135	0.001463	0.004878	6818.048930	41550.832014	4092.814165	22291.888098
70.535500	0.005926	0.009735	0.004365	0.000822	6885.887525	41964.435486	4108.571942	22471.617175
71.035500	0.007824	0.010423	0.007553	0.002982	6883.635439	41833.249948	4110.923136	22375.712613
71.536500	0.007688	0.010117	0.006014	0.003343	6879.354690	41773.859868	4106.584612	22359.721451
72.036000	0.006016	0.011067	0.004102	0.008517	6820.938830	41400.288190	4090.568973	22132.063377
72.537000	0.007492	0.011082	0.013896	0.005799	6856.609608	41641.565399	4119.026036	22251.315621
73.037000	0.009824	0.011452	0.009459	0.007009	6866.216538	41567.280185	4106.081368	22198.133308
73.534500	0.011443	0.011775	0.008220	0.007906	6872.416311	41516.568651	4101.228858	22158.812816
74.037500	0.008367	0.011352	0.008827	0.011597	6814.762823	41155.044869	4094.264976	21997.811250
74.538000	0.013918	0.011538	0.010196	0.009057	6883.789889	41394.163085	4103.099134	22108.436400
75.035500	0.012663	0.012730	0.012654	0.010962	6856.686932	41331.535254	4104.358132	22025.434771
75.535500	0.012071	0.012316	0.008555	0.011350	6848.319265	41261.145216	4094.208996	22008.561072
76.035500	0.011902	0.012246	0.010789	0.011910	6842.099828	41205.963991	4097.981928	21984.239445
76.536000	0.012730	0.012791	0.010538	0.013045	6839.486763	41154.307242	4094.855666	21935.041639
77.036000	0.012007	0.013074	0.009580	0.013708	6827.717917	41121.117361	4091.213611	21906.372848
77.537000	0.014635	0.013848	0.010635	0.015004	6839.035022	41075.525419	4090.674682	21850.447876
78.037000	0.014820	0.014179	0.011809	0.015369	6837.495850	41072.500495	4092.487413	21834.692427
78.534500	0.013205	0.013630	0.011742	0.015030	6826.660774	41054.199082	4093.099207	21849.313298
79.035000	0.013833	0.013777	0.011606	0.014697	6834.815145	41096.111273	4093.540689	21863.654327
79.535000	0.013502	0.014406	0.013675	0.015584	6824.486258	41073.583554	4096.203383	21825.454007
80.035500	0.014574	0.014724	0.013039	0.015056	6838.060539	41147.409463	4095.959809	21848.172037
80.535500	0.015498	0.015449	0.016658	0.017492	6825.229362	40998.159983	4098.630163	21743.537777
81.036500	0.012817	0.014586	0.012678	0.017810	6799.900464	40895.441802	4088.963617	21729.911913
81.536000	0.013978	0.015112	0.018053	0.019058	6799.156917	40832.768231	4098.243164	21676.535765
82.037000	0.015713	0.014799	0.018368	0.019105	6813.393616	40801.571816	4098.850311	21674.543557
82.536500	0.013077	0.014507	0.014734	0.019362	6789.041228	40754.111288	4090.093528	21663.602749
83.037000	0.012450	0.013547	0.012526	0.018991	6786.889786	40703.087521	4085.984911	21679.403833
83.534500	0.013725	0.013653	0.012721	0.020175	6787.649441	40610.070025	4083.781274	21628.935789
84.035000	0.011776	0.013894	0.016948	0.020369	6769.723660	40614.141551	4092.800256	21620.688253
84.535000	0.012233	0.013315	0.013154	0.020683	6770.911488	40537.286708	4083.612974	21607.314256
85.035500	0.010523	0.014230	0.020291	0.021558	6749.393169	40540.722890	4097.653300	21570.142871
85.536000	0.015253	0.014839	0.018495	0.022504	6780.937550	40511.744666	4091.480631	21530.026926
86.036000	0.014801	0.015781	0.014873	0.024102	6763.813519	40455.303410	4079.837254	21462.469078
86.536500	0.013849	0.014582	0.020346	0.023307	6762.506468	40420.653106	4093.834614	21496.053716
87.036500	0.012606	0.014292	0.020107	0.023917	6747.101753	40343.593019	4091.926468	21470.287279
87.537500	0.011642	0.014955	0.018851	0.024374	6735.328064	40361.227301	4088.090723	21451.015646
88.040500	0.009275	0.014118	0.016256	0.027173	6692.859523	40051.203858	4076.102796	21333.333340
88.535000	0.012545	0.015197	0.017053	0.025538	6733.165061	40282.367860	4081.488451	21401.969027
89.035500	0.013663	0.014602	0.023126	0.026196	6736.976973	40175.444686	4093.589524	21374.324152
89.535000	0.009912	0.013841	0.019464	0.026403	6704.372187	40093.068002	4084.928020	21365.615960
90.036000	0.009984	0.014297	0.023763	0.029246	6681.729183	39890.702137	4088.177877	21246.675835
90.536500	0.011111	0.014105	0.017923	0.027474	6705.427107	40024.518571	4079.125379	21320.737349
91.036500	0.011141	0.014806	0.013125	0.028862	6694.309810	39966.228119	4065.516913	21262.695753
91.537000	0.012006	0.014934	0.023497	0.029405	6696.941996	39931.171282	4087.230758	21240.078274
92.037000	0.011988	0.014686	0.024003	0.029226	6698.259176	39925.312103	4088.760907	21247.540713
92.540000	0.009697	0.013355	0.022088	0.029226	6679.556397	39812.884446	4084.483234	21247.514990
93.037500	0.010906	0.014425	0.021483	0.030667	6677.675269	39781.596385	4079.937869	21187.539094
93.535500	0.013683	0.014723	0.014842	0.031059	6697.127821	39773.637466	4064.469197	21171.241617
94.035000	0.010399	0.013728	0.015931	0.030706	6673.232214	39719.571159	4067.619351	21185.899669
94.536000	0.012206	0.014926	0.022252	0.032388	6674.247755	39678.867364	4077.829871	21116.143053
95.036000	0.006901	0.014116	0.021991	0.032324	6631.906144	39616.293898	4077.393881	21118.796770
95.535500	0.010386	0.014587	0.023379	0.032965	6654.819314	39601.996938	4079.046799	21092.286473
96.036500	0.010977	0.014632	0.021568	0.033666	6653.921365	39546.923838	4073.496373	21063.288531
96.537000	0.012113	0.015591	0.025599	0.034921	6652.968128	39522.220956	4079.631997	21011.597290
