sample name	sample
index	27
start time	 02-11-2021  12:30:44 PM
880	-0.050460
Peak Time (s)	81.535
Peak Height 	-0.05046
calc peak height	80,83
Baseline Time (s)	11.537
Baseline Value 	-9.0815E-4
subtract baseline	10,4
Abs	-0.026998
Peak Time (s)	80.535
Peak Height 	-0.027
calc peak height	80,83
Baseline Time (s)	9.036
Baseline Value 	0.008551
subtract baseline	10,3
PK_550	0.000380
Peak Time (s)	81.535
Peak Height 	3.7982E-4
calc peak height	80,83
Baseline Time (s)	9.536
Baseline Value 	-2.1096E-4
subtract baseline	10,2
PK_880	-0.022494
Peak Time (s)	81.535
Peak Height 	-0.02249
calc peak height	80,83
Baseline Time (s)	11.036
Baseline Value 	2.1786E-4
subtract baseline	10,1


Time (s)	A880-A510	A880-A775	A880-A975	A880	I510	I775	I975	I880	
0.035500	-0.000375	0.000893	0.007075	0.000242	4411.492188	18540.439401	3240.411185	10005.155911
0.536000	-0.003107	0.001536	-0.005789	0.004274	4388.544334	18419.419788	3227.087314	9939.654563
1.036000	0.002130	-0.000250	-0.001575	0.000955	4417.633807	18474.078976	3232.963441	9993.538263
1.536500	0.001127	-0.000803	-0.002476	-0.001915	4424.056807	18557.006409	3234.516209	10040.455831
2.040000	0.001748	0.000921	0.010679	-0.001365	4424.302317	18599.238359	3244.626648	10031.447222
2.537500	-0.001099	-0.000444	-0.016887	0.001604	4404.378359	18443.969812	3220.631032	9982.960020
3.037500	-0.000944	-0.000509	-0.003590	0.001072	4406.717306	18460.640622	3231.289712	9991.623631
3.535000	-0.000933	0.000095	-0.002431	0.001832	4404.166990	18455.080237	3231.602262	9979.256341
4.035000	0.001603	0.000204	0.016637	0.001979	4412.316963	18453.706863	3246.760552	9976.866947
4.535000	-0.001702	0.000765	-0.015800	0.002565	4399.063640	18452.785048	3220.726447	9967.335419
5.036000	0.003961	-0.000564	0.006367	0.001531	4421.949882	18442.289807	3238.808979	9984.152835
5.536000	0.002130	0.001276	0.000313	-0.000821	4423.745830	18592.441233	3235.858969	10022.542003
6.036000	0.001445	-0.000206	-0.003653	-0.001474	4423.632240	18562.600943	3233.239928	10033.226041
6.539500	0.001822	0.000085	-0.008606	0.001888	4413.376676	18452.700728	3226.752902	9978.337168
7.038500	0.002534	0.001068	0.000003	-0.000572	4424.280084	18575.982314	3235.415766	10018.466318
7.537000	0.001461	0.000254	-0.008334	-0.001703	4424.477075	18587.380638	3229.751213	10036.980075
8.034500	0.004144	0.001106	0.002270	-0.000436	4429.370439	18572.476460	3237.109257	10016.243782
8.535000	0.004390	0.000300	0.004379	-0.001301	4433.220000	18574.546098	3239.485101	10030.387905
9.035500	0.004361	-0.000211	0.000000	-0.002883	4438.619108	18613.143158	3237.249979	10056.365623
9.536000	-0.003260	0.000000	-0.000279	0.000155	4401.956604	18511.593418	3234.616806	10006.583537
10.035500	0.001218	-0.001290	-0.002833	-0.001083	4421.501698	18509.720638	3233.577421	10026.818687
10.536000	-0.002754	-0.000700	0.007377	0.000269	4403.290237	18482.475960	3240.632296	10004.722330
11.036000	0.000000	0.002279	0.004472	0.002294	4405.770146	18516.594320	3236.688587	9971.743493
11.537000	-0.000745	0.000213	-0.011190	0.000000	4411.056356	18524.785327	3226.216538	10009.114312
12.037000	0.001274	-0.000023	-0.010143	0.000935	4414.765152	18482.853251	3226.302331	9993.855462
12.534500	0.001602	0.000736	-0.007836	0.001019	4415.601440	18507.019447	3228.022349	9992.492358
13.035000	-0.001779	0.001401	-0.002234	0.001331	4402.994774	18519.642719	3232.149901	9987.407589
13.535000	0.002810	0.000909	-0.000937	0.001058	4419.619038	18511.813897	3233.385230	9991.860817
14.035500	-0.000229	0.001168	0.002831	0.001678	4407.087227	18498.876395	3235.873996	9981.758689
14.535500	-0.001036	-0.000370	-0.001897	0.000206	4409.357940	18496.529534	3233.299729	10005.750936
15.036000	-0.000265	0.000055	-0.001162	0.000917	4409.564320	18486.297655	3233.318819	9994.151695
15.536500	0.003069	-0.000405	-0.007640	0.000336	4422.993487	18490.647686	3228.704926	10003.636358
16.039500	0.000955	-0.000139	-0.002069	0.000513	4415.118917	18493.790915	3232.921818	10000.732615
16.537000	0.001532	0.000264	-0.000754	0.001788	4412.730314	18462.687482	3232.954421	9979.976532
17.034500	0.000659	0.000160	0.010181	0.000620	4413.740470	18500.697886	3242.612189	9999.002347
17.537500	-0.002851	-0.001011	-0.009509	-0.000193	4404.531377	18487.852616	3227.664560	10012.261979
18.051500	0.001023	0.000227	-0.016509	0.001557	4411.779103	18469.599836	3220.954323	9983.736279
18.535500	0.002378	-0.000848	0.006454	-0.000209	4422.490213	18494.268018	3240.274439	10012.524583
19.038500	0.003376	-0.001003	-0.007068	-0.001272	4429.606018	18526.764986	3230.403219	10029.919550
19.536000	0.002757	0.000610	-0.000815	-0.002641	4432.203322	18633.993399	3236.408949	10052.384575
20.038500	-0.000605	-0.001097	-0.000234	-0.001400	4416.330461	18528.006158	3235.884290	10032.017432
20.537000	0.000733	0.001529	-0.002871	0.006595	4393.668336	18336.784062	3227.549159	9902.218740
21.037000	0.002032	0.001551	-0.004291	0.000190	4419.925173	18565.936343	3231.431037	10006.005208
21.534500	0.002132	0.000390	-0.009239	-0.001095	4424.698573	18570.429509	3228.574498	10027.029401
22.037000	0.001996	0.000517	0.000953	-0.000866	4423.437373	18566.717532	3236.402787	10023.266164
22.537500	0.003806	-0.000097	-0.005004	0.003636	4414.189346	18384.051284	3228.189288	9949.982146
23.035500	-0.000701	-0.000214	-0.008610	0.001535	4405.967631	18454.665647	3227.023606	9984.092613
23.535500	0.001502	-0.000289	0.008242	-0.001618	4424.326330	18564.796705	3242.853819	10035.583580
24.044000	0.001365	-0.002038	-0.016872	-0.001182	4422.351919	18486.507166	3222.762768	10028.448908
24.536000	-0.003525	-0.001208	-0.007827	0.002638	4392.650225	18380.040788	3226.776123	9966.161492
25.036500	0.001942	0.000402	0.000398	-0.000302	4421.309647	18542.379399	3235.514418	10014.048467
25.539500	0.003530	0.000150	0.002714	-0.002695	4435.073113	18619.355331	3239.268638	10053.272763
26.036500	-0.002290	-0.000699	0.004178	0.001501	4400.679346	18438.541464	3237.085364	9984.632471
26.537000	-0.001512	0.000119	0.006446	0.002774	4399.002868	18422.391171	3237.879366	9963.958447
27.035000	0.001834	0.000792	-0.003542	0.001857	4413.528607	18479.058180	3230.713446	9978.853892
27.534500	-0.001795	-0.001193	0.006376	0.000465	4405.888084	18457.913357	3239.670820	10001.531136
28.035500	0.005185	0.001242	-0.011239	0.002390	4423.208315	18476.081047	3224.340479	9970.187997
28.535500	-0.002514	-0.002242	0.003728	0.000396	4403.676462	18422.967848	3237.608129	10002.654258
29.035500	0.002658	0.000008	-0.010024	0.001444	4417.769878	18465.826792	3226.002106	9985.574206
29.536000	-0.000106	0.000724	-0.009522	0.001886	4406.799867	18475.578877	3226.047860	9978.371789
30.039000	-0.001578	-0.000692	-0.000925	0.000985	4404.855348	18457.198984	3233.451795	9993.043948
30.536500	-0.000109	-0.000562	0.006724	0.001078	4409.545742	18458.505615	3239.457593	9991.523463
31.038000	0.004361	-0.000523	-0.008493	0.001014	4425.109355	18462.186611	3227.516780	9992.572255
31.537000	0.002300	0.001208	0.007481	0.002020	4414.564356	18488.099554	3239.309813	9976.203007
32.035000	0.000340	-0.000078	-0.001852	0.001474	4409.726330	18461.651903	3232.337582	9985.079982
32.534500	-0.001987	-0.001792	-0.006767	0.001430	4401.951959	18402.202147	3228.533477	9985.803060
33.035000	0.002663	0.000938	-0.001158	0.002628	4413.722782	18456.735394	3231.976197	9966.318964
33.535000	0.003703	0.000391	0.010360	0.000664	4424.050285	18507.396281	3242.721582	9998.283844
34.036000	0.004185	0.000136	-0.004117	0.001713	4422.093710	18460.776396	3230.376624	9981.190946
34.536000	0.002834	0.000941	0.015072	0.001496	4418.190689	18497.281425	3245.875420	9984.715553
35.036500	0.002821	-0.000348	-0.002494	0.001031	4419.747846	18467.850031	3232.181006	9992.294185
35.536500	-0.001186	-0.000743	-0.001255	-0.000442	4411.058382	18506.360006	3234.317407	10016.335197
36.037000	0.002495	-0.000981	0.003062	-0.000725	4424.670361	18507.969423	3237.970272	10020.958408
36.537500	-0.004442	-0.002232	-0.000282	0.002891	4388.706838	18334.769723	3232.457872	9962.059006
37.035000	0.000195	0.000815	0.001841	-0.000748	4416.836107	18573.215314	3237.015562	10021.343711
37.535000	0.003713	0.001224	-0.001841	-0.000484	4428.047626	18578.451729	3233.887648	10017.028404
38.035500	0.001716	-0.000118	0.012011	0.000020	4419.421503	18512.187910	3244.582994	10008.782342
38.536000	0.000310	-0.000879	-0.006330	0.004333	4399.892072	18331.610545	3226.622697	9938.693848
39.036500	0.001004	0.000150	0.011803	0.000265	4416.140140	18513.022804	3244.215377	10004.794704
39.539000	-0.001244	-0.000106	0.011556	0.002209	4401.827351	18434.466130	3242.438932	9973.125790
40.037000	-0.000038	0.000348	0.008839	0.003546	4401.383219	18403.053777	3239.175477	9951.432181
40.539000	0.002040	-0.000798	-0.004394	0.005087	4403.207972	18307.822319	3227.537437	9926.518172
41.039500	0.003484	0.000225	0.002821	-0.000498	4427.304325	18543.051438	3237.597387	10017.255753
41.537500	0.005122	-0.000530	0.006946	-0.001519	4436.519002	18552.584105	3241.725921	10033.966204
42.036000	0.001064	0.000410	-0.016000	-0.001443	4422.214217	18583.636287	3223.629343	10032.725379
42.536000	0.001661	0.002725	0.009633	-0.003119	4430.062503	18727.821802	3245.203360	10060.244821
43.036000	0.006898	-0.001241	-0.003604	0.021803	4363.434168	17713.448853	3215.426896	9661.795081
43.536000	-0.037842	-0.015910	-0.015982	0.216521	3754.401477	12071.751457	3092.460866	7224.289223
44.036500	-0.042205	-0.027706	-0.017675	0.096370	4007.352296	14652.355915	3155.571176	8597.497828
44.536500	-0.050188	-0.024942	-0.013469	-0.078180	4512.611674	20545.353365	3290.192753	11408.185611
45.054000	-0.043163	-0.021796	-0.014721	-0.192805	5025.359446	26021.700812	3409.206432	13973.264342
45.993500	-0.042373	-0.013437	-0.022466	-0.168271	4913.690663	25178.785064	3372.102961	13365.921456
46.534500	-0.035568	-0.011716	-0.021034	-0.154252	4880.953018	24558.556921	3358.364892	13033.977458
46.629500	-0.036022	-0.012174	-0.027967	-0.147894	4850.538805	24222.302149	3344.284975	12886.931825
47.035500	-0.033420	-0.008076	-0.027858	-0.133759	4800.115504	23736.642093	3329.886122	12567.615705
47.535000	-0.039866	-0.009621	-0.023011	-0.119173	4711.539934	22979.305457	3320.157881	12248.835952
48.035500	-0.036659	-0.007232	-0.034845	-0.112900	4698.982480	22801.121114	3302.641544	12114.994662
48.536000	-0.037232	-0.004837	-0.033500	-0.099701	4643.662553	22313.798155	3291.564294	11839.637169
49.039000	-0.029062	-0.002551	-0.022591	-0.087749	4628.770006	21887.887564	3290.603800	11597.385268
49.536500	-0.029297	-0.001884	-0.035184	-0.085579	4619.367380	21822.471146	3277.254470	11554.108330
50.036500	-0.018471	-0.001187	-0.032870	-0.077144	4628.715014	21489.477396	3271.851911	11387.950011
50.534500	-0.022938	-0.001467	-0.028511	-0.074284	4600.239293	21356.029776	3273.168007	11332.346843
51.037500	-0.021663	-0.000632	-0.037403	-0.074507	4606.018847	21400.876747	3265.619064	11336.661066
51.535500	-0.018019	0.001153	-0.029681	-0.077498	4631.877649	21604.729548	3274.969910	11394.856852
52.035500	-0.014711	0.000391	-0.025982	-0.075917	4638.673387	21504.473823	3276.846125	11364.047071
52.541000	-0.017183	0.001245	-0.039228	-0.077574	4635.461393	21611.961973	3266.692032	11396.344761
53.036000	-0.020057	0.002141	-0.028469	-0.077595	4624.274232	21651.408595	3276.129430	11396.768207
53.536000	-0.021469	0.001382	-0.026986	-0.078154	4620.942225	21642.794574	3277.942608	11407.680947
54.036500	-0.018170	0.002098	-0.024775	-0.076702	4628.164407	21611.158757	3278.619780	11379.340513
54.536500	-0.021436	0.000768	-0.022016	-0.072107	4597.640211	21358.495272	3276.985643	11290.267623
55.037000	-0.019460	0.002103	-0.032064	-0.073553	4610.860727	21476.678049	3269.419192	11318.192761
55.535000	-0.019347	0.001949	-0.024632	-0.072087	4605.621010	21407.715383	3274.650526	11289.874590
56.035000	-0.021459	0.001172	-0.030144	-0.070153	4590.050233	21292.983895	3268.132549	11252.669156
56.535000	-0.021980	0.000823	-0.041480	-0.065671	4570.996456	21090.225394	3254.651362	11167.077766
57.035500	-0.020598	0.002529	-0.023489	-0.066372	4578.902599	21190.959138	3270.635449	11180.408535
57.536000	-0.023440	-0.000082	-0.027708	-0.066683	4569.300165	21094.690710	3267.236366	11186.328135
58.036000	-0.022686	0.000855	-0.035849	-0.062482	4556.313648	20958.953797	3256.700300	11106.708082
58.539000	-0.023939	0.000299	-0.022411	-0.061700	4548.691406	20903.608362	3267.508120	11091.966620
59.037000	-0.023101	0.001938	-0.029906	-0.062069	4553.209166	20986.738402	3261.384218	11098.922463
59.536500	-0.023692	-0.000060	-0.038689	-0.062865	4553.977270	20936.954359	3254.639192	11113.939376
60.037000	-0.024444	0.000036	-0.017817	-0.060370	4541.854313	20837.885715	3270.346636	11066.962097
60.534500	-0.025242	0.000601	-0.035864	-0.058606	4532.350449	20788.631712	3253.440597	11033.922740
61.035000	-0.026785	-0.000534	-0.038869	-0.062125	4539.678019	20886.774861	3253.869685	11099.982444
61.535500	-0.023296	-0.002467	-0.029255	-0.062651	4554.655302	20828.758263	3262.436668	11109.886223
62.035500	-0.023363	-0.003144	-0.034179	-0.060077	4544.787792	20695.569703	3256.082033	11061.467088
62.536000	-0.029960	-0.004656	-0.019285	-0.059968	4519.993840	20629.510030	3268.718059	11059.433187
63.039000	-0.025312	-0.001813	-0.026659	-0.061473	4542.725088	20807.225711	3263.650135	11087.689515
63.536000	-0.025185	-0.002179	-0.032998	-0.061767	4544.296425	20804.288093	3258.502805	11093.234520
64.036500	-0.026103	-0.001830	-0.021715	-0.059777	4533.497368	20736.990142	3266.446495	11055.836626
64.537000	-0.027805	-0.002368	-0.030896	-0.058989	4524.309866	20682.836878	3257.931497	11041.087732
65.037500	-0.025175	-0.001256	-0.030895	-0.062654	4547.638610	20878.789940	3261.039357	11109.941749
65.535000	-0.022821	-0.001303	-0.041034	-0.062922	4557.455378	20887.894522	3252.729238	11115.005552
66.035000	-0.026256	-0.001651	-0.040442	-0.060904	4537.104630	20790.504711	3251.543123	11076.989956
66.535500	-0.027807	-0.001344	-0.035402	-0.060474	4529.776566	20785.500989	3255.389385	11068.925220
67.035500	-0.027540	-0.001058	-0.028702	-0.062578	4538.555262	20883.811387	3262.847423	11108.513702
67.535500	-0.025823	-0.000836	-0.034041	-0.062773	4545.666472	20901.029266	3258.471252	11112.187029
68.036000	-0.026878	-0.000174	-0.026976	-0.059909	4531.121562	20810.322450	3262.040803	11058.314098
68.536500	-0.024929	-0.001653	-0.027503	-0.061313	4543.558954	20807.260080	3262.790772	11084.686475
69.037000	-0.025585	-0.001294	-0.027072	-0.061108	4540.355804	20813.565527	3262.983790	11080.826950
69.537000	-0.026122	0.000038	-0.040496	-0.059863	4533.748462	20817.139808	3250.636422	11057.462395
70.037500	-0.027687	-0.001695	-0.028388	-0.058410	4522.614267	20686.633341	3259.563604	11030.255821
70.534500	-0.025326	-0.000615	-0.030770	-0.058859	4532.977591	20749.167293	3257.927590	11038.649579
71.035500	-0.024187	-0.000430	-0.025344	-0.058790	4536.940396	20753.926073	3262.480098	11037.375033
71.535500	-0.019341	-0.000395	-0.026647	-0.058301	4553.176656	20735.309441	3260.950328	11028.224837
72.036000	-0.026131	-0.000633	-0.030847	-0.056648	4521.857774	20658.106439	3256.000663	10997.405098
72.538500	-0.024637	-0.000378	-0.025617	-0.057974	4532.254696	20722.673828	3261.549281	11022.124004
73.036500	-0.021635	0.001154	-0.026195	-0.057124	4540.225663	20750.537115	3260.333713	11006.262880
73.536000	-0.019587	0.000599	-0.022757	-0.057498	4549.253970	20743.145991	3263.587925	11013.246158
74.037000	-0.026443	-0.000501	-0.043195	-0.058003	4525.695823	20718.814084	3246.883631	11022.669246
74.534000	-0.027669	-0.000649	-0.028697	-0.056037	4513.985328	20632.605377	3257.296326	10986.046381
75.037500	-0.021285	0.000289	-0.031877	-0.056435	4538.967971	20687.034345	3254.957750	10993.437493
75.535000	-0.023910	0.000267	-0.032831	-0.056520	4529.568210	20689.614777	3254.231518	10995.024967
76.035500	-0.021559	-0.000596	-0.050147	-0.056353	4537.648617	20647.619419	3239.906890	10991.913067
76.535000	-0.023283	0.000301	-0.038647	-0.054845	4525.701900	20622.742806	3248.023165	10963.924576
77.036000	-0.023638	0.000721	-0.032840	-0.055003	4524.979894	20646.307642	3252.957871	10966.861741
77.536500	-0.023769	0.001431	-0.023623	-0.054154	4521.375498	20640.642318	3259.995618	10951.136247
78.036500	-0.025863	-0.001639	-0.044384	-0.056238	4521.336960	20600.523256	3244.472171	10989.778127
78.537000	-0.026790	-0.001850	-0.025964	-0.054764	4512.542799	20532.218255	3258.528574	10962.418350
79.037000	-0.022549	-0.001369	-0.031498	-0.054857	4528.453753	20555.453444	3253.955186	10964.147655
79.535000	-0.024763	0.001002	-0.028795	-0.052774	4512.680451	20567.175977	3254.474421	10925.646345
80.035000	-0.026465	-0.000168	-0.035408	-0.052802	4506.579693	20520.943985	3249.007397	10926.159762
80.535500	-0.029085	-0.000476	-0.026998	-0.052460	4495.837752	20494.648350	3255.716584	10919.848244
81.036000	-0.026308	-0.001102	-0.035489	-0.053813	4510.831586	20524.021919	3249.773823	10944.818023
81.535500	-0.022494	0.000380	-0.031220	-0.050460	4512.516217	20448.549313	3250.531315	10883.077354
82.036000	-0.025538	-0.000802	-0.037201	-0.051491	4505.179852	20442.463594	3246.459053	10902.003245
82.536500	-0.027180	-0.001618	-0.031960	-0.050740	4496.503926	20379.487531	3250.150839	10888.203335
83.036500	-0.026625	-0.001816	-0.027606	-0.050402	4497.291546	20358.044024	3253.485680	10882.014997
83.537000	-0.027850	-0.000505	-0.035646	-0.049675	4490.245456	20381.420608	3246.245379	10868.680524
84.037000	-0.023869	-0.001060	-0.027646	-0.048973	4502.095629	20331.106745	3252.262297	10855.833722
84.537000	-0.030938	-0.001848	-0.041452	-0.047708	4472.149808	20249.208171	3239.947463	10832.737996
