sample name	sample
index	450
start time	 03-11-2021  11:10:44 AM
880	0.048440
Peak Time (s)	92.537
Peak Height 	0.04844
calc peak height	90,93
Baseline Time (s)	8.536
Baseline Value 	-0.007247
subtract baseline	10,4
Abs	0.024948
Peak Time (s)	91.538
Peak Height 	0.02495
calc peak height	90,93
Baseline Time (s)	8.536
Baseline Value 	0.005235
subtract baseline	10,3
PK_550	0.015940
Peak Time (s)	91.037
Peak Height 	0.01594
calc peak height	90,93
Baseline Time (s)	10.537
Baseline Value 	4.8704E-4
subtract baseline	10,2
PK_880	0.022855
Peak Time (s)	90.036
Peak Height 	0.02286
calc peak height	90,93
Baseline Time (s)	10.037
Baseline Value 	0.003514
subtract baseline	10,1


Time (s)	A880-A510	A880-A775	A880-A975	A880	I510	I775	I975	I880	
0.035500	-0.001570	-0.000282	-0.002688	0.002055	7046.528533	45707.364548	3908.064128	24195.995751
0.536500	-0.002345	-0.000334	-0.006360	0.006166	6998.967661	45298.691244	3887.715301	23994.395834
1.036500	-0.004846	-0.000459	-0.004278	0.008044	6956.786826	45103.268387	3888.241526	23902.904372
1.537500	-0.002340	-0.000390	-0.000038	0.001058	7048.759819	45795.294165	3917.728954	24245.207267
2.034500	0.000151	-0.000069	-0.004897	0.001124	7072.580326	45820.526280	3904.698045	24241.947251
2.537500	0.000415	0.000017	0.001321	0.001346	7072.989033	45807.074724	3920.580467	24230.987554
3.035000	-0.002024	-0.000314	-0.001115	0.005096	7012.456910	45405.245001	3904.197278	24046.665557
3.535500	-0.000432	0.000488	0.000656	0.001372	7064.395173	45851.020865	3918.737010	24229.668879
4.035500	0.000543	0.000243	0.004846	0.000922	7078.430385	45871.249624	3931.158603	24251.891876
4.536500	0.000621	0.000054	-0.001120	0.000957	7078.849912	45849.158322	3915.118847	24250.163113
5.036500	0.000498	0.000405	-0.000193	0.000651	7080.658805	45914.188879	3918.397261	24265.274297
5.536500	-0.000808	-0.000465	0.001322	0.000269	7071.547640	45865.836768	3923.458041	24284.193476
6.036500	-0.000765	0.000039	-0.002923	0.000367	7071.005679	45906.132455	3911.902954	24279.335186
6.537500	0.000082	-0.000045	-0.004942	0.000302	7079.996485	45904.295418	3906.745330	24282.571739
7.035000	-0.000580	-0.000191	-0.005394	0.000165	7074.818479	45903.305744	3905.913009	24289.339186
7.535000	0.000398	0.000392	-0.003026	0.000433	7081.828254	45934.596020	3911.457788	24276.094386
8.035500	-0.001150	-0.000694	-0.002849	-0.000381	7074.579836	45907.545362	3914.082699	24316.368948
8.535500	0.001359	0.000332	0.000000	0.000000	7095.604566	45971.579709	3920.646430	24297.505387
9.038000	0.000269	-0.000122	0.002311	-0.000277	7087.564427	45953.967125	3927.570565	24311.225523
9.536000	0.000249	0.000206	-0.003638	0.000497	7079.722120	45909.735905	3909.668434	24272.893386
10.036500	0.000000	-0.000252	0.000586	0.000034	7081.829687	45910.239449	3922.119102	24295.800355
10.536500	-0.000245	0.000000	-0.003920	0.000574	7074.095782	45881.748454	3908.722366	24269.115683
11.037000	-0.000350	-0.000477	0.000317	-0.000254	7081.218060	45916.514005	3922.170640	24310.086339
11.534500	-0.000790	0.000152	-0.000097	-0.000053	7074.891208	45958.886014	3920.529066	24300.106429
12.035000	-0.000686	-0.000001	0.004820	-0.000034	7075.737773	45941.877976	3933.665858	24299.171972
12.535500	0.001027	0.000931	0.002430	0.000596	7086.426106	45971.907470	3925.547328	24268.019935
13.038500	-0.000575	-0.000015	0.000054	-0.000980	7086.173283	46034.488901	3923.408311	24346.101211
13.535500	-0.002101	-0.000141	0.004541	-0.000848	7069.814885	46008.822365	3935.109749	24339.531694
14.036000	-0.000245	-0.000083	-0.002655	0.002677	7053.427287	45665.782297	3906.513546	24165.396448
14.539500	-0.002066	0.000341	-0.001921	0.002117	7041.081252	45762.845427	3909.926521	24192.962664
15.075000	0.001011	0.000532	-0.002123	-0.000414	7096.262241	46032.591384	3916.097003	24318.001363
15.536500	0.002250	-0.000144	0.001760	-0.000697	7111.361020	45993.563088	3927.219026	24332.048296
16.036500	0.002238	-0.000282	-0.002663	-0.000631	7110.589260	45973.224887	3915.238242	24328.764543
16.537500	0.001181	0.001010	-0.004524	0.000756	7086.372646	45963.834090	3906.649156	24260.118988
17.035500	0.002205	0.000879	0.002051	-0.002661	7130.473494	46291.267363	3933.283885	24429.667690
17.535500	-0.001355	0.000293	0.001907	-0.000004	7068.852557	45968.045949	3925.754392	24297.692761
18.035500	-0.001677	-0.000356	-0.002381	0.000893	7056.879604	45814.933979	3911.947589	24253.343117
18.538500	-0.000965	0.000151	0.000317	0.001913	7053.856400	45764.204849	3916.396935	24202.995335
19.036000	-0.000843	0.000790	-0.000111	0.001794	7056.218322	45839.210881	3915.577990	24208.892519
19.536500	-0.002208	0.000042	-0.002456	0.001517	7045.551679	45792.571733	3910.097746	24222.516848
20.036500	-0.001997	-0.000396	0.000773	0.001069	7052.007783	45793.484502	3919.857385	24244.625417
20.536500	-0.000988	-0.000078	0.001066	0.001577	7056.925357	45774.813177	3919.285319	24219.576948
21.037500	-0.000120	0.000149	-0.001388	0.001323	7067.942947	45822.284123	3913.436632	24232.085258
21.534000	-0.000885	0.000073	0.001994	0.001437	7059.309117	45803.586321	3922.132409	24226.481627
22.035000	-0.000847	0.000308	0.004146	0.001477	7059.291280	45822.861276	3927.787184	24224.506077
22.535000	-0.002402	-0.000192	-0.000981	0.001270	7046.067849	45793.839638	3914.658362	24234.709488
23.035000	0.000847	0.000895	-0.001622	0.002084	7069.972745	45820.812036	3910.804956	24194.579826
23.536000	-0.000918	-0.000006	0.000194	0.001654	7056.851540	45774.230513	3916.758700	24215.773102
24.036500	-0.000179	-0.000462	0.001917	0.001218	7068.395776	45772.246642	3922.513401	24237.284636
24.536000	-0.001399	-0.000060	-0.000368	0.000873	7059.803498	45846.206786	3917.340973	24254.325278
25.037000	-0.001642	0.000819	0.000982	0.001964	7046.716928	45825.214546	3918.029489	24200.476529
25.537000	-0.001180	0.000316	-0.000210	0.001427	7056.519565	45828.574427	3916.290623	24226.995281
26.034500	-0.001418	0.000152	-0.000177	0.001397	7054.469756	45815.306674	3916.454928	24228.458552
26.535000	-0.000092	0.000209	0.001275	0.001011	7071.292643	45859.149012	3921.348614	24247.493455
27.035500	-0.000658	0.000547	-0.000265	0.001349	7062.405791	45859.150935	3916.348547	24230.819404
27.535500	0.002952	0.000584	0.005180	-0.001943	7130.762978	46190.086528	3939.802532	24393.931729
28.039000	0.001720	0.001009	0.000724	0.000202	7097.181436	46018.779639	3922.039609	24287.522437
28.536500	-0.001225	0.000212	-0.002530	0.001918	7051.257614	45769.760107	3908.844824	24202.759233
29.036500	-0.001012	0.000153	0.004267	0.000118	7071.031223	45942.176092	3931.766577	24291.682075
29.539000	0.002121	0.000155	0.001776	0.000044	7102.715183	45949.634434	3925.272871	24295.306552
30.037000	0.001086	0.000627	-0.000787	-0.000192	7094.799257	46019.969448	3919.059475	24307.006953
30.537000	-0.000681	0.000424	0.001624	0.001621	7059.508430	45820.021162	3920.654469	24217.396404
31.039500	-0.000077	0.000125	0.002202	0.001858	7063.108133	45767.026561	3921.563269	24205.713027
31.535000	0.001044	0.000332	-0.002802	-0.000513	7097.569342	46022.579086	3914.559193	24322.941353
32.035500	0.000849	0.001185	0.004659	0.000142	7089.157257	46042.290861	3932.758331	24290.493926
32.538000	-0.003117	-0.000312	0.001648	0.002638	7025.729996	45646.962600	3918.009125	24167.276124
33.036000	0.000577	0.000422	0.003000	-0.000015	7088.016514	45981.920884	3928.715814	24298.224585
33.536000	0.000419	0.001143	0.003449	0.001260	7073.875519	45927.009668	3926.498354	24235.208164
34.036500	-0.001158	-0.000086	-0.003543	0.001754	7053.513604	45756.419185	3906.604297	24210.825650
34.537000	-0.002833	-0.000621	0.001122	0.001960	7035.117849	45683.358845	3918.412892	24200.677589
35.037000	0.000305	0.000176	0.001438	0.002171	7063.787005	45741.212404	3918.692082	24190.292976
35.534000	-0.001222	-0.000753	-0.000793	0.001292	7057.428038	45736.218405	3915.098793	24233.637087
36.037500	-0.001471	-0.000161	-0.001019	0.002181	7046.276007	45706.989637	3912.143155	24189.810514
36.538000	-0.001490	0.000133	-0.005601	0.002324	7044.684907	45721.854319	3899.701576	24182.762080
37.035500	0.000185	0.000624	-0.003043	0.002115	7063.165051	45790.965429	3906.970727	24193.051100
37.536000	-0.000316	-0.000090	0.001642	0.001920	7060.160325	45739.763096	3919.905325	24202.678343
38.036000	-0.002905	0.000219	0.001478	0.002201	7032.053537	45742.480126	3918.719658	24188.794693
38.536000	-0.000919	-0.000535	0.000694	0.002065	7052.812646	45681.504377	3916.995733	24195.517230
39.036500	-0.000258	0.000473	-0.001811	0.002501	7055.024267	45737.974454	3909.202612	24174.041676
39.539000	-0.002757	-0.000092	0.005509	0.002174	7033.766528	45714.388671	3929.576761	24190.141010
40.037000	0.000449	0.000166	0.002624	0.002761	7059.410256	45681.979319	3920.281360	24161.244052
40.537000	-0.000912	0.000640	0.002144	0.002269	7050.882159	45777.407727	3920.312621	24185.475471
41.034500	-0.001342	0.000113	-0.000675	0.002170	7047.632911	45735.055640	3913.081632	24190.321281
41.535000	-0.002057	0.000596	0.002644	0.002335	7039.040683	45766.493171	3921.473414	24182.234105
42.038500	-0.001669	0.000260	0.002715	0.001805	7048.007180	45785.598789	3923.076067	24208.320178
42.536000	-0.000795	0.000951	-0.001587	0.002891	7045.934199	45746.612004	3908.763988	24154.842984
43.036500	-0.001620	-0.000262	0.001600	0.001629	7050.215293	45751.503610	3920.569794	24217.016820
43.536500	0.001719	-0.000501	0.001174	-0.003038	7129.390263	46191.117931	3931.935702	24448.465529
44.037000	0.000888	0.000472	0.004924	-0.000355	7094.463626	46020.788522	3934.814481	24315.112421
44.537000	-0.003934	-0.000111	-0.000469	0.003394	7010.433930	45592.335968	3910.386627	24130.109100
45.037500	0.000277	0.000125	0.001904	-0.000547	7090.320579	46005.376955	3927.202948	24324.628276
45.535000	0.000103	0.000570	-0.003244	0.000240	7080.822347	45971.397884	3911.393185	24285.643962
46.035000	-0.000687	0.000292	0.006894	-0.000135	7076.721100	45980.990555	3939.544756	24304.177813
46.538500	-0.002016	0.000968	0.002468	0.006714	6996.848533	45372.359444	3909.374595	23967.637252
47.036000	-0.001812	0.001267	0.001025	0.003966	7025.508301	45671.683041	3912.828435	24102.034066
47.536000	-0.001141	0.000350	0.002824	0.002920	7042.262558	45684.389517	3920.388120	24153.403504
48.036000	0.000470	0.000393	0.006518	-0.000178	7088.565195	45995.297073	3938.643237	24306.299846
48.537000	-0.004160	-0.000407	0.004231	0.004575	6996.805448	45447.245486	3919.730864	24072.208762
49.037000	0.001890	0.000426	-0.003387	-0.000009	7100.953179	45981.759274	3911.672289	24297.942184
49.537000	0.001924	0.000301	0.003290	-0.002203	7123.102494	46187.715935	3935.389541	24406.845460
50.040500	0.002976	0.000075	0.004323	-0.000634	7117.957888	46009.072837	3933.944222	24328.921534
50.535000	-0.004266	-0.000021	-0.000296	0.005824	6983.714432	45362.661467	3904.435896	24011.075215
51.035000	-0.041098	-0.016018	0.012734	0.328718	4624.559961	22335.298389	3321.870599	12882.620038
51.537500	-0.032961	-0.005051	-0.033752	0.081024	6092.492334	38192.915087	3651.630704	20638.028770
52.035500	-0.034027	-0.101066	-0.038554	-0.263888	10073.357204	65535.000000	4708.430657	42274.288535
52.536500	-0.126293	-0.275715	-0.108365	-0.438537	11593.680175	65535.000000	5239.780789	61817.279338
53.036000	-0.037202	-0.160752	-0.014163	-0.323574	11084.816944	65535.000000	5124.129217	48090.435344
53.539500	-0.026102	-0.165330	-0.014719	-0.328152	11389.542090	65535.000000	5146.102335	48570.406235
54.037000	-0.024852	-0.137032	-0.012203	-0.299854	10870.621077	65535.000000	5008.709652	45682.962922
54.536500	-0.034323	-0.108965	-0.019914	-0.271787	10201.905644	65535.000000	4831.066561	42998.937774
55.037500	-0.020410	-0.109197	-0.016839	-0.272019	10447.116679	65535.000000	4846.877081	43020.420638
55.535500	-0.012656	-0.112405	-0.013318	-0.275227	10642.716835	65535.000000	4879.426100	43318.610442
56.036000	-0.010132	-0.085332	-0.010206	-0.248154	10211.429123	65535.000000	4765.787918	40869.681618
56.535500	-0.010192	-0.054119	-0.007446	-0.208974	9570.710347	64395.690564	4604.624345	37585.203882
57.036000	-0.007599	-0.027038	-0.005713	-0.160888	8896.836227	61490.083814	4418.117333	33938.809695
57.536500	-0.009658	-0.014402	-0.006304	-0.109817	8194.216813	56524.005664	4232.414996	30483.685254
58.036500	-0.008128	-0.009660	-0.007481	-0.075095	7796.938124	52944.269992	4115.782566	28356.218924
58.537000	-0.011658	-0.007176	-0.010494	-0.053959	7520.763356	50838.659895	4042.574435	27142.014530
59.037000	-0.011119	-0.007329	-0.007316	-0.051014	7494.651681	50497.660607	4043.262728	26977.493712
59.535000	-0.008719	-0.004923	-0.001036	-0.041783	7421.317532	49754.861459	4034.589638	26468.956305
60.035000	-0.006848	-0.002259	-0.005663	-0.016513	7178.646043	47376.092533	3949.948742	25130.778967
60.535000	-0.008828	-0.000610	-0.005163	0.008052	6918.737327	45087.892782	3885.929768	23902.532336
61.038500	-0.002702	0.000675	-0.003534	0.009489	6963.494616	45073.059704	3886.428726	23832.807515
61.535500	-0.001564	0.002025	-0.002463	0.008591	6983.088230	45292.229571	3891.535260	23876.357346
62.036000	0.001842	0.003545	0.000943	0.008929	7012.776928	45407.853668	3899.540265	23859.940393
62.536000	0.001105	0.003616	-0.000870	0.011873	6977.178188	45127.350737	3887.153908	23717.656678
63.070500	0.005188	0.004509	0.003972	0.007723	7057.214099	45620.976232	3910.683547	23918.518503
63.537000	0.006140	0.004219	0.002947	0.008102	7062.851060	45555.189279	3906.980418	23900.120769
64.037500	0.005580	0.005116	0.002930	0.008750	7050.989672	45579.636964	3905.225319	23868.611283
64.535000	0.001277	0.004433	-0.000148	0.015681	6942.311137	44837.197676	3879.187891	23534.992696
65.035500	0.007417	0.004620	0.004479	0.010656	7050.305909	45343.981389	3904.287582	23776.334292
65.538000	0.007987	0.006174	0.007005	0.012815	7034.766555	45284.844581	3905.253120	23672.300173
66.035500	0.007166	0.006416	0.005996	0.014675	7008.682697	45127.117276	3897.728069	23583.094899
66.535500	0.004306	0.006145	0.005435	0.021329	6917.375087	44458.404415	3879.019903	23267.007268
67.036500	0.007476	0.006774	0.004898	0.017027	6988.915166	44933.454368	3888.744615	23470.821815
67.536500	0.008085	0.007377	0.009410	0.018722	6978.446058	44827.802943	3896.075822	23390.302019
68.037000	0.010480	0.008170	0.010238	0.020868	6980.830461	44697.226657	3892.638508	23288.748948
68.537000	0.005449	0.007300	0.002811	0.028514	6860.423595	43884.810878	3854.082728	22931.154956
69.037000	0.010149	0.009043	0.008540	0.026099	6927.581094	44279.477337	3874.749442	23043.438985
69.534500	0.010557	0.009338	0.008347	0.027766	6915.612688	44148.856171	3869.995653	22965.868092
70.035500	0.011471	0.010023	0.011172	0.028979	6912.771356	44098.628277	3874.113600	22909.591294
70.535500	0.008315	0.008980	0.010802	0.034905	6827.547161	43442.085170	3858.109080	22636.979560
71.036000	0.012752	0.010123	0.014258	0.029533	6919.669517	44055.522853	3880.613467	22883.947501
71.535500	0.013084	0.010168	0.011735	0.029681	6921.423764	44045.794847	3873.757619	22877.114685
72.036500	0.014259	0.010809	0.013968	0.030702	6922.889811	44009.780288	3876.864566	22829.971424
72.537000	0.011858	0.011259	0.013272	0.037908	6832.572495	43374.489488	3856.766165	22500.269995
73.037500	0.015735	0.012135	0.016488	0.033080	6914.321299	43910.178089	3877.227088	22720.538371
73.536500	0.013923	0.012330	0.017654	0.033722	6891.106589	43867.946688	3878.572413	22691.119335
74.035000	0.016499	0.012930	0.010863	0.035180	6901.662854	43786.962330	3857.571511	22624.430282
74.537500	0.016645	0.012350	0.018513	0.036060	6894.731490	43649.658316	3874.777689	22584.283023
75.038000	0.018381	0.012661	0.007673	0.035543	6916.059488	43727.501497	3848.648840	22607.892288
75.535500	0.016298	0.013389	0.011507	0.036791	6884.562934	43678.517648	3855.134059	22551.000644
76.036000	0.019216	0.012676	0.013867	0.036578	6914.151927	43631.576558	3861.627161	22560.702369
76.536500	0.013412	0.013185	0.009946	0.042552	6803.946918	43121.701490	3836.865722	22290.693358
77.036500	0.018909	0.014131	0.014741	0.038642	6891.725727	43574.416113	3858.618556	22466.984035
77.537000	0.018165	0.013511	0.013345	0.038423	6886.785721	43536.932726	3855.653742	22476.923878
78.037000	0.019261	0.014160	0.011223	0.039536	6886.617733	43493.475334	3847.537777	22426.541535
78.534500	0.017041	0.014179	0.012171	0.046058	6805.078025	42889.501836	3833.698130	22133.936048
79.037500	0.018363	0.014443	0.021609	0.040874	6865.606739	43394.824833	3870.386870	22366.161624
79.535500	0.021267	0.015606	0.017452	0.042118	6881.191944	43387.276659	3856.690648	22310.170686
80.035500	0.021294	0.015128	0.018956	0.042094	6881.679704	43344.995489	3860.549011	22311.258820
80.536000	0.017427	0.015199	0.019420	0.045544	6813.395593	43031.159159	3853.023203	22156.834233
81.036000	0.021751	0.015206	0.024316	0.042979	6877.652075	43269.809811	3871.924008	22271.535366
81.536000	0.021582	0.015554	0.018349	0.043555	6870.654356	43248.625876	3855.332258	22245.741197
82.036500	0.022886	0.015802	0.020360	0.044157	6877.245443	43215.685203	3858.883321	22218.776292
82.536500	0.019539	0.015311	0.019752	0.044717	6840.681954	43118.094231	3855.937374	22193.736636
83.037000	0.020225	0.015303	0.017175	0.044191	6851.990461	43166.149874	3850.785757	22217.255686
83.537500	0.021409	0.015581	0.025555	0.044318	6861.877735	43180.155291	3871.667419	22211.585790
84.035000	0.022693	0.014794	0.023624	0.044269	6874.383558	43111.743594	3866.870286	22213.772322
84.538000	0.019041	0.014792	0.018932	0.049435	6792.392850	42635.590185	3842.080444	21984.168752
85.035500	0.020014	0.015792	0.024068	0.045694	6836.018488	43072.216937	3864.379264	22150.184698
85.536000	0.020690	0.015455	0.024262	0.045392	6845.120019	43068.898071	3865.636231	22163.609294
86.036500	0.022984	0.015336	0.025349	0.045921	6861.615969	43008.911044	3867.056539	22140.042022
86.536500	0.022018	0.015167	0.019827	0.049595	6818.400471	42655.249042	3843.910750	21977.100887
87.037000	0.021489	0.015227	0.024650	0.045555	6851.061237	43032.786081	3866.209725	22156.375204
87.537000	0.023014	0.014860	0.019092	0.045446	6866.353597	43008.876327	3852.446714	22161.223901
88.037500	0.021550	0.014473	0.024400	0.045463	6852.492254	42971.579599	3865.808593	22160.473054
88.535000	0.020543	0.015328	0.022372	0.048792	6812.178663	42743.655580	3852.278191	22012.570401
89.035500	0.023567	0.015268	0.023512	0.046347	6863.087303	42963.337468	3861.313337	22121.067914
89.535500	0.021853	0.014549	0.026937	0.045734	6852.785048	42953.518495	3871.580800	22148.370508
90.036000	0.022855	0.014842	0.022149	0.046306	6856.811689	42927.794317	3857.975570	22122.915708
90.536500	0.020177	0.013729	0.024515	0.048195	6814.321705	42651.838807	3859.178365	22039.044992
91.036500	0.022435	0.015940	0.023633	0.047780	6839.135469	42893.156849	3858.000736	22057.438724
91.537500	0.022406	0.015112	0.024948	0.047540	6841.099455	42838.943196	3861.930176	22068.070118
92.037000	0.022647	0.015069	0.023420	0.047141	6847.060733	42871.700396	3859.075737	22085.779006
92.537000	0.022852	0.014287	0.020333	0.048440	6836.875181	42680.469237	3848.054689	22028.194338
93.071500	0.022405	0.014106	0.024366	0.047164	6844.592485	42781.017200	3861.410027	22084.774764
93.534500	0.023913	0.014162	0.023444	0.047895	6851.841594	42718.983021	3857.231832	22052.324115
94.038500	0.022051	0.014002	0.026814	0.047615	6837.094999	42730.007734	3866.472838	22064.741370
94.535000	0.020197	0.013702	0.023271	0.049846	6799.246939	42498.286812	3851.890055	21965.994518
95.036000	0.022323	0.013459	0.027402	0.047807	6837.832964	42662.529954	3867.480446	22056.207103
95.536000	0.020055	0.013540	0.025586	0.047918	6815.759243	42659.873386	3862.590668	22051.323181
96.036500	0.022347	0.014064	0.023825	0.048175	6834.635150	42684.324312	3857.487732	22039.909267
