sample name	sample
index	461
start time	 03-11-2021  11:52:38 AM


Wavelength (nm)	Absorbance
494.344910	-0.356445
494.563924	-0.356445
494.782919	-0.356445
495.001897	-0.495286
495.220856	-0.226778
495.439797	-0.287712
495.658719	-0.175775
495.877624	-0.040148
496.096510	0.004979
496.315378	-0.023487
496.534227	0.007825
496.753059	0.063218
496.971872	-0.054516
497.190667	0.023738
497.409444	0.031038
497.628203	0.030615
497.846943	0.031859
498.065665	0.031550
498.284369	0.030635
498.503055	0.031913
498.721723	0.032029
498.940372	0.032997
499.159003	0.034353
499.377616	0.034206
499.596210	0.034327
499.814787	0.033067
500.033345	0.032997
500.251885	0.033226
500.470406	0.033428
500.688910	0.032934
500.907395	0.032469
501.125862	0.031448
501.344311	0.031359
501.562742	0.030242
501.781154	0.030376
501.999548	0.030424
502.217924	0.030775
502.436282	0.030680
502.654621	0.029835
502.872942	0.029823
503.091245	0.030351
503.309530	0.030583
503.527797	0.031587
503.746045	0.032375
503.964275	0.032714
504.182487	0.032279
504.400681	0.032197
504.618856	0.033003
504.837013	0.032543
505.055152	0.031784
505.273273	0.030667
505.491376	0.030906
505.709460	0.030884
505.927526	0.030868
506.145574	0.031059
506.363604	0.030703
506.581615	0.031360
506.799608	0.031576
507.017583	0.031704
507.235540	0.032583
507.453478	0.031789
507.671399	0.030833
507.889301	0.030945
508.107185	0.030204
508.325050	0.030150
508.542898	0.030405
508.760727	0.030094
508.978538	0.029853
509.196330	0.029716
509.414105	0.029986
509.631861	0.030580
509.849599	0.030293
510.067319	0.031760
510.285021	0.031271
510.502704	0.029896
510.720369	0.030218
510.938016	0.030999
511.155645	0.031221
511.373255	0.030600
511.590848	0.030150
511.808422	0.029234
512.025977	0.027944
512.243515	0.028658
512.461034	0.029245
512.678536	0.028891
512.896018	0.028633
513.113483	0.028405
513.330930	0.028807
513.548358	0.028742
513.765768	0.029893
513.983160	0.030357
514.200533	0.028938
514.417889	0.028273
514.635226	0.028715
514.852545	0.028705
515.069845	0.028625
515.287128	0.029162
515.504392	0.029275
515.721638	0.029564
515.938866	0.029737
516.156075	0.030565
516.373267	0.030441
516.590440	0.029735
516.807594	0.029398
517.024731	0.029272
517.241850	0.028682
517.458950	0.029684
517.676032	0.028889
517.893095	0.028995
518.110141	0.029013
518.327168	0.029629
518.544177	0.029902
518.761168	0.030207
518.978141	0.030810
519.195095	0.030729
519.412031	0.029388
519.628949	0.029059
519.845849	0.028471
520.062731	0.028197
520.279594	0.027623
520.496439	0.027758
520.713266	0.027263
520.930074	0.026668
521.146865	0.026455
521.363637	0.026651
521.580391	0.027155
521.797127	0.027183
522.013844	0.026996
522.230543	0.027028
522.447224	0.027049
522.663887	0.027206
522.880532	0.027870
523.097158	0.028061
523.313766	0.028331
523.530356	0.027929
523.746928	0.028213
523.963481	0.028527
524.180017	0.028691
524.396534	0.028418
524.613032	0.028424
524.829513	0.027679
525.045975	0.027190
525.262420	0.027170
525.478845	0.026912
525.695253	0.026315
525.911643	0.026427
526.128014	0.026628
526.344367	0.026684
526.560702	0.026420
526.777018	0.026972
526.993316	0.027108
527.209597	0.026902
527.425858	0.027459
527.642102	0.027925
527.858328	0.027859
528.074535	0.028020
528.290724	0.027657
528.506894	0.027638
528.723047	0.027386
528.939181	0.028208
529.155297	0.028651
529.371395	0.027967
529.587475	0.027997
529.803536	0.027933
530.019579	0.027560
530.235604	0.027852
530.451611	0.028121
530.667600	0.027894
530.883570	0.027135
531.099522	0.026497
531.315456	0.026862
531.531372	0.026885
531.747269	0.026927
531.963148	0.027214
532.179009	0.027173
532.394852	0.027151
532.610676	0.027582
532.826482	0.028145
533.042271	0.028129
533.258040	0.028462
533.473792	0.028407
533.689525	0.028229
533.905240	0.028131
534.120937	0.028064
534.336616	0.027760
534.552277	0.027059
534.767919	0.026915
534.983543	0.027228
535.199149	0.026937
535.414736	0.026682
535.630306	0.027000
535.845857	0.026420
536.061390	0.026366
536.276904	0.026564
536.492401	0.027073
536.707879	0.027013
536.923339	0.026497
537.138781	0.026497
537.354204	0.026382
537.569610	0.026241
537.784997	0.027040
538.000366	0.027450
538.215716	0.027708
538.431049	0.027572
538.646363	0.027382
538.861659	0.027961
539.076937	0.027741
539.292196	0.028145
539.507438	0.028036
539.722661	0.027947
539.937866	0.027697
540.153052	0.027061
540.368221	0.027062
540.583371	0.027058
540.798503	0.026612
541.013617	0.026644
541.228712	0.026226
541.443789	0.026189
541.658848	0.026062
541.873889	0.025731
542.088912	0.026018
542.303916	0.026037
542.518902	0.025955
542.733870	0.026012
542.948820	0.026120
543.163752	0.026401
543.378665	0.026445
543.593560	0.026455
543.808437	0.026508
544.023295	0.026151
544.238136	0.025848
544.452958	0.025946
544.667762	0.026352
544.882548	0.026612
545.097315	0.026476
545.312064	0.026176
545.526795	0.025924
545.741508	0.026128
545.956203	0.026579
546.170879	0.026402
546.385537	0.026483
546.600177	0.026247
546.814799	0.026120
547.029402	0.026004
547.243988	0.025973
547.458555	0.025848
547.673103	0.025821
547.887634	0.025511
548.102146	0.025685
548.316640	0.025588
548.531116	0.025616
548.745574	0.025094
548.960013	0.024949
549.174435	0.024638
549.388838	0.024944
549.603222	0.024809
549.817589	0.024622
550.031937	0.024533
550.246267	0.024402
550.460579	0.024193
550.674873	0.024666
550.889148	0.024901
551.103405	0.025330
551.317644	0.024906
551.531865	0.024957
551.746068	0.025165
551.960252	0.025530
552.174418	0.025450
552.388566	0.025105
552.602696	0.024890
552.816807	0.025142
553.030900	0.025097
553.244975	0.025111
553.459032	0.025007
553.673070	0.024916
553.887091	0.024591
554.101093	0.024733
554.315077	0.025311
554.529042	0.025174
554.742990	0.024552
554.956919	0.024806
555.170830	0.025070
555.384722	0.025120
555.598597	0.024995
555.812453	0.025410
556.026291	0.025416
556.240111	0.025112
556.453913	0.025187
556.667696	0.025467
556.881461	0.024973
557.095208	0.024873
557.308937	0.024751
557.522647	0.025065
557.736339	0.024595
557.950013	0.024426
558.163669	0.024606
558.377307	0.024698
558.590926	0.024475
558.804527	0.024748
559.018110	0.024844
559.231675	0.025146
559.445221	0.025068
559.658749	0.024497
559.872259	0.024663
560.085751	0.024610
560.299225	0.024318
560.512680	0.024510
560.726117	0.024564
560.939536	0.024464
561.152937	0.024248
561.366319	0.024079
561.579683	0.024577
561.793029	0.023976
562.006357	0.023914
562.219667	0.023890
562.432958	0.023870
562.646231	0.023549
562.859486	0.023359
563.072723	0.023457
563.285941	0.023732
563.499141	0.023767
563.712323	0.024081
563.925487	0.023536
564.138632	0.023451
564.351760	0.023424
564.564869	0.023572
564.777960	0.023680
564.991032	0.023580
565.204087	0.023036
565.417123	0.023097
565.630141	0.023192
565.843140	0.023703
566.056122	0.023858
566.269085	0.023673
566.482030	0.023540
566.694957	0.023321
566.907866	0.023344
567.120756	0.023584
567.333628	0.023551
567.546482	0.023363
567.759318	0.023202
567.972135	0.023129
568.184935	0.023230
568.397716	0.023275
568.610478	0.023586
568.823223	0.023461
569.035949	0.023393
569.248657	0.023455
569.461347	0.023869
569.674019	0.023969
569.886672	0.023918
570.099308	0.024132
570.311925	0.024074
570.524523	0.023887
570.737104	0.023639
570.949666	0.023910
571.162210	0.023703
571.374736	0.023504
571.587244	0.023202
571.799733	0.023183
572.012205	0.022982
572.224658	0.022799
572.437092	0.022696
572.649509	0.023079
572.861907	0.022908
573.074287	0.022920
573.286649	0.022827
573.498993	0.022873
573.711318	0.022897
573.923625	0.022587
574.135914	0.022527
574.348185	0.022568
574.560438	0.022188
574.772672	0.022018
574.984888	0.022070
575.197086	0.021837
575.409266	0.021590
575.621427	0.021603
575.833570	0.021946
576.045695	0.022061
576.257802	0.022079
576.469890	0.022158
576.681961	0.021924
576.894013	0.021884
577.106046	0.021818
577.318062	0.022065
577.530059	0.021718
577.742039	0.021611
577.954000	0.021549
578.165942	0.021674
578.377867	0.021830
578.589773	0.022020
578.801661	0.022146
579.013531	0.022112
579.225382	0.021784
579.437216	0.022071
579.649031	0.021956
579.860828	0.021842
580.072606	0.021606
580.284367	0.021368
580.496109	0.021327
580.707833	0.021093
580.919539	0.021299
581.131227	0.021478
581.342896	0.021273
581.554547	0.021276
581.766180	0.021179
581.977795	0.021276
582.189391	0.021409
582.400969	0.021193
582.612529	0.021068
582.824071	0.020912
583.035595	0.021045
583.247100	0.021068
583.458587	0.021071
583.670056	0.021316
583.881506	0.021259
584.092939	0.021041
584.304353	0.021238
584.515749	0.021012
584.727127	0.021070
584.938486	0.021185
585.149828	0.021342
585.361151	0.021223
585.572456	0.020968
585.783742	0.020866
585.995011	0.021106
586.206261	0.020796
586.417493	0.021154
586.628706	0.021057
586.839902	0.020937
587.051079	0.020876
587.262238	0.021169
587.473379	0.021268
587.684502	0.021198
587.895606	0.020986
588.106692	0.021135
588.317760	0.021072
588.528810	0.021114
588.739841	0.021017
588.950855	0.020925
589.161850	0.020707
589.372827	0.020648
589.583785	0.020605
589.794726	0.020566
590.005648	0.020574
590.216552	0.020420
590.427437	0.020423
590.638305	0.020167
590.849154	0.020151
591.059985	0.020020
591.270798	0.020083
591.481592	0.020069
591.692369	0.020248
591.903127	0.020220
592.113867	0.020275
592.324588	0.020175
592.535292	0.020181
592.745977	0.020273
592.956644	0.020064
593.167293	0.020007
593.377923	0.019790
593.588536	0.019530
593.799130	0.019499
594.009706	0.019477
594.220263	0.019381
594.430803	0.019428
594.641324	0.019345
594.851827	0.019638
595.062312	0.019530
595.272778	0.019783
595.483227	0.019801
595.693657	0.019934
595.904069	0.019911
596.114462	0.020000
596.324838	0.020061
596.535195	0.019990
596.745534	0.019984
596.955855	0.020344
597.166157	0.020140
597.376441	0.020160
597.586707	0.020095
597.796955	0.020034
598.007185	0.020176
598.217396	0.020030
598.427589	0.020122
598.637764	0.020053
598.847921	0.019660
599.058060	0.019684
599.268180	0.019733
599.478282	0.019707
599.688366	0.019436
599.898431	0.019252
600.108479	0.019407
600.318508	0.019212
600.528519	0.018855
600.738511	0.019082
600.948486	0.019144
601.158442	0.019178
601.368380	0.019049
601.578300	0.019311
601.788202	0.019344
601.998085	0.019011
602.207950	0.019034
602.417797	0.019147
602.627626	0.019051
602.837436	0.019099
603.047228	0.019004
603.257002	0.019156
603.466758	0.019198
603.676496	0.019279
603.886215	0.019371
604.095916	0.019320
604.305599	0.019307
604.515264	0.019225
604.724910	0.019085
604.934538	0.018914
605.144148	0.018863
605.353740	0.018862
605.563314	0.018564
605.772869	0.018645
605.982406	0.018381
606.191925	0.018205
606.401425	0.018038
606.610908	0.018014
606.820372	0.018110
607.029818	0.017971
607.239246	0.017934
607.448655	0.018026
607.658047	0.017849
607.867420	0.018270
608.076775	0.018610
608.286111	0.018657
608.495430	0.018725
608.704730	0.018457
608.914012	0.018170
609.123275	0.018009
609.332521	0.017901
609.541748	0.017987
609.750957	0.017864
609.960148	0.017837
610.169321	0.017886
610.378475	0.017802
610.587611	0.018264
610.796729	0.018639
611.005829	0.018851
611.214910	0.018972
611.423974	0.019072
611.633019	0.018974
611.842045	0.018942
612.051054	0.018976
612.260044	0.019071
612.469017	0.018907
612.677970	0.018791
612.886906	0.018637
613.095824	0.018295
613.304723	0.018414
613.513604	0.018434
613.722467	0.018313
613.931311	0.018362
614.140138	0.018372
614.348946	0.018514
614.557736	0.018511
614.766507	0.018395
614.975261	0.018580
615.183996	0.018530
615.392713	0.018551
615.601412	0.018474
615.810092	0.018485
616.018754	0.018546
616.227399	0.018340
616.436024	0.018387
616.644632	0.018477
616.853222	0.018423
617.061793	0.018424
617.270346	0.018355
617.478880	0.018360
617.687397	0.018230
617.895895	0.017981
618.104375	0.017814
618.312837	0.017585
618.521281	0.017515
618.729706	0.017445
618.938113	0.017365
619.146502	0.017294
619.354873	0.017273
619.563226	0.017412
619.771560	0.017477
619.979876	0.017498
620.188174	0.017788
620.396453	0.017918
620.604715	0.018089
620.812958	0.017829
621.021183	0.017964
621.229390	0.018155
621.437578	0.018003
621.645748	0.018083
621.853900	0.018150
622.062034	0.017984
622.270150	0.017970
622.478247	0.017836
622.686326	0.017938
622.894387	0.017911
623.102430	0.017615
623.310454	0.017634
623.518461	0.017459
623.726449	0.017415
623.934418	0.017479
624.142370	0.017297
624.350303	0.017535
624.558218	0.017574
624.766115	0.017604
624.973994	0.017791
625.181855	0.017665
625.389697	0.017877
625.597521	0.017958
625.805327	0.017843
626.013114	0.017945
626.220883	0.017713
626.428634	0.017831
626.636367	0.017933
626.844082	0.017848
627.051778	0.017960
627.259457	0.017759
627.467117	0.017611
627.674758	0.017675
627.882382	0.017749
628.089987	0.017821
628.297574	0.017836
628.505143	0.017664
628.712694	0.017840
628.920226	0.017835
629.127740	0.018039
629.335236	0.018050
629.542714	0.018090
629.750174	0.017857
629.957615	0.017564
630.165038	0.017484
630.372443	0.017661
630.579829	0.017638
630.787198	0.017817
630.994548	0.017627
631.201880	0.017625
631.409194	0.017728
631.616489	0.017945
631.823766	0.018111
632.031025	0.017961
632.238266	0.017721
632.445489	0.017676
632.652693	0.017468
632.859879	0.017590
633.067047	0.017735
633.274197	0.017613
633.481329	0.017546
633.688442	0.017715
633.895537	0.017733
634.102614	0.017869
634.309672	0.017919
634.516713	0.017930
634.723735	0.017844
634.930739	0.017688
635.137724	0.017589
635.344692	0.017614
635.551641	0.017640
635.758572	0.017687
635.965485	0.017745
636.172379	0.017489
636.379256	0.017330
636.586114	0.017231
636.792954	0.017327
636.999775	0.017337
637.206579	0.017450
637.413364	0.017425
637.620131	0.017431
637.826880	0.017274
638.033610	0.017448
638.240323	0.017632
638.447017	0.017637
638.653692	0.017679
638.860350	0.017570
639.066990	0.017476
639.273611	0.017452
639.480214	0.017482
639.686798	0.017519
639.893365	0.017357
640.099913	0.017231
640.306443	0.017449
640.512955	0.017349
640.719449	0.017478
640.925924	0.017237
641.132381	0.017136
641.338820	0.017036
641.545241	0.016912
641.751644	0.017040
641.958028	0.017104
642.164394	0.017000
642.370742	0.016983
642.577071	0.017014
642.783383	0.017006
642.989676	0.016950
643.195951	0.017078
643.402207	0.017244
643.608446	0.017416
643.814666	0.017387
644.020868	0.017351
644.227052	0.017444
644.433218	0.017581
644.639365	0.017624
644.845494	0.017817
645.051605	0.017679
645.257698	0.017626
645.463772	0.017320
645.669828	0.017055
645.875866	0.017186
646.081886	0.017086
646.287888	0.016990
646.493871	0.016861
646.699836	0.016646
646.905783	0.016687
647.111712	0.016656
647.317622	0.016632
647.523514	0.017110
647.729388	0.016772
647.935244	0.016741
648.141082	0.016718
648.346901	0.016949
648.552702	0.017049
648.758485	0.017064
648.964250	0.017102
649.169996	0.017054
649.375724	0.016870
649.581434	0.017053
649.787126	0.017042
649.992800	0.017054
650.198455	0.016949
650.404092	0.016991
650.609711	0.017025
650.815311	0.016970
651.020894	0.017021
651.226458	0.016788
651.432004	0.016692
651.637532	0.016483
651.843041	0.016156
652.048532	0.016181
652.254006	0.016018
652.459460	0.016027
652.664897	0.016047
652.870315	0.016195
653.075716	0.016418
653.281097	0.016508
653.486461	0.016622
653.691807	0.016988
653.897134	0.016890
654.102443	0.016806
654.307734	0.016744
654.513006	0.016656
654.718261	0.016487
654.923497	0.016390
655.128715	0.016355
655.333915	0.016436
655.539096	0.016269
655.744259	0.016164
655.949404	0.016282
656.154531	0.016327
656.359640	0.016366
656.564730	0.016229
656.769802	0.016203
656.974856	0.016066
657.179892	0.016013
657.384909	0.015907
657.589908	0.015932
657.794889	0.015972
657.999852	0.015809
658.204797	0.015774
658.409723	0.015858
658.614631	0.015850
658.819521	0.015830
659.024393	0.015955
659.229246	0.015912
659.434081	0.016104
659.638898	0.016170
659.843697	0.016326
660.048478	0.016399
660.253240	0.016499
660.457984	0.016527
660.662710	0.016626
660.867417	0.016522
661.072107	0.016738
661.276778	0.016626
661.481431	0.016609
661.686066	0.016574
661.890682	0.016520
662.095281	0.016567
662.299861	0.016378
662.504422	0.016363
662.708966	0.016268
662.913491	0.016092
663.117999	0.016106
663.322488	0.016034
663.526958	0.015987
663.731411	0.015894
663.935845	0.015788
664.140261	0.015994
664.344659	0.016068
664.549038	0.016162
664.753400	0.016271
664.957743	0.016307
665.162068	0.016302
665.366375	0.016216
665.570663	0.016254
665.774933	0.016045
665.979185	0.015895
666.183419	0.015719
666.387635	0.015768
666.591832	0.015705
666.796011	0.015598
667.000172	0.015574
667.204315	0.015685
667.408439	0.015657
667.612545	0.015943
667.816634	0.015930
668.020703	0.016037
668.224755	0.015980
668.428788	0.016080
668.632803	0.016212
668.836800	0.016142
669.040779	0.015989
669.244739	0.015954
669.448681	0.015780
669.652605	0.015952
669.856511	0.015873
670.060399	0.015634
670.264268	0.015483
670.468119	0.015393
670.671952	0.015297
670.875767	0.015428
671.079563	0.015350
671.283341	0.015334
671.487101	0.015118
671.690843	0.015175
671.894567	0.015407
672.098272	0.015374
672.301959	0.015393
672.505628	0.015565
672.709278	0.015646
672.912911	0.015669
673.116525	0.015698
673.320121	0.015708
673.523699	0.015686
673.727258	0.015673
673.930799	0.015737
674.134322	0.015678
674.337827	0.015685
674.541314	0.015626
674.744782	0.015791
674.948232	0.015897
675.151664	0.016128
675.355078	0.016182
675.558474	0.016111
675.761851	0.016104
675.965210	0.016279
676.168551	0.016341
676.371873	0.016300
676.575178	0.016230
676.778464	0.016183
676.981732	0.016041
677.184981	0.015814
677.388213	0.015774
677.591426	0.015745
677.794621	0.015660
677.997798	0.015435
678.200956	0.015290
678.404097	0.015312
678.607219	0.015345
678.810323	0.015424
679.013408	0.015358
679.216476	0.015356
679.419525	0.015366
679.622556	0.015386
679.825569	0.015634
680.028563	0.015757
680.231540	0.015693
680.434498	0.015668
680.637438	0.015625
680.840359	0.015809
681.043263	0.015807
681.246148	0.015784
681.449015	0.015635
681.651864	0.015382
681.854694	0.015314
682.057506	0.015388
682.260301	0.015318
682.463076	0.015297
682.665834	0.015252
682.868573	0.015280
683.071295	0.015289
683.273998	0.015495
683.476682	0.015556
683.679349	0.015625
683.881997	0.015562
684.084627	0.015717
684.287239	0.015634
684.489833	0.015720
684.692408	0.015750
684.894965	0.015814
685.097504	0.015767
685.300025	0.015739
685.502527	0.015619
685.705012	0.015525
685.907478	0.015417
686.109925	0.015426
686.312355	0.015253
686.514766	0.015152
686.717159	0.014977
686.919534	0.015031
687.121891	0.015148
687.324230	0.015195
687.526550	0.015248
687.728852	0.015198
687.931136	0.015199
688.133401	0.015251
688.335649	0.015362
688.537878	0.015366
688.740089	0.015209
688.942281	0.014946
689.144456	0.014804
689.346612	0.014772
689.548750	0.014669
689.750870	0.014634
689.952971	0.014653
690.155055	0.014611
690.357120	0.014582
690.559167	0.014538
690.761195	0.014736
690.963206	0.015049
691.165198	0.015134
691.367172	0.015158
691.569128	0.015133
691.771065	0.015120
691.972984	0.015152
692.174885	0.015202
692.376768	0.015201
692.578633	0.015102
692.780479	0.014887
692.982308	0.014879
693.184118	0.014995
693.385909	0.014967
693.587683	0.014833
693.789438	0.014887
693.991175	0.014909
694.192894	0.014921
694.394595	0.014896
694.596277	0.014810
694.797941	0.014717
694.999587	0.014597
695.201215	0.014693
695.402824	0.014850
695.604416	0.014791
695.805989	0.014748
696.007543	0.014724
696.209080	0.014843
696.410598	0.014883
696.612099	0.014906
696.813580	0.014963
697.015044	0.015096
697.216490	0.015132
697.417917	0.015131
697.619326	0.015212
697.820717	0.015295
698.022089	0.015336
698.223444	0.015488
698.424780	0.015573
698.626098	0.015679
698.827397	0.015628
699.028679	0.015692
699.229942	0.015619
699.431187	0.015535
699.632414	0.015477
699.833622	0.015353
700.034813	0.015158
700.235985	0.015156
700.437139	0.014989
700.638274	0.014979
700.839392	0.014960
701.040491	0.015074
701.241572	0.015036
701.442635	0.014948
701.643679	0.014973
701.844706	0.015171
702.045714	0.015191
702.246704	0.015331
702.447675	0.015354
702.648629	0.015380
702.849564	0.015266
703.050481	0.015361
703.251380	0.015585
703.452260	0.015682
703.653122	0.015616
703.853966	0.015462
704.054792	0.015270
704.255600	0.015264
704.456389	0.015159
704.657160	0.015053
704.857913	0.015044
705.058648	0.014777
705.259365	0.014679
705.460063	0.014670
705.660743	0.014720
705.861405	0.014947
706.062048	0.014881
706.262674	0.014850
706.463281	0.014827
706.663870	0.014717
706.864441	0.014750
707.064993	0.014623
707.265527	0.014532
707.466043	0.014508
707.666541	0.014397
707.867021	0.014420
708.067482	0.014294
708.267925	0.014233
708.468350	0.014353
708.668757	0.014510
708.869145	0.014623
709.069516	0.014703
709.269868	0.014601
709.470201	0.014582
709.670517	0.014505
709.870814	0.014583
710.071093	0.014809
710.271354	0.014848
710.471597	0.014796
710.671821	0.014755
710.872028	0.014688
711.072216	0.014694
711.272385	0.014676
711.472537	0.014644
711.672670	0.014494
711.872785	0.014421
712.072882	0.014329
712.272961	0.014295
712.473021	0.014221
712.673063	0.014250
712.873087	0.014323
713.073093	0.014266
713.273081	0.014258
713.473050	0.014428
713.673001	0.014509
713.872934	0.014569
714.072849	0.014567
714.272745	0.014817
714.472623	0.014762
714.672483	0.014728
714.872325	0.015025
715.072148	0.015044
715.271954	0.015016
715.471741	0.014951
715.671509	0.014901
715.871260	0.014905
716.070992	0.014749
716.270707	0.014663
716.470403	0.014780
716.670080	0.014601
716.869740	0.014645
717.069381	0.014601
717.269004	0.014530
717.468609	0.014402
717.668195	0.014244
717.867764	0.014105
718.067314	0.014211
718.266846	0.014102
718.466360	0.013997
718.665855	0.013922
718.865332	0.014088
719.064791	0.014121
719.264232	0.014123
719.463655	0.014113
719.663059	0.014263
719.862445	0.014123
720.061813	0.014111
720.261163	0.014076
720.460494	0.014044
720.659807	0.013802
720.859102	0.013737
721.058379	0.013762
721.257638	0.013849
721.456878	0.013819
721.656100	0.013912
721.855304	0.013841
722.054490	0.013958
722.253657	0.013980
722.452806	0.014051
722.651937	0.014053
722.851050	0.014101
723.050145	0.014211
723.249221	0.013959
723.448279	0.013989
723.647319	0.013961
723.846340	0.013818
724.045344	0.013715
724.244329	0.013646
724.443296	0.013635
724.642245	0.013436
724.841175	0.013141
725.040088	0.013262
725.238982	0.013152
725.437857	0.012942
725.636715	0.012981
725.835554	0.013054
726.034376	0.013195
726.233179	0.013114
726.431963	0.013169
726.630730	0.013229
726.829478	0.013268
727.028208	0.013297
727.226920	0.013637
727.425614	0.013502
727.624289	0.013403
727.822946	0.013362
728.021585	0.013401
728.220206	0.013441
728.418808	0.013521
728.617392	0.013519
728.815958	0.013479
729.014506	0.013525
729.213036	0.013559
729.411547	0.013719
729.610040	0.013698
729.808515	0.013828
730.006972	0.013801
730.205410	0.013786
730.403831	0.013756
730.602233	0.013748
730.800616	0.013638
730.998982	0.013636
731.197329	0.013541
731.395658	0.013436
731.593969	0.013345
731.792262	0.013468
731.990536	0.013503
732.188793	0.013605
732.387031	0.013637
732.585250	0.013594
732.783452	0.013595
732.981635	0.013598
733.179800	0.013603
733.377947	0.013627
733.576076	0.013577
733.774186	0.013419
733.972278	0.013331
734.170352	0.013252
734.368408	0.013285
734.566446	0.013356
734.764465	0.013375
734.962466	0.013312
735.160449	0.013299
735.358413	0.013229
735.556360	0.013379
735.754288	0.013210
735.952198	0.013237
736.150090	0.013187
736.347963	0.012997
736.545818	0.012840
736.743655	0.012727
736.941474	0.012635
737.139275	0.012680
737.337057	0.012635
737.534821	0.012879
737.732567	0.012825
737.930295	0.012725
738.128005	0.012792
738.325696	0.012874
738.523369	0.012989
738.721024	0.012909
738.918660	0.012830
739.116279	0.012909
739.313879	0.012751
739.511461	0.012807
739.709024	0.012750
739.906570	0.012771
740.104097	0.012777
740.301606	0.012880
740.499097	0.012824
740.696569	0.012861
740.894024	0.012766
741.091460	0.012810
741.288878	0.012682
741.486277	0.012777
741.683659	0.012872
741.881022	0.012900
742.078367	0.012943
742.275694	0.012986
742.473002	0.012920
742.670293	0.012886
742.867565	0.012980
743.064819	0.013189
743.262054	0.013242
743.459272	0.013189
743.656471	0.013100
743.853652	0.013169
744.050815	0.013331
744.247959	0.013588
744.445085	0.013721
744.642194	0.013732
744.839283	0.013710
745.036355	0.013692
745.233408	0.013731
745.430444	0.013732
745.627461	0.013690
745.824459	0.013665
746.021440	0.013547
746.218402	0.013599
746.415346	0.013697
746.612272	0.014029
746.809180	0.014050
747.006069	0.014212
747.202940	0.014297
747.399793	0.014343
747.596628	0.014354
747.793444	0.014389
747.990243	0.014348
748.187023	0.014211
748.383784	0.013943
748.580528	0.013988
748.777253	0.013948
748.973960	0.013845
749.170649	0.013837
749.367320	0.014040
749.563973	0.014041
749.760607	0.014080
749.957223	0.014092
750.153821	0.014069
750.350400	0.014134
750.546962	0.014061
750.743505	0.014228
750.940030	0.014243
751.136536	0.014251
751.333025	0.014392
751.529495	0.014532
751.725947	0.014627
751.922381	0.014737
752.118796	0.014767
752.315194	0.014919
752.511573	0.015115
752.707934	0.015161
752.904276	0.014946
753.100601	0.014883
753.296907	0.014655
753.493195	0.014576
753.689465	0.014590
753.885716	0.014625
754.081949	0.014563
754.278164	0.014308
754.474361	0.014182
754.670540	0.014383
754.866700	0.014397
755.062843	0.014213
755.258967	0.014220
755.455072	0.014104
755.651160	0.014094
755.847229	0.014204
756.043280	0.014332
756.239313	0.014453
756.435328	0.014504
756.631324	0.014470
756.827302	0.014727
757.023262	0.015128
757.219204	0.015184
757.415127	0.015078
757.611033	0.015046
757.806920	0.014817
758.002788	0.014732
758.198639	0.014615
758.394471	0.014748
758.590286	0.014851
758.786081	0.014550
758.981859	0.014642
759.177619	0.014661
759.373360	0.014580
759.569083	0.014744
759.764788	0.014876
759.960474	0.014838
760.156143	0.014608
760.351793	0.014623
760.547425	0.014622
760.743038	0.014562
760.938634	0.014649
761.134211	0.014802
761.329770	0.014819
761.525311	0.014897
761.720833	0.015192
761.916338	0.015353
762.111824	0.015359
762.307292	0.015445
762.502741	0.015408
762.698173	0.015438
762.893586	0.015247
763.088981	0.015287
763.284358	0.015263
763.479716	0.015081
763.675057	0.015157
763.870379	0.015129
764.065683	0.015128
764.260968	0.015382
764.456236	0.015268
764.651485	0.015406
764.846716	0.015497
765.041929	0.015404
765.237123	0.015423
765.432299	0.015341
765.627457	0.015333
765.822597	0.015225
766.017719	0.015265
766.212822	0.015411
766.407907	0.015316
766.602974	0.015253
766.798023	0.015360
766.993054	0.015258
767.188066	0.015485
767.383060	0.015442
767.578036	0.015498
767.772993	0.015281
767.967933	0.015252
768.162854	0.015468
768.357757	0.015637
768.552642	0.015701
768.747508	0.015977
768.942356	0.015894
769.137186	0.016147
769.331998	0.016199
769.526792	0.016267
769.721567	0.016268
769.916324	0.016242
770.111063	0.016197
770.305784	0.016037
770.500486	0.016046
770.695171	0.016210
770.889837	0.016038
771.084484	0.016068
771.279114	0.016077
771.473725	0.016198
771.668318	0.016000
771.862893	0.015944
772.057450	0.015919
772.251988	0.015762
772.446509	0.015505
772.641011	0.015509
772.835494	0.015539
773.029960	0.015494
773.224407	0.015668
773.418836	0.015803
773.613247	0.015787
773.807640	0.015758
774.002014	0.015607
774.196370	0.015723
774.390708	0.015732
774.585028	0.015572
774.779330	0.015461
774.973613	0.015224
775.167878	0.015180
775.362125	0.015156
775.556354	0.015378
775.750564	0.015483
775.944756	0.015500
776.138930	0.015525
776.333086	0.015554
776.527223	0.015664
776.721343	0.015696
776.915444	0.015663
777.109526	0.015659
777.303591	0.015522
777.497637	0.015540
777.691666	0.015480
777.885676	0.015336
778.079667	0.015261
778.273641	0.015328
778.467596	0.015220
778.661533	0.015378
778.855452	0.015421
779.049352	0.015603
779.243235	0.015618
779.437099	0.015391
779.630945	0.015626
779.824773	0.015744
780.018582	0.015672
780.212373	0.015742
780.406146	0.015640
780.599901	0.015776
780.793638	0.015575
780.987356	0.015748
781.181056	0.015885
781.374738	0.015937
781.568402	0.015813
781.762047	0.015790
781.955674	0.015730
782.149283	0.015726
782.342874	0.015754
782.536447	0.015841
782.730001	0.015564
782.923537	0.015426
783.117055	0.015440
783.310555	0.015562
783.504036	0.015727
783.697499	0.015879
783.890944	0.015876
784.084371	0.015823
784.277780	0.015925
784.471170	0.016109
784.664542	0.016463
784.857896	0.016337
785.051231	0.016344
785.244549	0.016342
785.437848	0.016306
785.631129	0.016313
785.824392	0.016381
786.017636	0.016408
786.210863	0.016373
786.404071	0.016031
786.597260	0.015859
786.790432	0.015977
786.983585	0.015922
787.176721	0.015779
787.369838	0.015837
787.562936	0.015781
787.756017	0.015740
787.949079	0.015594
788.142123	0.015697
788.335149	0.015671
788.528156	0.015454
788.721146	0.015405
788.914117	0.015347
789.107070	0.015177
789.300005	0.014983
789.492921	0.014887
789.685819	0.014972
789.878699	0.015031
790.071561	0.015061
790.264405	0.015145
790.457230	0.015119
790.650037	0.015264
790.842826	0.015223
791.035597	0.015177
791.228349	0.015146
791.421084	0.015106
791.613800	0.014967
791.806497	0.015198
791.999177	0.015278
792.191838	0.015181
792.384481	0.015155
792.577106	0.015081
792.769713	0.015301
792.962301	0.015190
793.154871	0.015039
793.347423	0.015135
793.539957	0.014860
793.732473	0.014787
793.924970	0.014665
794.117449	0.014651
794.309910	0.014523
794.502353	0.014290
794.694777	0.014392
794.887183	0.014529
795.079571	0.014377
795.271941	0.014262
795.464293	0.014052
795.656626	0.014187
795.848941	0.014105
796.041238	0.014331
796.233516	0.014281
796.425777	0.014071
796.618019	0.013916
796.810243	0.014172
797.002449	0.014284
797.194636	0.014344
797.386805	0.014399
797.578956	0.014475
797.771089	0.014455
797.963204	0.014562
798.155300	0.014617
798.347378	0.014906
798.539438	0.014759
798.731480	0.015020
798.923503	0.014980
799.115509	0.015022
799.307496	0.014771
799.499465	0.014878
799.691415	0.014867
799.883348	0.015021
800.075262	0.014925
800.267158	0.014930
800.459035	0.014595
800.650895	0.014640
800.842736	0.014523
801.034559	0.014777
801.226364	0.014688
801.418150	0.014736
801.609919	0.014579
801.801669	0.014520
801.993401	0.014404
802.185114	0.014509
802.376810	0.014665
802.568487	0.014676
802.760146	0.014510
802.951787	0.014384
803.143409	0.014259
803.335014	0.014188
803.526600	0.014075
803.718168	0.014188
803.909717	0.014266
804.101249	0.014035
804.292762	0.013805
804.484257	0.013857
804.675734	0.013981
804.867192	0.014028
805.058632	0.014030
805.250054	0.013963
805.441458	0.014010
805.632844	0.014092
805.824211	0.014073
806.015561	0.014268
806.206891	0.014308
806.398204	0.014300
806.589499	0.014349
806.780775	0.014453
806.972033	0.014622
807.163273	0.014585
807.354495	0.014507
807.545698	0.014604
807.736883	0.014744
807.928050	0.014749
808.119199	0.014751
808.310329	0.014717
808.501441	0.014687
808.692535	0.014593
808.883611	0.014515
809.074669	0.014562
809.265708	0.014652
809.456729	0.014596
809.647732	0.014643
809.838717	0.014703
810.029683	0.014864
810.220632	0.015076
810.411562	0.015218
810.602474	0.015246
810.793367	0.015158
810.984242	0.015072
811.175100	0.015039
811.365938	0.015118
811.556759	0.015209
811.747562	0.014996
811.938346	0.014975
812.129112	0.014834
812.319860	0.014839
812.510589	0.014736
812.701300	0.014756
812.891994	0.014530
813.082668	0.014369
813.273325	0.014153
813.463964	0.014296
813.654584	0.014028
813.845186	0.014004
814.035769	0.013926
814.226335	0.013884
814.416882	0.013796
814.607411	0.013876
814.797922	0.013945
814.988415	0.013844
815.178889	0.013669
815.369345	0.013623
815.559783	0.013622
815.750203	0.013537
815.940605	0.013265
816.130988	0.013170
816.321353	0.013342
816.511700	0.013193
816.702028	0.012913
816.892339	0.012867
817.082631	0.013032
817.272905	0.012841
817.463161	0.012854
817.653398	0.013160
817.843617	0.012944
818.033819	0.012570
818.224001	0.012447
818.414166	0.012780
818.604312	0.012687
818.794440	0.012447
818.984550	0.012509
819.174642	0.012460
819.364716	0.012245
819.554771	0.012268
819.744808	0.012555
819.934827	0.012670
820.124827	0.012570
820.314810	0.012522
820.504774	0.012620
820.694720	0.012615
820.884647	0.012506
821.074557	0.012635
821.264448	0.012990
821.454321	0.012807
821.644176	0.012574
821.834012	0.012522
822.023831	0.012520
822.213631	0.012486
822.403413	0.012502
822.593176	0.012512
822.782922	0.012505
822.972649	0.012221
823.162358	0.012049
823.352049	0.011902
823.541721	0.012002
823.731376	0.011775
823.921012	0.011655
824.110629	0.011622
824.300229	0.011510
824.489811	0.011363
824.679374	0.011338
824.868919	0.011364
825.058445	0.011579
825.247954	0.011406
825.437444	0.011560
825.626916	0.011347
825.816370	0.011257
826.005806	0.011274
826.195223	0.011226
826.384622	0.011291
826.574003	0.011404
826.763366	0.011283
826.952711	0.011243
827.142037	0.011255
827.331345	0.011305
827.520635	0.011315
827.709906	0.011397
827.899160	0.011339
828.088395	0.011374
828.277612	0.011266
828.466810	0.011264
828.655991	0.011437
828.845153	0.011388
829.034297	0.011504
829.223423	0.011490
829.412531	0.011621
829.601620	0.011675
829.790691	0.011374
829.979744	0.011336
830.168779	0.011281
830.357795	0.011074
830.546793	0.010904
830.735773	0.010883
830.924735	0.010876
831.113679	0.010649
831.302604	0.010624
831.491511	0.010770
831.680400	0.010630
831.869271	0.010615
832.058123	0.010738
832.246957	0.010966
832.435773	0.010923
832.624571	0.010911
832.813351	0.010884
833.002112	0.010788
833.190855	0.010820
833.379580	0.010803
833.568287	0.010618
833.756975	0.010428
833.945645	0.010045
834.134297	0.010016
834.322931	0.009826
834.511547	0.009668
834.700144	0.009526
834.888723	0.009337
835.077284	0.009537
835.265826	0.009868
835.454351	0.009795
835.642857	0.009972
835.831345	0.009830
836.019815	0.009661
836.208266	0.009692
836.396699	0.009775
836.585114	0.009859
836.773511	0.009682
836.961890	0.009435
837.150250	0.009375
837.338592	0.009262
837.526916	0.009403
837.715222	0.009418
837.903510	0.009535
838.091779	0.009787
838.280030	0.009668
838.468263	0.009803
838.656477	0.009788
838.844674	0.009880
839.032852	0.009993
839.221012	0.009950
839.409153	0.010239
839.597277	0.010161
839.785382	0.009956
839.973469	0.009877
840.161538	0.009855
840.349589	0.010046
840.537621	0.010098
840.725635	0.010015
840.913631	0.009917
841.101609	0.009906
841.289568	0.009669
841.477509	0.009501
841.665432	0.009533
841.853337	0.009515
842.041224	0.009334
842.229092	0.009190
842.416942	0.009321
842.604774	0.009299
842.792588	0.009097
842.980383	0.009450
843.168160	0.009374
843.355919	0.009419
843.543660	0.009139
843.731382	0.009143
843.919087	0.008851
844.106773	0.008778
844.294441	0.008684
844.482090	0.008790
844.669722	0.008653
844.857335	0.008811
845.044930	0.008851
845.232507	0.009012
845.420065	0.009005
845.607605	0.009292
845.795127	0.009521
845.982631	0.009920
846.170117	0.009953
846.357584	0.009946
846.545033	0.010194
846.732464	0.010271
846.919877	0.010202
847.107272	0.010432
847.294648	0.010804
847.482006	0.010631
847.669346	0.010437
847.856667	0.010358
848.043971	0.010303
848.231256	0.010169
848.418523	0.010306
848.605771	0.010427
848.793002	0.010147
848.980214	0.009915
849.167408	0.009955
849.354584	0.009982
849.541742	0.010089
849.728881	0.010050
849.916002	0.010032
850.103105	0.009790
850.290190	0.009708
850.477256	0.009956
850.664304	0.009941
850.851334	0.009728
851.038346	0.009671
851.225340	0.009630
851.412315	0.009710
851.599272	0.009594
851.786211	0.009503
851.973132	0.009296
852.160034	0.009181
852.346918	0.009144
852.533784	0.009480
852.720632	0.009518
852.907462	0.009413
853.094273	0.009391
853.281066	0.009700
853.467841	0.009674
853.654598	0.009834
853.841336	0.009828
854.028056	0.009778
854.214758	0.009597
854.401442	0.009694
854.588107	0.009627
854.774755	0.009731
854.961384	0.009617
855.147995	0.009827
855.334587	0.009977
855.521162	0.010149
855.707718	0.010315
855.894256	0.010344
856.080775	0.010403
856.267277	0.010705
856.453760	0.010504
856.640225	0.010241
856.826672	0.010197
857.013101	0.010023
857.199511	0.009768
857.385903	0.009769
857.572277	0.009794
857.758633	0.009570
857.944970	0.009289
858.131290	0.009476
858.317591	0.009655
858.503873	0.009656
858.690138	0.009689
858.876384	0.009857
859.062612	0.009878
859.248822	0.009797
859.435014	0.009962
859.621188	0.010214
859.807343	0.010223
859.993480	0.010017
860.179599	0.010200
860.365699	0.010202
860.551781	0.010241
860.737846	0.009963
860.923891	0.009741
861.109919	0.009903
861.295929	0.009962
861.481920	0.009869
861.667893	0.009894
861.853848	0.009845
862.039784	0.009867
862.225702	0.009685
862.411603	0.009811
862.597484	0.010221
862.783348	0.009943
862.969193	0.009574
863.155021	0.009517
863.340830	0.009772
863.526620	0.009612
863.712393	0.009515
863.898147	0.009560
864.083883	0.009637
864.269601	0.009417
864.455301	0.009237
864.640982	0.009484
864.826645	0.009615
865.012290	0.009191
865.197917	0.009351
865.383526	0.009504
865.569116	0.009303
865.754688	0.009519
865.940242	0.009692
866.125777	0.009773
866.311295	0.009721
866.496794	0.009845
866.682275	0.010178
866.867737	0.009852
867.053182	0.009770
867.238608	0.009833
867.424016	0.009653
867.609406	0.009486
867.794778	0.009620
867.980131	0.009562
868.165466	0.009424
868.350783	0.009321
868.536082	0.009548
868.721362	0.009495
868.906625	0.009693
869.091869	0.009799
869.277094	0.009904
869.462302	0.009821
869.647491	0.010064
869.832662	0.009921
870.017815	0.010088
870.202950	0.010130
870.388066	0.010372
870.573165	0.010361
870.758245	0.009958
870.943306	0.009827
871.128350	0.009930
871.313375	0.009564
871.498382	0.009671
871.683371	0.009489
871.868342	0.009217
872.053294	0.009170
872.238229	0.009032
872.423144	0.009377
872.608042	0.009419
872.792922	0.009535
872.977783	0.009412
873.162626	0.009307
873.347451	0.009234
873.532258	0.009202
873.717046	0.009133
873.901816	0.009032
874.086568	0.008579
874.271302	0.008227
874.456017	0.007861
874.640715	0.007923
874.825394	0.007905
875.010055	0.008030
875.194697	0.008018
875.379322	0.007763
875.563928	0.007582
875.748516	0.007583
875.933085	0.008035
876.117637	0.007986
876.302170	0.007974
876.486685	0.008029
876.671182	0.007984
876.855661	0.008046
877.040121	0.008374
877.224563	0.008821
877.408987	0.009077
877.593393	0.008959
877.777780	0.008926
877.962150	0.009069
878.146501	0.009148
878.330833	0.009265
878.515148	0.009332
878.699444	0.009201
878.883722	0.008884
879.067982	0.008950
879.252224	0.008839
879.436447	0.008931
879.620653	0.008919
879.804840	0.009003
879.989008	0.008717
880.173159	0.008933
880.357291	0.008969
880.541405	0.009018
880.725501	0.008914
880.909579	0.009041
881.093638	0.009108
881.277680	0.009323
881.461703	0.009183
881.645707	0.009464
881.829694	0.009380
882.013662	0.009202
882.197612	0.009325
882.381544	0.009292
882.565458	0.009052
882.749353	0.009194
882.933230	0.008839
883.117089	0.008906
883.300930	0.008602
883.484753	0.008673
883.668557	0.008866
883.852343	0.008632
884.036111	0.008465
884.219861	0.008646
884.403592	0.008397
884.587305	0.008761
884.771000	0.008551
884.954677	0.008668
885.138335	0.008367
885.321976	0.008282
885.505598	0.008585
885.689201	0.008750
885.872787	0.008623
886.056354	0.008569
886.239904	0.008403
886.423434	0.008504
886.606947	0.008898
886.790442	0.009383
886.973918	0.009374
887.157376	0.009462
887.340816	0.009509
887.524237	0.009418
887.707641	0.009385
887.891026	0.009194
888.074393	0.009174
888.257741	0.008747
888.441072	0.008329
888.624384	0.008340
888.807678	0.008055
888.990954	0.008103
889.174211	0.008333
889.357451	0.008337
889.540672	0.008405
889.723875	0.008073
889.907059	0.008135
890.090226	0.008005
890.273374	0.008088
890.456504	0.008085
890.639616	0.007773
890.822709	0.007490
891.005785	0.007509
891.188842	0.007659
891.371881	0.007917
891.554901	0.007842
891.737904	0.008045
891.920888	0.007987
892.103854	0.007984
892.286802	0.008145
892.469731	0.008499
892.652643	0.008949
892.835536	0.008982
893.018410	0.009135
893.201267	0.009006
893.384106	0.008808
893.566926	0.008545
893.749728	0.008295
893.932511	0.008487
894.115277	0.008428
894.298024	0.007854
894.480753	0.007542
894.663464	0.007294
894.846157	0.007223
895.028831	0.007312
895.211487	0.007375
895.394125	0.007138
895.576745	0.006792
895.759346	0.006432
895.941930	0.006554
896.124495	0.006883
896.307041	0.006855
896.489570	0.007106
896.672080	0.007273
896.854573	0.007603
897.037046	0.008168
897.219502	0.008172
897.401940	0.008532
897.584359	0.008814
897.766760	0.008504
897.949143	0.008877
898.131507	0.008963
898.313854	0.008756
898.496182	0.008643
898.678492	0.008666
898.860783	0.008921
899.043057	0.008596
899.225312	0.008648
899.407549	0.008591
899.589768	0.008231
899.771968	0.007784
899.954151	0.007727
900.136315	0.007310
900.318461	0.007069
900.500588	0.006748
900.682698	0.006943
900.864789	0.006774
901.046862	0.006693
901.228917	0.006483
901.410953	0.006491
901.592971	0.006468
901.774972	0.006813
901.956953	0.006888
902.138917	0.006778
902.320862	0.006600
902.502790	0.006568
902.684699	0.006563
902.866589	0.006528
903.048462	0.006896
903.230316	0.006714
903.412152	0.006368
903.593970	0.006586
903.775770	0.006832
903.957551	0.006802
904.139314	0.006674
904.321059	0.006789
904.502786	0.007232
904.684494	0.007473
904.866185	0.007841
905.047857	0.007789
905.229510	0.007288
905.411146	0.007175
905.592763	0.007007
905.774363	0.006740
905.955943	0.006600
906.137506	0.006283
906.319051	0.005980
906.500577	0.005577
906.682085	0.006045
906.863575	0.006236
907.045046	0.006320
907.226500	0.006567
907.407935	0.006675
907.589352	0.006878
907.770750	0.007040
907.952131	0.006734
908.133493	0.006344
908.314837	0.006192
908.496163	0.006235
908.677470	0.006174
908.858760	0.006246
909.040031	0.006238
909.221284	0.006289
909.402518	0.006346
909.583735	0.006399
909.764933	0.007126
909.946113	0.006776
910.127275	0.006707
910.308418	0.006548
910.489544	0.006479
910.670651	0.006230
910.851740	0.005651
911.032810	0.005463
911.213863	0.005394
911.394897	0.005126
911.575913	0.005559
911.756911	0.005398
911.937890	0.005428
912.118851	0.005234
912.299794	0.005463
912.480719	0.005507
912.661626	0.005418
912.842514	0.005460
913.023384	0.005079
913.204236	0.004836
913.385070	0.004703
913.565886	0.004486
913.746683	0.004051
913.927462	0.003873
914.108223	0.004084
914.288965	0.004302
914.469690	0.004276
914.650396	0.004328
914.831084	0.004246
915.011754	0.004569
915.192405	0.004551
915.373038	0.004850
915.553653	0.004947
915.734250	0.005121
915.914829	0.004623
916.095389	0.004508
916.275931	0.004818
916.456455	0.004359
916.636961	0.004255
916.817448	0.003974
916.997917	0.003938
917.178368	0.003493
917.358801	0.003242
917.539216	0.003066
917.719612	0.002943
917.899990	0.002486
918.080350	0.002516
918.260692	0.002159
918.441015	0.002476
918.621320	0.002603
918.801607	0.002756
918.981876	0.002568
919.162127	0.002558
919.342359	0.002583
919.522573	0.002759
919.702769	0.002776
919.882947	0.002606
920.063106	0.002434
920.243247	0.002253
920.423370	0.002552
920.603475	0.002635
920.783562	0.002458
920.963630	0.002588
921.143680	0.002462
921.323712	0.002554
921.503725	0.002693
921.683721	0.002610
921.863698	0.002494
922.043657	0.002168
922.223598	0.001825
922.403520	0.001999
922.583424	0.001503
922.763311	0.001227
922.943178	0.000822
923.123028	0.000710
923.302859	0.000782
923.482673	0.000623
923.662467	0.000471
923.842244	0.000448
924.022003	0.000564
924.201743	0.000455
924.381465	0.000700
924.561169	0.000851
924.740854	0.000838
924.920522	0.000462
925.100171	-0.000377
925.279802	-0.000629
925.459414	-0.000814
925.639009	-0.001389
925.818585	-0.001145
925.998143	-0.001432
926.177683	-0.001671
926.357205	-0.001605
926.536708	-0.001530
926.716193	-0.001044
926.895660	-0.001307
927.075109	-0.000991
927.254539	-0.001223
927.433951	-0.001689
927.613345	-0.001127
927.792721	-0.000828
927.972079	-0.000981
928.151418	-0.001190
928.330739	-0.001045
928.510042	-0.001389
928.689327	-0.001429
928.868593	-0.001147
929.047841	-0.001188
929.227071	-0.001820
929.406283	-0.001897
929.585476	-0.002741
929.764652	-0.002876
929.943809	-0.003069
930.122948	-0.002665
930.302068	-0.003564
930.481171	-0.003899
930.660255	-0.004069
930.839321	-0.004245
931.018369	-0.004797
931.197398	-0.004568
931.376409	-0.004679
931.555402	-0.005094
931.734377	-0.004840
931.913334	-0.004704
932.092272	-0.004549
932.271192	-0.004159
932.450094	-0.004892
932.628978	-0.004859
932.807844	-0.004894
932.986691	-0.005115
933.165520	-0.005057
933.344331	-0.004999
933.523123	-0.004812
933.701898	-0.005295
933.880654	-0.006089
934.059392	-0.005772
934.238111	-0.006002
934.416813	-0.006205
934.595496	-0.006343
934.774161	-0.005927
934.952808	-0.006560
935.131437	-0.006883
935.310047	-0.006282
935.488639	-0.006198
935.667213	-0.005596
935.845769	-0.005149
936.024306	-0.005360
936.202825	-0.005147
936.381326	-0.005867
936.559809	-0.006673
936.738274	-0.007361
936.916720	-0.008107
937.095148	-0.007239
937.273558	-0.008255
937.451950	-0.009093
937.630323	-0.008707
937.808678	-0.008970
937.987015	-0.008908
938.165334	-0.008139
938.343635	-0.008164
938.521917	-0.008062
938.700181	-0.009197
938.878427	-0.009718
939.056655	-0.010079
939.234864	-0.010730
939.413055	-0.011510
939.591228	-0.011221
939.769383	-0.011417
939.947519	-0.010686
940.125638	-0.010700
940.303738	-0.010831
940.481820	-0.010378
940.659883	-0.009890
940.837929	-0.010196
941.015956	-0.009073
941.193965	-0.009936
941.371955	-0.010472
941.549928	-0.010898
941.727882	-0.011051
941.905818	-0.011810
942.083736	-0.012052
942.261636	-0.013225
942.439517	-0.013418
942.617380	-0.014358
942.795225	-0.014488
942.973052	-0.014445
943.150860	-0.014844
943.328651	-0.014594
943.506423	-0.015096
943.684176	-0.014627
943.861912	-0.013068
944.039629	-0.012014
944.217328	-0.011749
944.395009	-0.011451
944.572672	-0.010743
944.750317	-0.010074
944.927943	-0.010440
945.105551	-0.009854
945.283141	-0.010107
945.460712	-0.011509
945.638265	-0.012316
945.815801	-0.013008
945.993317	-0.012434
946.170816	-0.012492
946.348297	-0.013236
946.525759	-0.013216
946.703203	-0.011497
946.880629	-0.011496
947.058036	-0.010781
947.235425	-0.010673
947.412797	-0.009670
947.590149	-0.009176
947.767484	-0.009965
947.944800	-0.008913
948.122099	-0.009195
948.299379	-0.009623
948.476640	-0.009271
948.653884	-0.009020
948.831109	-0.008675
949.008316	-0.008963
949.185505	-0.009377
949.362676	-0.008528
949.539828	-0.008539
949.716962	-0.008007
949.894078	-0.008425
950.071176	-0.008962
950.248256	-0.009531
950.425317	-0.008910
950.602360	-0.008645
950.779385	-0.009457
950.956391	-0.010068
951.133380	-0.010604
951.310350	-0.010192
951.487302	-0.010331
951.664235	-0.010578
951.841151	-0.009583
952.018048	-0.010300
952.194927	-0.010655
952.371788	-0.009134
952.548631	-0.007023
952.725455	-0.006311
952.902261	-0.006461
953.079049	-0.005368
953.255819	-0.003739
953.432570	-0.004241
953.609303	-0.004119
953.786018	-0.003084
953.962715	-0.003374
954.139394	-0.004403
954.316054	-0.004194
954.492696	-0.004131
954.669320	-0.003997
954.845926	-0.003684
955.022513	-0.003123
955.199083	-0.003614
955.375634	-0.002626
955.552166	-0.003159
955.728681	-0.003356
955.905177	-0.003293
956.081655	-0.002900
956.258115	-0.002770
956.434557	-0.002741
956.610980	-0.003073
956.787385	-0.000709
956.963772	-0.000692
957.140141	0.000389
957.316492	-0.000230
957.492824	-0.001351
957.669138	-0.001086
957.845434	-0.000356
958.021712	-0.000134
958.197971	0.001736
958.374212	0.001043
958.550435	0.002349
958.726640	0.002589
958.902826	0.003115
959.078995	0.005842
959.255145	0.007455
959.431277	0.006811
959.607390	0.008085
959.783486	0.007129
959.959563	0.010075
960.135622	0.009480
960.311662	0.010634
960.487685	0.011656
960.663689	0.011880
960.839675	0.010982
961.015643	0.012256
961.191593	0.010809
961.367524	0.013172
961.543437	0.012216
961.719332	0.012649
961.895209	0.012082
962.071067	0.013973
962.246907	0.012968
962.422730	0.014522
962.598533	0.013995
962.774319	0.014316
962.950086	0.015489
963.125835	0.015735
963.301566	0.015741
963.477279	0.017099
963.652973	0.016641
963.828650	0.016657
964.004308	0.016023
964.179947	0.016056
964.355569	0.018321
964.531172	0.017331
964.706757	0.016780
964.882324	0.018785
965.057873	0.017607
965.233403	0.019240
965.408916	0.021299
965.584410	0.020023
965.759885	0.021798
965.935343	0.020600
966.110782	0.020124
966.286203	0.021061
966.461606	0.019783
966.636991	0.020942
966.812357	0.018807
966.987705	0.018609
967.163035	0.021328
967.338347	0.021198
967.513641	0.020617
967.688916	0.022101
967.864173	0.021157
968.039412	0.020069
968.214632	0.020316
968.389835	0.020494
968.565019	0.021382
968.740185	0.020795
968.915333	0.020181
969.090462	0.022123
969.265573	0.020869
969.440667	0.022717
969.615741	0.022980
969.790798	0.023979
969.965836	0.024080
970.140856	0.022259
970.315858	0.022089
970.490842	0.023700
970.665808	0.025178
970.840755	0.024241
971.015684	0.023063
971.190595	0.023928
971.365487	0.022203
971.540362	0.024146
971.715218	0.024497
971.890056	0.024656
972.064875	0.024624
972.239677	0.023523
972.414460	0.025887
972.589225	0.027183
972.763972	0.027832
972.938700	0.027855
973.113411	0.027461
973.288103	0.028806
973.462777	0.028684
973.637432	0.026975
973.812070	0.026750
973.986689	0.025676
974.161290	0.025489
974.335873	0.025768
974.510437	0.027075
974.684984	0.026418
974.859512	0.026764
975.034022	0.026424
975.208513	0.026332
975.382987	0.026348
975.557442	0.026057
975.731879	0.024928
975.906298	0.023542
976.080698	0.023434
976.255080	0.023978
976.429445	0.023614
976.603790	0.025490
976.778118	0.026039
976.952427	0.026738
977.126719	0.026736
977.300992	0.028255
977.475246	0.028349
977.649483	0.027669
977.823701	0.027903
977.997901	0.028535
978.172083	0.026387
978.346247	0.026410
978.520392	0.025182
978.694519	0.026255
978.868628	0.025639
979.042719	0.026324
979.216791	0.027945
979.390845	0.028255
979.564882	0.027602
979.738899	0.029015
979.912899	0.028397
980.086880	0.028934
980.260843	0.028115
980.434788	0.029249
980.608715	0.030348
980.782623	0.028044
980.956514	0.027047
981.130386	0.025146
981.304240	0.026072
981.478075	0.028456
981.651892	0.030126
981.825692	0.030901
981.999472	0.029443
982.173235	0.028299
982.346980	0.028968
982.520706	0.030570
982.694414	0.031112
982.868104	0.030025
983.041775	0.030154
983.215428	0.028258
983.389064	0.028185
983.562680	0.028692
983.736279	0.028323
983.909860	0.028574
984.083422	0.025712
984.256966	0.027432
984.430491	0.028559
984.603999	0.026567
984.777488	0.026563
984.950959	0.026533
985.124412	0.026221
985.297847	0.026160
985.471263	0.027333
985.644661	0.029083
985.818041	0.028487
985.991403	0.027502
986.164747	0.027220
986.338072	0.028255
986.511379	0.029172
986.684668	0.029152
986.857938	0.029809
987.031191	0.027413
987.204425	0.027530
987.377641	0.028140
987.550839	0.028620
987.724018	0.029725
987.897179	0.028747
988.070322	0.027484
988.243447	0.027592
988.416554	0.028425
988.589642	0.028625
988.762712	0.028017
988.935764	0.028373
989.108798	0.026128
989.281813	0.025605
989.454811	0.027156
989.627790	0.027553
989.800751	0.028252
989.973693	0.027534
990.146617	0.030378
990.319524	0.030818
990.492412	0.029044
990.665281	0.031805
990.838133	0.031906
991.010966	0.030055
991.183781	0.029359
991.356578	0.028932
991.529356	0.028386
991.702117	0.027509
991.874859	0.027137
992.047583	0.027189
992.220288	0.026512
992.392976	0.026224
992.565645	0.027143
992.738296	0.026913
992.910929	0.027007
993.083543	0.026735
993.256139	0.025952
993.428718	0.028545
993.601277	0.028203
993.773819	0.028631
993.946342	0.028415
994.118848	0.029479
994.291335	0.031101
994.463803	0.030823
994.636254	0.033664
994.808686	0.035520
994.981100	0.033473
995.153496	0.034904
995.325874	0.033754
995.498233	0.034211
995.670574	0.032607
995.842897	0.031798
996.015202	0.032167
996.187488	0.030970
996.359757	0.028715
996.532007	0.028159
996.704239	0.026200
996.876452	0.027733
997.048648	0.026903
997.220825	0.026519
997.392984	0.025612
997.565124	0.025948
997.737247	0.024180
997.909351	0.024654
998.081437	0.025009
998.253505	0.027496
998.425554	0.025234
998.597586	0.025514
998.769599	0.025788
998.941594	0.027690
999.113571	0.026647
999.285529	0.026538
999.457469	0.026282
999.629391	0.025340
999.801295	0.023508
999.973181	0.025487
1000.145048	0.027707
1000.316897	0.026993
1000.488728	0.023613
1000.660541	0.024873
1000.832335	0.025225
1001.004111	0.026039
1001.175869	0.027391
1001.347609	0.029397
1001.519331	0.027312
1001.691034	0.025774
1001.862719	0.026302
1002.034386	0.028090
1002.206035	0.026465
1002.377665	0.027173
1002.549277	0.026060
1002.720871	0.025539
1002.892447	0.023783
1003.064004	0.023499
1003.235544	0.022096
1003.407065	0.022359
1003.578568	0.022706
1003.750052	0.023502
1003.921519	0.022489
1004.092967	0.022608
1004.264397	0.022753
1004.435809	0.023619
1004.607202	0.024399
1004.778577	0.026574
1004.949934	0.025213
1005.121273	0.024061
1005.292594	0.023160
1005.463896	0.023274
1005.635180	0.023966
1005.806446	0.021947
1005.977694	0.022071
1006.148923	0.022212
1006.320135	0.020994
1006.491328	0.022265
1006.662503	0.023656
1006.833659	0.023940
1007.004798	0.024127
1007.175918	0.023603
1007.347020	0.024440
1007.518103	0.023678
1007.689169	0.024131
1007.860216	0.025282
1008.031245	0.024698
1008.202256	0.025252
1008.373248	0.027566
1008.544223	0.027967
1008.715179	0.028911
1008.886117	0.030292
1009.057036	0.029091
1009.227938	0.029401
1009.398821	0.029077
1009.569686	0.028751
1009.740533	0.027362
1009.911361	0.023795
1010.082172	0.022667
1010.252964	0.021878
1010.423738	0.021111
1010.594493	0.023751
1010.765231	0.022211
1010.935950	0.021477
1011.106651	0.021593
1011.277334	0.023288
1011.447998	0.025118
1011.618645	0.025950
1011.789273	0.026038
1011.959882	0.026198
1012.130474	0.024972
1012.301048	0.025674
1012.471603	0.025291
1012.642140	0.026061
1012.812658	0.025566
1012.983159	0.024412
1013.153641	0.024672
1013.324105	0.025041
1013.494551	0.023944
1013.664979	0.023246
1013.835388	0.022339
1014.005779	0.022822
1014.176152	0.023152
1014.346507	0.022719
1014.516843	0.022879
1014.687162	0.020935
1014.857462	0.020624
1015.027744	0.021916
1015.198007	0.021833
1015.368252	0.022738
1015.538480	0.022155
1015.708689	0.020937
1015.878879	0.019500
1016.049052	0.019933
1016.219206	0.021847
1016.389342	0.022443
1016.559460	0.021522
1016.729559	0.023317
1016.899641	0.023065
1017.069704	0.023743
1017.239749	0.025404
1017.409775	0.026744
1017.579784	0.026457
1017.749774	0.025226
1017.919746	0.023841
1018.089700	0.023471
1018.259635	0.022691
1018.429553	0.022396
1018.599452	0.021376
1018.769333	0.021841
1018.939195	0.020434
1019.109040	0.019966
1019.278866	0.021079
1019.448674	0.021071
1019.618464	0.022527
1019.788235	0.021524
1019.957989	0.022630
1020.127724	0.024133
1020.297441	0.023017
1020.467139	0.024519
1020.636820	0.024293
1020.806482	0.023213
1020.976126	0.023597
1021.145752	0.022913
1021.315359	0.024880
1021.484948	0.024653
1021.654519	0.023486
1021.824072	0.022719
1021.993607	0.022285
1022.163123	0.023191
1022.332621	0.024002
1022.502101	0.025316
1022.671563	0.025015
1022.841007	0.023171
1023.010432	0.023052
1023.179839	0.023003
1023.349228	0.023101
1023.518598	0.022043
1023.687951	0.022971
1023.857285	0.023607
1024.026601	0.022074
1024.195899	0.022060
1024.365178	0.021530
1024.534439	0.021447
1024.703682	0.022477
1024.872907	0.022889
1025.042114	0.023567
1025.211302	0.022626
1025.380472	0.022382
1025.549624	0.022026
1025.718758	0.022435
1025.887873	0.023173
1026.056970	0.023885
1026.226049	0.022502
1026.395110	0.021778
1026.564153	0.020425
1026.733177	0.021531
1026.902183	0.021286
1027.071171	0.021044
1027.240141	0.020488
1027.409092	0.021247
1027.578026	0.020557
1027.746940	0.021765
1027.915837	0.022043
1028.084716	0.022028
1028.253576	0.020103
1028.422418	0.018611
1028.591242	0.018117
1028.760048	0.017661
1028.928835	0.017054
1029.097604	0.016829
1029.266355	0.016010
1029.435088	0.016457
1029.603803	0.016454
1029.772499	0.016573
1029.941177	0.018848
1030.109837	0.019035
1030.278478	0.020188
1030.447102	0.019972
1030.615707	0.019688
1030.784294	0.020092
1030.952863	0.018767
1031.121413	0.020793
1031.289945	0.021052
1031.458460	0.020430
1031.626955	0.019449
1031.795433	0.018590
1031.963892	0.020163
1032.132334	0.020032
1032.300756	0.019718
1032.469161	0.020252
1032.637548	0.018576
1032.805916	0.019732
1032.974266	0.019683
1033.142598	0.022473
1033.310911	0.022714
1033.479207	0.021279
1033.647484	0.022287
1033.815743	0.023129
1033.983983	0.022043
1034.152206	0.022177
1034.320410	0.021056
1034.488596	0.021018
1034.656764	0.021077
1034.824914	0.021002
1034.993045	0.019568
1035.161158	0.017556
1035.329253	0.015515
1035.497330	0.017740
1035.665388	0.017601
1035.833428	0.018132
1036.001450	0.016662
1036.169454	0.015346
1036.337440	0.014879
1036.505407	0.017028
1036.673356	0.017533
1036.841287	0.018051
1037.009200	0.017819
1037.177094	0.018663
1037.344970	0.019863
1037.512828	0.021539
1037.680668	0.022395
1037.848489	0.022964
1038.016293	0.023587
1038.184078	0.025486
1038.351845	0.025335
1038.519593	0.023518
1038.687324	0.023715
1038.855036	0.021621
1039.022730	0.021692
1039.190406	0.020558
1039.358063	0.020246
1039.525702	0.018250
1039.693323	0.016669
1039.860926	0.016528
1040.028511	0.017856
1040.196077	0.018310
1040.363625	0.019927
1040.531155	0.019029
1040.698667	0.020776
1040.866161	0.020653
1041.033636	0.021818
1041.201093	0.022203
1041.368532	0.023909
1041.535952	0.022300
1041.703355	0.022075
1041.870739	0.022250
1042.038105	0.022591
1042.205452	0.021050
1042.372782	0.022227
1042.540093	0.021237
1042.707386	0.021340
1042.874661	0.020263
1043.041918	0.020940
1043.209156	0.021401
1043.376376	0.019475
1043.543578	0.019604
1043.710762	0.019330
1043.877927	0.019586
1044.045074	0.019269
1044.212203	0.017399
1044.379314	0.017319
1044.546407	0.018089
1044.713481	0.016745
1044.880537	0.016298
1045.047575	0.016100
1045.214595	0.016747
1045.381596	0.016544
1045.548579	0.016060
1045.715544	0.017040
1045.882491	0.016870
1046.049420	0.017079
1046.216330	0.017482
1046.383222	0.019281
1046.550096	0.019694
1046.716951	0.018564
1046.883789	0.018280
1047.050608	0.019605
1047.217409	0.019082
1047.384192	0.019046
1047.550956	0.018298
1047.717703	0.017636
1047.884431	0.016196
1048.051140	0.015712
1048.217832	0.016437
1048.384505	0.014594
1048.551161	0.013788
1048.717798	0.013514
1048.884416	0.013697
1049.051017	0.013434
1049.217599	0.012453
1049.384163	0.014271
1049.550709	0.014348
1049.717237	0.012134
1049.883746	0.013890
1050.050237	0.013250
1050.216710	0.014686
1050.383165	0.013476
1050.549601	0.014570
1050.716019	0.015362
1050.882420	0.013105
1051.048801	0.012487
1051.215165	0.013949
1051.381510	0.013801
1051.547837	0.015015
1051.714146	0.015170
1051.880437	0.016038
1052.046709	0.014264
1052.212964	0.014224
1052.379200	0.013825
1052.545417	0.014378
1052.711617	0.015821
1052.877798	0.015395
1053.043961	0.016645
1053.210106	0.016663
1053.376233	0.015250
1053.542341	0.017499
1053.708432	0.017808
1053.874504	0.019843
1054.040557	0.019588
1054.206593	0.018299
1054.372610	0.017275
1054.538609	0.015013
1054.704590	0.014373
1054.870553	0.017079
1055.036497	0.016238
1055.202424	0.017138
1055.368331	0.015928
1055.534221	0.016801
1055.700093	0.016895
1055.865946	0.017774
1056.031781	0.019143
1056.197598	0.018930
1056.363397	0.018527
1056.529177	0.018109
1056.694939	0.018863
1056.860683	0.019569
1057.026409	0.018054
1057.192116	0.018426
1057.357806	0.018545
1057.523477	0.018179
1057.689130	0.019242
1057.854764	0.017572
1058.020381	0.017426
1058.185979	0.016932
1058.351559	0.015830
1058.517120	0.013990
1058.682664	0.013242
1058.848189	0.013219
1059.013696	0.011624
1059.179185	0.009212
1059.344656	0.010172
1059.510108	0.009608
1059.675542	0.009098
1059.840958	0.009639
1060.006356	0.010847
1060.171735	0.011965
1060.337096	0.011068
1060.502439	0.011405
1060.667764	0.012711
1060.833071	0.012717
1060.998359	0.014369
1061.163629	0.012636
1061.328881	0.012466
1061.494115	0.012620
1061.659330	0.011419
1061.824527	0.011143
1061.989706	0.013864
1062.154867	0.014334
1062.320010	0.014166
1062.485134	0.013212
1062.650240	0.015859
1062.815328	0.015161
1062.980398	0.015572
1063.145449	0.015205
1063.310482	0.014147
1063.475497	0.013186
1063.640494	0.013416
1063.805473	0.013030
1063.970433	0.012657
1064.135375	0.012689
1064.300299	0.013063
1064.465204	0.014373
1064.630092	0.013869
1064.794961	0.015745
1064.959812	0.016081
1065.124645	0.016182
1065.289459	0.016155
1065.454256	0.016384
1065.619034	0.015309
1065.783793	0.016040
1065.948535	0.014808
1066.113258	0.016035
1066.277964	0.016780
1066.442651	0.015314
1066.607319	0.013983
1066.771970	0.013119
1066.936602	0.013727
1067.101216	0.013043
1067.265812	0.014087
1067.430389	0.012639
1067.594949	0.012541
1067.759490	0.012285
1067.924013	0.011621
1068.088518	0.011930
1068.253004	0.014069
1068.417472	0.014893
1068.581922	0.015773
1068.746354	0.013972
1068.910768	0.016076
1069.075163	0.017348
1069.239540	0.017389
1069.403899	0.016353
1069.568240	0.015575
1069.732562	0.012216
1069.896866	0.012078
1070.061152	0.011923
1070.225420	0.012206
1070.389670	0.010531
1070.553901	0.008765
1070.718114	0.008502
1070.882309	0.009566
1071.046486	0.011597
1071.210644	0.014769
1071.374784	0.012962
1071.538906	0.011819
1071.703010	0.011020
1071.867096	0.011958
1072.031163	0.012951
1072.195212	0.012258
1072.359243	0.014270
1072.523256	0.013108
1072.687250	0.012889
1072.851226	0.013487
1073.015184	0.013356
1073.179124	0.014351
1073.343045	0.013090
1073.506949	0.014329
1073.670834	0.016069
1073.834701	0.014820
1073.998549	0.015006
1074.162380	0.013520
1074.326192	0.013748
1074.489986	0.016404
1074.653761	0.015510
1074.817519	0.015968
1074.981258	0.014451
1075.144979	0.012119
1075.308682	0.011422
1075.472367	0.012815
1075.636033	0.012409
1075.799681	0.011975
1075.963311	0.008206
1076.126923	0.007409
1076.290516	0.008039
1076.454092	0.008932
1076.617649	0.009149
1076.781187	0.007259
1076.944708	0.006327
1077.108210	0.008089
1077.271695	0.008859
1077.435160	0.013132
1077.598608	0.015505
1077.762038	0.015299
1077.925449	0.014532
1078.088842	0.014190
1078.252217	0.015867
1078.415573	0.016064
1078.578912	0.015172
1078.742232	0.012498
1078.905534	0.010345
1079.068817	0.009336
1079.232083	0.008891
1079.395330	0.010298
1079.558559	0.011064
1079.721770	0.013385
1079.884962	0.012113
1080.048136	0.012159
1080.211293	0.013623
1080.374430	0.014156
1080.537550	0.014124
1080.700651	0.015170
1080.863735	0.013369
1081.026800	0.013162
1081.189846	0.009919
1081.352875	0.009351
1081.515885	0.009604
1081.678877	0.009547
1081.841851	0.008649
1082.004807	0.008000
1082.167744	0.006715
1082.330663	0.008230
1082.493564	0.009925
1082.656447	0.011019
1082.819312	0.010818
1082.982158	0.009715
1083.144986	0.008385
1083.307796	0.007067
1083.470587	0.006296
1083.633361	0.006112
1083.796116	0.004562
1083.958853	0.001612
1084.121571	0.002262
1084.284272	0.005697
1084.446954	0.006096
1084.609618	0.006059
1084.772264	0.005507
1084.934892	0.006282
1085.097501	0.006712
1085.260092	0.007791
1085.422665	0.007628
1085.585220	0.006351
1085.747756	0.004879
1085.910274	0.006899
1086.072774	0.010115
1086.235256	0.012861
1086.397720	0.014982
1086.560165	0.013747
1086.722592	0.012981
1086.885001	0.013411
1087.047392	0.014300
1087.209764	0.015077
1087.372119	0.013526
1087.534455	0.014858
1087.696772	0.015015
1087.859072	0.012384
1088.021353	0.015233
1088.183616	0.016117
1088.345861	0.016829
1088.508088	0.016649
1088.670296	0.013967
1088.832486	0.014127
1088.994658	0.011998
1089.156812	0.012068
1089.318948	0.013591
1089.481065	0.011876
1089.643164	0.011844
1089.805245	0.012843
1089.967308	0.012400
1090.129352	0.014282
1090.291378	0.014644
1090.453386	0.014999
1090.615376	0.014508
1090.777347	0.013063
1090.939301	0.013520
1091.101236	0.013211
1091.263153	0.012882
1091.425051	0.014094
1091.586932	0.014603
1091.748794	0.013803
1091.910638	0.011887
1092.072463	0.009603
1092.234271	0.011237
1092.396060	0.010996
1092.557831	0.010174
1092.719584	0.009472
1092.881319	0.009936
1093.043035	0.007545
1093.204733	0.008799
1093.366413	0.008939
1093.528075	0.010426
1093.689718	0.008755
1093.851343	0.011396
1094.012950	0.009955
1094.174539	0.009736
1094.336110	0.007676
1094.497662	0.007584
1094.659196	0.005882
1094.820712	0.008026
1094.982210	0.008445
1095.143689	0.009105
1095.305151	0.008633
1095.466594	0.010183
1095.628018	0.009637
1095.789425	0.010295
1095.950813	0.012214
1096.112183	0.013790
1096.273535	0.012596
1096.434869	0.011729
1096.596184	0.010231
1096.757482	0.008223
1096.918761	0.008936
1097.080021	0.009794
1097.241264	0.010865
1097.402488	0.009387
1097.563694	0.010686
1097.724882	0.009885
1097.886052	0.011097
1098.047203	0.010534
1098.208336	0.009722
1098.369451	0.009618
1098.530548	0.009800
1098.691627	0.008656
1098.852687	0.009348
1099.013729	0.010618
1099.174753	0.010941
1099.335758	0.010298
1099.496746	0.012375
1099.657715	0.014901
1099.818666	0.015407
1099.979599	0.015133
1100.140513	0.016122
1100.301409	0.014484
1100.462287	0.012470
1100.623147	0.012364
1100.783989	0.014763
1100.944812	0.016633
1101.105617	0.014560
1101.266404	0.013715
1101.427173	0.016108
1101.587923	0.016656
1101.748656	0.017785
1101.909370	0.016687
1102.070066	0.016504
1102.230743	0.012843
1102.391403	0.012511
1102.552044	0.013437
1102.712667	0.013653
1102.873271	0.012762
1103.033858	0.009867
1103.194426	0.010188
1103.354976	0.007257
1103.515508	0.007121
1103.676021	0.008713
1103.836517	0.006863
1103.996994	0.003750
1104.157453	0.003629
1104.317893	-0.000260
1104.478316	0.001247
1104.638720	0.002972
1104.799106	0.004572
1104.959474	0.003623
1105.119823	0.001887
1105.280155	-0.000777
1105.440468	0.002222
1105.600763	0.001473
1105.761039	0.005257
1105.921298	0.004726
1106.081538	0.003394
1106.241760	0.004205
1106.401964	0.003231
1106.562149	0.006179
1106.722316	0.011504
1106.882465	0.011403
1107.042596	0.012266
1107.202709	0.012540
1107.362803	0.015305
1107.522879	0.015789
1107.682937	0.014412
1107.842977	0.013022
1108.002999	0.011927
1108.163002	0.011417
1108.322987	0.012117
1108.482954	0.009804
1108.642902	0.008776
1108.802833	0.004453
1108.962745	0.006507
1109.122639	0.006427
1109.282515	0.009811
1109.442372	0.008900
1109.602211	0.007716
1109.762032	0.003832
1109.921835	0.003121
1110.081620	0.004088
1110.241386	0.007473
1110.401134	0.003987
1110.560864	0.003751
1110.720576	0.000792
1110.880269	-0.000497
1111.039945	0.000385
1111.199602	0.005538
1111.359240	0.007630
1111.518861	0.003463
1111.678463	0.001468
1111.838047	0.002632
1111.997613	0.004166
1112.157161	0.007192
1112.316690	0.013169
1112.476202	0.011631
1112.635695	0.010144
1112.795169	0.011104
1112.954626	0.010724
1113.114064	0.011128
1113.273484	0.010266
1113.432886	0.011130
1113.592270	0.012183
1113.751635	0.008047
1113.910983	0.010039
1114.070312	0.011222
1114.229622	0.009455
1114.388915	0.010243
1114.548189	0.012183
1114.707445	0.015307
1114.866683	0.014635
1115.025903	0.014708
1115.185104	0.012809
1115.344287	0.010072
1115.503452	0.013161
1115.662599	0.014778
1115.821727	0.017754
1115.980838	0.018556
1116.139930	0.014195
1116.299004	0.014865
1116.458059	0.014250
1116.617097	0.015745
1116.776116	0.014190
1116.935117	0.008908
1117.094099	0.005405
1117.253064	0.003241
1117.412010	-0.003773
1117.570938	-0.000312
1117.729848	-0.002462
1117.888740	-0.002431
1118.047613	-0.003406
1118.206468	0.001900
1118.365305	0.002924
1118.524124	0.005988
1118.682924	0.006250
1118.841707	0.010653
1119.000471	0.008098
1119.159216	0.007147
1119.317944	0.005483
1119.476653	0.006112
1119.635344	0.000544
1119.794017	0.002002
1119.952672	0.000433
1120.111308	0.003544
1120.269927	0.001074
1120.428527	0.001160
1120.587108	0.004540
1120.745672	0.003889
1120.904217	0.006364
1121.062744	0.012714
1121.221253	0.010429
1121.379744	0.009349
1121.538216	0.008045
1121.696671	0.014177
1121.855107	0.011857
1122.013524	0.010439
1122.171924	0.016847
1122.330305	0.013497
1122.488668	0.011178
1122.647013	0.010921
1122.805340	0.009023
1122.963648	0.012552
1123.121938	0.007839
1123.280210	0.011088
1123.438464	0.010533
1123.596700	0.006910
1123.754917	0.003502
1123.913116	0.002015
1124.071297	0.001334
1124.229459	0.006966
1124.387604	0.002517
1124.545730	0.003818
1124.703838	0.003740
1124.861928	0.004331
1125.019999	0.000583
1125.178052	0.005680
1125.336088	0.010101
1125.494104	0.012977
1125.652103	0.010949
1125.810083	0.009606
1125.968045	0.005870
1126.125989	0.006357
1126.283915	0.009655
1126.441823	0.012433
1126.599712	0.017532
1126.757583	0.010611
1126.915436	0.004838
1127.073270	0.005793
1127.231087	0.003321
1127.388885	0.005413
1127.546665	0.004399
1127.704426	-0.000024
1127.862170	0.000527
1128.019895	-0.008388
1128.177602	-0.007765
1128.335291	-0.002378
1128.492961	-0.002558
1128.650614	0.003619
1128.808248	0.008765
1128.965864	0.006647
1129.123461	0.009118
1129.281041	0.008827
1129.438602	0.014330
1129.596145	0.015779
1129.753670	0.010283
1129.911176	0.011620
1130.068665	0.008745
1130.226135	0.002456
1130.383587	0.005636
1130.541020	0.000853
1130.698436	0.002183
1130.855833	-0.003748
1131.013212	-0.005853
1131.170573	-0.004863
1131.327915	-0.006955
1131.485239	-0.007958
1131.642545	-0.007507
1131.799833	-0.011219
1131.957103	-0.007205
1132.114354	-0.013125
1132.271588	-0.006943
1132.428803	-0.006187
1132.585999	-0.003093
1132.743178	-0.002165
1132.900338	0.003920
1133.057480	0.004751
1133.214604	0.009457
1133.371710	0.012017
1133.528797	0.017786
1133.685866	0.015000
1133.842917	0.015861
1133.999950	0.015532
1134.156964	0.015351
1134.313960	0.011945
1134.470938	0.016833
1134.627898	0.016637
1134.784840	0.009730
1134.941763	0.008301
1135.098668	0.009986
1135.255555	0.006502
1135.412424	0.007104
1135.569274	0.005213
1135.726107	0.001613
1135.882921	0.002499
1136.039716	0.001151
1136.196494	0.005902
1136.353253	0.007299
1136.509995	0.003236
1136.666717	0.002712
1136.823422	0.001573
1136.980109	0.000592
1137.136777	0.005721
1137.293427	-0.001712
1137.450059	-0.004723
1137.606672	-0.008254
1137.763267	-0.012680
1137.919844	-0.005694
1138.076403	0.000396
1138.232944	0.001281
1138.389466	0.005058
1138.545971	0.003444
1138.702457	0.009637
1138.858924	0.008412
1139.015374	0.010952
1139.171805	0.012452
1139.328218	0.002175
1139.484613	-0.003315
1139.640990	-0.006432
1139.797348	-0.007393
1139.953688	-0.005699
1140.110010	-0.008509
1140.266314	-0.005774
1140.422600	-0.006515
1140.578867	-0.004192
1140.735116	0.003116
1140.891347	0.006472
1141.047559	0.009525
1141.203754	0.009988
1141.359930	0.005278
1141.516088	0.007595
1141.672228	0.010365
1141.828349	0.007793
1141.984452	0.005841
1142.140537	0.004384
1142.296604	-0.000866
1142.452653	-0.002338
1142.608683	-0.002801
1142.764695	-0.003022
1142.920689	0.002991
1143.076665	-0.002959
1143.232622	0.001032
1143.388562	0.002394
1143.544483	0.005967
1143.700385	0.010410
1143.856270	0.010946
1144.012136	0.012973
1144.167985	0.016490
1144.323814	0.006954
1144.479626	0.015027
1144.635420	0.014077
1144.791195	0.011108
1144.946952	0.007810
1145.102691	0.013143
1145.258411	0.015434
1145.414113	0.012817
1145.569798	0.015251
1145.725463	0.015834
1145.881111	0.009028
1146.036741	0.008113
1146.192352	0.006475
1146.347945	0.006593
1146.503519	0.004562
1146.659076	0.006350
1146.814614	0.007859
1146.970134	0.005614
1147.125636	0.004474
1147.281120	0.008342
1147.436585	0.010797
1147.592032	0.009594
1147.747461	0.009029
1147.902872	0.007361
1148.058265	0.006840
1148.213639	0.007112
1148.368995	0.012597
1148.524333	0.013511
1148.679653	0.014534
1148.834954	0.005491
1148.990237	0.015194
1149.145502	0.017806
1149.300749	0.015633
1149.455977	0.012879
1149.611188	0.013308
1149.766380	0.005177
1149.921553	0.005419
1150.076709	0.000443
1150.231846	0.008201
1150.386966	0.002546
1150.542066	-0.003118
1150.697149	-0.004185
1150.852214	-0.002193
1151.007260	-0.008510
1151.162288	-0.003402
1151.317298	0.001576
1151.472289	0.003885
1151.627263	0.003049
1151.782218	0.000601
1151.937155	-0.000825
1152.092073	0.005270
1152.246974	0.002239
1152.401856	0.006225
1152.556720	0.001040
1152.711566	-0.002436
1152.866393	-0.001725
1153.021203	0.001853
1153.175994	0.005697
1153.330767	0.009988
1153.485521	0.009412
1153.640258	0.011819
1153.794976	0.011519
1153.949676	0.018292
1154.104358	0.021795
1154.259021	0.020635
1154.413667	0.020411
1154.568294	0.013318
1154.722903	0.009710
1154.877493	0.007066
1155.032066	0.013631
1155.186620	0.019874
1155.341156	0.018584
1155.495674	0.012430
1155.650173	0.008266
1155.804654	0.002082
1155.959118	-0.001225
1156.113562	0.002790
1156.267989	-0.004070
1156.422397	-0.016165
1156.576788	-0.020766
1156.731160	-0.026960
1156.885513	-0.029467
1157.039849	-0.026183
1157.194166	-0.024232
1157.348465	-0.012242
1157.502746	-0.014434
1157.657009	-0.003519
1157.811253	0.000488
1157.965479	0.008834
1158.119687	0.005705
1158.273877	0.007201
1158.428048	0.001747
1158.582201	0.007370
1158.736337	0.013446
1158.890453	0.016424
1159.044552	0.012124
1159.198632	0.019761
1159.352694	0.010149
1159.506738	0.010294
1159.660764	0.008186
1159.814771	0.011254
1159.968761	0.012091
1160.122732	0.004393
1160.276685	-0.000492
1160.430619	0.004861
1160.584535	-0.002749
1160.738434	-0.007608
1160.892313	-0.000282
1161.046175	0.004491
1161.200019	0.006971
1161.353844	-0.004103
1161.507651	0.000675
1161.661440	0.002981
1161.815210	-0.003499
1161.968962	-0.007526
1162.122697	0.003129
1162.276412	0.004012
1162.430110	0.007279
1162.583789	0.018466
1162.737451	0.026058
1162.891094	0.023783
1163.044718	0.019727
1163.198325	0.028192
1163.351913	0.030672
1163.505483	0.019205
1163.659035	0.024540
1163.812569	0.017665
1163.966084	0.007807
1164.119581	0.010845
1164.273060	0.007941
1164.426521	0.016255
1164.579964	0.002281
1164.733388	-0.006569
1164.886794	-0.004469
1165.040182	-0.012750
1165.193551	-0.010204
1165.346903	-0.011268
1165.500236	-0.023686
1165.653551	-0.031517
1165.806848	-0.034920
1165.960126	-0.018324
1166.113386	-0.015303
1166.266628	-0.013113
1166.419852	-0.019157
1166.573058	-0.020698
1166.726245	-0.026339
1166.879414	-0.012800
1167.032565	-0.002173
1167.185698	-0.003058
1167.338812	-0.017366
1167.491909	-0.013294
1167.644987	-0.011984
1167.798046	-0.013091
1167.951088	-0.005992
1168.104111	0.004544
1168.257117	-0.000972
1168.410103	0.000887
1168.563072	-0.006562
1168.716023	0.002801
1168.868955	-0.006916
1169.021869	-0.010019
1169.174765	-0.003789
1169.327642	-0.013454
1169.480501	-0.012856
1169.633343	-0.017184
1169.786165	-0.019388
1169.938970	-0.010028
1170.091757	-0.019672
1170.244525	-0.009412
1170.397275	-0.016155
1170.550007	-0.013899
1170.702720	-0.013554
1170.855415	-0.014444
1171.008092	-0.020605
1171.160751	-0.033779
1171.313392	-0.045176
1171.466014	0.039884
1171.618619	-0.095241
1171.771205	-0.095241
1171.923772	-0.095241
