sample name	sample
index	1296
start time	 04-29-2021  03:30:15 PM
880	0.083661
Peak Time (s)	100.535
Peak Height 	0.08366
calc peak height	100,103
Baseline Time (s)	11.537
Baseline Value 	-0.005092
subtract baseline	10,4
Abs	0.039520
Peak Time (s)	102.537
Peak Height 	0.03952
calc peak height	100,103
Baseline Time (s)	11.537
Baseline Value 	9.7434E-4
subtract baseline	10,3
PK_550	0.021568
Peak Time (s)	102.537
Peak Height 	0.02157
calc peak height	100,103
Baseline Time (s)	8.537
Baseline Value 	0.001141
subtract baseline	10,2
PK_880	0.028628
Peak Time (s)	102.036
Peak Height 	0.02863
calc peak height	100,103
Baseline Time (s)	11.537
Baseline Value 	0.002826
subtract baseline	10,1


Time (s)	A880-A510	A880-A775	A880-A975	A880	I510	I775	I975	I880	
0.035500	-0.001395	-0.001271	-0.001615	0.002246	6246.300598	40299.862669	3848.304874	20589.101878
0.535500	-0.001037	-0.000407	0.001817	0.004678	6230.824339	40165.604527	3850.328956	20490.854098
1.036000	-0.001388	-0.000300	0.003906	0.004531	6229.311650	40187.305739	3854.872667	20496.784132
1.537000	-0.001899	-0.000436	0.002877	0.001763	6246.148766	40413.143366	3858.421786	20608.687317
2.036500	-0.000269	-0.000814	-0.001276	0.001191	6262.659539	40429.866948	3851.128587	20631.908476
2.536500	-0.002015	-0.001298	0.002991	0.000984	6251.110610	40405.971421	3860.248855	20640.304463
3.037500	-0.001607	-0.000599	0.002034	-0.000454	6264.965234	40590.343455	3861.233689	20698.812544
3.534500	0.000531	-0.000240	0.005261	0.001261	6268.150992	40473.243261	3864.341257	20629.050879
4.035000	-0.000259	-0.000913	0.000524	-0.000168	6272.967674	40538.519621	3857.557981	20687.169569
4.535000	0.003867	0.000213	0.006346	0.001256	6293.411359	40512.780886	3866.589599	20629.271820
5.040500	0.001054	-0.000281	0.000109	0.000409	6278.520788	40543.201075	3855.533831	20663.679398
5.535500	-0.000565	-0.000378	0.004971	0.000202	6267.871834	40552.757254	3865.926851	20672.112498
6.036000	-0.001908	-0.000541	0.002474	-0.000233	6261.041214	40576.210321	3861.683433	20689.810318
6.536500	-0.001806	-0.001357	-0.001776	-0.000960	6267.280514	40568.549225	3854.482208	20719.475951
7.036500	0.000745	-0.000942	0.000695	-0.000110	6280.105910	40530.947624	3857.788715	20684.801712
7.537000	-0.003517	-0.000574	-0.000232	-0.000209	6248.802148	40571.368007	3856.099510	20688.858326
8.037000	0.000002	-0.000606	-0.000375	-0.000203	6275.205975	40568.084006	3855.795533	20688.617741
8.537500	-0.000420	0.000000	0.001690	0.000417	6267.349093	40566.812842	3858.746506	20663.349743
9.035000	-0.002439	-0.000862	-0.003319	-0.000200	6256.813136	40545.664960	3849.807757	20688.494652
9.538000	0.002136	0.000726	0.002598	0.000398	6286.785637	40631.221587	3860.643377	20664.110841
10.035500	0.002003	-0.000586	0.001652	-0.000269	6290.842663	40575.521876	3860.072896	20691.303369
10.535000	-0.000588	-0.000388	-0.000274	-0.000417	6272.369584	40605.441177	3856.437674	20697.327193
11.036500	0.002393	0.000180	-0.000559	0.000652	6286.814738	40562.045528	3853.677911	20653.794843
11.536500	0.000000	0.000230	0.000000	0.000000	6273.654945	40622.739476	3856.145419	20680.330406
12.036500	0.000317	-0.001002	0.009039	-0.000570	6280.352804	40565.553616	3875.964183	20703.558217
12.537000	0.000909	0.000156	-0.004428	0.000166	6279.263842	40602.026492	3846.824249	20673.566748
13.037500	-0.000610	0.000056	-0.001895	0.000272	6267.007878	40584.206613	3851.737386	20669.274032
13.535000	-0.000243	-0.000523	0.000297	-0.000605	6276.392174	40609.990923	3857.987138	20704.996192
14.035000	-0.001481	-0.000650	0.001084	0.001555	6250.834664	40412.659360	3855.186044	20617.131430
14.535500	-0.002973	-0.000709	-0.000621	0.001076	6243.255852	40448.857667	3852.691494	20636.575275
15.035000	0.001679	-0.001112	0.002708	0.000026	6286.149256	40504.637468	3861.634976	20679.291634
15.535500	-0.002522	-0.000419	-0.000985	-0.000614	6259.288746	40619.722371	3855.388530	20705.338388
16.036500	-0.000416	0.000136	-0.002909	-0.000626	6275.238041	40668.833130	3851.501092	20705.838929
16.537000	-0.000924	-0.000362	0.003995	-0.000729	6272.183413	40634.664086	3865.834964	20710.049318
17.036500	-0.000671	-0.000339	0.004126	-0.002551	6287.865063	40794.713515	3869.870405	20784.521401
17.537000	0.001206	0.000062	0.001013	0.000815	6276.602061	40537.765953	3856.549547	20647.156527
18.034500	-0.000216	-0.000086	-0.004212	0.001055	6264.085368	40504.326352	3845.466220	20637.432454
18.540000	0.001422	0.000177	0.002646	0.000795	6278.387435	40549.496451	3859.928111	20647.985011
19.035500	0.000173	-0.000736	-0.006179	0.000611	6270.353077	40486.560763	3842.403443	20655.475718
19.535500	-0.002626	-0.000275	-0.002274	0.000608	6249.348161	40526.509372	3850.285078	20655.571975
20.036000	0.001941	-0.000509	0.002374	0.000748	6282.664181	40494.327787	3859.469278	20649.902859
20.536500	-0.000639	0.000087	0.003540	0.001030	6261.091463	40521.475657	3861.281474	20638.453873
21.036000	-0.001007	-0.000852	-0.000487	0.000271	6264.029141	40505.885487	3854.600690	20669.292714
21.536500	-0.000745	-0.000253	0.002107	0.000290	6265.857896	40555.934248	3859.858687	20668.522649
22.036500	-0.000289	-0.000135	0.005930	0.001062	6263.483178	40499.548931	3866.131729	20637.146838
22.542500	-0.000911	-0.000153	0.000579	0.000872	6260.235807	40514.348335	3855.549393	20644.873860
23.034500	-0.001676	-0.000011	0.003919	0.000814	6254.920495	40531.590915	3862.501104	20647.203422
23.535000	-0.000475	-0.000425	0.001991	0.000602	6265.541979	40514.224354	3858.983626	20655.850069
24.035000	-0.000770	-0.000337	0.001411	0.001123	6259.405992	40476.852076	3856.733855	20634.674994
24.535500	-0.000141	-0.000257	0.004612	0.001141	6263.999446	40482.186690	3863.254913	20633.936122
25.035500	0.001711	-0.000589	0.004526	0.001096	6278.297364	40457.436806	3863.170909	20635.772575
25.536500	-0.000943	-0.000303	0.002759	0.000758	6260.853117	40511.230649	3860.236908	20649.497912
26.036500	-0.002277	-0.001349	-0.000202	0.000024	6256.343953	40484.383679	3855.684555	20679.370836
26.536500	0.000981	0.000202	0.001158	0.003409	6255.391556	40326.465192	3851.566384	20542.047023
27.037000	0.003218	0.000362	0.000264	-0.001456	6309.105164	40760.460113	3859.661693	20739.735373
27.537000	-0.000018	-0.000230	0.004201	-0.001231	6282.813741	40689.499459	3867.295243	20730.510489
28.035000	0.000670	-0.000606	0.001299	-0.001073	6286.827881	40643.283435	3860.997258	20724.081870
28.540500	-0.004641	-0.000748	0.004901	0.004141	6208.069919	40182.314248	3857.696896	20512.495574
29.035500	0.000120	-0.000319	0.001733	-0.000865	6281.091807	40650.127600	3861.461341	20715.585356
29.535000	0.002292	0.000342	0.003542	-0.000349	6293.634587	40662.706615	3864.118941	20694.547628
30.036000	0.000079	-0.000904	0.003849	-0.001178	6283.146012	40626.515779	3866.459239	20728.349619
30.541500	-0.003100	-0.000557	0.002879	0.003743	6222.442690	40232.845348	3854.385208	20528.582634
31.035000	-0.001859	-0.000325	0.001231	0.001339	6249.618722	40459.279849	3855.924446	20625.893076
31.542000	-0.001543	-0.000937	0.005438	-0.001118	6270.452635	40618.537157	3869.618792	20725.907822
32.037500	0.000141	0.000119	0.002480	-0.000798	6280.748319	40682.293292	3862.857756	20712.849464
32.537000	-0.002027	0.000222	0.000744	0.004279	6226.435386	40253.635329	3848.965522	20506.953639
33.035000	-0.000728	-0.000488	0.006363	-0.000710	6273.516404	40622.079926	3870.690711	20709.261687
33.534500	0.000797	-0.000142	0.003147	-0.001553	6291.434033	40725.170199	3865.785147	20743.689054
34.035500	-0.001323	0.000117	0.000063	0.001129	6255.207509	40515.455875	3853.974005	20634.410343
34.541000	-0.000557	-0.000587	0.000622	0.002315	6252.054262	40352.688940	3852.697209	20586.290213
35.035500	-0.001101	-0.000282	0.005866	0.001025	6257.657279	40489.945456	3866.074631	20638.629813
35.536500	-0.001336	-0.000826	-0.002131	0.000618	6258.945061	40478.137229	3850.554197	20655.171152
36.036500	-0.001319	0.000271	-0.000124	0.001198	6254.720935	40522.720142	3853.453117	20631.602588
36.539500	-0.002317	-0.000226	0.003550	0.002403	6238.242228	40376.229698	3858.487972	20582.757511
37.037500	-0.003085	-0.000120	-0.001426	0.001222	6241.324475	40486.965576	3850.759541	20630.631976
37.540500	-0.003084	-0.000599	0.000588	0.000843	6244.164522	40478.334838	3855.623687	20646.018245
38.040000	-0.000529	-0.000361	-0.000899	0.001141	6261.086275	40473.235076	3851.994715	20633.944004
38.535500	-0.001431	-0.000552	0.003580	0.001148	6254.258027	40456.121257	3861.120388	20633.631136
39.036000	-0.000080	-0.000140	0.000239	0.001529	6261.535991	40458.744353	3853.516756	20618.164038
39.541500	-0.000456	-0.000072	0.004319	0.001402	6259.670822	40475.614622	3862.115826	20623.333905
40.036500	0.000159	0.000197	0.004691	0.001544	6263.220523	40486.565341	3862.588637	20617.562452
40.539000	-0.001727	-0.000422	-0.003793	0.000472	6257.105979	40525.589572	3847.487668	20661.111145
41.036000	-0.001345	-0.000100	-0.000975	0.000599	6259.025300	40542.508291	3852.941386	20655.967987
41.537000	-0.000574	0.000355	0.007539	0.001447	6258.445591	40508.531710	3868.660243	20621.509542
42.037500	-0.000114	-0.000201	0.003993	0.000781	6266.910889	40518.028653	3862.721613	20648.541894
42.534500	0.001334	0.000279	0.005719	0.001334	6273.653908	40511.731611	3865.134725	20626.095483
43.038000	-0.001086	-0.000525	0.002109	0.000703	6260.190599	40496.825290	3859.017365	20651.732813
43.535000	0.000126	0.000502	0.000082	0.000603	6270.058405	40594.198732	3855.083037	20655.806664
44.035500	-0.000630	-0.000847	-0.000160	-0.001295	6278.669854	40641.604181	3858.461980	20733.127562
44.540500	-0.002320	-0.000696	0.000492	0.004956	6219.224124	40117.212883	3847.086759	20479.670390
45.036500	0.000880	0.000536	-0.002431	0.000265	6278.296869	40626.323407	3850.662541	20669.532574
45.537000	0.000457	0.000331	0.000236	-0.000973	6284.462451	40715.896993	3858.616146	20720.005735
46.037000	0.000274	-0.000228	0.000303	-0.001164	6284.514775	40683.920360	3859.141855	20727.783289
46.534500	-0.001934	-0.000476	0.002056	0.004223	6227.537788	40198.557798	3851.736491	20509.184118
47.037500	-0.002163	-0.000630	0.002589	0.001540	6245.834281	40415.627356	3858.287226	20617.714662
47.534000	-0.000367	0.000219	0.001978	0.002119	6254.958194	40438.911709	3855.858483	20594.264978
48.035500	0.001417	0.000527	-0.004197	-0.000506	6288.191060	40692.331462	3848.647187	20700.937653
48.535500	-0.002708	-0.000683	0.005812	0.004019	6223.297999	40198.372933	3859.809852	20517.428346
49.036000	0.000027	0.000037	0.005240	0.001701	6261.049564	40459.222463	3863.393604	20611.184609
49.536000	-0.000579	-0.000533	0.003166	-0.003504	6295.798973	40860.735321	3869.857409	20823.608678
50.036500	0.000552	0.000210	-0.000377	0.004721	6242.360225	40214.715470	3845.807174	20489.139741
50.542500	-0.006056	-0.002643	-0.004604	0.029044	6019.291242	37959.616078	3790.101556	19536.269978
51.034500	-0.013218	-0.016068	0.011252	0.214739	4935.751339	25116.686852	3524.749592	13781.356945
51.542500	-0.020577	-0.024213	-0.001231	0.152906	5194.768825	28021.984134	3591.475207	15431.766416
52.037500	-0.045321	-0.038691	-0.016848	-0.086631	6600.579802	44986.990177	4010.563072	24584.553597
52.535000	-0.050651	-0.042174	-0.016039	-0.176492	7374.783367	54218.084050	4252.085825	29547.463948
53.035000	-0.038141	-0.043554	-0.006332	-0.216486	7937.281400	58977.013716	4407.501997	32108.783742
53.535500	-0.026151	-0.045398	-0.003149	-0.236436	8314.269272	61358.488026	4486.133430	33477.370731
54.035500	-0.022215	-0.040425	-0.000398	-0.224784	8220.643418	60468.377731	4455.381960	32670.413185
54.536000	-0.024797	-0.027904	-0.000524	-0.171596	7591.197328	55334.747865	4283.815966	29249.811048
55.036000	-0.022499	-0.020422	-0.003640	-0.118542	7084.520323	50125.088014	4124.452264	26230.636875
55.537000	-0.015194	-0.012252	0.000320	-0.070861	6721.684365	46030.363231	4013.916315	23814.680901
56.037500	-0.010113	-0.005486	0.000116	-0.069694	6755.390366	46588.172926	4010.625799	23758.788114
56.537500	-0.012176	-0.004092	-0.007370	-0.074003	6774.878295	47163.871770	4003.043271	23965.829348
57.038000	-0.004205	-0.003254	-0.002820	-0.074806	6851.973662	47330.950302	4015.855032	24004.677003
57.535000	-0.007447	-0.003731	-0.001376	-0.054043	6644.700908	45216.758649	3970.360382	23023.833251
58.035500	-0.002198	-0.004016	0.002768	-0.051207	6665.018207	44914.771818	3973.376579	22893.465221
58.536000	-0.003763	-0.003142	0.005950	-0.023770	6428.108237	42430.150581	3918.890728	21675.261975
59.036500	0.000539	-0.003977	0.001938	-0.006015	6323.469881	40779.589791	3872.517625	20926.973236
59.540500	-0.000051	-0.003410	0.008430	0.007756	6215.283800	39649.335498	3857.520042	20367.275387
60.037000	-0.001652	-0.002080	0.017226	0.022456	6096.752479	38539.418986	3845.540825	19789.116726
60.537000	-0.002129	-0.002226	0.011427	0.024751	6077.028773	38340.459787	3829.378231	19700.594104
61.039500	-0.002401	-0.001603	0.019697	0.039401	5973.020029	37218.419536	3816.850772	19146.474286
61.537500	0.002979	0.001755	0.024438	0.112877	5541.208341	32122.336338	3692.928001	16632.542425
62.035500	-0.002127	-0.005130	0.020079	0.070329	5770.237564	34611.493057	3759.353098	18036.261208
62.535500	-0.007792	-0.008946	0.024082	0.039534	5935.412489	36635.043922	3825.180430	19141.518684
63.035500	-0.003760	-0.008062	0.020260	0.067956	5774.966990	34570.865397	3764.006428	18118.673946
63.536500	-0.010415	-0.009828	0.025528	0.136160	5335.212942	29878.671819	3656.928759	15920.697723
64.036500	-0.016170	-0.008938	0.033377	0.165960	5151.456288	28150.088112	3623.084387	15063.524152
64.540000	-0.011016	-0.006340	0.021777	0.173039	5141.929005	27892.293389	3595.602019	14868.392713
65.037000	-0.009655	-0.004094	0.025278	0.171537	5156.111158	28107.721596	3602.846675	14909.525325
65.539500	-0.005194	-0.002669	0.028643	0.171277	5179.705423	28205.238465	3608.150581	14916.673988
66.039000	-0.005604	-0.000978	0.034609	0.171514	5176.455285	28289.610245	3616.619446	14910.155124
66.535500	-0.002967	-0.001159	0.019189	0.171638	5189.099650	28271.902940	3593.895756	14906.759204
67.035000	-0.003156	0.001341	0.026636	0.168033	5206.404713	28629.123804	3609.968717	15006.046511
67.535500	-0.000996	0.002561	0.027884	0.163138	5242.582075	28991.966267	3619.081170	15142.191403
68.036000	-0.002187	0.004421	0.019330	0.157153	5267.501574	29465.053442	3615.254894	15310.741882
68.536000	0.000994	0.006615	0.019356	0.151059	5316.501369	29974.293184	3624.408677	15484.785689
69.035500	0.003466	0.006873	0.027967	0.142532	5375.981585	30524.678248	3650.737155	15732.422624
69.536500	0.004138	0.008602	0.028557	0.136104	5415.188081	31045.815042	3661.824097	15922.358114
70.036500	0.006186	0.009868	0.020039	0.128552	5469.224772	31620.304814	3660.287853	16149.125350
70.534500	0.004047	0.010978	0.021721	0.125941	5471.913431	31866.240516	3667.141757	16228.439966
71.037500	0.007988	0.012779	0.030731	0.116474	5549.491272	32623.985755	3697.428369	16520.066746
71.534500	0.009604	0.014252	0.021705	0.111543	5588.258576	33063.529800	3690.606036	16674.516361
72.035000	0.009960	0.014152	0.024914	0.106338	5621.640952	33418.531868	3704.696470	16839.443149
72.534500	0.011765	0.014577	0.024438	0.104567	5643.337389	33572.566404	3706.889591	16896.014341
73.035500	0.010683	0.014985	0.018096	0.097920	5677.454766	34072.599281	3707.407484	17110.397173
73.536000	0.010908	0.014560	0.021447	0.093938	5703.546727	34327.858817	3719.959954	17240.423214
74.035500	0.013607	0.015831	0.019715	0.091921	5733.095155	34565.625540	3720.452526	17306.746967
74.536500	0.008080	0.014043	0.017765	0.090272	5708.774536	34555.548643	3719.931862	17361.181653
75.037000	0.011102	0.015181	0.016494	0.087157	5747.356361	34865.701286	3723.121005	17464.591089
75.540000	0.012110	0.015369	0.012974	0.085676	5763.160050	34988.274395	3719.594437	17514.013473
76.034000	0.012157	0.015948	0.027519	0.084436	5771.365559	35122.354137	3747.331724	17555.523293
76.535000	0.009894	0.016494	0.015387	0.086449	5744.192244	35014.174996	3722.431146	17488.204593
77.035500	0.011950	0.017350	0.026656	0.084145	5771.904061	35247.711037	3746.307901	17565.290655
77.535000	0.011720	0.016745	0.020387	0.084391	5768.866430	35184.652045	3734.753933	17557.052384
78.036000	0.011948	0.016892	0.018401	0.085081	5765.926725	35144.476036	3730.058981	17533.943331
78.536500	0.012715	0.016040	0.023855	0.087427	5755.871858	34908.922433	3735.515780	17455.608715
79.037000	0.012093	0.016299	0.021009	0.087240	5753.108444	34941.631732	3730.843584	17461.823853
79.537000	0.011405	0.015534	0.019486	0.087690	5745.898269	34852.524061	3727.396802	17446.838949
80.034500	0.013177	0.016306	0.021385	0.090064	5742.093620	34735.359450	3726.569147	17368.055468
80.537500	0.012926	0.016683	0.022037	0.092177	5727.193513	34608.926834	3724.028153	17298.301350
81.035000	0.012918	0.016104	0.024172	0.093025	5721.821431	34505.376102	3726.266512	17270.406380
81.535000	0.014369	0.016412	0.018292	0.094551	5721.349728	34417.226610	3713.483153	17220.323968
82.035500	0.015679	0.017645	0.022900	0.099714	5697.296212	34134.636793	3712.535500	17052.238713
82.539000	0.014477	0.018078	0.026641	0.103793	5664.659311	33874.582715	3711.955483	16920.797953
83.036500	0.012697	0.018656	0.029026	0.106156	5639.338813	33748.142281	3711.994627	16845.256143
83.536500	0.018031	0.018557	0.025297	0.107604	5663.080908	33638.908665	3703.204036	16799.132973
84.036500	0.014880	0.017095	0.025847	0.106203	5652.368266	33634.617228	3706.505138	16843.753195
84.536500	0.013597	0.017225	0.022244	0.106338	5643.710917	33634.264509	3700.194381	16839.431899
85.037500	0.015896	0.016948	0.022657	0.104295	5670.297951	33758.886676	3704.334637	16904.710229
85.537000	0.015110	0.016404	0.028102	0.101631	5681.880676	33909.284893	3718.171271	16990.317620
86.035000	0.016666	0.016281	0.029599	0.100821	5696.546686	33958.149630	3722.154727	17016.452603
86.535500	0.016420	0.017444	0.022464	0.099586	5702.696704	34129.336547	3712.007847	17056.352754
87.035500	0.019140	0.017770	0.027215	0.096853	5736.881621	34349.143315	3724.900978	17145.147879
87.536000	0.018311	0.017015	0.026592	0.095131	5742.519224	34418.926903	3726.813393	17201.351456
88.036500	0.019944	0.017636	0.024584	0.093180	5765.268062	34605.354072	3726.714001	17265.326064
88.536500	0.018615	0.017322	0.029347	0.091209	5769.357550	34725.955378	3738.534455	17330.220656
89.037000	0.018711	0.018004	0.021864	0.089683	5779.726951	34887.455306	3728.068036	17380.668758
89.537000	0.020650	0.018497	0.027888	0.088332	5800.885083	35022.979576	3741.045531	17425.495899
90.037000	0.019488	0.018356	0.036367	0.087705	5797.439832	35058.859332	3757.379436	17446.355945
90.535000	0.018433	0.017900	0.031112	0.085619	5804.094409	35179.238493	3751.657338	17515.940768
91.035500	0.022450	0.018347	0.035382	0.085462	5831.192672	35223.932369	3759.661139	17521.176571
91.535500	0.022831	0.017756	0.032886	0.083921	5843.765937	35294.464681	3757.928504	17572.813907
92.036000	0.023787	0.018785	0.034017	0.083589	5852.216462	35395.689261	3760.586241	17583.962122
92.536000	0.020944	0.017016	0.037735	0.082592	5840.108625	35338.214641	3769.212818	17617.484368
93.036500	0.022716	0.016949	0.031344	0.082065	5855.199349	35372.478553	3758.498159	17635.264333
93.536500	0.021348	0.018749	0.031864	0.082465	5843.582879	35476.873535	3758.714691	17621.760297
94.037000	0.024871	0.018434	0.031858	0.082132	5868.969634	35478.182016	3759.308842	17632.994268
94.543000	0.024629	0.018333	0.035052	0.082329	5866.072025	35455.982699	3764.774661	17626.367988
95.034500	0.022733	0.018062	0.034829	0.081195	5861.037848	35520.403987	3766.441402	17664.596918
95.535000	0.024406	0.019144	0.034469	0.082313	5864.702126	35517.738850	3763.736171	17626.892533
96.035500	0.022098	0.018965	0.033297	0.082174	5850.414586	35514.774003	3761.852451	17631.577770
96.536000	0.022810	0.018769	0.033496	0.082399	5853.618378	35483.303165	3761.805647	17624.006417
97.036000	0.023917	0.019138	0.033871	0.082348	5861.238940	35514.666592	3762.580491	17625.706845
97.536500	0.026342	0.019630	0.030859	0.082213	5878.175169	35561.610814	3757.349157	17630.254375
98.036500	0.027019	0.019375	0.035337	0.082399	5881.432817	35528.597118	3765.165947	17623.983558
98.537000	0.024520	0.019309	0.036428	0.082712	5862.819022	35500.225876	3766.590989	17613.449049
99.037500	0.024771	0.020356	0.030483	0.082491	5865.936449	35595.193569	3756.165745	17620.893311
99.534500	0.025581	0.019835	0.038407	0.082106	5873.839923	35585.024770	3771.345673	17633.872894
100.035000	0.027005	0.019803	0.037758	0.082233	5882.442281	35573.075368	3769.915605	17629.592902
100.535500	0.028129	0.020202	0.039408	0.083661	5880.426317	35496.104564	3770.325602	17581.563042
101.035500	0.025862	0.020533	0.034303	0.082880	5870.575260	35579.248337	3762.398438	17607.800118
101.535500	0.026141	0.020928	0.031995	0.083170	5870.502679	35587.174499	3757.673654	17598.047886
102.036000	0.028628	0.020978	0.031478	0.083127	5887.291028	35594.119080	3756.816391	17599.500090
102.536500	0.028147	0.021568	0.039520	0.083197	5883.624131	35633.065893	3771.385730	17597.127147
103.036500	0.026760	0.021525	0.036948	0.083689	5871.165987	35593.003941	3765.754090	17580.605696
103.537000	0.029394	0.021441	0.040130	0.083670	5888.773875	35588.153845	3771.639151	17581.241689
104.040500	0.028125	0.021458	0.037225	0.083514	5881.373082	35601.111378	3766.581900	17586.476713
104.534000	0.027310	0.022094	0.043814	0.084030	5872.547497	35610.099816	3777.796637	17569.159024
105.035000	0.028320	0.022022	0.039352	0.083728	5881.243977	35627.377552	3770.098329	17579.299111
105.535000	0.028426	0.021615	0.038795	0.083465	5883.694834	35616.505477	3769.556250	17588.127839
106.035500	0.029924	0.022827	0.042854	0.084614	5886.020787	35621.280316	3774.930475	17549.577106
106.536000	0.030125	0.022487	0.039033	0.083791	5892.835151	35657.507682	3769.393959	17577.175360
107.036000	0.028583	0.021714	0.040814	0.083669	5883.388601	35608.710951	3772.905362	17581.286148
107.537000	0.032269	0.023701	0.039903	0.084644	5901.455987	35684.652988	3769.426269	17548.554999
108.037000	0.029634	0.023499	0.038780	0.084399	5885.518698	35687.898775	3767.812651	17556.777598
