sample name	sample
index	1096
start time	 04-22-2021  11:57:25 AM
880	0.477214
Peak Time (s)	102.535
Peak Height 	0.4772
calc peak height	100,103
Baseline Time (s)	9.54
Baseline Value 	-0.005691
subtract baseline	10,4
Abs	0.338883
Peak Time (s)	101.037
Peak Height 	0.3389
calc peak height	100,103
Baseline Time (s)	9.54
Baseline Value 	0.002478
subtract baseline	10,3
PK_550	0.192913
Peak Time (s)	101.037
Peak Height 	0.1929
calc peak height	100,103
Baseline Time (s)	11.535
Baseline Value 	1.2207E-4
subtract baseline	10,2
PK_880	0.323823
Peak Time (s)	102.038
Peak Height 	0.3238
calc peak height	100,103
Baseline Time (s)	11.535
Baseline Value 	0.002337
subtract baseline	10,1


Time (s)	A880-A510	A880-A775	A880-A975	A880	I510	I775	I975	I880	
0.037000	-0.000620	0.000800	0.001849	0.003586	6248.176192	43207.426447	3899.010133	22632.336705
0.537000	-0.001147	0.000151	-0.002677	0.004933	6233.759152	43022.890770	3885.181004	22571.230738
1.037000	-0.000652	0.000724	-0.002014	0.004611	6240.035755	43105.456677	3887.486220	22585.797253
1.540000	-0.002169	-0.000061	-0.001807	0.006815	6211.534884	42830.095385	3882.816503	22486.147021
2.035000	-0.002157	0.000503	0.000941	0.001284	6254.082232	43393.694460	3902.319187	22737.178342
2.535000	0.001203	0.000499	-0.003033	0.002077	6273.970715	43319.577796	3891.044427	22701.016675
3.035000	0.000142	0.000279	0.002526	-0.001365	6292.516918	43620.160180	3912.437820	22858.549946
3.536000	-0.002990	-0.000783	-0.001988	0.002723	6236.575236	43140.695962	3891.981252	22671.544099
4.036000	0.001780	-0.000003	0.001121	0.000544	6290.391169	43415.450073	3904.507953	22770.996517
4.536500	0.001624	-0.000368	-0.002245	-0.000212	6295.079586	43451.851042	3898.305763	22805.607500
5.039500	-0.000864	0.001865	0.005469	0.001080	6265.662288	43539.797853	3913.633712	22746.501080
5.537000	0.000248	-0.000440	-0.002624	-0.000321	6285.192115	43455.387127	3897.668337	22810.625882
6.037000	0.000975	-0.000024	-0.003499	0.000076	6287.764715	43457.147625	3894.659732	22792.410168
6.535000	0.000246	-0.000053	0.002876	-0.000085	6283.333567	43469.437533	3910.204574	22799.795621
7.035000	-0.000036	0.000203	-0.000852	0.000780	6274.413760	43412.633286	3899.255963	22760.193781
7.535500	-0.000547	0.001014	0.001708	0.000303	6274.153477	43532.866016	3906.483938	22782.044229
8.035500	-0.000168	-0.000335	-0.000098	0.000052	6279.043184	43430.376663	3902.776678	22793.511958
8.535500	0.000619	-0.000272	0.002445	-0.000373	6288.493143	43475.957050	3909.864757	22813.029835
9.036500	0.001972	0.000174	0.006303	0.000148	6294.986303	43468.927233	3917.886959	22789.123405
9.539500	0.001303	0.000303	0.000000	0.000000	6290.922310	43494.733882	3903.134380	22795.914077
10.037000	-0.001694	-0.000787	-0.003683	-0.001087	6276.037668	43494.426848	3896.973813	22845.749587
10.537000	-0.002838	-0.000896	-0.001444	0.003588	6231.100631	43050.367006	3891.226238	22632.217649
11.037500	-0.000489	0.000904	0.000539	0.000523	6272.888126	43501.971251	3903.172853	22771.955459
11.535000	0.000000	0.000000	-0.001141	-0.000209	6282.389223	43485.999340	3900.920001	22805.496411
12.035500	0.002155	0.001361	0.007198	0.000561	6293.194950	43541.248864	3919.053467	22770.249648
12.535500	-0.003213	-0.000076	-0.005096	0.003461	6229.198702	43137.855097	3882.968277	22637.993097
13.036000	0.000043	0.000047	-0.001692	-0.000648	6286.139572	43531.309444	3900.650726	22825.599025
13.536500	0.001965	0.000544	0.001218	0.000277	6293.929654	43491.359059	3905.375957	22783.230491
14.036500	-0.001145	0.000741	-0.003430	0.002819	6250.045116	43273.107454	3888.369252	22667.202198
14.536500	-0.002958	-0.000253	-0.004371	0.004301	6224.717405	43043.868417	3882.699294	22599.859883
15.039500	0.000900	0.000162	0.004299	-0.000178	6289.159268	43498.253194	3913.843858	22804.066439
15.537000	0.000830	0.000374	-0.003969	0.000324	6284.701835	43471.136819	3892.967670	22781.057859
16.038000	-0.000544	0.000378	0.003079	-0.000221	6278.249190	43522.489446	3911.018269	22806.062199
16.535000	-0.001857	0.000238	-0.000598	0.003442	6239.756597	43168.721774	3893.563541	22638.848863
17.035000	0.004290	0.000626	0.003045	-0.003065	6338.510653	43812.269976	3917.778547	22936.824821
17.539000	0.001212	0.000647	0.002318	0.001097	6281.654767	43424.511112	3906.042680	22745.709088
18.036000	-0.000954	0.000128	0.004250	0.000846	6266.774719	43399.592000	3911.266354	22757.196369
18.536500	-0.001733	-0.000022	0.003777	0.002462	6248.268043	43235.457111	3906.271090	22683.472362
19.039500	-0.001855	-0.000223	-0.002202	0.000843	6259.819393	43367.209803	3895.912480	22757.331341
19.536500	0.000154	-0.000276	0.001959	0.001156	6272.970440	43333.123413	3905.047105	22743.026408
20.037000	0.000031	-0.000160	0.004373	0.001078	6272.619196	43351.170143	3911.005944	22746.594000
20.535000	-0.000765	-0.000116	-0.001621	0.002344	6256.644653	43237.657853	3893.741755	22688.846475
21.035000	-0.000577	0.000205	0.001171	0.001458	6264.959255	43349.857139	3902.453455	22729.254925
21.535500	-0.000929	-0.000093	-0.001197	0.001146	6264.651095	43351.076008	3897.573592	22743.504692
22.035500	-0.001927	0.000782	-0.000357	0.001571	6253.634887	43392.899209	3898.555947	22724.064841
22.536000	-0.002340	0.000650	0.000754	0.002936	6239.931898	43253.830759	3897.953621	22661.863309
23.036500	-0.000411	0.000557	0.003624	0.001631	6264.904807	43366.424220	3907.888772	22721.347990
23.536500	-0.000727	0.001186	0.001305	0.001912	6260.275680	43398.834176	3901.690179	22708.518364
24.037000	0.001541	0.000761	0.002739	0.002031	6276.947475	43348.166807	3904.820056	22703.081738
24.537000	0.001003	0.000417	0.003790	0.003412	6262.058485	43188.008870	3904.032887	22640.213258
25.037000	0.000670	0.000432	-0.001450	0.001464	6274.587480	43370.327708	3896.222639	22728.958692
25.534500	0.000249	0.000848	0.003355	0.001541	6270.716625	43401.864959	3907.459994	22725.432459
26.035000	-0.000321	0.000904	0.001131	0.001368	6267.635514	43423.199646	3902.569837	22733.353592
26.535500	-0.000980	0.000623	-0.000055	0.001912	6258.325825	43346.447489	3898.464887	22708.521069
27.035500	0.001236	0.000290	0.003249	-0.001598	6302.894719	43642.962980	3914.734705	22869.240630
27.536000	0.001681	0.000898	0.003313	0.000654	6288.769040	43489.215537	3909.482784	22765.981174
28.036500	0.001541	0.000792	-0.001184	0.000495	6288.909064	43494.187033	3899.145296	22773.237978
28.539000	0.000520	-0.000137	0.001782	0.000450	6281.310093	43411.735623	3906.308806	22775.314444
29.037000	0.001134	0.000358	-0.002234	-0.000164	6290.877595	43515.200350	3898.218007	22803.406593
29.536500	-0.000537	0.000889	0.000156	0.001396	6265.746480	43419.159596	3900.186178	22732.048152
30.034500	-0.000867	0.000994	0.001779	0.000414	6270.797901	43520.550327	3906.386044	22776.937624
30.535000	-0.000108	0.000109	-0.000348	0.002561	6260.048203	43238.365084	3896.234275	22678.941856
31.035000	0.000623	0.000376	-0.001281	0.002083	6269.416688	43307.589080	3895.160187	22700.740956
31.537000	0.003872	0.000421	0.002558	0.001168	6301.880512	43396.947114	3906.448254	22742.500687
32.036000	0.001500	-0.000001	0.004285	-0.000130	6293.476480	43478.480701	3913.696439	22801.872690
32.536000	-0.001426	0.000417	0.002408	0.005343	6228.470076	43009.558839	3896.172822	22552.642353
33.040000	0.000806	0.001385	0.003154	0.000835	6280.533244	43517.803176	3908.667591	22757.694625
33.536500	0.000946	-0.000309	0.003376	-0.000461	6291.734239	43480.700450	3912.306496	22817.040065
34.037000	0.000843	0.000556	-0.001926	0.002378	6268.832680	43296.913625	3892.942572	22687.294134
34.534500	-0.000883	-0.000224	0.002123	0.003364	6247.858101	43133.196952	3900.186333	22642.409894
35.034500	-0.001439	0.000603	0.006915	0.002336	6251.503802	43305.109064	3914.089085	22689.192162
35.535000	-0.000183	0.000373	0.002091	0.002329	6261.266369	43284.504332	3902.568477	22689.519770
36.035000	0.001898	0.000934	0.003363	0.003362	6269.381164	43240.671186	3903.136945	22642.498093
36.535500	-0.001349	0.000499	-0.004836	0.004017	6239.248678	43139.698488	3882.278624	22612.758850
37.036000	-0.000849	0.000140	-0.002496	0.002016	6258.531809	43291.918509	3892.452478	22703.797720
37.536000	-0.000870	-0.000015	-0.002074	0.002387	6255.500254	43243.024878	3892.572545	22686.859889
38.042500	0.001255	0.000121	0.004263	0.001818	6276.381402	43308.472827	3908.969021	22712.809515
38.534000	-0.000738	0.000407	0.001790	0.003667	6246.640923	43163.528353	3898.675858	22628.636005
39.039500	0.000013	0.000899	0.002068	0.002154	6264.131565	43349.507845	3902.928142	22697.465566
39.534500	-0.000124	0.000298	0.003046	0.001999	6264.277567	43308.151310	3905.630291	22704.557374
40.035000	-0.000317	0.000836	0.005736	0.001972	6262.987710	43360.698050	3912.132706	22705.789928
40.535000	-0.000034	0.000298	-0.001302	0.003129	6256.228189	43203.229767	3892.643018	22653.084729
41.035500	-0.000386	0.000400	-0.001261	0.001999	6262.248757	43317.629081	3895.405191	22704.561407
41.535500	0.000600	0.001001	0.002114	0.002546	6265.639659	43322.636814	3902.105221	22679.611180
42.036000	0.000794	0.000481	0.000306	0.001921	6271.998922	43332.357129	3899.297362	22708.116548
42.539500	-0.002077	-0.000296	-0.003621	0.002791	6243.075511	43179.525148	3887.984868	22668.448499
43.036500	0.000525	-0.000008	-0.000514	0.001116	6276.164598	43361.805754	3899.262573	22744.875464
43.537000	0.000966	0.000567	0.001960	0.001152	6279.314930	43411.986369	3905.060859	22743.223887
44.034500	0.003656	0.000592	0.000055	-0.003505	6336.968813	43850.419634	3911.640289	22957.117398
44.537500	0.001473	0.000710	-0.004684	0.004030	6260.917990	43158.044158	3882.603723	22612.173089
45.034500	0.003195	0.000882	0.003156	-0.000029	6305.953893	43551.537287	3910.743211	22797.241505
45.538000	0.000867	0.000137	-0.000551	-0.000682	6292.839852	43542.941375	3903.444228	22827.158675
46.035500	0.001842	0.000349	0.003224	-0.000178	6296.523005	43515.694482	3911.261397	22804.062651
46.538500	-0.001127	0.001059	0.000323	0.003662	6243.683679	43224.393524	3895.216683	22628.850393
47.036000	0.001108	0.000345	-0.002670	0.000841	6282.840915	43420.233261	3894.810593	22757.413461
47.536500	-0.001701	0.000595	0.002569	0.002258	6250.077924	43311.663591	3903.874211	22692.730936
48.036500	0.000563	0.000465	0.003100	0.000354	6282.388136	43476.807837	3909.690743	22779.694573
48.537000	-0.000123	0.000207	0.007340	0.004848	6242.287001	43035.874982	3909.081651	22575.069267
49.037500	0.001467	-0.000131	0.001097	0.000778	6286.125737	43381.721528	3903.891941	22760.284447
49.536500	0.000715	0.001093	0.003317	-0.001807	6300.450384	43737.852065	3915.402031	22878.856927
50.034500	0.001281	0.000304	0.001493	-0.000330	6293.328304	43525.701029	3907.481029	22811.031670
50.535500	-0.000843	0.000353	0.002018	0.034465	6016.772053	40406.273126	3828.727206	21278.130727
51.035500	0.026316	-0.019419	0.015395	0.486242	4072.352573	15599.645460	3219.081345	9394.918217
51.536000	0.012036	-0.018486	-0.023443	0.139583	5420.351364	31106.852901	3579.644614	17327.463104
52.038500	-0.004820	-0.042108	-0.036637	-0.196993	8162.512101	60826.519568	4364.767041	34214.661235
52.536500	-0.001366	-0.082950	-0.019450	-0.266858	9130.364485	64826.002750	4696.623577	39679.844462
53.036500	0.000196	-0.080794	-0.011729	-0.264879	9124.395499	64851.330593	4720.944740	39512.712552
53.537000	0.005388	-0.088132	-0.006635	-0.276163	9365.070690	65416.174940	4792.096945	40476.374549
54.034500	0.002661	-0.055499	-0.002862	-0.232752	8713.449050	63885.125129	4624.391949	36902.047110
54.540500	-0.005084	-0.041852	-0.007299	-0.210601	8326.720202	62703.792338	4520.182766	35211.378086
55.035000	-0.002595	-0.041496	-0.006636	-0.212708	8384.459364	63043.578305	4530.746856	35368.514651
55.535500	0.004455	-0.046054	0.002914	-0.219922	8567.589667	63412.226114	4596.124357	35912.333900
56.036000	0.012213	-0.028026	0.009039	-0.183039	8199.954024	60843.502374	4478.066369	33224.521455
56.536000	0.017242	-0.012280	0.014858	-0.131027	7656.501122	56205.747945	4315.763398	29801.970094
57.036000	0.023333	-0.002894	0.021320	-0.083008	7218.752761	51673.331150	4183.789712	26986.131064
57.537000	0.036482	0.005664	0.036208	-0.046578	6993.336432	48644.880841	4120.191718	25048.234236
58.037000	0.047573	0.012876	0.047240	-0.019731	6847.486881	46625.206054	4075.468451	23720.611647
58.540000	0.065995	0.022822	0.063249	0.006776	6774.677993	44991.296464	4046.668334	22487.934264
59.035000	0.077059	0.034833	0.075755	0.061355	6405.248181	41066.479725	3937.979215	20174.789242
59.535000	0.101657	0.047249	0.107733	0.106497	6243.293797	38300.170069	3906.079656	18469.479855
60.035500	0.119527	0.057759	0.120950	0.154242	6021.028740	35395.963554	3826.860546	16848.652362
60.535500	0.137287	0.067788	0.145382	0.190021	5894.185533	33528.413737	3802.173848	15745.682676
61.036000	0.157674	0.080116	0.161484	0.226502	5785.251557	31874.456280	3759.419733	14710.789809
61.539000	0.168035	0.086544	0.180687	0.256623	5656.910534	30339.003666	3737.327977	13919.481443
62.036500	0.171087	0.095257	0.181465	0.288712	5478.600964	28904.007481	3676.966309	13134.714800
62.537000	0.177232	0.100906	0.192783	0.289778	5508.936667	29179.310655	3696.251791	13109.625362
63.036500	0.179424	0.103585	0.192218	0.289276	5525.171839	29372.104612	3696.133532	13121.435379
63.537000	0.187288	0.107379	0.200961	0.284463	5602.937185	29900.866650	3722.341427	13235.328366
64.034500	0.194035	0.112958	0.207668	0.286939	5629.650260	30094.070638	3730.690312	13176.575668
64.537500	0.194229	0.116762	0.203738	0.296150	5573.554423	29758.237415	3705.021725	12960.933093
65.035500	0.200804	0.119049	0.211952	0.298015	5602.710400	29784.323521	3717.327539	12917.835883
65.535500	0.210631	0.123890	0.226523	0.301673	5641.374589	29857.522308	3738.899749	12833.812537
66.036000	0.215023	0.126606	0.233001	0.308429	5626.494147	29608.422301	3738.342487	12680.492359
66.539500	0.217718	0.129858	0.233534	0.318305	5581.778263	29204.932183	3719.852437	12460.611182
67.037000	0.227294	0.133973	0.240362	0.315630	5658.508156	29618.572257	3738.663455	12519.678405
67.537000	0.228365	0.136175	0.232392	0.316652	5658.821504	29691.157490	3720.853280	12497.068960
68.037500	0.233216	0.138622	0.242080	0.318461	5678.213482	29730.429940	3736.438782	12457.181900
68.534500	0.236806	0.143416	0.246886	0.327003	5646.714062	29500.361539	3729.013881	12271.074048
69.035000	0.238693	0.145153	0.248887	0.327689	5654.326323	29564.729946	3731.621577	12256.288578
69.535000	0.244257	0.147114	0.256903	0.325472	5704.116110	29821.901868	3752.173872	12304.157895
70.036000	0.247205	0.149049	0.264084	0.329402	5697.780266	29698.761036	3758.804857	12219.442907
70.536000	0.249453	0.150806	0.261596	0.338661	5652.979251	29240.778357	3735.074677	12022.898101
71.039000	0.253371	0.152292	0.266021	0.344048	5643.682063	29005.683418	3733.158268	11910.437369
71.536500	0.257641	0.155350	0.270006	0.344699	5666.639008	29150.492613	3739.814420	11896.945637
72.036500	0.262140	0.156051	0.274851	0.348253	5672.669458	28978.955724	3742.406039	11823.629793
72.536500	0.259717	0.157844	0.272620	0.357979	5596.176726	28507.887612	3718.702317	11626.037669
73.037000	0.259475	0.160405	0.277219	0.363580	5560.147341	28329.725059	3716.745782	11514.245603
73.535000	0.267826	0.162148	0.284135	0.363384	5613.016164	28443.206349	3730.732314	11518.119235
74.035500	0.271745	0.162876	0.293755	0.367732	5610.340202	28231.633839	3741.252079	11432.288916
74.535500	0.269411	0.164824	0.286242	0.378731	5528.389861	27710.328990	3704.874082	11218.938395
75.038500	0.277236	0.166106	0.287631	0.377580	5583.277266	27849.355104	3709.773104	11241.005270
75.539000	0.277989	0.169525	0.295296	0.382643	5556.783960	27755.326713	3714.822987	11144.349235
76.036000	0.281082	0.169831	0.298354	0.384820	5562.388805	27648.703651	3716.539475	11103.129271
76.536000	0.281594	0.171846	0.295247	0.388272	5544.430167	27567.137433	3703.844544	11038.197377
77.037500	0.277709	0.172631	0.303987	0.396318	5472.766666	27159.094256	3705.180625	10888.842758
77.537500	0.281664	0.173199	0.302399	0.392721	5517.896099	27392.297060	3709.053258	10955.263584
78.034500	0.280148	0.174153	0.303129	0.395654	5491.215387	27281.214945	3704.805640	10901.063824
78.535000	0.285334	0.175541	0.304522	0.397948	5508.532357	27230.530364	3703.074813	10858.919363
79.035500	0.280475	0.176006	0.299687	0.406073	5431.693815	26806.091970	3678.566863	10711.413921
79.535500	0.288089	0.177785	0.307515	0.404625	5485.072878	26983.934581	3696.032935	10737.496351
80.035500	0.291637	0.179651	0.309268	0.407094	5491.510849	26950.638772	3694.673409	10693.084017
80.536500	0.292443	0.180438	0.318101	0.408742	5486.491790	26903.112821	3708.438072	10663.572757
81.036500	0.289942	0.179182	0.309168	0.415150	5433.966752	26484.200095	3679.321498	10549.873399
81.536500	0.293395	0.179496	0.310226	0.410966	5478.928740	26729.153667	3689.154622	10623.924205
82.037000	0.297379	0.180546	0.311197	0.413314	5488.655930	26658.198818	3686.559767	10582.273425
82.537000	0.296695	0.182277	0.317739	0.416743	5464.256900	26565.693087	3692.436789	10521.871251
83.035000	0.295933	0.180942	0.308898	0.422208	5427.750378	26198.907346	3665.771937	10426.580786
83.534500	0.299334	0.181604	0.318023	0.420455	5457.929308	26328.517067	3685.968250	10457.016787
84.035000	0.299737	0.182708	0.319215	0.423136	5444.543076	26243.757760	3683.172493	10410.509398
84.536000	0.302828	0.183621	0.320392	0.425256	5450.237746	26179.114345	3681.408151	10373.935749
85.039000	0.302382	0.183650	0.320657	0.433106	5401.983722	25764.646939	3667.352040	10240.083391
85.536500	0.303913	0.184324	0.319199	0.429993	5428.889935	25964.423912	3670.398671	10292.884969
86.036500	0.305850	0.184815	0.322792	0.432111	5427.833681	25878.417721	3673.122681	10256.921804
86.537000	0.307031	0.185193	0.323687	0.434396	5421.410878	25777.899366	3670.553595	10218.308625
87.037000	0.306258	0.185750	0.324310	0.435880	5408.341948	25729.270525	3668.968603	10193.356474
87.537500	0.307600	0.185789	0.321524	0.438026	5403.698788	25619.053077	3659.941048	10157.405009
88.034500	0.304808	0.185374	0.325196	0.438153	5386.930251	25590.798748	3666.419657	10155.285681
88.535000	0.304032	0.186439	0.318546	0.446328	5336.197801	25223.233230	3639.676740	10020.024707
89.036000	0.309112	0.186802	0.325824	0.442749	5385.254416	25426.242110	3659.171609	10078.920680
89.536000	0.310009	0.187136	0.325933	0.443979	5383.352289	25379.950517	3657.135599	10058.626606
90.036000	0.310001	0.186597	0.324649	0.445120	5376.795343	25293.374627	3652.750632	10039.851511
90.536500	0.307539	0.187039	0.324603	0.453154	5317.646212	24906.256617	3638.313238	9909.004539
91.036500	0.306810	0.187411	0.327248	0.453220	5313.230579	24921.758511	3642.892410	9907.943718
91.534500	0.308830	0.187301	0.322418	0.449919	5342.976838	25083.750300	3640.174872	9961.399458
92.035000	0.311897	0.188119	0.327275	0.451927	5348.938709	25023.174218	3645.245343	9928.825538
92.537500	0.309853	0.188290	0.324452	0.459327	5296.260455	24658.886640	3627.201422	9810.105392
93.035000	0.310850	0.189622	0.329516	0.460565	5294.926279	24663.565585	3633.904154	9790.425590
93.535500	0.314248	0.189589	0.331791	0.456327	5337.417103	24874.817256	3645.454215	9857.990863
94.035500	0.314381	0.189723	0.328225	0.457875	5329.487936	24803.568557	3636.371128	9833.239680
94.538500	0.309050	0.189650	0.325145	0.464836	5261.683086	24452.485248	3618.843448	9723.005760
95.036000	0.316346	0.191757	0.332906	0.467342	5287.875396	24432.756774	3627.966195	9683.753640
95.536500	0.317268	0.191074	0.333148	0.462328	5320.735080	24648.013063	3637.200814	9762.513535
96.037000	0.317807	0.190714	0.326312	0.463107	5319.405350	24591.198287	3623.857871	9750.226350
96.537000	0.316686	0.189771	0.330675	0.463096	5313.221932	24544.800420	3631.492023	9750.390773
97.035000	0.315052	0.190334	0.329518	0.470614	5262.896262	24201.783862	3616.422899	9632.846508
97.535000	0.319221	0.191344	0.329144	0.466425	5308.814945	24457.716847	3623.012933	9698.094760
98.035000	0.321327	0.191506	0.336940	0.467206	5316.180461	24427.115291	3635.284492	9685.892521
98.535000	0.319451	0.191531	0.333864	0.468286	5299.789306	24374.976311	3627.990845	9669.036030
99.036000	0.321077	0.189706	0.336374	0.467126	5315.231967	24342.212593	3634.426248	9687.134010
99.536500	0.320790	0.191042	0.334259	0.468894	5303.831115	24320.920863	3627.618184	9659.565084
100.036500	0.318635	0.190771	0.335556	0.469188	5290.310245	24293.161820	3629.371631	9654.989821
100.536500	0.321482	0.191269	0.334994	0.470356	5299.571810	24260.262292	3626.351079	9636.851805
101.037000	0.323413	0.192913	0.338883	0.472543	5298.159222	24233.640634	3629.321969	9603.018707
101.537500	0.321983	0.191624	0.338817	0.471541	5295.794583	24219.561444	3630.961133	9618.495192
102.037500	0.323823	0.192627	0.332898	0.473382	5295.791272	24178.565135	3617.476485	9590.079015
102.535000	0.318663	0.189531	0.333671	0.477214	5246.693600	23842.712923	3612.227577	9531.317411
103.035500	0.326650	0.193769	0.338259	0.474729	5303.970496	24168.576806	3624.422345	9569.365795
103.566000	0.321453	0.191256	0.335873	0.472447	5287.890169	24157.327696	3624.241583	9604.506196
104.038500	0.322136	0.191544	0.336338	0.473460	5286.071098	24121.910303	3623.288905	9588.877264
104.539000	0.320751	0.191421	0.336032	0.479641	5244.862424	23816.889044	3612.115636	9494.374430
105.036000	0.322449	0.192637	0.337752	0.480386	5250.016812	23839.537083	3613.783874	9483.077952
105.537000	0.325382	0.192354	0.334810	0.475355	5293.506428	24069.093608	3617.372738	9559.761924
106.037500	0.327555	0.192843	0.340325	0.475453	5304.973833	24088.144075	3626.758443	9558.264329
