sample name	sample
index	497
start time	 03-11-2021  02:34:43 PM
880	-0.086413
Peak Time (s)	91.539
Peak Height 	-0.08641
calc peak height	90,93
Baseline Time (s)	10.036
Baseline Value 	-0.006418
subtract baseline	10,4
Abs	-0.017413
Peak Time (s)	91.539
Peak Height 	-0.01741
calc peak height	90,93
Baseline Time (s)	9.536
Baseline Value 	0.003417
subtract baseline	10,3
PK_550	-0.006704
Peak Time (s)	92.038
Peak Height 	-0.006704
calc peak height	90,93
Baseline Time (s)	11.537
Baseline Value 	3.3622E-4
subtract baseline	10,2
PK_880	-0.007557
Peak Time (s)	91.036
Peak Height 	-0.007557
calc peak height	90,93
Baseline Time (s)	11.037
Baseline Value 	0.002932
subtract baseline	10,1


Time (s)	A880-A510	A880-A775	A880-A975	A880	I510	I775	I975	I880	
0.035500	-0.002933	0.000167	-0.006476	0.003233	7031.425951	45411.078398	3960.512229	24125.755833
0.536000	-0.002396	-0.000077	-0.005632	0.006088	7009.436868	45109.251658	3955.443859	23986.686019
1.036000	-0.004023	0.000784	0.000081	0.007590	6979.925644	45047.128158	3966.080746	23913.884523
1.542000	-0.002147	0.000103	0.001034	0.001635	7054.160954	45561.134390	3983.752987	24203.952651
2.037000	0.000215	0.000025	-0.007409	0.001946	7073.826209	45523.025785	3961.403903	24188.709924
2.537500	-0.000517	-0.000444	-0.002863	0.001216	7073.808521	45548.546018	3974.820469	24224.514898
3.034500	-0.001233	-0.000502	-0.004737	0.000350	7075.264193	45627.914349	3972.245754	24267.110720
3.535000	-0.000516	-0.000516	0.000978	0.000919	7076.682808	45570.676176	3985.458201	24239.134441
4.035500	-0.001671	0.000576	-0.004322	0.001034	7064.483911	45666.629624	3971.560474	24233.468602
4.535500	-0.000870	0.000344	-0.001307	0.000985	7072.636849	45648.589138	3979.402294	24235.855712
5.035500	-0.001966	-0.000557	-0.001084	0.000404	7067.692940	45617.148330	3981.468204	24264.414804
5.536000	-0.000364	-0.000709	-0.004201	0.000129	7085.745504	45629.268241	3974.178465	24277.969134
6.039000	-0.001105	-0.000598	-0.001495	0.000324	7076.741011	45621.095581	3980.619358	24268.379186
6.537000	0.000735	0.000855	0.000411	0.001011	7087.841164	45696.303214	3983.757566	24234.595304
7.036500	-0.001021	-0.000191	-0.000560	0.000361	7077.195965	45657.427739	3982.931787	24266.563942
7.537000	-0.000102	-0.001393	-0.004705	-0.000943	7098.624064	45667.358352	3975.632065	24330.767435
8.037500	-0.000940	-0.000953	-0.003909	-0.000557	7086.802746	45672.693333	3976.681588	24311.743904
8.535000	0.002004	0.001062	0.004777	0.000870	7101.456354	45730.603802	3995.439484	24241.517909
9.034500	0.001667	0.000987	0.000492	0.001035	7096.597626	45706.869482	3983.901904	24233.397976
9.536000	-0.000386	-0.000032	0.000000	-0.000148	7088.210887	45723.140845	3985.687884	24291.601345
10.036000	-0.000155	-0.000118	-0.003251	0.000000	7089.009772	45700.041503	3976.942445	24284.310790
10.539000	0.000436	0.000493	-0.000994	-0.000064	7095.331831	45766.539863	3982.907447	24287.478399
11.036500	0.000000	-0.000112	0.002805	-0.000033	7090.818665	45703.884768	3992.656724	24285.923835
11.536500	-0.002216	0.000000	-0.002460	0.002989	7040.583214	45418.553385	3971.323355	24137.673747
12.037000	-0.001977	-0.000096	-0.002372	-0.000334	7074.674256	45735.020942	3980.053232	24300.740047
12.534500	0.001322	0.000135	-0.001667	-0.000234	7105.542088	45747.925777	3981.609908	24295.809742
13.035000	0.004053	0.000201	0.001333	-0.000489	7134.560314	45779.645347	3990.020401	24308.401286
13.535000	-0.002331	-0.000222	-0.002495	0.002886	7040.462856	45406.922552	3971.495630	24142.704128
14.035500	-0.001677	-0.000242	0.001921	0.002399	7051.358852	45452.604344	3984.071700	24166.530485
14.535500	-0.001087	-0.000391	-0.006566	0.001417	7066.410198	45534.114567	3964.878261	24214.679736
15.038500	-0.000237	-0.000135	-0.000158	-0.000760	7095.557726	45773.207129	3986.860469	24321.769296
15.536500	-0.001213	-0.000225	-0.001630	0.002625	7053.629269	45432.139762	3974.371638	24155.478892
16.037000	0.000111	-0.000336	-0.003102	-0.001120	7102.397832	45788.869644	3980.199067	24339.519604
16.537000	0.001158	0.000706	0.004634	-0.000622	7107.711711	45842.503690	3998.961094	24314.948814
17.034500	0.002709	0.000777	0.001642	-0.003124	7147.175922	46097.329245	3997.681061	24438.689956
17.537500	-0.000511	0.000264	0.003553	0.001347	7072.608736	45605.227547	3991.016578	24218.089824
18.035000	-0.001272	0.000588	0.000726	0.000977	7068.863180	45673.463975	3984.659241	24236.284031
18.535000	-0.002502	0.000447	0.000042	0.001157	7055.342853	45641.825319	3982.428629	24227.405192
19.035500	-0.002143	-0.000709	0.001461	-0.000166	7071.476887	45658.273326	3989.514832	24292.502410
19.538500	-0.002097	0.000019	-0.004660	0.001498	7055.958087	45566.370896	3969.515513	24210.685208
20.036000	-0.000896	0.000367	-0.000851	0.000796	7074.206111	45669.485321	3981.060995	24245.165726
20.536500	-0.001681	-0.000210	0.001755	0.000846	7066.190380	45607.870803	3987.654850	24242.702995
21.037000	-0.000669	-0.000096	-0.001496	0.000713	7077.190629	45632.179145	3979.615813	24249.259642
21.534000	-0.002014	0.000214	-0.002406	0.002755	7044.734414	45462.380195	3972.055370	24149.103516
22.037500	-0.000646	0.000009	-0.001617	0.001082	7073.861981	45606.151595	3978.355989	24231.100928
22.535000	-0.000708	0.000060	-0.000504	0.001153	7072.576719	45604.188178	3981.032506	24227.600868
23.035000	-0.001479	0.000623	0.000042	0.001451	7062.323279	45630.282378	3981.673168	24212.979905
23.535500	-0.000557	0.000748	0.003185	0.001915	7066.723794	45597.060087	3988.591072	24190.260973
24.038500	-0.002394	-0.000069	0.000578	0.001264	7055.350314	45580.674612	3983.534579	24222.166227
24.535500	0.000384	0.001030	-0.000838	0.001711	7077.718903	45644.706798	3978.743677	24200.244611
25.036500	-0.000487	0.001026	0.003702	0.002049	7066.109745	45611.122725	3989.582895	24183.688593
25.536500	-0.000143	0.000856	0.000274	0.001622	7073.506784	45636.407135	3981.831397	24204.624923
26.036500	-0.001954	0.000314	-0.000942	0.000978	7062.297142	45646.369170	3980.357451	24236.193426
26.537000	-0.001627	0.000313	0.003254	0.002058	7055.087807	45540.203160	3988.397228	24183.211516
27.037500	0.001747	-0.000170	-0.002396	-0.001388	7120.862067	45831.729486	3982.705340	24352.742238
27.535000	0.002144	-0.000042	-0.001164	-0.002374	7134.323795	45941.711513	3988.434048	24401.487653
28.035500	0.001230	0.000064	0.002280	-0.000856	7110.672661	45802.226771	3993.432996	24326.471527
28.538500	-0.001213	-0.000212	-0.000798	0.002744	7052.494407	45421.759347	3976.197347	24149.662080
29.036000	-0.002039	-0.000339	-0.000901	-0.000740	7077.986401	45751.150836	3984.889372	24320.767010
29.536000	0.000590	0.000313	-0.002788	-0.000286	7098.961969	45770.680164	3978.862228	24298.407628
30.036500	-0.000039	0.000372	-0.001133	-0.000262	7092.658389	45774.162470	3983.058240	24297.219259
30.537000	-0.002527	-0.000464	0.000333	0.002632	7041.009758	45408.025898	3979.382601	24155.100326
31.037000	-0.000426	-0.000186	0.001630	0.001921	7067.913895	45504.802686	3984.552705	24189.932250
31.537500	-0.004546	0.000094	0.000370	0.003729	7011.415379	45355.465792	3976.665287	24101.527179
32.034500	-0.000058	-0.000677	0.000056	-0.000569	7095.437911	45701.098048	3986.922679	24312.363926
32.535000	-0.001116	0.000149	0.000711	0.003709	7044.202334	45362.745458	3977.588358	24102.465844
33.038500	0.000426	0.001103	0.002128	0.000072	7093.926506	45813.349684	3990.628219	24280.790453
33.535500	-0.002650	-0.000142	-0.000485	0.002931	7036.987020	45410.231621	3976.516973	24140.474795
34.036000	-0.000693	0.000125	-0.004093	0.001675	7067.713692	45559.461764	3970.510125	24202.016810
34.536500	-0.002392	-0.000003	0.001015	0.002427	7044.256931	45473.213727	3981.665284	24165.143888
35.037000	-0.000228	0.000606	0.001737	0.002764	7061.735269	45499.826650	3982.657400	24148.676848
35.537000	-0.003475	-0.000206	-0.006239	0.003133	7027.223416	45384.374508	3961.362951	24130.629046
36.037000	-0.001292	0.000010	-0.002142	0.001371	7064.885503	45577.921272	3976.270007	24216.910513
36.534500	-0.002210	-0.000333	0.000691	0.002333	7046.897516	45450.126232	3981.073389	24169.780244
37.035000	-0.000426	0.000170	-0.002321	0.002152	7065.706029	45517.135001	3973.814600	24178.644464
37.538000	-0.001048	-0.000147	0.000352	0.002944	7052.151759	45408.491630	3978.630600	24139.844362
38.035500	-0.000817	0.000094	-0.002865	0.002157	7061.906865	45509.170149	3972.411127	24178.387305
38.535500	0.000675	0.000945	-0.001770	0.002407	7073.818600	45568.018527	3974.569682	24166.120573
39.036500	-0.003025	-0.000216	-0.001233	0.001539	7046.691927	45539.270195	3978.170114	24208.660809
39.536500	-0.001141	0.001003	-0.005575	0.003558	7045.401477	45460.984262	3961.965072	24109.852114
40.036500	-0.000726	0.000886	0.000718	0.002048	7063.814426	45597.491249	3981.875051	24183.707786
40.537000	-0.002475	0.000025	-0.001950	0.001316	7054.076317	45584.739600	3976.901270	24219.603060
41.034500	-0.000921	0.000554	0.002184	0.002043	7062.003854	45565.419894	3985.670670	24183.984559
41.535000	-0.002588	-0.000212	-0.001828	0.002427	7042.388599	45452.770568	3974.371104	24165.168794
42.037500	0.000020	-0.000894	-0.002031	0.001193	7079.198687	45506.772567	3977.010440	24225.669692
42.535500	-0.000489	-0.000532	0.002615	0.001360	7072.692829	45525.835210	3988.551481	24217.443482
43.036000	-0.001334	0.000252	0.002951	0.001987	7058.580243	45541.222717	3987.796020	24186.700661
43.535500	-0.001408	0.000429	0.002065	0.003088	7047.340660	45450.749728	3982.665972	24132.805918
44.036000	0.001918	0.000541	0.001519	-0.002768	7135.973593	46038.604391	3996.433115	24421.042886
44.536500	0.001029	-0.000501	0.004890	-0.001017	7110.297700	45762.548776	4000.663898	24334.454899
45.036500	-0.000378	0.000212	-0.001113	-0.000382	7090.536493	45770.140750	3983.418507	24303.118496
45.537000	-0.002561	-0.000162	0.003389	0.003024	7036.956239	45399.329809	3986.250774	24135.971035
46.035000	0.000124	0.000597	0.006204	-0.000153	7093.177672	45785.497641	4001.843110	24291.833774
46.537500	-0.003648	0.000517	-0.001845	0.005422	7003.893832	45231.745335	3966.696465	24019.050911
47.035000	0.000174	0.000006	0.004941	-0.000451	7096.542832	45756.751945	3999.318504	24306.550092
47.535500	-0.003799	0.000628	-0.004104	0.004056	7015.390289	45375.645716	3964.429567	24085.546579
48.036000	-0.000596	0.000656	0.004220	0.000633	7078.666508	45713.959139	3994.607319	24253.190067
48.536000	-0.002607	0.000030	-0.000165	0.004684	7020.735790	45256.130087	3972.853951	24054.946697
49.036500	0.001878	0.000238	0.001107	-0.000572	7114.204674	45791.393295	3989.649702	24312.469838
49.536500	-0.000861	-0.000208	-0.001852	0.002092	7062.096297	45485.857268	3975.165485	24181.542616
50.037000	0.000749	0.000895	0.002254	-0.000966	7107.080716	45895.182963	3993.651628	24331.903128
50.537000	-0.003180	0.000702	-0.003329	0.005760	7005.110663	45216.718475	3962.077460	24002.582160
51.037500	0.003581	0.000831	0.004342	-0.000845	7133.430590	45876.967426	3998.781228	24325.964518
51.535000	0.002492	-0.000806	-0.001186	-0.006172	7174.941100	46243.012463	3998.255382	24590.346106
52.035000	-0.030670	-0.004160	-0.021959	0.253821	5076.469822	26568.305124	3458.110752	14821.192239
52.535500	-0.063099	-0.022771	-0.032471	-0.030443	6786.944975	46473.419557	3980.082461	25836.899325
53.035500	-0.066540	-0.053362	-0.030959	-0.199113	8586.504457	62755.963562	4515.604246	36721.066798
53.536000	-0.039417	-0.074102	-0.005419	-0.234896	9472.855524	64863.005646	4766.113844	39625.468907
54.036500	-0.037256	-0.032013	-0.009762	-0.156069	8409.155042	59842.734589	4434.561819	33529.992579
54.536500	-0.032096	-0.027921	-0.016148	-0.158310	8503.838089	60678.139132	4419.642525	33688.434133
55.037000	-0.022341	-0.018136	-0.013892	-0.130110	8270.822790	58282.390494	4329.419942	31752.983103
55.540000	-0.008728	-0.015732	-0.009857	-0.137470	8536.568669	59540.092602	4368.386253	32246.064808
56.035000	-0.009493	-0.011274	-0.019305	-0.125572	8374.581527	58579.161162	4296.220743	31453.064286
56.535500	-0.012806	-0.010156	-0.017821	-0.114089	8191.207048	57267.834640	4263.616795	30708.106050
57.035500	-0.011640	-0.010722	-0.018641	-0.111846	8178.092019	56917.684957	4253.776768	30564.825944
57.535500	-0.013028	-0.008823	-0.020708	-0.100794	8029.046235	55792.609198	4212.417261	29869.772157
58.035500	-0.015532	-0.010294	-0.021496	-0.091623	7892.985537	54514.030628	4181.841010	29306.272272
58.536000	-0.016595	-0.009417	-0.018513	-0.089673	7858.471707	54386.784139	4184.981541	29188.004174
59.036500	-0.018085	-0.009903	-0.022934	-0.083897	7776.202929	53650.886982	4154.324747	28840.753285
59.536500	-0.018630	-0.009906	-0.021623	-0.088892	7826.426423	54236.698155	4173.196634	29140.766581
60.039500	-0.017272	-0.009877	-0.020659	-0.091798	7875.026948	54584.330193	4184.917678	29316.903428
60.535000	-0.019131	-0.008228	-0.024631	-0.081506	7737.762857	53567.311315	4142.230663	28698.327228
61.035000	-0.004048	0.000806	-0.017595	-0.043367	7487.607914	50287.647398	4053.872417	26529.597499
61.535000	-0.014356	-0.008665	-0.020324	-0.089041	7876.854567	54401.076997	4177.569792	29149.784509
62.035500	-0.013799	-0.007111	-0.023685	-0.100007	8010.678989	55905.248088	4200.781544	29820.965916
62.536000	-0.015172	-0.014020	-0.020505	-0.125521	8302.822816	58222.221660	4292.099044	31449.724227
63.035500	-0.011145	-0.013802	-0.023447	-0.128807	8394.562947	58669.677493	4293.230608	31666.508964
63.536000	-0.012847	-0.012850	-0.029520	-0.123776	8310.036993	58149.032066	4257.145486	31335.233717
64.036000	-0.009613	-0.012684	-0.021688	-0.125084	8366.926774	58336.773191	4286.782812	31421.027909
64.539500	-0.009514	-0.011723	-0.015990	-0.121227	8319.826537	57968.843125	4292.826773	31168.887817
65.037500	-0.008115	-0.010469	-0.021122	-0.117081	8285.636531	57603.691136	4262.619499	30900.301712
65.535000	-0.009924	-0.010520	-0.020843	-0.114883	8236.181536	57321.504996	4256.451633	30758.957113
66.035000	-0.010184	-0.010051	-0.021280	-0.112886	8208.525995	57130.758136	4248.670080	30631.194308
66.535500	-0.014232	-0.010357	-0.026941	-0.106062	8077.270466	56248.727044	4209.424578	30198.892551
67.035500	-0.011239	-0.009915	-0.020251	-0.109828	8158.483039	56767.486673	4242.214916	30436.636417
67.541000	-0.015359	-0.010336	-0.024579	-0.104987	8051.092534	56119.603967	4213.418999	30131.422153
68.036000	-0.011739	-0.011530	-0.022933	-0.110283	8157.928183	56624.036808	4235.164931	30465.476216
68.536500	-0.016324	-0.011476	-0.026447	-0.105624	8047.197616	56058.127329	4209.598282	30171.387965
69.036500	-0.014029	-0.011372	-0.023719	-0.110004	8126.920624	56609.031958	4231.808297	30447.789865
69.537000	-0.011718	-0.010945	-0.021492	-0.109304	8146.342790	56575.250990	4236.621663	30403.378554
70.034500	-0.014284	-0.011290	-0.023217	-0.109959	8123.319291	56613.645516	4233.248211	30444.943992
70.535000	-0.016077	-0.010174	-0.024568	-0.105040	8043.192616	56145.840056	4213.615632	30134.704311
71.035000	-0.012600	-0.010743	-0.023425	-0.110044	8144.636123	56691.750942	4232.858131	30450.315218
71.535000	-0.016299	-0.010985	-0.022866	-0.106022	8052.210054	56166.884171	4221.984795	30196.378503
72.036000	-0.010909	-0.011249	-0.018067	-0.111005	8176.759325	56747.986789	4252.923929	30511.331190
72.535500	-0.016361	-0.011049	-0.020870	-0.106248	8054.157142	56186.761932	4228.951603	30210.597826
73.036500	-0.013376	-0.012227	-0.024439	-0.112521	8165.217065	56814.747962	4237.478410	30607.893283
73.539500	-0.015422	-0.011525	-0.026765	-0.108344	8090.300364	56385.630311	4217.062551	30342.699882
74.036500	-0.011798	-0.011600	-0.020276	-0.112929	8189.347165	56943.148811	4252.012047	30633.889834
74.537000	-0.014217	-0.011631	-0.020440	-0.110460	8130.157668	56633.457231	4243.624104	30476.738194
75.035000	-0.012468	-0.011693	-0.017603	-0.113787	8191.634134	57038.296260	4263.345576	30688.738909
75.535000	-0.014113	-0.011586	-0.023928	-0.109805	8123.516678	56558.064185	4230.521275	30435.158826
76.035000	-0.012142	-0.012194	-0.020366	-0.114946	8209.764467	57120.319567	4258.186678	30762.993090
76.535500	-0.014989	-0.011817	-0.022805	-0.110483	8121.140675	56613.299518	4236.201389	30478.184142
77.039000	-0.010079	-0.011831	-0.017804	-0.114895	8234.425856	57159.237394	4266.274085	30759.753856
77.536000	-0.015460	-0.011988	-0.025884	-0.110338	8113.727678	56574.218158	4226.049086	30468.954378
78.039000	-0.011913	-0.012480	-0.019826	-0.115876	8223.951709	57200.652596	4262.914456	30822.707709
78.536500	-0.015842	-0.012112	-0.028307	-0.111295	8120.633695	56677.143946	4221.459173	30529.751570
79.036500	-0.012810	-0.011712	-0.020939	-0.114799	8199.815186	57162.128815	4255.876418	30753.585613
79.537500	-0.016538	-0.011153	-0.022466	-0.109854	8095.009236	56617.519305	4235.283482	30438.258635
80.035000	-0.010649	-0.011680	-0.022915	-0.114016	8216.649782	57068.514977	4247.063071	30703.430680
80.535000	-0.013990	-0.011905	-0.023411	-0.112548	8158.099432	56857.935492	4240.816693	30609.564473
81.035500	-0.012133	-0.010523	-0.019989	-0.112837	8184.144702	57065.716318	4252.633395	30628.011837
81.535500	-0.014923	-0.011429	-0.028939	-0.108266	8095.339976	56387.853758	4210.062607	30337.783684
82.036000	-0.011713	-0.010869	-0.020338	-0.112047	8179.651053	56924.445900	4249.001341	30577.682615
82.538500	-0.013189	-0.010004	-0.027807	-0.107714	8109.498117	56495.281812	4211.864131	30302.937287
83.036500	-0.009832	-0.009797	-0.019807	-0.109973	8177.307906	56800.095336	4244.087584	30445.825085
83.537000	-0.009214	-0.009674	-0.019769	-0.109201	8175.434091	56719.603443	4241.754275	30396.877677
84.037000	-0.010449	-0.008879	-0.022977	-0.107841	8143.992430	56649.748077	4227.336779	30310.899151
84.534500	-0.008618	-0.008391	-0.020555	-0.106682	8152.118836	56566.954349	4231.307170	30237.859926
85.035000	-0.009725	-0.009337	-0.020537	-0.106398	8135.333796	56415.425043	4230.473042	30220.029156
85.535500	-0.008988	-0.009016	-0.017972	-0.105704	8135.837812	56369.484961	4236.370652	30176.377110
86.036000	-0.009866	-0.009081	-0.019206	-0.104425	8109.906675	56204.522100	4228.452507	30096.191093
86.535500	-0.010207	-0.009334	-0.021531	-0.103726	8097.445270	56087.906992	4218.983763	30052.450039
87.041500	-0.008279	-0.008481	-0.018531	-0.102033	8100.257402	55985.283843	4223.067971	29946.821581
87.536500	-0.008911	-0.008397	-0.021219	-0.101410	8085.243903	55919.507272	4212.741981	29908.050960
88.037000	-0.009218	-0.007555	-0.019937	-0.099103	8054.130758	55741.189133	4209.561393	29764.957327
88.537000	-0.010587	-0.007758	-0.019614	-0.095848	7999.545190	55322.672595	4200.509051	29564.392484
89.034500	-0.007932	-0.008074	-0.020276	-0.097789	8053.799079	55518.915533	4204.451021	29683.827223
89.535000	-0.012470	-0.007716	-0.019691	-0.091493	7926.819555	54805.352167	4186.935666	29298.381789
90.035000	-0.009510	-0.007054	-0.017908	-0.094676	7998.425446	55266.259518	4202.151898	29492.531486
90.535500	-0.011283	-0.007067	-0.019813	-0.091800	7944.138354	54919.559915	4187.501569	29317.050490
91.036000	-0.007557	-0.007588	-0.019934	-0.093311	8005.333044	55038.092901	4191.743093	29409.091075
91.539000	-0.011548	-0.006742	-0.017413	-0.086413	7878.918555	54317.565966	4178.426899	28991.418790
92.038500	-0.009551	-0.006704	-0.020299	-0.090413	7948.147553	54797.216330	4181.804861	29232.831407
92.536000	-0.010758	-0.006775	-0.019609	-0.087150	7896.454949	54400.952832	4174.016387	29035.732697
93.037000	-0.009825	-0.006656	-0.018586	-0.088033	7917.400723	54519.755828	4179.781090	29088.951556
93.534000	-0.013452	-0.006790	-0.026227	-0.081815	7804.927619	53771.334075	4138.450433	28716.705020
94.037000	-0.010050	-0.006878	-0.024403	-0.086044	7891.873995	54257.949620	4156.336796	28969.252105
94.535000	-0.010810	-0.006034	-0.020018	-0.083708	7856.418440	54082.012199	4162.451540	28829.433856
95.038000	-0.009750	-0.006819	-0.019598	-0.083917	7870.920858	54014.275360	4164.333831	28841.911631
95.536000	-0.014086	-0.005691	-0.023040	-0.077208	7746.091145	53362.635504	4134.288849	28444.323279
96.038000	-0.009891	-0.005658	-0.020171	-0.081444	7841.091543	53860.362791	4155.243395	28694.656941
