sample name	sample
index	1341
start time	 05-03-2021  12:41:25 PM


Wavelength (nm)	Absorbance
494.344910	-0.809267
494.563924	-0.809267
494.782919	-0.809267
495.001897	NaN
495.220856	-0.212395
495.439797	-0.145697
495.658719	-0.043506
495.877624	0.089578
496.096510	0.065025
496.315378	-0.030300
496.534227	-0.036393
496.753059	-0.020531
496.971872	-0.120064
497.190667	0.005745
497.409444	0.012476
497.628203	0.014387
497.846943	0.017577
498.065665	0.017535
498.284369	0.018767
498.503055	0.020062
498.721723	0.020088
498.940372	0.020629
499.159003	0.021130
499.377616	0.022040
499.596210	0.021781
499.814787	0.021233
500.033345	0.021944
500.251885	0.021616
500.470406	0.022007
500.688910	0.021765
500.907395	0.022460
501.125862	0.021762
501.344311	0.021182
501.562742	0.022026
501.781154	0.021385
501.999548	0.020124
502.217924	0.019605
502.436282	0.018011
502.654621	0.017802
502.872942	0.016741
503.091245	0.015562
503.309530	0.016092
503.527797	0.015365
503.746045	0.016097
503.964275	0.016546
504.182487	0.017122
504.400681	0.017488
504.618856	0.017819
504.837013	0.017900
505.055152	0.020391
505.273273	0.018715
505.491376	0.019128
505.709460	0.018738
505.927526	0.018313
506.145574	0.017495
506.363604	0.016983
506.581615	0.016359
506.799608	0.016248
507.017583	0.014765
507.235540	0.016174
507.453478	0.015394
507.671399	0.014590
507.889301	0.015448
508.107185	0.015709
508.325050	0.016102
508.542898	0.016214
508.760727	0.016038
508.978538	0.016098
509.196330	0.015385
509.414105	0.016205
509.631861	0.017380
509.849599	0.017630
510.067319	0.018055
510.285021	0.018233
510.502704	0.018606
510.720369	0.018761
510.938016	0.018979
511.155645	0.018734
511.373255	0.018555
511.590848	0.017488
511.808422	0.017045
512.025977	0.016403
512.243515	0.016028
512.461034	0.015715
512.678536	0.014679
512.896018	0.014109
513.113483	0.014126
513.330930	0.013796
513.548358	0.013740
513.765768	0.012828
513.983160	0.013224
514.200533	0.013098
514.417889	0.012286
514.635226	0.013035
514.852545	0.012497
515.069845	0.012825
515.287128	0.011877
515.504392	0.011716
515.721638	0.012441
515.938866	0.011669
516.156075	0.011559
516.373267	0.012492
516.590440	0.012615
516.807594	0.013080
517.024731	0.012649
517.241850	0.013524
517.458950	0.014184
517.676032	0.013273
517.893095	0.013290
518.110141	0.013408
518.327168	0.012518
518.544177	0.011930
518.761168	0.012146
518.978141	0.012323
519.195095	0.012585
519.412031	0.011301
519.628949	0.011360
519.845849	0.010686
520.062731	0.010135
520.279594	0.010266
520.496439	0.010323
520.713266	0.010004
520.930074	0.010031
521.146865	0.009469
521.363637	0.009609
521.580391	0.009687
521.797127	0.010009
522.013844	0.010366
522.230543	0.010807
522.447224	0.010860
522.663887	0.011296
522.880532	0.011485
523.097158	0.011656
523.313766	0.011778
523.530356	0.011641
523.746928	0.012005
523.963481	0.011276
524.180017	0.011384
524.396534	0.011274
524.613032	0.010648
524.829513	0.010197
525.045975	0.009698
525.262420	0.010005
525.478845	0.010556
525.695253	0.009939
525.911643	0.010428
526.128014	0.009599
526.344367	0.009473
526.560702	0.009858
526.777018	0.010053
526.993316	0.010587
527.209597	0.010445
527.425858	0.009665
527.642102	0.009936
527.858328	0.010031
528.074535	0.010858
528.290724	0.011165
528.506894	0.010792
528.723047	0.010470
528.939181	0.010410
529.155297	0.010436
529.371395	0.010911
529.587475	0.011042
529.803536	0.011032
530.019579	0.010502
530.235604	0.010464
530.451611	0.010717
530.667600	0.010504
530.883570	0.009770
531.099522	0.009543
531.315456	0.008574
531.531372	0.008389
531.747269	0.007916
531.963148	0.008254
532.179009	0.007508
532.394852	0.006856
532.610676	0.007286
532.826482	0.007569
533.042271	0.007636
533.258040	0.008152
533.473792	0.008081
533.689525	0.007715
533.905240	0.007350
534.120937	0.007685
534.336616	0.008085
534.552277	0.008077
534.767919	0.007864
534.983543	0.007959
535.199149	0.007736
535.414736	0.007371
535.630306	0.007821
535.845857	0.008092
536.061390	0.008290
536.276904	0.007925
536.492401	0.007642
536.707879	0.007899
536.923339	0.007676
537.138781	0.007940
537.354204	0.008367
537.569610	0.008208
537.784997	0.007695
538.000366	0.007738
538.215716	0.008049
538.431049	0.008091
538.646363	0.007845
538.861659	0.008146
539.076937	0.007782
539.292196	0.007637
539.507438	0.007818
539.722661	0.007664
539.937866	0.007558
540.153052	0.007017
540.368221	0.006607
540.583371	0.006560
540.798503	0.006032
541.013617	0.005836
541.228712	0.005649
541.443789	0.004900
541.658848	0.004957
541.873889	0.004993
542.088912	0.005222
542.303916	0.005207
542.518902	0.005267
542.733870	0.005414
542.948820	0.005602
543.163752	0.005843
543.378665	0.006403
543.593560	0.006737
543.808437	0.006366
544.023295	0.006415
544.238136	0.006654
544.452958	0.006622
544.667762	0.006573
544.882548	0.006378
545.097315	0.006147
545.312064	0.006189
545.526795	0.005477
545.741508	0.005239
545.956203	0.005211
546.170879	0.005249
546.385537	0.005052
546.600177	0.004707
546.814799	0.005322
547.029402	0.005523
547.243988	0.005274
547.458555	0.005531
547.673103	0.005748
547.887634	0.005600
548.102146	0.005173
548.316640	0.005286
548.531116	0.005673
548.745574	0.005095
548.960013	0.004767
549.174435	0.004729
549.388838	0.004691
549.603222	0.004387
549.817589	0.004567
550.031937	0.004766
550.246267	0.004708
550.460579	0.004940
550.674873	0.005116
550.889148	0.005202
551.103405	0.005303
551.317644	0.005587
551.531865	0.005710
551.746068	0.005759
551.960252	0.005539
552.174418	0.005084
552.388566	0.004662
552.602696	0.004540
552.816807	0.004754
553.030900	0.005261
553.244975	0.005166
553.459032	0.005479
553.673070	0.005513
553.887091	0.005553
554.101093	0.006129
554.315077	0.006179
554.529042	0.006219
554.742990	0.006097
554.956919	0.005735
555.170830	0.005939
555.384722	0.005744
555.598597	0.005627
555.812453	0.006013
556.026291	0.006004
556.240111	0.006018
556.453913	0.006004
556.667696	0.005862
556.881461	0.005549
557.095208	0.005230
557.308937	0.005455
557.522647	0.005355
557.736339	0.005014
557.950013	0.004752
558.163669	0.004599
558.377307	0.004507
558.590926	0.004413
558.804527	0.004363
559.018110	0.004397
559.231675	0.004311
559.445221	0.004185
559.658749	0.004198
559.872259	0.004329
560.085751	0.004365
560.299225	0.004505
560.512680	0.004680
560.726117	0.004858
560.939536	0.004855
561.152937	0.004869
561.366319	0.004988
561.579683	0.004756
561.793029	0.004717
562.006357	0.004598
562.219667	0.004506
562.432958	0.004459
562.646231	0.004647
562.859486	0.004773
563.072723	0.004560
563.285941	0.004293
563.499141	0.004456
563.712323	0.004233
563.925487	0.004441
564.138632	0.004233
564.351760	0.004466
564.564869	0.004313
564.777960	0.004211
564.991032	0.004229
565.204087	0.004270
565.417123	0.004246
565.630141	0.004485
565.843140	0.004443
566.056122	0.004525
566.269085	0.004637
566.482030	0.004680
566.694957	0.004454
566.907866	0.004798
567.120756	0.004859
567.333628	0.004973
567.546482	0.004946
567.759318	0.005004
567.972135	0.004978
568.184935	0.004549
568.397716	0.004479
568.610478	0.004749
568.823223	0.004517
569.035949	0.004673
569.248657	0.004840
569.461347	0.005006
569.674019	0.005031
569.886672	0.004984
570.099308	0.004795
570.311925	0.004934
570.524523	0.004717
570.737104	0.004771
570.949666	0.004612
571.162210	0.004223
571.374736	0.003966
571.587244	0.003573
571.799733	0.003487
572.012205	0.003539
572.224658	0.003682
572.437092	0.003476
572.649509	0.003339
572.861907	0.003328
573.074287	0.003591
573.286649	0.003648
573.498993	0.003738
573.711318	0.003721
573.923625	0.003824
574.135914	0.003212
574.348185	0.003093
574.560438	0.003074
574.772672	0.002984
574.984888	0.002998
575.197086	0.002715
575.409266	0.002590
575.621427	0.002733
575.833570	0.002788
576.045695	0.003129
576.257802	0.003415
576.469890	0.003687
576.681961	0.003869
576.894013	0.003684
577.106046	0.003754
577.318062	0.003708
577.530059	0.003935
577.742039	0.003959
577.954000	0.004103
578.165942	0.004311
578.377867	0.004122
578.589773	0.004090
578.801661	0.004248
579.013531	0.004219
579.225382	0.004568
579.437216	0.004341
579.649031	0.004311
579.860828	0.004082
580.072606	0.003975
580.284367	0.003724
580.496109	0.004021
580.707833	0.003919
580.919539	0.004201
581.131227	0.004161
581.342896	0.004234
581.554547	0.004014
581.766180	0.004295
581.977795	0.004424
582.189391	0.004638
582.400969	0.004259
582.612529	0.004424
582.824071	0.004258
583.035595	0.004583
583.247100	0.004653
583.458587	0.004703
583.670056	0.004655
583.881506	0.004495
584.092939	0.004140
584.304353	0.004135
584.515749	0.003937
584.727127	0.003943
584.938486	0.003355
585.149828	0.003472
585.361151	0.003644
585.572456	0.003582
585.783742	0.003604
585.995011	0.003614
586.206261	0.003621
586.417493	0.003604
586.628706	0.003824
586.839902	0.003790
587.051079	0.003582
587.262238	0.003687
587.473379	0.003340
587.684502	0.003164
587.895606	0.003421
588.106692	0.003240
588.317760	0.003254
588.528810	0.003096
588.739841	0.003667
588.950855	0.003831
589.161850	0.003853
589.372827	0.004065
589.583785	0.004344
589.794726	0.004284
590.005648	0.004384
590.216552	0.004322
590.427437	0.004355
590.638305	0.004004
590.849154	0.003847
591.059985	0.003231
591.270798	0.003364
591.481592	0.003344
591.692369	0.003208
591.903127	0.003353
592.113867	0.003429
592.324588	0.003759
592.535292	0.003836
592.745977	0.003864
592.956644	0.004490
593.167293	0.004196
593.377923	0.004270
593.588536	0.004336
593.799130	0.004041
594.009706	0.003997
594.220263	0.003516
594.430803	0.003341
594.641324	0.003274
594.851827	0.002913
595.062312	0.003215
595.272778	0.002985
595.483227	0.003041
595.693657	0.003206
595.904069	0.003336
596.114462	0.003156
596.324838	0.003224
596.535195	0.003389
596.745534	0.003562
596.955855	0.003268
597.166157	0.003185
597.376441	0.003346
597.586707	0.003441
597.796955	0.003502
598.007185	0.003531
598.217396	0.003612
598.427589	0.003618
598.637764	0.003334
598.847921	0.003511
599.058060	0.003795
599.268180	0.003854
599.478282	0.004088
599.688366	0.004050
599.898431	0.004191
600.108479	0.004203
600.318508	0.004303
600.528519	0.004566
600.738511	0.004448
600.948486	0.004359
601.158442	0.004081
601.368380	0.003836
601.578300	0.003767
601.788202	0.003832
601.998085	0.003885
602.207950	0.003943
602.417797	0.003968
602.627626	0.004132
602.837436	0.004364
603.047228	0.004630
603.257002	0.004668
603.466758	0.004637
603.676496	0.004741
603.886215	0.004908
604.095916	0.004912
604.305599	0.005102
604.515264	0.005207
604.724910	0.005098
604.934538	0.005030
605.144148	0.005110
605.353740	0.005140
605.563314	0.005268
605.772869	0.005171
605.982406	0.004912
606.191925	0.004777
606.401425	0.004660
606.610908	0.004711
606.820372	0.004696
607.029818	0.004507
607.239246	0.004494
607.448655	0.004324
607.658047	0.004107
607.867420	0.004193
608.076775	0.004208
608.286111	0.003965
608.495430	0.003669
608.704730	0.003664
608.914012	0.003738
609.123275	0.003544
609.332521	0.003124
609.541748	0.003238
609.750957	0.003170
609.960148	0.003108
610.169321	0.003214
610.378475	0.003368
610.587611	0.003360
610.796729	0.003390
611.005829	0.003610
611.214910	0.004025
611.423974	0.004160
611.633019	0.004091
611.842045	0.004032
612.051054	0.004067
612.260044	0.004015
612.469017	0.003919
612.677970	0.004055
612.886906	0.004226
613.095824	0.004224
613.304723	0.003943
613.513604	0.003998
613.722467	0.003928
613.931311	0.004023
614.140138	0.004141
614.348946	0.004287
614.557736	0.004033
614.766507	0.003914
614.975261	0.004036
615.183996	0.004317
615.392713	0.004401
615.601412	0.004568
615.810092	0.004489
616.018754	0.004534
616.227399	0.004385
616.436024	0.004442
616.644632	0.004383
616.853222	0.004287
617.061793	0.004254
617.270346	0.004236
617.478880	0.004047
617.687397	0.004194
617.895895	0.004036
618.104375	0.004189
618.312837	0.004193
618.521281	0.004095
618.729706	0.004142
618.938113	0.004106
619.146502	0.004218
619.354873	0.004384
619.563226	0.004190
619.771560	0.004031
619.979876	0.003917
620.188174	0.004019
620.396453	0.004177
620.604715	0.004218
620.812958	0.004158
621.021183	0.004154
621.229390	0.004078
621.437578	0.004166
621.645748	0.004353
621.853900	0.004324
622.062034	0.004395
622.270150	0.004206
622.478247	0.004231
622.686326	0.004189
622.894387	0.004046
623.102430	0.004181
623.310454	0.004324
623.518461	0.004239
623.726449	0.004093
623.934418	0.003898
624.142370	0.003985
624.350303	0.003856
624.558218	0.003994
624.766115	0.004129
624.973994	0.004232
625.181855	0.003967
625.389697	0.004033
625.597521	0.004278
625.805327	0.004367
626.013114	0.004431
626.220883	0.004578
626.428634	0.004612
626.636367	0.004465
626.844082	0.004331
627.051778	0.004340
627.259457	0.004294
627.467117	0.004319
627.674758	0.004448
627.882382	0.004490
628.089987	0.004507
628.297574	0.004559
628.505143	0.004543
628.712694	0.004641
628.920226	0.004847
629.127740	0.005032
629.335236	0.004939
629.542714	0.004906
629.750174	0.004773
629.957615	0.004714
630.165038	0.004781
630.372443	0.004892
630.579829	0.004682
630.787198	0.004716
630.994548	0.004661
631.201880	0.004768
631.409194	0.004654
631.616489	0.004934
631.823766	0.004931
632.031025	0.004805
632.238266	0.004877
632.445489	0.005068
632.652693	0.005198
632.859879	0.005302
633.067047	0.005229
633.274197	0.005400
633.481329	0.005222
633.688442	0.005267
633.895537	0.005310
634.102614	0.005213
634.309672	0.005478
634.516713	0.005239
634.723735	0.005001
634.930739	0.005105
635.137724	0.004923
635.344692	0.004924
635.551641	0.004926
635.758572	0.004958
635.965485	0.004889
636.172379	0.004332
636.379256	0.004406
636.586114	0.004507
636.792954	0.004343
636.999775	0.004425
637.206579	0.004443
637.413364	0.004201
637.620131	0.004098
637.826880	0.004223
638.033610	0.004555
638.240323	0.004396
638.447017	0.004427
638.653692	0.004622
638.860350	0.004579
639.066990	0.004696
639.273611	0.004993
639.480214	0.004809
639.686798	0.004780
639.893365	0.004697
640.099913	0.004836
640.306443	0.004658
640.512955	0.004760
640.719449	0.004863
640.925924	0.004943
641.132381	0.005121
641.338820	0.005466
641.545241	0.005590
641.751644	0.005653
641.958028	0.005726
642.164394	0.006078
642.370742	0.006065
642.577071	0.006112
642.783383	0.006099
642.989676	0.005958
643.195951	0.005834
643.402207	0.005723
643.608446	0.005781
643.814666	0.005591
644.020868	0.005416
644.227052	0.005585
644.433218	0.005623
644.639365	0.005581
644.845494	0.005440
645.051605	0.005598
645.257698	0.005698
645.463772	0.005643
645.669828	0.005686
645.875866	0.005853
646.081886	0.005715
646.287888	0.005631
646.493871	0.005635
646.699836	0.005922
646.905783	0.005738
647.111712	0.005766
647.317622	0.005873
647.523514	0.005974
647.729388	0.005816
647.935244	0.005721
648.141082	0.005831
648.346901	0.005779
648.552702	0.005497
648.758485	0.005566
648.964250	0.005501
649.169996	0.005303
649.375724	0.005359
649.581434	0.005331
649.787126	0.005264
649.992800	0.005129
650.198455	0.005134
650.404092	0.005338
650.609711	0.005370
650.815311	0.005255
651.020894	0.005451
651.226458	0.005403
651.432004	0.005593
651.637532	0.005805
651.843041	0.005782
652.048532	0.005785
652.254006	0.005778
652.459460	0.005776
652.664897	0.006067
652.870315	0.006059
653.075716	0.006317
653.281097	0.006205
653.486461	0.006199
653.691807	0.006392
653.897134	0.006779
654.102443	0.006724
654.307734	0.006969
654.513006	0.007013
654.718261	0.007061
654.923497	0.007038
655.128715	0.007210
655.333915	0.007174
655.539096	0.007425
655.744259	0.007105
655.949404	0.007099
656.154531	0.007011
656.359640	0.006984
656.564730	0.007073
656.769802	0.007039
656.974856	0.006938
657.179892	0.006897
657.384909	0.006867
657.589908	0.006940
657.794889	0.007006
657.999852	0.006933
658.204797	0.006890
658.409723	0.006858
658.614631	0.006859
658.819521	0.006959
659.024393	0.006940
659.229246	0.006802
659.434081	0.006633
659.638898	0.006723
659.843697	0.006808
660.048478	0.006761
660.253240	0.006715
660.457984	0.006531
660.662710	0.006431
660.867417	0.006366
661.072107	0.006266
661.276778	0.006427
661.481431	0.006320
661.686066	0.006196
661.890682	0.006275
662.095281	0.006346
662.299861	0.006591
662.504422	0.006702
662.708966	0.006926
662.913491	0.007116
663.117999	0.007383
663.322488	0.007409
663.526958	0.007705
663.731411	0.007736
663.935845	0.007923
664.140261	0.007914
664.344659	0.008039
664.549038	0.008061
664.753400	0.008031
664.957743	0.007832
665.162068	0.008027
665.366375	0.007982
665.570663	0.008113
665.774933	0.008028
665.979185	0.008045
666.183419	0.007963
666.387635	0.007934
666.591832	0.007933
666.796011	0.008049
667.000172	0.007998
667.204315	0.008060
667.408439	0.007960
667.612545	0.008118
667.816634	0.008067
668.020703	0.008071
668.224755	0.008084
668.428788	0.008305
668.632803	0.008268
668.836800	0.008287
669.040779	0.008074
669.244739	0.008079
669.448681	0.008039
669.652605	0.008102
669.856511	0.008320
670.060399	0.008450
670.264268	0.008425
670.468119	0.008434
670.671952	0.008512
670.875767	0.008660
671.079563	0.008830
671.283341	0.008819
671.487101	0.008983
671.690843	0.008964
671.894567	0.008866
672.098272	0.008849
672.301959	0.008866
672.505628	0.008988
672.709278	0.009082
672.912911	0.008909
673.116525	0.008864
673.320121	0.008753
673.523699	0.008899
673.727258	0.008991
673.930799	0.008988
674.134322	0.009142
674.337827	0.009141
674.541314	0.008908
674.744782	0.009093
674.948232	0.009177
675.151664	0.009442
675.355078	0.009323
675.558474	0.009443
675.761851	0.009424
675.965210	0.009392
676.168551	0.009357
676.371873	0.009529
676.575178	0.009508
676.778464	0.009468
676.981732	0.009243
677.184981	0.009328
677.388213	0.009361
677.591426	0.009515
677.794621	0.009742
677.997798	0.009820
678.200956	0.009950
678.404097	0.010076
678.607219	0.010195
678.810323	0.010400
679.013408	0.010274
679.216476	0.010324
679.419525	0.010094
679.622556	0.009956
679.825569	0.009914
680.028563	0.009989
680.231540	0.010080
680.434498	0.010119
680.637438	0.010047
680.840359	0.009947
681.043263	0.009948
681.246148	0.010241
681.449015	0.010342
681.651864	0.010346
681.854694	0.010286
682.057506	0.010310
682.260301	0.010235
682.463076	0.010352
682.665834	0.010607
682.868573	0.010721
683.071295	0.010570
683.273998	0.010503
683.476682	0.010575
683.679349	0.010630
683.881997	0.010504
684.084627	0.010607
684.287239	0.010380
684.489833	0.010103
684.692408	0.010012
684.894965	0.010075
685.097504	0.009964
685.300025	0.009915
685.502527	0.010032
685.705012	0.010032
685.907478	0.010087
686.109925	0.010281
686.312355	0.010534
686.514766	0.010370
686.717159	0.010416
686.919534	0.010534
687.121891	0.010569
687.324230	0.010317
687.526550	0.010304
687.728852	0.010053
687.931136	0.010066
688.133401	0.010127
688.335649	0.010418
688.537878	0.010395
688.740089	0.010486
688.942281	0.010527
689.144456	0.010561
689.346612	0.010621
689.548750	0.010835
689.750870	0.010821
689.952971	0.010862
690.155055	0.010795
690.357120	0.010938
690.559167	0.010973
690.761195	0.011051
690.963206	0.011223
691.165198	0.011376
691.367172	0.011336
691.569128	0.011421
691.771065	0.011524
691.972984	0.011647
692.174885	0.011774
692.376768	0.011797
692.578633	0.011791
692.780479	0.011846
692.982308	0.011896
693.184118	0.012076
693.385909	0.012060
693.587683	0.011968
693.789438	0.011960
693.991175	0.011873
694.192894	0.011896
694.394595	0.011891
694.596277	0.012000
694.797941	0.011908
694.999587	0.012002
695.201215	0.012214
695.402824	0.012390
695.604416	0.012392
695.805989	0.012599
696.007543	0.012782
696.209080	0.013081
696.410598	0.013037
696.612099	0.013136
696.813580	0.013064
697.015044	0.012921
697.216490	0.012836
697.417917	0.012774
697.619326	0.012467
697.820717	0.012331
698.022089	0.011953
698.223444	0.011749
698.424780	0.011860
698.626098	0.011898
698.827397	0.011979
699.028679	0.012057
699.229942	0.012100
699.431187	0.012244
699.632414	0.012385
699.833622	0.012717
700.034813	0.012998
700.235985	0.012970
700.437139	0.013095
700.638274	0.013334
700.839392	0.013336
701.040491	0.013533
701.241572	0.013412
701.442635	0.013235
701.643679	0.013087
701.844706	0.012978
702.045714	0.012899
702.246704	0.012842
702.447675	0.012642
702.648629	0.012663
702.849564	0.012518
703.050481	0.012571
703.251380	0.012643
703.452260	0.012538
703.653122	0.012415
703.853966	0.012288
704.054792	0.012061
704.255600	0.011874
704.456389	0.011776
704.657160	0.011704
704.857913	0.011658
705.058648	0.011431
705.259365	0.011377
705.460063	0.011415
705.660743	0.011436
705.861405	0.011328
706.062048	0.011422
706.262674	0.011366
706.463281	0.011370
706.663870	0.011277
706.864441	0.011365
707.064993	0.011402
707.265527	0.011417
707.466043	0.011422
707.666541	0.011467
707.867021	0.011418
708.067482	0.011378
708.267925	0.011337
708.468350	0.011489
708.668757	0.011542
708.869145	0.011650
709.069516	0.011684
709.269868	0.011836
709.470201	0.011985
709.670517	0.011973
709.870814	0.011876
710.071093	0.011914
710.271354	0.011869
710.471597	0.011784
710.671821	0.011705
710.872028	0.011748
711.072216	0.011662
711.272385	0.011647
711.472537	0.011758
711.672670	0.011906
711.872785	0.011917
712.072882	0.011841
712.272961	0.011780
712.473021	0.011793
712.673063	0.011622
712.873087	0.011494
713.073093	0.011363
713.273081	0.011108
713.473050	0.010914
713.673001	0.010799
713.872934	0.010876
714.072849	0.010872
714.272745	0.010894
714.472623	0.011029
714.672483	0.011113
714.872325	0.011231
715.072148	0.011389
715.271954	0.011652
715.471741	0.011684
715.671509	0.011601
715.871260	0.011621
716.070992	0.011523
716.270707	0.011611
716.470403	0.011534
716.670080	0.011310
716.869740	0.011325
717.069381	0.011345
717.269004	0.011411
717.468609	0.011419
717.668195	0.011526
717.867764	0.011572
718.067314	0.011426
718.266846	0.011545
718.466360	0.011633
718.665855	0.011423
718.865332	0.011418
719.064791	0.011387
719.264232	0.011347
719.463655	0.011198
719.663059	0.011034
719.862445	0.010883
720.061813	0.010603
720.261163	0.010605
720.460494	0.010708
720.659807	0.010433
720.859102	0.010227
721.058379	0.010260
721.257638	0.010139
721.456878	0.010223
721.656100	0.010344
721.855304	0.010485
722.054490	0.010448
722.253657	0.010300
722.452806	0.010343
722.651937	0.010480
722.851050	0.010423
723.050145	0.010490
723.249221	0.010430
723.448279	0.010278
723.647319	0.010104
723.846340	0.010161
724.045344	0.010088
724.244329	0.010097
724.443296	0.009883
724.642245	0.009894
724.841175	0.009873
725.040088	0.009624
725.238982	0.009517
725.437857	0.009460
725.636715	0.009404
725.835554	0.009406
726.034376	0.009315
726.233179	0.009327
726.431963	0.009243
726.630730	0.009207
726.829478	0.009347
727.028208	0.009386
727.226920	0.009392
727.425614	0.009194
727.624289	0.009119
727.822946	0.009091
728.021585	0.009089
728.220206	0.009013
728.418808	0.008888
728.617392	0.008914
728.815958	0.008895
729.014506	0.008883
729.213036	0.008661
729.411547	0.008633
729.610040	0.008594
729.808515	0.008550
730.006972	0.008416
730.205410	0.008378
730.403831	0.008164
730.602233	0.008313
730.800616	0.008266
730.998982	0.008607
731.197329	0.008707
731.395658	0.008462
731.593969	0.008530
731.792262	0.008600
731.990536	0.008620
732.188793	0.008740
732.387031	0.008558
732.585250	0.008587
732.783452	0.008256
732.981635	0.008188
733.179800	0.008290
733.377947	0.008189
733.576076	0.008121
733.774186	0.008202
733.972278	0.008152
734.170352	0.008039
734.368408	0.007904
734.566446	0.008075
734.764465	0.007990
734.962466	0.007879
735.160449	0.007911
735.358413	0.007868
735.556360	0.007825
735.754288	0.007676
735.952198	0.007690
736.150090	0.007627
736.347963	0.007494
736.545818	0.007582
736.743655	0.007817
736.941474	0.007881
737.139275	0.007953
737.337057	0.007969
737.534821	0.008198
737.732567	0.008229
737.930295	0.008388
738.128005	0.008380
738.325696	0.008293
738.523369	0.008071
738.721024	0.007956
738.918660	0.008046
739.116279	0.007998
739.313879	0.008089
739.511461	0.008058
739.709024	0.008070
739.906570	0.008210
740.104097	0.008343
740.301606	0.008485
740.499097	0.008662
740.696569	0.008561
740.894024	0.008385
741.091460	0.008252
741.288878	0.008443
741.486277	0.008445
741.683659	0.008443
741.881022	0.008264
742.078367	0.008402
742.275694	0.008228
742.473002	0.008220
742.670293	0.008382
742.867565	0.008321
743.064819	0.008197
743.262054	0.008215
743.459272	0.008298
743.656471	0.008339
743.853652	0.008274
744.050815	0.008238
744.247959	0.008428
744.445085	0.008287
744.642194	0.008305
744.839283	0.008298
745.036355	0.008103
745.233408	0.008070
745.430444	0.008418
745.627461	0.008353
745.824459	0.008538
746.021440	0.008410
746.218402	0.008546
746.415346	0.008641
746.612272	0.008639
746.809180	0.008822
747.006069	0.008758
747.202940	0.008374
747.399793	0.008423
747.596628	0.008488
747.793444	0.008433
747.990243	0.008422
748.187023	0.008275
748.383784	0.008102
748.580528	0.007854
748.777253	0.007926
748.973960	0.007747
749.170649	0.007893
749.367320	0.007791
749.563973	0.007753
749.760607	0.007782
749.957223	0.007820
750.153821	0.008048
750.350400	0.007988
750.546962	0.007950
750.743505	0.008298
750.940030	0.008082
751.136536	0.008127
751.333025	0.008166
751.529495	0.008005
751.725947	0.008000
751.922381	0.007924
752.118796	0.008073
752.315194	0.008121
752.511573	0.008178
752.707934	0.008150
752.904276	0.007939
753.100601	0.008026
753.296907	0.008280
753.493195	0.008308
753.689465	0.008518
753.885716	0.008712
754.081949	0.008634
754.278164	0.008732
754.474361	0.008888
754.670540	0.009004
754.866700	0.008940
755.062843	0.008869
755.258967	0.008955
755.455072	0.008952
755.651160	0.008894
755.847229	0.009016
756.043280	0.008886
756.239313	0.008795
756.435328	0.009045
756.631324	0.009133
756.827302	0.009168
757.023262	0.009125
757.219204	0.008973
757.415127	0.009040
757.611033	0.009140
757.806920	0.009132
758.002788	0.009104
758.198639	0.008881
758.394471	0.008877
758.590286	0.008749
758.786081	0.008888
758.981859	0.008886
759.177619	0.008882
759.373360	0.008668
759.569083	0.008806
759.764788	0.008895
759.960474	0.008956
760.156143	0.009014
760.351793	0.009259
760.547425	0.009239
760.743038	0.009293
760.938634	0.009282
761.134211	0.009385
761.329770	0.009158
761.525311	0.009228
761.720833	0.009070
761.916338	0.008935
762.111824	0.008951
762.307292	0.008778
762.502741	0.008742
762.698173	0.008688
762.893586	0.008622
763.088981	0.008691
763.284358	0.008697
763.479716	0.008678
763.675057	0.008552
763.870379	0.008365
764.065683	0.008387
764.260968	0.008463
764.456236	0.008587
764.651485	0.008777
764.846716	0.008684
765.041929	0.008455
765.237123	0.008473
765.432299	0.008471
765.627457	0.008415
765.822597	0.008298
766.017719	0.008191
766.212822	0.008033
766.407907	0.007896
766.602974	0.007768
766.798023	0.007683
766.993054	0.007443
767.188066	0.007501
767.383060	0.007509
767.578036	0.007420
767.772993	0.007437
767.967933	0.007392
768.162854	0.007177
768.357757	0.007203
768.552642	0.007095
768.747508	0.007100
768.942356	0.006788
769.137186	0.006757
769.331998	0.006874
769.526792	0.006727
769.721567	0.006570
769.916324	0.006436
770.111063	0.006456
770.305784	0.006577
770.500486	0.006652
770.695171	0.007033
770.889837	0.006981
771.084484	0.007015
771.279114	0.007014
771.473725	0.007139
771.668318	0.007293
771.862893	0.007282
772.057450	0.007122
772.251988	0.007126
772.446509	0.007030
772.641011	0.006812
772.835494	0.006742
773.029960	0.006925
773.224407	0.007116
773.418836	0.007319
773.613247	0.007363
773.807640	0.007633
774.002014	0.007852
774.196370	0.007768
774.390708	0.008214
774.585028	0.008197
774.779330	0.008003
774.973613	0.007735
775.167878	0.007727
775.362125	0.007868
775.556354	0.007889
775.750564	0.007828
775.944756	0.007883
776.138930	0.007910
776.333086	0.008192
776.527223	0.008374
776.721343	0.008606
776.915444	0.008786
777.109526	0.008892
777.303591	0.008988
777.497637	0.008977
777.691666	0.009055
777.885676	0.008934
778.079667	0.008881
778.273641	0.008904
778.467596	0.008973
778.661533	0.008822
778.855452	0.008773
779.049352	0.008702
779.243235	0.008914
779.437099	0.008985
779.630945	0.009079
779.824773	0.009047
780.018582	0.009198
780.212373	0.009218
780.406146	0.009190
780.599901	0.009153
780.793638	0.009171
780.987356	0.008955
781.181056	0.008947
781.374738	0.009070
781.568402	0.009053
781.762047	0.008853
781.955674	0.008637
782.149283	0.008542
782.342874	0.008631
782.536447	0.008539
782.730001	0.008562
782.923537	0.008746
783.117055	0.008569
783.310555	0.008634
783.504036	0.008569
783.697499	0.008475
783.890944	0.008517
784.084371	0.008144
784.277780	0.008222
784.471170	0.008201
784.664542	0.008025
784.857896	0.007860
785.051231	0.007705
785.244549	0.007850
785.437848	0.008072
785.631129	0.008069
785.824392	0.008238
786.017636	0.008286
786.210863	0.008012
786.404071	0.007969
786.597260	0.008009
786.790432	0.007973
786.983585	0.007881
787.176721	0.007843
787.369838	0.007733
787.562936	0.007611
787.756017	0.007555
787.949079	0.007782
788.142123	0.007714
788.335149	0.007691
788.528156	0.007775
788.721146	0.007807
788.914117	0.007968
789.107070	0.008265
789.300005	0.008529
789.492921	0.008574
789.685819	0.008809
789.878699	0.008904
790.071561	0.009152
790.264405	0.009163
790.457230	0.009021
790.650037	0.009097
790.842826	0.008952
791.035597	0.009014
791.228349	0.009113
791.421084	0.008985
791.613800	0.009032
791.806497	0.008849
791.999177	0.008985
792.191838	0.009187
792.384481	0.009092
792.577106	0.009148
792.769713	0.009099
792.962301	0.008929
793.154871	0.009116
793.347423	0.009181
793.539957	0.009479
793.732473	0.009492
793.924970	0.009537
794.117449	0.009540
794.309910	0.009487
794.502353	0.009631
794.694777	0.009796
794.887183	0.009730
795.079571	0.009874
795.271941	0.009672
795.464293	0.009688
795.656626	0.009599
795.848941	0.009871
796.041238	0.010032
796.233516	0.009977
796.425777	0.010043
796.618019	0.010189
796.810243	0.010164
797.002449	0.010411
797.194636	0.010414
797.386805	0.010522
797.578956	0.010274
797.771089	0.010445
797.963204	0.010497
798.155300	0.010804
798.347378	0.010760
798.539438	0.010910
798.731480	0.010814
798.923503	0.010771
799.115509	0.010833
799.307496	0.010874
799.499465	0.010589
799.691415	0.010716
799.883348	0.010415
800.075262	0.010460
800.267158	0.010241
800.459035	0.010271
800.650895	0.010483
800.842736	0.010522
801.034559	0.010550
801.226364	0.010756
801.418150	0.010613
801.609919	0.010614
801.801669	0.010716
801.993401	0.010916
802.185114	0.011061
802.376810	0.011148
802.568487	0.011325
802.760146	0.011390
802.951787	0.011270
803.143409	0.011312
803.335014	0.011401
803.526600	0.011291
803.718168	0.011202
803.909717	0.011306
804.101249	0.011174
804.292762	0.011191
804.484257	0.011162
804.675734	0.011332
804.867192	0.011481
805.058632	0.011572
805.250054	0.011678
805.441458	0.011749
805.632844	0.011682
805.824211	0.011754
806.015561	0.011487
806.206891	0.011735
806.398204	0.011569
806.589499	0.011642
806.780775	0.011520
806.972033	0.011645
807.163273	0.011684
807.354495	0.011704
807.545698	0.011814
807.736883	0.011849
807.928050	0.011854
808.119199	0.012012
808.310329	0.012037
808.501441	0.012134
808.692535	0.012154
808.883611	0.012261
809.074669	0.012450
809.265708	0.012570
809.456729	0.012701
809.647732	0.012693
809.838717	0.013004
810.029683	0.013018
810.220632	0.013201
810.411562	0.013154
810.602474	0.013338
810.793367	0.013151
810.984242	0.013031
811.175100	0.013272
811.365938	0.013415
811.556759	0.013382
811.747562	0.013325
811.938346	0.013429
812.129112	0.013656
812.319860	0.013614
812.510589	0.013555
812.701300	0.013662
812.891994	0.013571
813.082668	0.013357
813.273325	0.013359
813.463964	0.013385
813.654584	0.013478
813.845186	0.013432
814.035769	0.013493
814.226335	0.013683
814.416882	0.013731
814.607411	0.013921
814.797922	0.014088
814.988415	0.014087
815.178889	0.014388
815.369345	0.014223
815.559783	0.014224
815.750203	0.014195
815.940605	0.014379
816.130988	0.014366
816.321353	0.014230
816.511700	0.014149
816.702028	0.013988
816.892339	0.013941
817.082631	0.014220
817.272905	0.014021
817.463161	0.013973
817.653398	0.013663
817.843617	0.013505
818.033819	0.013636
818.224001	0.013704
818.414166	0.014105
818.604312	0.013943
818.794440	0.013737
818.984550	0.014025
819.174642	0.014296
819.364716	0.014667
819.554771	0.014956
819.744808	0.015081
819.934827	0.015221
820.124827	0.015291
820.314810	0.015458
820.504774	0.015478
820.694720	0.015472
820.884647	0.015229
821.074557	0.015257
821.264448	0.015201
821.454321	0.015213
821.644176	0.015322
821.834012	0.015117
822.023831	0.015162
822.213631	0.015267
822.403413	0.015223
822.593176	0.015506
822.782922	0.015394
822.972649	0.015392
823.162358	0.015247
823.352049	0.015139
823.541721	0.015021
823.731376	0.014869
823.921012	0.014882
824.110629	0.014974
824.300229	0.014925
824.489811	0.015178
824.679374	0.015469
824.868919	0.015630
825.058445	0.015750
825.247954	0.016066
825.437444	0.016411
825.626916	0.016595
825.816370	0.016867
826.005806	0.017018
826.195223	0.017131
826.384622	0.016873
826.574003	0.017137
826.763366	0.017156
826.952711	0.017149
827.142037	0.016992
827.331345	0.016857
827.520635	0.016556
827.709906	0.016450
827.899160	0.016087
828.088395	0.016401
828.277612	0.016235
828.466810	0.016179
828.655991	0.015979
828.845153	0.016012
829.034297	0.016068
829.223423	0.016075
829.412531	0.015934
829.601620	0.016074
829.790691	0.015697
829.979744	0.015697
830.168779	0.015831
830.357795	0.016012
830.546793	0.016055
830.735773	0.015819
830.924735	0.015922
831.113679	0.016105
831.302604	0.016012
831.491511	0.016093
831.680400	0.016102
831.869271	0.016057
832.058123	0.016099
832.246957	0.016021
832.435773	0.016184
832.624571	0.016148
832.813351	0.016310
833.002112	0.016479
833.190855	0.016560
833.379580	0.016577
833.568287	0.016688
833.756975	0.016682
833.945645	0.016886
834.134297	0.017307
834.322931	0.017388
834.511547	0.017266
834.700144	0.017315
834.888723	0.017298
835.077284	0.017358
835.265826	0.017211
835.454351	0.017337
835.642857	0.017298
835.831345	0.016991
836.019815	0.017005
836.208266	0.017172
836.396699	0.017259
836.585114	0.017527
836.773511	0.017637
836.961890	0.017824
837.150250	0.017787
837.338592	0.018080
837.526916	0.018171
837.715222	0.018361
837.903510	0.018462
838.091779	0.018507
838.280030	0.018704
838.468263	0.018836
838.656477	0.019072
838.844674	0.019423
839.032852	0.019422
839.221012	0.019823
839.409153	0.019967
839.597277	0.020072
839.785382	0.020264
839.973469	0.020459
840.161538	0.020541
840.349589	0.020664
840.537621	0.020662
840.725635	0.020798
840.913631	0.020887
841.101609	0.021115
841.289568	0.021172
841.477509	0.021437
841.665432	0.021672
841.853337	0.021893
842.041224	0.022005
842.229092	0.022195
842.416942	0.022282
842.604774	0.021985
842.792588	0.022077
842.980383	0.022278
843.168160	0.022111
843.355919	0.022033
843.543660	0.022143
843.731382	0.022183
843.919087	0.022066
844.106773	0.022164
844.294441	0.022579
844.482090	0.022617
844.669722	0.022431
844.857335	0.022553
845.044930	0.022479
845.232507	0.022471
845.420065	0.022466
845.607605	0.022720
845.795127	0.022616
845.982631	0.022580
846.170117	0.022506
846.357584	0.022624
846.545033	0.022736
846.732464	0.022820
846.919877	0.022871
847.107272	0.023067
847.294648	0.023276
847.482006	0.023745
847.669346	0.024062
847.856667	0.024471
848.043971	0.024749
848.231256	0.024890
848.418523	0.025182
848.605771	0.025121
848.793002	0.025122
848.980214	0.024977
849.167408	0.024820
849.354584	0.024621
849.541742	0.024408
849.728881	0.024246
849.916002	0.024281
850.103105	0.024089
850.290190	0.024137
850.477256	0.024119
850.664304	0.023991
850.851334	0.023796
851.038346	0.023727
851.225340	0.023944
851.412315	0.024072
851.599272	0.024224
851.786211	0.024579
851.973132	0.024758
852.160034	0.025042
852.346918	0.024986
852.533784	0.025015
852.720632	0.025163
852.907462	0.025028
853.094273	0.025326
853.281066	0.025396
853.467841	0.025171
853.654598	0.025140
853.841336	0.025124
854.028056	0.025702
854.214758	0.025932
854.401442	0.026257
854.588107	0.026347
854.774755	0.026215
854.961384	0.026201
855.147995	0.026224
855.334587	0.026462
855.521162	0.026594
855.707718	0.026518
855.894256	0.026598
856.080775	0.026612
856.267277	0.026959
856.453760	0.027124
856.640225	0.027188
856.826672	0.027311
857.013101	0.026970
857.199511	0.026763
857.385903	0.026566
857.572277	0.026596
857.758633	0.026600
857.944970	0.026245
858.131290	0.026302
858.317591	0.026414
858.503873	0.026839
858.690138	0.027426
858.876384	0.027596
859.062612	0.027835
859.248822	0.028089
859.435014	0.028286
859.621188	0.028581
859.807343	0.028727
859.993480	0.028853
860.179599	0.028888
860.365699	0.028788
860.551781	0.029051
860.737846	0.029044
860.923891	0.029207
861.109919	0.029037
861.295929	0.029346
861.481920	0.029254
861.667893	0.029258
861.853848	0.029243
862.039784	0.029488
862.225702	0.029676
862.411603	0.029910
862.597484	0.029832
862.783348	0.030096
862.969193	0.029874
863.155021	0.030181
863.340830	0.030297
863.526620	0.030424
863.712393	0.030487
863.898147	0.030499
864.083883	0.030513
864.269601	0.030728
864.455301	0.030840
864.640982	0.030761
864.826645	0.030746
865.012290	0.030983
865.197917	0.031078
865.383526	0.030855
865.569116	0.030639
865.754688	0.030840
865.940242	0.031067
866.125777	0.031071
866.311295	0.031263
866.496794	0.031273
866.682275	0.031110
866.867737	0.030754
867.053182	0.030908
867.238608	0.030936
867.424016	0.031096
867.609406	0.030900
867.794778	0.030979
867.980131	0.031037
868.165466	0.030793
868.350783	0.030873
868.536082	0.031440
868.721362	0.031484
868.906625	0.031931
869.091869	0.032070
869.277094	0.032184
869.462302	0.031973
869.647491	0.032109
869.832662	0.032407
870.017815	0.032731
870.202950	0.032417
870.388066	0.032655
870.573165	0.032448
870.758245	0.032335
870.943306	0.032263
871.128350	0.032473
871.313375	0.032410
871.498382	0.032380
871.683371	0.031951
871.868342	0.031945
872.053294	0.031997
872.238229	0.031965
872.423144	0.031831
872.608042	0.031834
872.792922	0.031769
872.977783	0.031904
873.162626	0.032031
873.347451	0.032198
873.532258	0.032726
873.717046	0.032874
873.901816	0.033150
874.086568	0.033308
874.271302	0.033557
874.456017	0.033624
874.640715	0.033819
874.825394	0.033736
875.010055	0.033619
875.194697	0.033215
875.379322	0.033069
875.563928	0.033189
875.748516	0.033327
875.933085	0.033344
876.117637	0.033811
876.302170	0.033619
876.486685	0.033697
876.671182	0.034097
876.855661	0.034288
877.040121	0.034374
877.224563	0.034126
877.408987	0.034069
877.593393	0.033878
877.777780	0.033596
877.962150	0.033659
878.146501	0.034073
878.330833	0.033911
878.515148	0.033896
878.699444	0.033797
878.883722	0.033585
879.067982	0.033440
879.252224	0.033578
879.436447	0.033733
879.620653	0.034012
879.804840	0.033548
879.989008	0.033577
880.173159	0.033452
880.357291	0.033258
880.541405	0.033362
880.725501	0.033380
880.909579	0.033132
881.093638	0.032977
881.277680	0.032780
881.461703	0.032863
881.645707	0.032802
881.829694	0.033052
882.013662	0.033253
882.197612	0.033260
882.381544	0.033472
882.565458	0.033940
882.749353	0.034016
882.933230	0.033844
883.117089	0.034073
883.300930	0.033994
883.484753	0.033743
883.668557	0.033742
883.852343	0.033884
884.036111	0.033783
884.219861	0.033715
884.403592	0.033563
884.587305	0.033687
884.771000	0.033546
884.954677	0.033850
885.138335	0.034142
885.321976	0.033978
885.505598	0.034119
885.689201	0.034034
885.872787	0.033764
886.056354	0.033959
886.239904	0.033847
886.423434	0.033851
886.606947	0.033833
886.790442	0.033784
886.973918	0.034148
887.157376	0.034201
887.340816	0.034145
887.524237	0.034357
887.707641	0.034681
887.891026	0.034584
888.074393	0.034516
888.257741	0.034560
888.441072	0.034667
888.624384	0.034627
888.807678	0.034663
888.990954	0.035153
889.174211	0.034741
889.357451	0.033912
889.540672	0.034273
889.723875	0.034538
889.907059	0.034211
890.090226	0.034169
890.273374	0.034100
890.456504	0.033579
890.639616	0.033514
890.822709	0.033777
891.005785	0.034417
891.188842	0.034210
891.371881	0.034287
891.554901	0.034448
891.737904	0.034482
891.920888	0.034787
892.103854	0.035568
892.286802	0.035445
892.469731	0.035196
892.652643	0.035229
892.835536	0.035443
893.018410	0.035218
893.201267	0.035508
893.384106	0.035219
893.566926	0.035404
893.749728	0.035153
893.932511	0.035058
894.115277	0.035895
894.298024	0.035894
894.480753	0.035979
894.663464	0.036115
894.846157	0.035708
895.028831	0.035754
895.211487	0.035299
895.394125	0.035407
895.576745	0.035595
895.759346	0.035316
895.941930	0.035224
896.124495	0.035322
896.307041	0.035242
896.489570	0.035282
896.672080	0.035584
896.854573	0.035637
897.037046	0.035343
897.219502	0.035192
897.401940	0.035146
897.584359	0.035436
897.766760	0.034939
897.949143	0.035248
898.131507	0.035411
898.313854	0.035098
898.496182	0.034875
898.678492	0.034858
898.860783	0.035035
899.043057	0.034620
899.225312	0.034109
899.407549	0.034763
899.589768	0.034637
899.771968	0.034682
899.954151	0.034756
900.136315	0.034801
900.318461	0.034910
900.500588	0.034854
900.682698	0.035034
900.864789	0.034860
901.046862	0.034468
901.228917	0.034214
901.410953	0.033709
901.592971	0.033521
901.774972	0.033535
901.956953	0.033495
902.138917	0.033148
902.320862	0.033299
902.502790	0.033700
902.684699	0.033802
902.866589	0.033801
903.048462	0.034101
903.230316	0.034269
903.412152	0.034505
903.593970	0.034407
903.775770	0.034272
903.957551	0.034556
904.139314	0.034351
904.321059	0.034296
904.502786	0.034271
904.684494	0.034712
904.866185	0.034961
905.047857	0.034820
905.229510	0.034731
905.411146	0.034983
905.592763	0.034625
905.774363	0.034580
905.955943	0.034679
906.137506	0.034581
906.319051	0.034189
906.500577	0.033453
906.682085	0.033587
906.863575	0.033849
907.045046	0.033641
907.226500	0.033512
907.407935	0.033669
907.589352	0.033347
907.770750	0.033311
907.952131	0.033231
908.133493	0.033652
908.314837	0.033160
908.496163	0.033033
908.677470	0.033223
908.858760	0.033126
909.040031	0.032866
909.221284	0.032637
909.402518	0.032493
909.583735	0.032590
909.764933	0.032586
909.946113	0.032824
910.127275	0.032480
910.308418	0.031998
910.489544	0.032032
910.670651	0.031725
910.851740	0.031554
911.032810	0.031713
911.213863	0.031294
911.394897	0.030663
911.575913	0.030081
911.756911	0.030090
911.937890	0.030282
912.118851	0.030073
912.299794	0.030644
912.480719	0.030634
912.661626	0.030184
912.842514	0.029990
913.023384	0.030407
913.204236	0.030713
913.385070	0.030264
913.565886	0.030155
913.746683	0.029816
913.927462	0.029078
914.108223	0.029332
914.288965	0.029279
914.469690	0.029492
914.650396	0.029334
914.831084	0.029186
915.011754	0.029303
915.192405	0.028986
915.373038	0.029200
915.553653	0.029201
915.734250	0.028799
915.914829	0.028997
916.095389	0.028510
916.275931	0.027866
916.456455	0.027338
916.636961	0.027488
916.817448	0.027472
916.997917	0.026974
917.178368	0.026618
917.358801	0.026659
917.539216	0.026333
917.719612	0.026771
917.899990	0.026936
918.080350	0.027221
918.260692	0.026927
918.441015	0.026636
918.621320	0.026883
918.801607	0.027062
918.981876	0.026837
919.162127	0.026569
919.342359	0.026168
919.522573	0.026088
919.702769	0.025756
919.882947	0.025464
920.063106	0.025703
920.243247	0.025606
920.423370	0.025386
920.603475	0.025077
920.783562	0.024866
920.963630	0.024624
921.143680	0.024470
921.323712	0.023981
921.503725	0.023740
921.683721	0.023403
921.863698	0.023258
922.043657	0.022873
922.223598	0.023054
922.403520	0.023494
922.583424	0.023677
922.763311	0.023652
922.943178	0.023431
923.123028	0.023243
923.302859	0.023082
923.482673	0.022652
923.662467	0.022624
923.842244	0.022337
924.022003	0.021787
924.201743	0.021508
924.381465	0.021208
924.561169	0.021697
924.740854	0.021650
924.920522	0.021421
925.100171	0.021200
925.279802	0.020910
925.459414	0.020682
925.639009	0.020297
925.818585	0.019900
925.998143	0.019296
926.177683	0.018424
926.357205	0.018518
926.536708	0.018236
926.716193	0.017620
926.895660	0.017384
927.075109	0.017144
927.254539	0.017700
927.433951	0.017448
927.613345	0.017499
927.792721	0.018004
927.972079	0.017742
928.151418	0.017619
928.330739	0.018058
928.510042	0.018203
928.689327	0.017559
928.868593	0.016617
929.047841	0.016081
929.227071	0.015910
929.406283	0.015575
929.585476	0.015262
929.764652	0.015032
929.943809	0.015017
930.122948	0.014792
930.302068	0.014777
930.481171	0.014564
930.660255	0.015035
930.839321	0.015022
931.018369	0.015057
931.197398	0.014359
931.376409	0.014425
931.555402	0.014194
931.734377	0.013650
931.913334	0.014030
932.092272	0.013674
932.271192	0.013205
932.450094	0.012875
932.628978	0.012238
932.807844	0.011885
932.986691	0.011636
933.165520	0.010951
933.344331	0.011029
933.523123	0.010744
933.701898	0.010750
933.880654	0.010188
934.059392	0.009957
934.238111	0.009793
934.416813	0.010630
934.595496	0.010330
934.774161	0.010473
934.952808	0.010290
935.131437	0.009536
935.310047	0.009242
935.488639	0.009573
935.667213	0.009931
935.845769	0.009971
936.024306	0.009959
936.202825	0.009460
936.381326	0.009009
936.559809	0.008908
936.738274	0.008791
936.916720	0.008212
937.095148	0.007079
937.273558	0.006611
937.451950	0.006077
937.630323	0.005189
937.808678	0.005314
937.987015	0.005608
938.165334	0.004664
938.343635	0.004388
938.521917	0.004780
938.700181	0.005341
938.878427	0.005211
939.056655	0.004577
939.234864	0.003806
939.413055	0.002542
939.591228	0.001564
939.769383	0.001780
939.947519	0.001893
940.125638	0.000667
940.303738	0.000637
940.481820	-0.000240
940.659883	0.000385
940.837929	0.000432
941.015956	0.000434
941.193965	0.000255
941.371955	0.000374
941.549928	0.000381
941.727882	0.001003
941.905818	0.000771
942.083736	0.000479
942.261636	0.000445
942.439517	0.000666
942.617380	0.001634
942.795225	0.001126
942.973052	0.001197
943.150860	0.000619
943.328651	-0.000173
943.506423	-0.000399
943.684176	-0.000395
943.861912	-0.000818
944.039629	-0.000427
944.217328	-0.001160
944.395009	-0.001639
944.572672	-0.002776
944.750317	-0.002584
944.927943	-0.002219
945.105551	-0.002745
945.283141	-0.002204
945.460712	-0.002857
945.638265	-0.003672
945.815801	-0.003532
945.993317	-0.002934
946.170816	-0.002313
946.348297	-0.003191
946.525759	-0.003019
946.703203	-0.003343
946.880629	-0.004091
947.058036	-0.003402
947.235425	-0.002570
947.412797	-0.002166
947.590149	-0.000966
947.767484	-0.000646
947.944800	-0.000096
948.122099	0.000060
948.299379	0.001116
948.476640	0.000910
948.653884	0.000696
948.831109	-0.000710
949.008316	-0.001170
949.185505	-0.002443
949.362676	-0.002551
949.539828	-0.001701
949.716962	-0.001696
949.894078	-0.002304
950.071176	-0.001866
950.248256	-0.002978
950.425317	-0.002329
950.602360	-0.002820
950.779385	-0.001259
950.956391	-0.001466
951.133380	-0.002831
951.310350	-0.003334
951.487302	-0.002938
951.664235	-0.002596
951.841151	-0.000785
952.018048	-0.001612
952.194927	-0.000696
952.371788	-0.002211
952.548631	-0.001501
952.725455	-0.000364
952.902261	-0.000240
953.079049	-0.000200
953.255819	0.001667
953.432570	0.001146
953.609303	0.002091
953.786018	0.002692
953.962715	0.003607
954.139394	0.003435
954.316054	0.003604
954.492696	0.005067
954.669320	0.004469
954.845926	0.002172
955.022513	0.002818
955.199083	0.003295
955.375634	0.002832
955.552166	0.002394
955.728681	0.003611
955.905177	0.003384
956.081655	0.003467
956.258115	0.005467
956.434557	0.005852
956.610980	0.005176
956.787385	0.005546
956.963772	0.005365
957.140141	0.007128
957.316492	0.005160
957.492824	0.006137
957.669138	0.006758
957.845434	0.006951
958.021712	0.006964
958.197971	0.006615
958.374212	0.006292
958.550435	0.007563
958.726640	0.006056
958.902826	0.007120
959.078995	0.006935
959.255145	0.006487
959.431277	0.004641
959.607390	0.005578
959.783486	0.006254
959.959563	0.007537
960.135622	0.007018
960.311662	0.007222
960.487685	0.008169
960.663689	0.008476
960.839675	0.008699
961.015643	0.010036
961.191593	0.010040
961.367524	0.009641
961.543437	0.010325
961.719332	0.010485
961.895209	0.012240
962.071067	0.013391
962.246907	0.012587
962.422730	0.010139
962.598533	0.009847
962.774319	0.008892
962.950086	0.012249
963.125835	0.012582
963.301566	0.012059
963.477279	0.009723
963.652973	0.009872
963.828650	0.011053
964.004308	0.014631
964.179947	0.015225
964.355569	0.018049
964.531172	0.018290
964.706757	0.017539
964.882324	0.019124
965.057873	0.021274
965.233403	0.021324
965.408916	0.021267
965.584410	0.019299
965.759885	0.017249
965.935343	0.017167
966.110782	0.016347
966.286203	0.017157
966.461606	0.017246
966.636991	0.017555
966.812357	0.017006
966.987705	0.016540
967.163035	0.018226
967.338347	0.019570
967.513641	0.019517
967.688916	0.018233
967.864173	0.018356
968.039412	0.017192
968.214632	0.018805
968.389835	0.018093
968.565019	0.017752
968.740185	0.016676
968.915333	0.017956
969.090462	0.016027
969.265573	0.015631
969.440667	0.014860
969.615741	0.016077
969.790798	0.014596
969.965836	0.016261
970.140856	0.016355
970.315858	0.015781
970.490842	0.016968
970.665808	0.018022
970.840755	0.018436
971.015684	0.018221
971.190595	0.018219
971.365487	0.017668
971.540362	0.016092
971.715218	0.017271
971.890056	0.015425
972.064875	0.014257
972.239677	0.014705
972.414460	0.015515
972.589225	0.016172
972.763972	0.016845
972.938700	0.017821
973.113411	0.018578
973.288103	0.018574
973.462777	0.020791
973.637432	0.020906
973.812070	0.022336
973.986689	0.021968
974.161290	0.021820
974.335873	0.020280
974.510437	0.020442
974.684984	0.019554
974.859512	0.019262
975.034022	0.017993
975.208513	0.018168
975.382987	0.017311
975.557442	0.016718
975.731879	0.014826
975.906298	0.015670
976.080698	0.015122
976.255080	0.014865
976.429445	0.015984
976.603790	0.017656
976.778118	0.016800
976.952427	0.017468
977.126719	0.018146
977.300992	0.020604
977.475246	0.020130
977.649483	0.020100
977.823701	0.021759
977.997901	0.021347
978.172083	0.021822
978.346247	0.023020
978.520392	0.020295
978.694519	0.020460
978.868628	0.019056
979.042719	0.016908
979.216791	0.015720
979.390845	0.014087
979.564882	0.014031
979.738899	0.014294
979.912899	0.012778
980.086880	0.013393
980.260843	0.014430
980.434788	0.015380
980.608715	0.016820
980.782623	0.017019
980.956514	0.018811
981.130386	0.019296
981.304240	0.018447
981.478075	0.017076
981.651892	0.018150
981.825692	0.016591
981.999472	0.015482
982.173235	0.016300
982.346980	0.017343
982.520706	0.015215
982.694414	0.014205
982.868104	0.013749
983.041775	0.016149
983.215428	0.016758
983.389064	0.018166
983.562680	0.019126
983.736279	0.019343
983.909860	0.017527
984.083422	0.019859
984.256966	0.019415
984.430491	0.021403
984.603999	0.020654
984.777488	0.021062
984.950959	0.021725
985.124412	0.021323
985.297847	0.022089
985.471263	0.024008
985.644661	0.023271
985.818041	0.022817
985.991403	0.020440
986.164747	0.018723
986.338072	0.017287
986.511379	0.014271
986.684668	0.013810
986.857938	0.012636
987.031191	0.014589
987.204425	0.014803
987.377641	0.015695
987.550839	0.016764
987.724018	0.019678
987.897179	0.020539
988.070322	0.021572
988.243447	0.022459
988.416554	0.022842
988.589642	0.021269
988.762712	0.020360
988.935764	0.019697
989.108798	0.020431
989.281813	0.019786
989.454811	0.020090
989.627790	0.020268
989.800751	0.021233
989.973693	0.020957
990.146617	0.020602
990.319524	0.020408
990.492412	0.020264
990.665281	0.019362
990.838133	0.017896
991.010966	0.016380
991.183781	0.016156
991.356578	0.014651
991.529356	0.014135
991.702117	0.013293
991.874859	0.014496
992.047583	0.014616
992.220288	0.014397
992.392976	0.015418
992.565645	0.015827
992.738296	0.017215
992.910929	0.017399
993.083543	0.018900
993.256139	0.017265
993.428718	0.015912
993.601277	0.016004
993.773819	0.016513
993.946342	0.015698
994.118848	0.016852
994.291335	0.015947
994.463803	0.016563
994.636254	0.014669
994.808686	0.015910
994.981100	0.017483
995.153496	0.018407
995.325874	0.018984
995.498233	0.018656
995.670574	0.017124
995.842897	0.017339
996.015202	0.016962
996.187488	0.017480
996.359757	0.019847
996.532007	0.020146
996.704239	0.019915
996.876452	0.017865
997.048648	0.019784
997.220825	0.021215
997.392984	0.021644
997.565124	0.021358
997.737247	0.021818
997.909351	0.020344
998.081437	0.018174
998.253505	0.015979
998.425554	0.018229
998.597586	0.018057
998.769599	0.016381
998.941594	0.015251
999.113571	0.015316
999.285529	0.016803
999.457469	0.015224
999.629391	0.015205
999.801295	0.017652
999.973181	0.015891
1000.145048	0.015527
1000.316897	0.015701
1000.488728	0.015666
1000.660541	0.014065
1000.832335	0.012883
1001.004111	0.013967
1001.175869	0.014266
1001.347609	0.013468
1001.519331	0.014378
1001.691034	0.014275
1001.862719	0.014733
1002.034386	0.015339
1002.206035	0.017549
1002.377665	0.017007
1002.549277	0.016996
1002.720871	0.015154
1002.892447	0.016045
1003.064004	0.015056
1003.235544	0.013671
1003.407065	0.013900
1003.578568	0.013550
1003.750052	0.011350
1003.921519	0.009975
1004.092967	0.010194
1004.264397	0.010175
1004.435809	0.009319
1004.607202	0.008871
1004.778577	0.010309
1004.949934	0.010809
1005.121273	0.011325
1005.292594	0.012446
1005.463896	0.013687
1005.635180	0.012542
1005.806446	0.013025
1005.977694	0.011985
1006.148923	0.012006
1006.320135	0.010582
1006.491328	0.008708
1006.662503	0.009318
1006.833659	0.007843
1007.004798	0.005768
1007.175918	0.005967
1007.347020	0.006237
1007.518103	0.007613
1007.689169	0.007773
1007.860216	0.008227
1008.031245	0.009506
1008.202256	0.009317
1008.373248	0.011404
1008.544223	0.014115
1008.715179	0.014546
1008.886117	0.015736
1009.057036	0.014503
1009.227938	0.014176
1009.398821	0.014121
1009.569686	0.013424
1009.740533	0.012239
1009.911361	0.011568
1010.082172	0.009934
1010.252964	0.009556
1010.423738	0.006941
1010.594493	0.006782
1010.765231	0.009134
1010.935950	0.009979
1011.106651	0.010626
1011.277334	0.011876
1011.447998	0.011160
1011.618645	0.011272
1011.789273	0.010962
1011.959882	0.013377
1012.130474	0.012684
1012.301048	0.011160
1012.471603	0.009771
1012.642140	0.009958
1012.812658	0.007801
1012.983159	0.007356
1013.153641	0.007778
1013.324105	0.007270
1013.494551	0.007668
1013.664979	0.010572
1013.835388	0.012166
1014.005779	0.012749
1014.176152	0.012656
1014.346507	0.013986
1014.516843	0.015268
1014.687162	0.014346
1014.857462	0.015737
1015.027744	0.015729
1015.198007	0.015412
1015.368252	0.013560
1015.538480	0.012054
1015.708689	0.010145
1015.878879	0.009566
1016.049052	0.008921
1016.219206	0.009663
1016.389342	0.009922
1016.559460	0.009113
1016.729559	0.008255
1016.899641	0.007996
1017.069704	0.008701
1017.239749	0.010545
1017.409775	0.010184
1017.579784	0.009092
1017.749774	0.009069
1017.919746	0.008921
1018.089700	0.008810
1018.259635	0.008205
1018.429553	0.009115
1018.599452	0.010380
1018.769333	0.008734
1018.939195	0.008458
1019.109040	0.010488
1019.278866	0.010034
1019.448674	0.011393
1019.618464	0.012394
1019.788235	0.012134
1019.957989	0.010319
1020.127724	0.009546
1020.297441	0.011094
1020.467139	0.011455
1020.636820	0.009908
1020.806482	0.010231
1020.976126	0.008033
1021.145752	0.007306
1021.315359	0.008088
1021.484948	0.009195
1021.654519	0.009676
1021.824072	0.010098
1021.993607	0.009092
1022.163123	0.009108
1022.332621	0.009811
1022.502101	0.010274
1022.671563	0.009961
1022.841007	0.009609
1023.010432	0.009700
1023.179839	0.009734
1023.349228	0.009228
1023.518598	0.010615
1023.687951	0.011296
1023.857285	0.011994
1024.026601	0.013655
1024.195899	0.014698
1024.365178	0.015857
1024.534439	0.015385
1024.703682	0.014504
1024.872907	0.013480
1025.042114	0.011664
1025.211302	0.011594
1025.380472	0.009785
1025.549624	0.006937
1025.718758	0.006158
1025.887873	0.005378
1026.056970	0.005492
1026.226049	0.005602
1026.395110	0.005616
1026.564153	0.006159
1026.733177	0.006873
1026.902183	0.005955
1027.071171	0.008164
1027.240141	0.007156
1027.409092	0.006603
1027.578026	0.008930
1027.746940	0.009107
1027.915837	0.008545
1028.084716	0.009142
1028.253576	0.008505
1028.422418	0.010474
1028.591242	0.010143
1028.760048	0.009959
1028.928835	0.009123
1029.097604	0.006231
1029.266355	0.006536
1029.435088	0.006469
1029.603803	0.006101
1029.772499	0.007092
1029.941177	0.005582
1030.109837	0.005321
1030.278478	0.007458
1030.447102	0.009425
1030.615707	0.009663
1030.784294	0.008428
1030.952863	0.009074
1031.121413	0.009185
1031.289945	0.009292
1031.458460	0.010507
1031.626955	0.010133
1031.795433	0.008556
1031.963892	0.006907
1032.132334	0.007436
1032.300756	0.009265
1032.469161	0.009739
1032.637548	0.009162
1032.805916	0.008487
1032.974266	0.008529
1033.142598	0.006894
1033.310911	0.006067
1033.479207	0.006235
1033.647484	0.006905
1033.815743	0.006358
1033.983983	0.006169
1034.152206	0.005868
1034.320410	0.004815
1034.488596	0.004400
1034.656764	0.005138
1034.824914	0.005755
1034.993045	0.006261
1035.161158	0.005375
1035.329253	0.004915
1035.497330	0.005256
1035.665388	0.006880
1035.833428	0.006773
1036.001450	0.005613
1036.169454	0.006520
1036.337440	0.007424
1036.505407	0.007427
1036.673356	0.007994
1036.841287	0.007942
1037.009200	0.007009
1037.177094	0.003331
1037.344970	0.005716
1037.512828	0.007254
1037.680668	0.006990
1037.848489	0.006513
1038.016293	0.005915
1038.184078	0.006055
1038.351845	0.005949
1038.519593	0.005270
1038.687324	0.008200
1038.855036	0.006436
1039.022730	0.006942
1039.190406	0.006100
1039.358063	0.005752
1039.525702	0.005984
1039.693323	0.006052
1039.860926	0.006370
1040.028511	0.007645
1040.196077	0.008062
1040.363625	0.008426
1040.531155	0.007483
1040.698667	0.008333
1040.866161	0.010450
1041.033636	0.010113
1041.201093	0.010502
1041.368532	0.010587
1041.535952	0.009751
1041.703355	0.008399
1041.870739	0.007590
1042.038105	0.008909
1042.205452	0.008168
1042.372782	0.006473
1042.540093	0.007185
1042.707386	0.005173
1042.874661	0.005385
1043.041918	0.004988
1043.209156	0.007287
1043.376376	0.005869
1043.543578	0.004903
1043.710762	0.006104
1043.877927	0.005408
1044.045074	0.005003
1044.212203	0.004275
1044.379314	0.004010
1044.546407	0.004844
1044.713481	0.004136
1044.880537	0.006292
1045.047575	0.006229
1045.214595	0.005727
1045.381596	0.006953
1045.548579	0.009357
1045.715544	0.012308
1045.882491	0.011769
1046.049420	0.012172
1046.216330	0.012018
1046.383222	0.011307
1046.550096	0.010231
1046.716951	0.010569
1046.883789	0.009016
1047.050608	0.006428
1047.217409	0.004236
1047.384192	0.005777
1047.550956	0.005676
1047.717703	0.005638
1047.884431	0.005536
1048.051140	0.006978
1048.217832	0.006178
1048.384505	0.007687
1048.551161	0.007549
1048.717798	0.009843
1048.884416	0.005769
1049.051017	0.006567
1049.217599	0.005826
1049.384163	0.006258
1049.550709	0.007321
1049.717237	0.007259
1049.883746	0.006287
1050.050237	0.005652
1050.216710	0.004814
1050.383165	0.008088
1050.549601	0.008652
1050.716019	0.008104
1050.882420	0.006832
1051.048801	0.003880
1051.215165	0.003294
1051.381510	0.002573
1051.547837	0.002428
1051.714146	0.001274
1051.880437	0.000248
1052.046709	-0.000755
1052.212964	-0.001485
1052.379200	0.000401
1052.545417	0.001054
1052.711617	0.000835
1052.877798	0.001403
1053.043961	0.002816
1053.210106	0.004291
1053.376233	0.004417
1053.542341	0.003774
1053.708432	0.004963
1053.874504	0.004142
1054.040557	0.004169
1054.206593	0.003999
1054.372610	0.003942
1054.538609	0.003427
1054.704590	0.002710
1054.870553	0.001954
1055.036497	0.002919
1055.202424	0.002259
1055.368331	0.002583
1055.534221	0.003021
1055.700093	0.005329
1055.865946	0.005003
1056.031781	0.007136
1056.197598	0.004936
1056.363397	0.004789
1056.529177	0.002962
1056.694939	0.003116
1056.860683	0.003426
1057.026409	0.002534
1057.192116	-0.000051
1057.357806	-0.000062
1057.523477	-0.002088
1057.689130	-0.000340
1057.854764	-0.000410
1058.020381	-0.001153
1058.185979	0.000695
1058.351559	-0.000872
1058.517120	-0.000282
1058.682664	0.000914
1058.848189	0.001581
1059.013696	0.000622
1059.179185	0.000931
1059.344656	0.001636
1059.510108	0.004119
1059.675542	0.003759
1059.840958	0.004557
1060.006356	0.004489
1060.171735	0.006400
1060.337096	0.007248
1060.502439	0.008063
1060.667764	0.007069
1060.833071	0.008409
1060.998359	0.005528
1061.163629	0.004503
1061.328881	0.004697
1061.494115	0.004505
1061.659330	0.002290
1061.824527	0.000845
1061.989706	0.001359
1062.154867	0.001447
1062.320010	0.000718
1062.485134	0.002929
1062.650240	0.004141
1062.815328	0.002464
1062.980398	0.002356
1063.145449	0.002156
1063.310482	0.001841
1063.475497	0.000073
1063.640494	0.000601
1063.805473	0.002057
1063.970433	0.002868
1064.135375	0.000968
1064.300299	0.003071
1064.465204	0.003317
1064.630092	0.003673
1064.794961	0.002981
1064.959812	0.003472
1065.124645	0.004047
1065.289459	0.000925
1065.454256	-0.001641
1065.619034	-0.000039
1065.783793	-0.001238
1065.948535	-0.001823
1066.113258	-0.001931
1066.277964	0.000776
1066.442651	0.000818
1066.607319	0.000259
1066.771970	0.001172
1066.936602	0.001366
1067.101216	0.000226
1067.265812	0.000329
1067.430389	0.000653
1067.594949	0.001498
1067.759490	0.001599
1067.924013	0.001508
1068.088518	0.000294
1068.253004	0.000691
1068.417472	0.001203
1068.581922	0.000442
1068.746354	0.001135
1068.910768	-0.000550
1069.075163	-0.001712
1069.239540	-0.001684
1069.403899	-0.000076
1069.568240	0.000204
1069.732562	0.002135
1069.896866	0.002951
1070.061152	0.004009
1070.225420	0.004586
1070.389670	0.005985
1070.553901	0.007682
1070.718114	0.005958
1070.882309	0.003567
1071.046486	0.004395
1071.210644	0.002504
1071.374784	0.002488
1071.538906	0.003793
1071.703010	0.000283
1071.867096	0.001881
1072.031163	-0.000093
1072.195212	-0.000148
1072.359243	0.000508
1072.523256	0.000630
1072.687250	0.000005
1072.851226	-0.002292
1073.015184	-0.004030
1073.179124	-0.002565
1073.343045	-0.002573
1073.506949	-0.001634
1073.670834	-0.001861
1073.834701	-0.001018
1073.998549	-0.002389
1074.162380	-0.002513
1074.326192	-0.000858
1074.489986	-0.000691
1074.653761	0.001126
1074.817519	0.000789
1074.981258	0.001475
1075.144979	0.001700
1075.308682	0.000127
1075.472367	0.002688
1075.636033	0.002664
1075.799681	0.005073
1075.963311	0.003494
1076.126923	0.004059
1076.290516	0.002954
1076.454092	0.001288
1076.617649	0.001165
1076.781187	0.001389
1076.944708	0.001008
1077.108210	0.002740
1077.271695	0.000265
1077.435160	0.001609
1077.598608	-0.001828
1077.762038	-0.002111
1077.925449	-0.001780
1078.088842	-0.000237
1078.252217	-0.000153
1078.415573	-0.001481
1078.578912	-0.002640
1078.742232	-0.002524
1078.905534	-0.001419
1079.068817	-0.000012
1079.232083	0.000595
1079.395330	0.000222
1079.558559	-0.002253
1079.721770	-0.000861
1079.884962	0.000357
1080.048136	-0.001121
1080.211293	-0.001056
1080.374430	-0.001467
1080.537550	-0.002624
1080.700651	-0.002848
1080.863735	-0.002963
1081.026800	-0.002488
1081.189846	-0.001493
1081.352875	-0.003189
1081.515885	-0.002102
1081.678877	-0.000735
1081.841851	-0.000204
1082.004807	0.000334
1082.167744	0.000842
1082.330663	0.003215
1082.493564	0.003921
1082.656447	0.003274
1082.819312	0.001212
1082.982158	0.002034
1083.144986	0.001067
1083.307796	-0.001399
1083.470587	-0.000559
1083.633361	-0.002886
1083.796116	-0.004398
1083.958853	-0.003611
1084.121571	-0.006025
1084.284272	-0.001510
1084.446954	-0.001334
1084.609618	-0.000282
1084.772264	0.000361
1084.934892	-0.001088
1085.097501	-0.000868
1085.260092	-0.001569
1085.422665	-0.001324
1085.585220	-0.000088
1085.747756	-0.001094
1085.910274	-0.001984
1086.072774	-0.006469
1086.235256	-0.006857
1086.397720	-0.004662
1086.560165	-0.005029
1086.722592	-0.003601
1086.885001	-0.004977
1087.047392	-0.006599
1087.209764	-0.004924
1087.372119	-0.004908
1087.534455	-0.003097
1087.696772	-0.002867
1087.859072	-0.002906
1088.021353	0.000274
1088.183616	-0.000670
1088.345861	-0.000540
1088.508088	-0.000091
1088.670296	-0.003444
1088.832486	-0.004041
1088.994658	-0.001706
1089.156812	-0.000940
1089.318948	-0.002108
1089.481065	-0.002751
1089.643164	-0.004101
1089.805245	-0.004536
1089.967308	-0.004582
1090.129352	-0.003910
1090.291378	-0.003293
1090.453386	-0.005111
1090.615376	-0.004273
1090.777347	-0.003579
1090.939301	-0.004414
1091.101236	-0.004826
1091.263153	-0.004947
1091.425051	-0.003457
1091.586932	-0.002879
1091.748794	-0.003004
1091.910638	-0.002222
1092.072463	-0.005734
1092.234271	-0.005206
1092.396060	-0.005165
1092.557831	-0.003325
1092.719584	-0.002215
1092.881319	-0.001592
1093.043035	-0.003741
1093.204733	-0.002839
1093.366413	-0.005896
1093.528075	-0.002237
1093.689718	-0.003316
1093.851343	-0.003924
1094.012950	-0.005241
1094.174539	-0.007970
1094.336110	-0.010345
1094.497662	-0.009170
1094.659196	-0.010167
1094.820712	-0.010150
1094.982210	-0.008621
1095.143689	-0.009969
1095.305151	-0.010724
1095.466594	-0.010112
1095.628018	-0.006672
1095.789425	-0.007303
1095.950813	-0.007447
1096.112183	-0.009658
1096.273535	-0.009052
1096.434869	-0.012181
1096.596184	-0.012320
1096.757482	-0.009598
1096.918761	-0.007795
1097.080021	-0.005717
1097.241264	-0.002407
1097.402488	-0.005586
1097.563694	-0.001795
1097.724882	-0.000724
1097.886052	0.002174
1098.047203	0.004978
1098.208336	0.006212
1098.369451	0.004439
1098.530548	-0.001126
1098.691627	-0.001206
1098.852687	0.001356
1099.013729	0.000418
1099.174753	0.002169
1099.335758	-0.001195
1099.496746	-0.001924
1099.657715	-0.004512
1099.818666	-0.003163
1099.979599	-0.000069
1100.140513	-0.002082
1100.301409	-0.002935
1100.462287	-0.005353
1100.623147	-0.005641
1100.783989	-0.005849
1100.944812	-0.005483
1101.105617	-0.006471
1101.266404	-0.007272
1101.427173	-0.009153
1101.587923	-0.009112
1101.748656	-0.004466
1101.909370	-0.004912
1102.070066	-0.004770
1102.230743	-0.003530
1102.391403	-0.006680
1102.552044	-0.007643
1102.712667	-0.007367
1102.873271	-0.008048
1103.033858	-0.007527
1103.194426	-0.012091
1103.354976	-0.007096
1103.515508	-0.008324
1103.676021	-0.008227
1103.836517	-0.005540
1103.996994	-0.003592
1104.157453	-0.003748
1104.317893	-0.004718
1104.478316	-0.006238
1104.638720	-0.005066
1104.799106	-0.006859
1104.959474	-0.006032
1105.119823	-0.006254
1105.280155	-0.005324
1105.440468	-0.003204
1105.600763	-0.007082
1105.761039	-0.003712
1105.921298	-0.002234
1106.081538	-0.000847
1106.241760	-0.003426
1106.401964	-0.002401
1106.562149	-0.003465
1106.722316	-0.003020
1106.882465	-0.009728
1107.042596	-0.006950
1107.202709	-0.010113
1107.362803	-0.008705
1107.522879	-0.011616
1107.682937	-0.010428
1107.842977	-0.013144
1108.002999	-0.009946
1108.163002	-0.012601
1108.322987	-0.009128
1108.482954	-0.008131
1108.642902	-0.008060
1108.802833	-0.008451
1108.962745	-0.008078
1109.122639	-0.008637
1109.282515	-0.009277
1109.442372	-0.010083
1109.602211	-0.010525
1109.762032	-0.011494
1109.921835	-0.013336
1110.081620	-0.012963
1110.241386	-0.016123
1110.401134	-0.014558
1110.560864	-0.014562
1110.720576	-0.011545
1110.880269	-0.012573
1111.039945	-0.010938
1111.199602	-0.005934
1111.359240	-0.004921
1111.518861	-0.004036
1111.678463	-0.003372
1111.838047	-0.003817
1111.997613	-0.002979
1112.157161	-0.006350
1112.316690	-0.007378
1112.476202	-0.006332
1112.635695	-0.006519
1112.795169	-0.005407
1112.954626	-0.006004
1113.114064	-0.004091
1113.273484	-0.003991
1113.432886	-0.004535
1113.592270	-0.008022
1113.751635	-0.008394
1113.910983	-0.009924
1114.070312	-0.011117
1114.229622	-0.013146
1114.388915	-0.012209
1114.548189	-0.012785
1114.707445	-0.012581
1114.866683	-0.011193
1115.025903	-0.007793
1115.185104	-0.007452
1115.344287	-0.008873
1115.503452	-0.011900
1115.662599	-0.010937
1115.821727	-0.012709
1115.980838	-0.009365
1116.139930	-0.007488
1116.299004	-0.010402
1116.458059	-0.009766
1116.617097	-0.012882
1116.776116	-0.006705
1116.935117	-0.005985
1117.094099	-0.004033
1117.253064	0.000851
1117.412010	-0.003919
1117.570938	-0.006790
1117.729848	-0.004619
1117.888740	-0.002397
1118.047613	0.001376
1118.206468	-0.002083
1118.365305	0.000921
1118.524124	0.000379
1118.682924	-0.006541
1118.841707	-0.004092
1119.000471	-0.000441
1119.159216	0.001316
1119.317944	-0.004242
1119.476653	-0.007122
1119.635344	-0.011014
1119.794017	-0.012060
1119.952672	-0.014004
1120.111308	-0.003210
1120.269927	-0.003725
1120.428527	-0.009486
1120.587108	-0.013598
1120.745672	-0.010834
1120.904217	-0.013889
1121.062744	-0.016583
1121.221253	-0.022022
1121.379744	-0.022795
1121.538216	-0.029932
1121.696671	-0.029806
1121.855107	-0.027184
1122.013524	-0.029231
1122.171924	-0.029661
1122.330305	-0.029364
1122.488668	-0.029142
1122.647013	-0.027121
1122.805340	-0.027871
1122.963648	-0.028953
1123.121938	-0.031310
1123.280210	-0.029851
1123.438464	-0.024348
1123.596700	-0.025605
1123.754917	-0.021232
1123.913116	-0.017165
1124.071297	-0.014687
1124.229459	-0.013082
1124.387604	-0.011657
1124.545730	-0.009122
1124.703838	-0.011722
1124.861928	-0.012437
1125.019999	-0.009043
1125.178052	-0.009822
1125.336088	-0.011569
1125.494104	-0.012442
1125.652103	-0.008568
1125.810083	-0.008352
1125.968045	-0.010752
1126.125989	-0.007283
1126.283915	-0.009644
1126.441823	-0.008558
1126.599712	-0.000645
1126.757583	0.005448
1126.915436	0.012846
1127.073270	0.013912
1127.231087	0.016214
1127.388885	0.013858
1127.546665	0.009273
1127.704426	0.014588
1127.862170	0.014972
1128.019895	0.007552
1128.177602	0.005179
1128.335291	-0.003323
1128.492961	-0.009049
1128.650614	-0.013663
1128.808248	-0.008583
1128.965864	-0.003755
1129.123461	-0.004389
1129.281041	-0.005340
1129.438602	-0.001324
1129.596145	-0.000909
1129.753670	0.003293
1129.911176	0.004084
1130.068665	0.002922
1130.226135	-0.002885
1130.383587	-0.000201
1130.541020	0.002353
1130.698436	0.001388
1130.855833	-0.001028
1131.013212	-0.000071
1131.170573	-0.002394
1131.327915	-0.004550
1131.485239	-0.001364
1131.642545	-0.000956
1131.799833	-0.003409
1131.957103	-0.014745
1132.114354	-0.012620
1132.271588	-0.012605
1132.428803	-0.012128
1132.585999	-0.017041
1132.743178	-0.011813
1132.900338	-0.005631
1133.057480	-0.000823
1133.214604	-0.005489
1133.371710	0.001552
1133.528797	0.001211
1133.685866	0.000232
1133.842917	-0.002078
1133.999950	0.002062
1134.156964	-0.005354
1134.313960	-0.011385
1134.470938	-0.014661
1134.627898	-0.009086
1134.784840	-0.012385
1134.941763	-0.013979
1135.098668	-0.014029
1135.255555	-0.013237
1135.412424	-0.011422
1135.569274	-0.009806
1135.726107	-0.011084
1135.882921	-0.006294
1136.039716	-0.013471
1136.196494	-0.008693
1136.353253	-0.002708
1136.509995	-0.006982
1136.666717	-0.010875
1136.823422	-0.012586
1136.980109	-0.006562
1137.136777	-0.011521
1137.293427	-0.012199
1137.450059	-0.012336
1137.606672	-0.014074
1137.763267	-0.018002
1137.919844	-0.014859
1138.076403	-0.014092
1138.232944	-0.017827
1138.389466	-0.018074
1138.545971	-0.018150
1138.702457	-0.022941
1138.858924	-0.019019
1139.015374	-0.020982
1139.171805	-0.023144
1139.328218	-0.028834
1139.484613	-0.031357
1139.640990	-0.029136
1139.797348	-0.030816
1139.953688	-0.018483
1140.110010	-0.018110
1140.266314	-0.019126
1140.422600	-0.021977
1140.578867	-0.013227
1140.735116	-0.009642
1140.891347	-0.007129
1141.047559	0.000981
1141.203754	0.006504
1141.359930	0.005009
1141.516088	0.014052
1141.672228	0.011892
1141.828349	0.017651
1141.984452	0.009872
1142.140537	0.015702
1142.296604	0.007670
1142.452653	0.002878
1142.608683	-0.008821
1142.764695	-0.014217
1142.920689	-0.014537
1143.076665	-0.014125
1143.232622	-0.020657
1143.388562	-0.023767
1143.544483	-0.022024
1143.700385	-0.010722
1143.856270	-0.015741
1144.012136	-0.018070
1144.167985	-0.026503
1144.323814	-0.026323
1144.479626	-0.026861
1144.635420	-0.020952
1144.791195	-0.023208
1144.946952	-0.027126
1145.102691	-0.027740
1145.258411	-0.022673
1145.414113	-0.013728
1145.569798	-0.004546
1145.725463	-0.010393
1145.881111	-0.009368
1146.036741	-0.016650
1146.192352	-0.012192
1146.347945	-0.022084
1146.503519	-0.022492
1146.659076	-0.027120
1146.814614	-0.023914
1146.970134	-0.024170
1147.125636	-0.023635
1147.281120	-0.024549
1147.436585	-0.016713
1147.592032	-0.021266
1147.747461	-0.011391
1147.902872	-0.017512
1148.058265	-0.021336
1148.213639	-0.026739
1148.368995	-0.026407
1148.524333	-0.025221
1148.679653	-0.026118
1148.834954	-0.031905
1148.990237	-0.022920
1149.145502	-0.030147
1149.300749	-0.030441
1149.455977	-0.028753
1149.611188	-0.025688
1149.766380	-0.028348
1149.921553	-0.031017
1150.076709	-0.026295
1150.231846	-0.014714
1150.386966	-0.021781
1150.542066	-0.011453
1150.697149	-0.002603
1150.852214	-0.000078
1151.007260	-0.005241
1151.162288	-0.002644
1151.317298	-0.002568
1151.472289	0.000104
1151.627263	-0.010105
1151.782218	-0.003940
1151.937155	-0.005841
1152.092073	-0.014048
1152.246974	-0.012862
1152.401856	-0.009806
1152.556720	-0.013581
1152.711566	-0.017071
1152.866393	-0.020907
1153.021203	-0.018843
1153.175994	-0.026303
1153.330767	-0.031249
1153.485521	-0.019202
1153.640258	-0.018324
1153.794976	-0.020122
1153.949676	-0.022272
1154.104358	-0.016807
1154.259021	-0.019416
1154.413667	-0.025138
1154.568294	-0.011039
1154.722903	-0.002211
1154.877493	-0.005626
1155.032066	-0.008433
1155.186620	-0.016205
1155.341156	-0.005304
1155.495674	-0.003491
1155.650173	-0.008211
1155.804654	-0.004217
1155.959118	-0.016934
1156.113562	-0.026806
1156.267989	-0.026970
1156.422397	-0.020620
1156.576788	-0.013946
1156.731160	-0.020974
1156.885513	-0.020447
1157.039849	-0.025626
1157.194166	-0.027921
1157.348465	-0.026294
1157.502746	-0.016869
1157.657009	-0.023578
1157.811253	-0.021316
1157.965479	-0.024080
1158.119687	-0.028533
1158.273877	-0.029328
1158.428048	-0.015582
1158.582201	-0.010950
1158.736337	-0.012166
1158.890453	-0.017429
1159.044552	-0.015723
1159.198632	-0.033133
1159.352694	-0.030676
1159.506738	-0.019450
1159.660764	-0.015319
1159.814771	-0.018992
1159.968761	-0.018000
1160.122732	-0.011886
1160.276685	-0.005852
1160.430619	-0.007594
1160.584535	0.006680
1160.738434	0.003382
1160.892313	0.005723
1161.046175	-0.003774
1161.200019	-0.003090
1161.353844	-0.002816
1161.507651	0.002421
1161.661440	-0.006208
1161.815210	-0.005783
1161.968962	-0.000502
1162.122697	-0.001861
1162.276412	-0.003551
1162.430110	-0.001586
1162.583789	0.010318
1162.737451	0.015849
1162.891094	0.005428
1163.044718	0.007932
1163.198325	0.016111
1163.351913	0.002293
1163.505483	0.012640
1163.659035	0.011878
1163.812569	0.006301
1163.966084	-0.004284
1164.119581	-0.012901
1164.273060	-0.024884
1164.426521	-0.022415
1164.579964	-0.031157
1164.733388	-0.033980
1164.886794	-0.030262
1165.040182	-0.035985
1165.193551	-0.038393
1165.346903	-0.043644
1165.500236	-0.040964
1165.653551	-0.035614
1165.806848	-0.045598
1165.960126	-0.050478
1166.113386	-0.046587
1166.266628	-0.049422
1166.419852	-0.055813
1166.573058	-0.046103
1166.726245	-0.040014
1166.879414	-0.041864
1167.032565	-0.036600
1167.185698	-0.023504
1167.338812	-0.023955
1167.491909	-0.030405
1167.644987	-0.034517
1167.798046	-0.018853
1167.951088	-0.022681
1168.104111	-0.020603
1168.257117	-0.017534
1168.410103	-0.017176
1168.563072	-0.011797
1168.716023	0.000848
1168.868955	0.009532
1169.021869	0.006866
1169.174765	-0.006208
1169.327642	-0.006561
1169.480501	-0.005760
1169.633343	-0.020370
1169.786165	-0.027050
1169.938970	-0.035858
1170.091757	-0.040245
1170.244525	-0.035349
1170.397275	-0.043539
1170.550007	-0.064739
1170.702720	-0.062603
1170.855415	-0.071997
1171.008092	-0.051765
1171.160751	-0.035302
1171.313392	-0.028791
1171.466014	-0.071140
1171.618619	0.064795
1171.771205	0.064795
1171.923772	0.064795
