sample name	sample
index	1483
start time	 05-18-2021  12:40:46 PM
880	-0.045092
Peak Time (s)	91.537
Peak Height 	-0.04509
calc peak height	90,93
Baseline Time (s)	9.036
Baseline Value 	-0.002988
subtract baseline	10,4
Abs	-0.012025
Peak Time (s)	90.036
Peak Height 	-0.01202
calc peak height	90,93
Baseline Time (s)	10.54
Baseline Value 	0.001788
subtract baseline	10,3
PK_550	-0.000140
Peak Time (s)	92.037
Peak Height 	-1.4023E-4
calc peak height	90,93
Baseline Time (s)	9.036
Baseline Value 	3.3356E-5
subtract baseline	10,2
PK_880	-0.008427
Peak Time (s)	90.036
Peak Height 	-0.008427
calc peak height	90,93
Baseline Time (s)	10.54
Baseline Value 	0.001093
subtract baseline	10,1


Time (s)	A880-A510	A880-A775	A880-A975	A880	I510	I775	I975	I880	
0.036000	-0.004118	-0.001301	-0.004029	0.006347	6533.344880	44217.745668	3965.328677	23174.711243
0.537000	-0.002103	-0.000213	-0.003804	0.004313	6566.860412	44515.266268	3970.711319	23269.656654
1.039500	-0.003449	-0.000059	-0.004033	0.003858	6559.462039	44573.512390	3971.251676	23290.940261
1.537500	0.000424	-0.000096	-0.003571	0.001589	6610.791640	44787.736616	3977.798727	23397.447009
2.037500	-0.006932	-0.000679	-0.003750	0.006596	6508.196274	44253.075389	3965.399373	23163.116606
2.535000	-0.002198	0.000113	-0.001703	0.001227	6591.823093	44842.794555	3983.176722	23414.509524
3.035500	0.001047	0.000306	-0.002715	-0.000340	6632.341729	45012.824439	3984.519792	23488.493670
3.535500	-0.000785	0.001326	-0.003125	0.001862	6598.343181	44898.632804	3978.216384	23384.637745
4.036000	-0.000563	0.000003	-0.004440	0.001198	6605.780882	44834.942588	3976.651309	23415.878975
4.536500	-0.001122	0.000471	-0.006563	0.001434	6599.101106	44857.380695	3970.997584	23404.764876
5.036500	-0.000999	-0.000299	-0.003545	0.001095	6602.982338	44815.781141	3979.051941	23420.732995
5.537000	0.000103	-0.000315	-0.002874	0.001184	6611.499762	44805.639863	3980.453022	23416.522552
6.037000	-0.001228	0.000027	0.003192	0.000512	6605.960037	44903.477443	3996.828085	23448.252888
6.537500	-0.001985	0.000414	-0.002263	0.000849	6596.770806	44908.331970	3982.736824	23432.335574
7.035000	-0.002150	0.000033	-0.002571	0.000124	6601.469352	44941.459467	3983.743072	23466.529008
7.535500	0.001067	-0.000215	-0.003813	0.000047	6629.230380	44925.046434	3980.931306	23470.194453
8.035500	-0.001044	-0.000031	-0.003757	-0.000083	6612.509918	44955.361208	3981.379019	23476.331382
8.536000	-0.000336	0.001123	0.001404	0.001327	6606.607238	44930.633645	3990.472089	23409.805064
9.036000	0.000167	0.000000	-0.003021	0.000000	6622.020403	44950.318338	3982.957935	23472.406609
9.536500	0.001220	0.000300	0.001247	0.000137	6629.765326	44966.059094	3992.989035	23465.945050
10.036500	-0.001809	0.000582	-0.001832	0.000103	6604.510541	44996.622766	3985.586151	23467.535144
10.540000	0.000000	-0.000059	0.000000	-0.000398	6623.975149	44983.067407	3991.254301	23491.230554
11.037000	-0.002927	-0.000768	0.001409	-0.000777	6602.517207	44951.227957	3995.619798	23509.164928
11.534500	0.000118	-0.000373	-0.003629	-0.000799	6628.365485	44991.572846	3983.419247	23510.200423
12.035000	-0.000582	-0.000178	-0.001974	0.002563	6594.164708	44686.285240	3979.299579	23351.671785
12.535500	-0.001916	0.000437	0.001154	0.000685	6598.721995	44926.290699	3991.425681	23440.057182
13.035500	-0.000359	0.000556	-0.001241	-0.001685	6631.821261	45167.475275	3991.365570	23552.182180
13.536000	-0.002220	0.000445	-0.000225	-0.000023	6602.118727	44995.616795	3989.793420	23473.506390
14.039000	-0.003108	-0.000219	-0.001699	0.002051	6577.326456	44731.549145	3981.197431	23375.732495
14.536500	-0.003145	-0.000132	-0.006838	0.001983	6577.586789	44746.390280	3969.029637	23378.917616
15.039500	0.000752	0.000272	-0.001126	0.000788	6620.302619	44900.438109	3985.634986	23435.188062
15.564500	-0.001162	0.000096	-0.003057	-0.000100	6611.664786	44969.245683	3983.111809	23477.141544
16.037500	-0.005357	-0.000819	-0.004696	0.003968	6542.750767	44490.276953	3969.404690	23285.790969
16.535000	-0.003014	-0.000127	-0.002195	0.000054	6594.810131	44932.848156	3984.825732	23469.865730
17.035000	0.000474	0.000263	-0.007032	0.000056	6624.144966	44970.315741	3973.171993	23469.764118
17.535000	0.002251	0.000183	0.000758	-0.002420	6660.247277	45202.560476	3998.048765	23587.050834
18.035500	0.000322	0.000365	-0.000011	-0.002483	6644.354703	45226.375051	3996.318161	23590.035040
18.536000	-0.000828	-0.000353	-0.001597	0.000950	6605.639771	44824.593356	3984.104458	23427.572457
19.036000	-0.001320	-0.000121	0.002668	0.000758	6603.109416	44865.429447	3994.942712	23436.602574
19.537000	-0.003538	-0.000805	-0.001716	0.000303	6588.339995	44843.387821	3985.381341	23458.110374
20.037000	-0.002231	-0.000096	-0.002033	0.001130	6592.356062	44832.043111	3982.613074	23419.085451
20.537500	-0.000809	-0.000007	-0.000969	0.000836	6606.756600	44868.962162	3985.900130	23432.964502
21.037500	-0.000787	-0.000494	-0.003471	0.000785	6607.370401	44826.907057	3979.975701	23435.343457
21.535000	0.000499	0.000392	-0.003118	0.001376	6613.220856	44855.351048	3979.403636	23407.501852
22.035500	-0.002313	-0.000101	-0.003546	0.001124	6591.716420	44832.054225	3978.977113	23419.349560
22.535500	-0.002547	-0.000436	-0.003790	0.000794	6592.526966	44831.604057	3979.185227	23434.924671
23.036000	-0.001023	0.000536	-0.001452	0.001250	6601.482001	44881.436458	3983.728492	23413.444067
23.536500	-0.001152	0.000196	-0.001314	0.001250	6600.398770	44848.573625	3984.063817	23413.450865
24.036000	-0.001794	0.000114	-0.005231	0.001082	6596.420056	44856.878433	3975.030770	23421.344862
24.539500	-0.001049	0.000422	0.001159	0.001397	6600.029343	44856.197184	3989.706421	23406.509670
25.037500	-0.003561	-0.000028	0.000090	0.001200	6580.654807	44831.826605	3987.586098	23415.792853
25.537500	-0.001814	0.000005	-0.001230	0.001048	6596.538092	44849.630224	3984.754278	23422.942570
26.035000	-0.001460	0.000854	-0.001523	0.001506	6595.667812	44887.304592	3982.936452	23401.364709
26.534500	-0.002010	-0.000418	-0.007675	0.000817	6596.826638	44831.124592	3969.816272	23433.832749
27.035500	-0.001932	-0.000293	-0.001140	0.000606	6599.252395	44863.515688	3986.041231	23443.777465
27.536000	-0.002174	0.000290	-0.000419	0.001856	6586.754873	44799.240940	3984.760217	23384.881729
28.036000	0.002609	0.000391	-0.001984	-0.001736	6657.472795	45156.365234	3989.680876	23554.601896
28.536500	-0.000781	-0.000153	-0.000599	-0.000514	6618.359335	44985.255497	3990.077498	23496.711578
29.062000	-0.000783	0.000428	0.000069	-0.000330	6616.793186	45023.674669	3991.258053	23488.019388
29.537000	0.001865	0.000264	-0.002799	-0.000292	6638.864238	45004.097313	3984.201682	23486.221680
30.037000	-0.001305	-0.000250	-0.001133	0.001898	6593.676256	44743.218467	3982.932390	23382.908982
30.534500	0.000035	0.000501	-0.002611	-0.000020	6621.080110	45000.663493	3983.996270	23473.353309
31.037500	-0.001469	0.000267	0.001155	-0.000092	6609.012541	44985.012917	3993.324205	23476.767009
31.535500	-0.002099	0.000135	0.006635	0.001728	6588.455956	44796.682883	4002.296607	23390.931154
32.036000	-0.002897	-0.000016	-0.004232	0.002488	6575.449033	44708.996817	3974.054578	23355.190825
32.535500	-0.002052	0.000147	0.001639	-0.000182	6604.867814	44982.117596	3994.727007	23481.006178
33.093000	0.000022	0.000329	0.002479	-0.000333	6623.611404	45014.326427	3997.151376	23488.145760
33.536500	-0.000147	0.000355	-0.002083	-0.000024	6619.572559	44986.880350	3985.284342	23473.517457
34.039500	0.000836	0.000164	-0.006448	0.000595	6622.646111	44908.709738	3973.281989	23444.325923
34.540500	0.000655	0.000048	0.002421	-0.000076	6626.788516	44962.336478	3996.378943	23475.992882
35.037000	-0.000085	0.000540	-0.005102	-0.001382	6631.571748	45136.432065	3981.268731	23537.782646
35.537500	-0.001095	0.000036	-0.002399	0.001324	6600.258055	44826.047517	3981.260760	23409.950744
36.035000	-0.003120	0.000122	-0.001801	0.001691	6580.231771	44798.906697	3981.819003	23392.654265
36.535500	-0.003301	0.000313	-0.001692	0.001729	6578.408155	44813.715056	3981.990831	23390.871985
37.035500	-0.003696	-0.000192	-0.002620	0.001301	6578.679457	44806.237578	3980.783526	23411.011749
37.536000	-0.001100	0.000325	0.000531	0.001811	6596.127310	44806.988847	3987.172572	23387.012613
38.036500	-0.000391	0.000432	-0.006146	0.001676	6603.214064	44830.280470	3971.418323	23393.389975
38.537000	-0.001079	0.000279	-0.002566	0.002001	6594.705582	44784.247406	3979.226179	23378.069702
39.036500	-0.003345	-0.000612	-0.006671	0.000853	6585.352414	44808.980115	3972.129974	23432.152927
39.537000	-0.002351	0.000505	-0.002043	0.001983	6584.214883	44807.720762	3980.529726	23378.920382
40.034500	0.000317	0.000278	0.003140	0.001960	6606.772361	44788.087430	3993.159142	23379.991552
40.535000	-0.001574	-0.000014	-0.001284	0.002114	6589.625059	44745.174707	3982.047171	23372.791755
41.035500	-0.002440	-0.000584	-0.002681	0.001039	6591.362754	44793.709339	3981.267973	23423.360692
41.535500	-0.000780	0.000070	-0.003022	0.001686	6599.859328	44794.445758	3978.887102	23392.915602
42.036000	-0.002009	0.000821	-0.001951	0.001933	6587.497334	44843.032228	3980.873382	23381.288781
42.536000	-0.001947	0.000345	0.000634	0.002133	6586.338952	44777.890561	3986.642439	23371.876370
43.036000	-0.001893	-0.000091	-0.000742	0.001687	6590.521773	44778.905412	3984.388761	23392.862811
43.539000	-0.000262	0.000041	0.001122	0.001688	6604.192845	44791.409939	3988.907083	23392.795072
44.036500	0.000084	0.000182	-0.002538	0.001861	6605.647380	44788.470507	3979.632493	23384.692102
44.537500	-0.002777	0.000230	-0.006352	0.002137	6579.380316	44766.443018	3969.823932	23371.711917
45.035000	-0.002208	0.000071	-0.001835	0.001699	6587.789585	44793.331535	3981.717872	23392.309449
45.535500	0.000743	0.000094	-0.002339	-0.000772	6633.420513	45034.033716	3986.475414	23508.889782
46.035500	0.000483	0.000028	-0.006883	0.000619	6619.462972	44893.266494	3972.182202	23443.179041
46.539000	-0.003886	0.000149	0.000551	0.001850	6572.520347	44786.235122	3987.126817	23385.191229
47.035500	-0.001843	0.000125	-0.000983	-0.000183	6606.628780	44980.069034	3988.340732	23481.065713
47.536500	-0.000590	0.000007	-0.004628	0.000025	6615.428772	44948.626065	3979.020836	23471.234339
48.042000	0.002220	0.000398	0.003270	0.000435	6635.707828	44946.754256	3997.207132	23451.864518
48.537000	-0.002013	-0.000062	-0.002853	0.001524	6590.884283	44797.336044	3979.685460	23400.525914
49.037000	0.000749	0.000878	0.003409	0.001416	6614.988295	44898.362539	3995.146696	23405.611553
49.540000	-0.003310	0.000371	-0.007655	0.002506	6571.857928	44744.507118	3965.839513	23354.343696
50.037500	-0.002071	0.000521	-0.002820	0.000584	6598.276430	44944.266988	3982.031025	23444.831221
50.535500	-0.000250	0.000561	-0.002574	0.001699	6604.197391	44840.480269	3979.935799	23392.291340
51.038500	-0.003253	0.000659	-0.001972	-0.000172	6594.700098	45030.646625	3985.911921	23480.517071
51.536000	0.000143	0.000095	-0.003780	-0.001007	6630.338711	45057.028009	3983.557801	23520.060400
52.036000	0.000151	0.001098	0.002524	-0.000388	6625.164312	45094.170927	3997.396690	23490.738316
52.536000	-0.003065	0.001366	-0.001286	0.003087	6569.063090	44784.389716	3979.694480	23327.081169
53.037000	-0.003258	-0.006734	-0.002493	-0.007008	6652.399337	44976.822862	4001.330553	23806.182462
53.537000	0.009599	-0.010895	-0.003668	0.118017	5810.872952	34171.416830	3731.980950	18589.929306
54.036000	-0.007521	-0.020844	-0.002921	-0.093445	7422.488611	52586.796385	4235.262223	28398.297420
54.538000	-0.019994	-0.034002	-0.017474	-0.164829	8071.475101	59703.860783	4417.297183	32943.952882
55.035000	-0.002953	-0.030581	0.005932	-0.156977	8180.872233	59128.126233	4471.410596	32406.583912
55.535500	-0.002296	-0.019326	0.006001	-0.090021	7441.061693	52369.677882	4251.854041	28198.504085
56.035500	-0.015251	-0.017114	-0.000355	-0.035222	6793.099786	46737.260081	4078.649263	25205.863611
56.535500	-0.020017	-0.012291	-0.017658	-0.016193	6588.482242	45329.093160	3986.725461	24251.924542
57.036500	-0.018617	-0.008639	-0.015625	-0.036348	6773.347918	47715.290801	4041.944446	25263.609814
57.539500	-0.018081	-0.007880	-0.012798	-0.061610	7007.025834	50477.432233	4116.025160	26599.832904
58.036500	-0.016699	-0.007731	-0.015372	-0.069793	7097.248681	51397.480560	4131.400000	27049.601398
58.537000	-0.009892	-0.005772	-0.013090	-0.068811	7153.181816	51506.604183	4134.994114	26995.219448
59.037500	-0.010814	-0.007366	-0.011731	-0.074350	7198.051706	51949.387570	4154.235942	27303.813235
59.535000	-0.012220	-0.010364	-0.013794	-0.081438	7253.916311	52412.761242	4168.445013	27704.481844
60.035000	-0.006571	-0.004356	-0.009916	-0.053807	7041.752515	50011.877045	4102.700704	26178.789543
60.535500	-0.013827	-0.004628	-0.017178	-0.040869	6856.093932	48602.865323	4049.548766	25497.087436
61.035500	-0.013693	-0.004939	-0.005454	-0.031735	6776.081638	47621.272975	4056.225040	25027.888478
61.535500	-0.015250	-0.005854	-0.013201	-0.035796	6798.181001	47945.983212	4046.737155	25235.302138
62.036500	-0.018028	-0.005963	-0.013874	-0.038330	6796.027237	48197.652738	4051.519037	25365.688186
62.537000	-0.018955	-0.007844	-0.013395	-0.031690	6729.683742	47319.137626	4035.764409	25025.607041
63.037000	-0.017554	-0.006076	-0.015162	-0.023189	6668.480455	46637.064232	4010.004382	24597.784984
63.537000	-0.022836	-0.007606	-0.013840	-0.010703	6519.629587	45250.666052	3982.676490	23984.362505
64.037500	-0.024197	-0.006247	-0.016658	0.005494	6378.403383	43830.852972	3937.718203	23214.452836
64.546000	-0.026637	-0.005884	-0.025188	0.000818	6396.069771	44307.572802	3928.843248	23433.789703
65.035000	-0.025454	-0.003124	-0.021006	-0.008686	6481.788198	45491.258698	3960.718020	23886.910262
65.536000	-0.019585	-0.001552	-0.016845	-0.016566	6595.221258	46426.549182	3989.605446	24270.199127
66.043000	-0.021090	-0.003540	-0.019561	-0.022262	6630.513765	46799.071127	3996.879244	24551.622289
66.536500	-0.024720	-0.003693	-0.019813	-0.023812	6612.960968	46940.342186	4000.064274	24628.860799
67.039000	-0.021221	-0.003607	-0.020441	-0.029941	6694.948809	47573.867709	4013.662359	24936.904927
67.537000	-0.021748	-0.003483	-0.020771	-0.032114	6709.150676	47810.366967	4018.256354	25047.171574
68.037000	-0.022098	-0.003919	-0.014025	-0.034901	6730.267947	48053.682136	4042.337247	25189.404033
68.537500	-0.023082	-0.004089	-0.016635	-0.035205	6724.371147	48067.644175	4036.465475	25205.005440
69.037500	-0.021919	-0.004283	-0.014121	-0.040439	6780.297513	48593.943866	4056.322264	25474.789538
69.535000	-0.020831	-0.004262	-0.025804	-0.042679	6809.718961	48832.032766	4032.166766	25591.247440
70.035500	-0.022160	-0.003752	-0.023792	-0.044118	6810.694037	49038.209173	4040.934514	25666.373778
70.536000	-0.025385	-0.004581	-0.020341	-0.042910	6771.540903	48822.703804	4046.670590	25603.291665
71.036000	-0.021569	-0.004585	-0.019062	-0.045355	6826.961227	49081.131931	4056.257953	25731.159930
71.536500	-0.024126	-0.004393	-0.025181	-0.043494	6787.766737	48904.228841	4035.810026	25633.752360
72.036500	-0.021046	-0.004560	-0.018901	-0.043999	6819.538941	48940.084573	4053.171507	25660.162404
72.537000	-0.023234	-0.003737	-0.023048	-0.039903	6764.030027	48594.940462	4032.115073	25447.010622
73.040000	-0.023575	-0.005130	-0.019873	-0.041633	6776.234211	48630.359686	4044.598878	25536.793080
73.537000	-0.020653	-0.004340	-0.021967	-0.038301	6772.621663	48363.963943	4030.797548	25364.188362
74.035000	-0.021736	-0.004006	-0.018137	-0.038510	6764.955052	48420.829183	4041.055182	25374.997567
74.535000	-0.022451	-0.004163	-0.018909	-0.035386	6731.425192	48078.794225	4031.159916	25214.273041
75.035500	-0.019850	-0.003754	-0.020961	-0.037122	6769.320190	48301.987295	4030.360353	25303.425371
75.535500	-0.022123	-0.003966	-0.023843	-0.035221	6732.836001	48082.055430	4018.345004	25205.813920
76.036500	-0.020505	-0.003421	-0.014978	-0.036683	6759.726847	48290.994827	4044.457329	25280.862920
76.539500	-0.022149	-0.003846	-0.022058	-0.037306	6750.791181	48311.593334	4028.056789	25312.880469
77.036500	-0.021762	-0.002965	-0.021822	-0.037630	6757.009383	48437.564850	4029.468456	25329.578104
77.537000	-0.020615	-0.001793	-0.018632	-0.034993	6743.987884	48284.568017	4030.867419	25194.151417
78.034500	-0.020408	-0.003269	-0.016916	-0.039100	6781.811042	48559.839276	4045.683569	25405.477485
78.535000	-0.019816	-0.003376	-0.016898	-0.040231	6797.018222	48667.395267	4048.628914	25463.995379
79.035500	-0.020652	-0.002800	-0.020258	-0.040816	6794.805119	48789.741672	4041.526409	25494.358342
79.535500	-0.015950	-0.002804	-0.024577	-0.041817	6845.558173	48895.004086	4033.090302	25546.372593
80.035500	-0.018865	-0.003161	-0.020291	-0.043326	6832.977891	49016.848614	4047.863090	25624.977934
80.535000	-0.017525	-0.003507	-0.020648	-0.044479	6855.307103	49102.542131	4049.911426	25685.288449
81.038500	-0.018029	-0.003081	-0.019159	-0.044824	6853.875443	49184.478205	4054.635917	25703.331920
81.536500	-0.020388	-0.003195	-0.019872	-0.046228	6845.304016	49321.823857	4056.420537	25776.967613
82.036500	-0.017250	-0.002164	-0.016231	-0.046329	6874.429458	49442.851326	4066.139242	25782.279671
82.537000	-0.016266	-0.003224	-0.016803	-0.047660	6895.375677	49471.856631	4068.121012	25852.359083
83.037500	-0.017135	-0.002758	-0.013580	-0.048643	6896.412316	49627.245479	4079.168654	25904.276322
83.535000	-0.014735	-0.002994	-0.014400	-0.049470	6925.812420	49690.782343	4079.187211	25948.020654
84.035500	-0.015143	-0.003136	-0.018709	-0.050224	6928.966606	49756.602585	4069.842595	25987.953172
84.535500	-0.014617	-0.002563	-0.014335	-0.050390	6935.303092	49836.300710	4081.787695	25996.757017
85.036000	-0.010767	-0.002483	-0.015279	-0.050780	6974.360177	49887.068568	4080.323216	26017.481633
85.536000	-0.011406	-0.001877	-0.016063	-0.050727	6967.954717	49946.757278	4078.115068	26014.656282
86.036500	-0.012772	-0.002832	-0.015829	-0.051855	6965.758808	49965.487912	4081.710990	26074.629656
86.539000	-0.013944	-0.002472	-0.021139	-0.049013	6928.865517	49697.739028	4060.353952	25923.823826
87.037000	-0.012439	-0.002435	-0.014958	-0.051638	6966.829439	49984.978512	4083.441370	26063.103569
87.536500	-0.010765	-0.001711	-0.018790	-0.051487	6980.919692	50047.007821	4072.941522	26055.056942
88.037500	-0.013156	-0.002600	-0.017955	-0.052034	6963.856039	50009.952464	4076.573352	26084.139945
88.535000	-0.011177	-0.002104	-0.012549	-0.051393	6976.231522	49994.274697	4089.188256	26050.048335
89.035500	-0.010494	-0.001364	-0.011098	-0.050615	6975.354967	49990.160525	4090.978746	26008.692406
89.538500	-0.012545	-0.002186	-0.015975	-0.045993	6914.057112	49404.552400	4065.931420	25764.636993
90.036000	-0.008427	-0.001396	-0.012025	-0.050262	6991.255150	49948.581955	4087.573140	25989.982682
90.539000	-0.009236	-0.001064	-0.012838	-0.049966	6980.990544	49952.385413	4084.627416	25974.275449
91.036000	-0.009007	-0.001783	-0.021717	-0.049885	6982.362765	49865.922737	4061.116402	25969.974126
91.536500	-0.015095	-0.001597	-0.015142	-0.045092	6882.723902	49371.294623	4065.754188	25717.369949
92.037000	-0.010862	-0.000140	-0.015217	-0.047996	6947.797353	49839.368976	4073.155420	25870.081476
92.537500	-0.012786	-0.001218	-0.019707	-0.045911	6911.118346	49499.409514	4056.027599	25760.354656
93.035000	-0.011291	-0.000423	-0.012715	-0.048444	6947.966379	49857.136999	4080.925853	25893.727439
93.535000	-0.012583	-0.001222	-0.017862	-0.044922	6903.962323	49393.184838	4058.244009	25708.482991
94.038000	-0.010616	-0.000222	-0.018540	-0.047532	6945.799374	49780.520414	4063.259482	25845.635699
94.535500	-0.012069	-0.000409	-0.016796	-0.047877	6935.630324	49797.582469	4068.707726	25863.816762
95.036500	-0.010939	-0.000241	-0.017528	-0.047734	6944.685263	49800.295453	4066.424371	25856.298803
95.536500	-0.009677	-0.000003	-0.016411	-0.047417	6953.378186	49791.769616	4068.512453	25839.578186
96.061000	-0.011757	0.000288	-0.018348	-0.046991	6930.369213	49777.201970	4062.352402	25817.139030
96.559000	-0.013993	-0.000331	-0.017145	-0.041986	6864.640853	49175.103339	4052.508760	25555.125061
97.037500	-0.012753	0.000482	-0.016486	-0.045888	6911.203132	49679.307700	4064.324635	25759.114519
97.535000	-0.019344	-0.001061	-0.024336	-0.041352	6811.139405	49030.246171	4032.524555	25522.180724
98.034500	-0.011295	0.000318	-0.010546	-0.044965	6916.082760	49562.677157	4077.469535	25710.732358
98.562500	-0.015069	-0.000240	-0.019338	-0.042200	6856.891088	49207.615396	4047.420938	25566.298749
99.035500	-0.012012	-0.000028	-0.016864	-0.044706	6907.195217	49497.856238	4060.271085	25697.166327
