sample name	sample
index	1354
start time	 05-03-2021  01:36:05 PM


Wavelength (nm)	Absorbance
494.344910	-0.110883
494.563924	-0.110883
494.782919	-0.110883
495.001897	0.353815
495.220856	-0.045768
495.439797	-0.038034
495.658719	-0.043222
495.877624	-0.037629
496.096510	-0.025656
496.315378	0.014299
496.534227	-0.026373
496.753059	-0.047653
496.971872	-0.060287
497.190667	0.006415
497.409444	0.010505
497.628203	0.011072
497.846943	0.011273
498.065665	0.011052
498.284369	0.010636
498.503055	0.012211
498.721723	0.013836
498.940372	0.014289
499.159003	0.013836
499.377616	0.014391
499.596210	0.016089
499.814787	0.016682
500.033345	0.016138
500.251885	0.015498
500.470406	0.015574
500.688910	0.016923
500.907395	0.017059
501.125862	0.016478
501.344311	0.016441
501.562742	0.016131
501.781154	0.016346
501.999548	0.016663
502.217924	0.016815
502.436282	0.016713
502.654621	0.015323
502.872942	0.015915
503.091245	0.016342
503.309530	0.016142
503.527797	0.016320
503.746045	0.016847
503.964275	0.017306
504.182487	0.016997
504.400681	0.016250
504.618856	0.015808
504.837013	0.014944
505.055152	0.015495
505.273273	0.016525
505.491376	0.015579
505.709460	0.014192
505.927526	0.013893
506.145574	0.014439
506.363604	0.015022
506.581615	0.015017
506.799608	0.015130
507.017583	0.014890
507.235540	0.013677
507.453478	0.013730
507.671399	0.014325
507.889301	0.013346
508.107185	0.013564
508.325050	0.013452
508.542898	0.013337
508.760727	0.013201
508.978538	0.012753
509.196330	0.013067
509.414105	0.013344
509.631861	0.013695
509.849599	0.014688
510.067319	0.013873
510.285021	0.014189
510.502704	0.014035
510.720369	0.014328
510.938016	0.014290
511.155645	0.014609
511.373255	0.014517
511.590848	0.013698
511.808422	0.013361
512.025977	0.013918
512.243515	0.013060
512.461034	0.012883
512.678536	0.012648
512.896018	0.012181
513.113483	0.011647
513.330930	0.011928
513.548358	0.012504
513.765768	0.012448
513.983160	0.012827
514.200533	0.012632
514.417889	0.012655
514.635226	0.012596
514.852545	0.012720
515.069845	0.012790
515.287128	0.011887
515.504392	0.011732
515.721638	0.012469
515.938866	0.011941
516.156075	0.012865
516.373267	0.013602
516.590440	0.013430
516.807594	0.013405
517.024731	0.012824
517.241850	0.013558
517.458950	0.013185
517.676032	0.013029
517.893095	0.012927
518.110141	0.012587
518.327168	0.012378
518.544177	0.012620
518.761168	0.013293
518.978141	0.013835
519.195095	0.013710
519.412031	0.013962
519.628949	0.014146
519.845849	0.014392
520.062731	0.014800
520.279594	0.014598
520.496439	0.014567
520.713266	0.013952
520.930074	0.013759
521.146865	0.013899
521.363637	0.013748
521.580391	0.013245
521.797127	0.013827
522.013844	0.013201
522.230543	0.013528
522.447224	0.013564
522.663887	0.013564
522.880532	0.013790
523.097158	0.013592
523.313766	0.013878
523.530356	0.013632
523.746928	0.013065
523.963481	0.013553
524.180017	0.013354
524.396534	0.012807
524.613032	0.013487
524.829513	0.013490
525.045975	0.013712
525.262420	0.014122
525.478845	0.014794
525.695253	0.015318
525.911643	0.015460
526.128014	0.016145
526.344367	0.017180
526.560702	0.017211
526.777018	0.017042
526.993316	0.017209
527.209597	0.016897
527.425858	0.016522
527.642102	0.015944
527.858328	0.016028
528.074535	0.016187
528.290724	0.016069
528.506894	0.016066
528.723047	0.016559
528.939181	0.016645
529.155297	0.016987
529.371395	0.017613
529.587475	0.017886
529.803536	0.017932
530.019579	0.017818
530.235604	0.018064
530.451611	0.018275
530.667600	0.018940
530.883570	0.019428
531.099522	0.019309
531.315456	0.019163
531.531372	0.019436
531.747269	0.019780
531.963148	0.019726
532.179009	0.019333
532.394852	0.019978
532.610676	0.019388
532.826482	0.019210
533.042271	0.019194
533.258040	0.019125
533.473792	0.019809
533.689525	0.019782
533.905240	0.020279
534.120937	0.021297
534.336616	0.021032
534.552277	0.022014
534.767919	0.021867
534.983543	0.022714
535.199149	0.023322
535.414736	0.023121
535.630306	0.023539
535.845857	0.023937
536.061390	0.024316
536.276904	0.024431
536.492401	0.024097
536.707879	0.024387
536.923339	0.024238
537.138781	0.024027
537.354204	0.024144
537.569610	0.024274
537.784997	0.023747
538.000366	0.023781
538.215716	0.023793
538.431049	0.023920
538.646363	0.024303
538.861659	0.024813
539.076937	0.025043
539.292196	0.025049
539.507438	0.024901
539.722661	0.025640
539.937866	0.025337
540.153052	0.025804
540.368221	0.025563
540.583371	0.025686
540.798503	0.025791
541.013617	0.025834
541.228712	0.026180
541.443789	0.026257
541.658848	0.025690
541.873889	0.025605
542.088912	0.025672
542.303916	0.026161
542.518902	0.026318
542.733870	0.026115
542.948820	0.026251
543.163752	0.026563
543.378665	0.026882
543.593560	0.027057
543.808437	0.026983
544.023295	0.026879
544.238136	0.027225
544.452958	0.026868
544.667762	0.026756
544.882548	0.026757
545.097315	0.026870
545.312064	0.027304
545.526795	0.027780
545.741508	0.028095
545.956203	0.028196
546.170879	0.028056
546.385537	0.028569
546.600177	0.028738
546.814799	0.028745
547.029402	0.028484
547.243988	0.028092
547.458555	0.028115
547.673103	0.028353
547.887634	0.028568
548.102146	0.028213
548.316640	0.027792
548.531116	0.027757
548.745574	0.028222
548.960013	0.028733
549.174435	0.028646
549.388838	0.028593
549.603222	0.028856
549.817589	0.028851
550.031937	0.029259
550.246267	0.029901
550.460579	0.030429
550.674873	0.030273
550.889148	0.029815
551.103405	0.030408
551.317644	0.030823
551.531865	0.030922
551.746068	0.031050
551.960252	0.031459
552.174418	0.031414
552.388566	0.031489
552.602696	0.031510
552.816807	0.031910
553.030900	0.031819
553.244975	0.031811
553.459032	0.031556
553.673070	0.032015
553.887091	0.032083
554.101093	0.032074
554.315077	0.031832
554.529042	0.032143
554.742990	0.032310
554.956919	0.032465
555.170830	0.032259
555.384722	0.032634
555.598597	0.032362
555.812453	0.032401
556.026291	0.032116
556.240111	0.032329
556.453913	0.032309
556.667696	0.032686
556.881461	0.032505
557.095208	0.032749
557.308937	0.032750
557.522647	0.032519
557.736339	0.032583
557.950013	0.032736
558.163669	0.032450
558.377307	0.032501
558.590926	0.032199
558.804527	0.032069
559.018110	0.032265
559.231675	0.032298
559.445221	0.032692
559.658749	0.032492
559.872259	0.032921
560.085751	0.033104
560.299225	0.032995
560.512680	0.032843
560.726117	0.033161
560.939536	0.033151
561.152937	0.032859
561.366319	0.032657
561.579683	0.032668
561.793029	0.032431
562.006357	0.032303
562.219667	0.032457
562.432958	0.032544
562.646231	0.032641
562.859486	0.032369
563.072723	0.032286
563.285941	0.032410
563.499141	0.032187
563.712323	0.032234
563.925487	0.032341
564.138632	0.032057
564.351760	0.032414
564.564869	0.032437
564.777960	0.032561
564.991032	0.032915
565.204087	0.032822
565.417123	0.033276
565.630141	0.033503
565.843140	0.033516
566.056122	0.033763
566.269085	0.033408
566.482030	0.033241
566.694957	0.033190
566.907866	0.033247
567.120756	0.033271
567.333628	0.032889
567.546482	0.033005
567.759318	0.033437
567.972135	0.033519
568.184935	0.033568
568.397716	0.033614
568.610478	0.033500
568.823223	0.033318
569.035949	0.033336
569.248657	0.033720
569.461347	0.033565
569.674019	0.033447
569.886672	0.033689
570.099308	0.033611
570.311925	0.033457
570.524523	0.033603
570.737104	0.033571
570.949666	0.033592
571.162210	0.033587
571.374736	0.033449
571.587244	0.033259
571.799733	0.032981
572.012205	0.033116
572.224658	0.033402
572.437092	0.033216
572.649509	0.033035
572.861907	0.032922
573.074287	0.032813
573.286649	0.032678
573.498993	0.032720
573.711318	0.032984
573.923625	0.032895
574.135914	0.032742
574.348185	0.032966
574.560438	0.033008
574.772672	0.033069
574.984888	0.033027
575.197086	0.033027
575.409266	0.033340
575.621427	0.033343
575.833570	0.033534
576.045695	0.033818
576.257802	0.033986
576.469890	0.034334
576.681961	0.034348
576.894013	0.034487
577.106046	0.035028
577.318062	0.034912
577.530059	0.034784
577.742039	0.034854
577.954000	0.034645
578.165942	0.034475
578.377867	0.034372
578.589773	0.034803
578.801661	0.034560
579.013531	0.034331
579.225382	0.034089
579.437216	0.033947
579.649031	0.033685
579.860828	0.033708
580.072606	0.033564
580.284367	0.033915
580.496109	0.033596
580.707833	0.033715
580.919539	0.033930
581.131227	0.033813
581.342896	0.033869
581.554547	0.034023
581.766180	0.034050
581.977795	0.034151
582.189391	0.033838
582.400969	0.034015
582.612529	0.034193
582.824071	0.033977
583.035595	0.034448
583.247100	0.034587
583.458587	0.034463
583.670056	0.034293
583.881506	0.034444
584.092939	0.034500
584.304353	0.034716
584.515749	0.034512
584.727127	0.034613
584.938486	0.034516
585.149828	0.034715
585.361151	0.034814
585.572456	0.035308
585.783742	0.035119
585.995011	0.035004
586.206261	0.034654
586.417493	0.034827
586.628706	0.034721
586.839902	0.034727
587.051079	0.034302
587.262238	0.034016
587.473379	0.033589
587.684502	0.033806
587.895606	0.034026
588.106692	0.033883
588.317760	0.033925
588.528810	0.033797
588.739841	0.033748
588.950855	0.033776
589.161850	0.033799
589.372827	0.033893
589.583785	0.033715
589.794726	0.033867
590.005648	0.034174
590.216552	0.034354
590.427437	0.034661
590.638305	0.034895
590.849154	0.035201
591.059985	0.035761
591.270798	0.035841
591.481592	0.036251
591.692369	0.036297
591.903127	0.036325
592.113867	0.036397
592.324588	0.036440
592.535292	0.036561
592.745977	0.036685
592.956644	0.036669
593.167293	0.036855
593.377923	0.036743
593.588536	0.036274
593.799130	0.036420
594.009706	0.036179
594.220263	0.035949
594.430803	0.035795
594.641324	0.035442
594.851827	0.035329
595.062312	0.035287
595.272778	0.035217
595.483227	0.035663
595.693657	0.035415
595.904069	0.035645
596.114462	0.035836
596.324838	0.035948
596.535195	0.036303
596.745534	0.036430
596.955855	0.036585
597.166157	0.036689
597.376441	0.036774
597.586707	0.036639
597.796955	0.036749
598.007185	0.036906
598.217396	0.036877
598.427589	0.036869
598.637764	0.036883
598.847921	0.036834
599.058060	0.037067
599.268180	0.036983
599.478282	0.037601
599.688366	0.037240
599.898431	0.037139
600.108479	0.037316
600.318508	0.037558
600.528519	0.037249
600.738511	0.037246
600.948486	0.037252
601.158442	0.037502
601.368380	0.037688
601.578300	0.037961
601.788202	0.038272
601.998085	0.038016
602.207950	0.037974
602.417797	0.038450
602.627626	0.038776
602.837436	0.038823
603.047228	0.038523
603.257002	0.038229
603.466758	0.038184
603.676496	0.037914
603.886215	0.038314
604.095916	0.038270
604.305599	0.038390
604.515264	0.038160
604.724910	0.038127
604.934538	0.038522
605.144148	0.038436
605.353740	0.038635
605.563314	0.038892
605.772869	0.039208
605.982406	0.038983
606.191925	0.039157
606.401425	0.039416
606.610908	0.039297
606.820372	0.039239
607.029818	0.039488
607.239246	0.039596
607.448655	0.039529
607.658047	0.039233
607.867420	0.039552
608.076775	0.039366
608.286111	0.039492
608.495430	0.039728
608.704730	0.039786
608.914012	0.039571
609.123275	0.039553
609.332521	0.039591
609.541748	0.039491
609.750957	0.039631
609.960148	0.039725
610.169321	0.039473
610.378475	0.039575
610.587611	0.039666
610.796729	0.040045
611.005829	0.040032
611.214910	0.039994
611.423974	0.040336
611.633019	0.040398
611.842045	0.040558
612.051054	0.040962
612.260044	0.040938
612.469017	0.040808
612.677970	0.041008
612.886906	0.041332
613.095824	0.041738
613.304723	0.041833
613.513604	0.042006
613.722467	0.042206
613.931311	0.041912
614.140138	0.041881
614.348946	0.042064
614.557736	0.041864
614.766507	0.041759
614.975261	0.041370
615.183996	0.041082
615.392713	0.040845
615.601412	0.040553
615.810092	0.040545
616.018754	0.040699
616.227399	0.040568
616.436024	0.040622
616.644632	0.040646
616.853222	0.040922
617.061793	0.040884
617.270346	0.040906
617.478880	0.040935
617.687397	0.041114
617.895895	0.040982
618.104375	0.041043
618.312837	0.041186
618.521281	0.041166
618.729706	0.041399
618.938113	0.041559
619.146502	0.041796
619.354873	0.041795
619.563226	0.041968
619.771560	0.042168
619.979876	0.042617
620.188174	0.042750
620.396453	0.043033
620.604715	0.043069
620.812958	0.043334
621.021183	0.043534
621.229390	0.043869
621.437578	0.044061
621.645748	0.044337
621.853900	0.044121
622.062034	0.044322
622.270150	0.044444
622.478247	0.044526
622.686326	0.044553
622.894387	0.044532
623.102430	0.044682
623.310454	0.044697
623.518461	0.044577
623.726449	0.044837
623.934418	0.044715
624.142370	0.044804
624.350303	0.044941
624.558218	0.045076
624.766115	0.045274
624.973994	0.045096
625.181855	0.044924
625.389697	0.045063
625.597521	0.045307
625.805327	0.045262
626.013114	0.045323
626.220883	0.045296
626.428634	0.045309
626.636367	0.045307
626.844082	0.045271
627.051778	0.045479
627.259457	0.045293
627.467117	0.045117
627.674758	0.045112
627.882382	0.044977
628.089987	0.045200
628.297574	0.045131
628.505143	0.044982
628.712694	0.045171
628.920226	0.045104
629.127740	0.045303
629.335236	0.045309
629.542714	0.045560
629.750174	0.045645
629.957615	0.045447
630.165038	0.045669
630.372443	0.045762
630.579829	0.046027
630.787198	0.046365
630.994548	0.046574
631.201880	0.046718
631.409194	0.046722
631.616489	0.046921
631.823766	0.047061
632.031025	0.046882
632.238266	0.047124
632.445489	0.047097
632.652693	0.047154
632.859879	0.047104
633.067047	0.047130
633.274197	0.047224
633.481329	0.047199
633.688442	0.047175
633.895537	0.047379
634.102614	0.047429
634.309672	0.047184
634.516713	0.046990
634.723735	0.046981
634.930739	0.046994
635.137724	0.047080
635.344692	0.047013
635.551641	0.047181
635.758572	0.047308
635.965485	0.047247
636.172379	0.047555
636.379256	0.047771
636.586114	0.047893
636.792954	0.047951
636.999775	0.047842
637.206579	0.047745
637.413364	0.047539
637.620131	0.047261
637.826880	0.047246
638.033610	0.047088
638.240323	0.046885
638.447017	0.046680
638.653692	0.046543
638.860350	0.046502
639.066990	0.046916
639.273611	0.047209
639.480214	0.047526
639.686798	0.047518
639.893365	0.047524
640.099913	0.047908
640.306443	0.048086
640.512955	0.048229
640.719449	0.048388
640.925924	0.048163
641.132381	0.048237
641.338820	0.048279
641.545241	0.048549
641.751644	0.048942
641.958028	0.048803
642.164394	0.049245
642.370742	0.049337
642.577071	0.049361
642.783383	0.049460
642.989676	0.049287
643.195951	0.049262
643.402207	0.049205
643.608446	0.049144
643.814666	0.049279
644.020868	0.049161
644.227052	0.049218
644.433218	0.049564
644.639365	0.049662
644.845494	0.049900
645.051605	0.050113
645.257698	0.050280
645.463772	0.050407
645.669828	0.050693
645.875866	0.050894
646.081886	0.051115
646.287888	0.050937
646.493871	0.050819
646.699836	0.050965
646.905783	0.050948
647.111712	0.050976
647.317622	0.051220
647.523514	0.050949
647.729388	0.050727
647.935244	0.050721
648.141082	0.050915
648.346901	0.051273
648.552702	0.051255
648.758485	0.051217
648.964250	0.051248
649.169996	0.051069
649.375724	0.051189
649.581434	0.051438
649.787126	0.051607
649.992800	0.051725
650.198455	0.051845
650.404092	0.052144
650.609711	0.052274
650.815311	0.052419
651.020894	0.052562
651.226458	0.052786
651.432004	0.052659
651.637532	0.052463
651.843041	0.052559
652.048532	0.052616
652.254006	0.052722
652.459460	0.052777
652.664897	0.052783
652.870315	0.052747
653.075716	0.052676
653.281097	0.052731
653.486461	0.053072
653.691807	0.052987
653.897134	0.053184
654.102443	0.052973
654.307734	0.053192
654.513006	0.053200
654.718261	0.053257
654.923497	0.053356
655.128715	0.053705
655.333915	0.053740
655.539096	0.053783
655.744259	0.053492
655.949404	0.053490
656.154531	0.053391
656.359640	0.053556
656.564730	0.053696
656.769802	0.053689
656.974856	0.053604
657.179892	0.053427
657.384909	0.053430
657.589908	0.053607
657.794889	0.053646
657.999852	0.053827
658.204797	0.053816
658.409723	0.053540
658.614631	0.053711
658.819521	0.053559
659.024393	0.053623
659.229246	0.053588
659.434081	0.053512
659.638898	0.053483
659.843697	0.053210
660.048478	0.053167
660.253240	0.053510
660.457984	0.053273
660.662710	0.053296
660.867417	0.053397
661.072107	0.053440
661.276778	0.053605
661.481431	0.053637
661.686066	0.053705
661.890682	0.053703
662.095281	0.053484
662.299861	0.053661
662.504422	0.053891
662.708966	0.053935
662.913491	0.053894
663.117999	0.053839
663.322488	0.053794
663.526958	0.053822
663.731411	0.053840
663.935845	0.054082
664.140261	0.054277
664.344659	0.054313
664.549038	0.054481
664.753400	0.054657
664.957743	0.054820
665.162068	0.055239
665.366375	0.055481
665.570663	0.055867
665.774933	0.056113
665.979185	0.056037
666.183419	0.056204
666.387635	0.056218
666.591832	0.056644
666.796011	0.056728
667.000172	0.056723
667.204315	0.056755
667.408439	0.056613
667.612545	0.056542
667.816634	0.056756
668.020703	0.056772
668.224755	0.056955
668.428788	0.056630
668.632803	0.056656
668.836800	0.056819
669.040779	0.057093
669.244739	0.057172
669.448681	0.057326
669.652605	0.057337
669.856511	0.057424
670.060399	0.057342
670.264268	0.057747
670.468119	0.057675
670.671952	0.057517
670.875767	0.057482
671.079563	0.057736
671.283341	0.057633
671.487101	0.057745
671.690843	0.057750
671.894567	0.057934
672.098272	0.057834
672.301959	0.057947
672.505628	0.058020
672.709278	0.058025
672.912911	0.058298
673.116525	0.058673
673.320121	0.058894
673.523699	0.059203
673.727258	0.059303
673.930799	0.059345
674.134322	0.059681
674.337827	0.059875
674.541314	0.060087
674.744782	0.059803
674.948232	0.059749
675.151664	0.059517
675.355078	0.059458
675.558474	0.059432
675.761851	0.059468
675.965210	0.059490
676.168551	0.059700
676.371873	0.059684
676.575178	0.059907
676.778464	0.059800
676.981732	0.059867
677.184981	0.060033
677.388213	0.060090
677.591426	0.060236
677.794621	0.060254
677.997798	0.060107
678.200956	0.060162
678.404097	0.060093
678.607219	0.060381
678.810323	0.060548
679.013408	0.060540
679.216476	0.060735
679.419525	0.060937
679.622556	0.060986
679.825569	0.061134
680.028563	0.061381
680.231540	0.061346
680.434498	0.061357
680.637438	0.061570
680.840359	0.061545
681.043263	0.061591
681.246148	0.061704
681.449015	0.061790
681.651864	0.062081
681.854694	0.062145
682.057506	0.062480
682.260301	0.062640
682.463076	0.062791
682.665834	0.063068
682.868573	0.063345
683.071295	0.063361
683.273998	0.063524
683.476682	0.063437
683.679349	0.063552
683.881997	0.063728
684.084627	0.063790
684.287239	0.063644
684.489833	0.063642
684.692408	0.063410
684.894965	0.063330
685.097504	0.063330
685.300025	0.063279
685.502527	0.063217
685.705012	0.063061
685.907478	0.062995
686.109925	0.063173
686.312355	0.063079
686.514766	0.063253
686.717159	0.063415
686.919534	0.063500
687.121891	0.063559
687.324230	0.063568
687.526550	0.063721
687.728852	0.063863
687.931136	0.063888
688.133401	0.064092
688.335649	0.064101
688.537878	0.064312
688.740089	0.064400
688.942281	0.064483
689.144456	0.064604
689.346612	0.064805
689.548750	0.064792
689.750870	0.064885
689.952971	0.064811
690.155055	0.065037
690.357120	0.064821
690.559167	0.064772
690.761195	0.064937
690.963206	0.065012
691.165198	0.065016
691.367172	0.065093
691.569128	0.064992
691.771065	0.065039
691.972984	0.064710
692.174885	0.064963
692.376768	0.065095
692.578633	0.065153
692.780479	0.065017
692.982308	0.064941
693.184118	0.064880
693.385909	0.065052
693.587683	0.065127
693.789438	0.065460
693.991175	0.065338
694.192894	0.065350
694.394595	0.065252
694.596277	0.065361
694.797941	0.065349
694.999587	0.065689
695.201215	0.065856
695.402824	0.065859
695.604416	0.065924
695.805989	0.065939
696.007543	0.065967
696.209080	0.066101
696.410598	0.066337
696.612099	0.066553
696.813580	0.066444
697.015044	0.066501
697.216490	0.066617
697.417917	0.066578
697.619326	0.066737
697.820717	0.066739
698.022089	0.066523
698.223444	0.066465
698.424780	0.066505
698.626098	0.066519
698.827397	0.066385
699.028679	0.066639
699.229942	0.066603
699.431187	0.066686
699.632414	0.066757
699.833622	0.067058
700.034813	0.067332
700.235985	0.067263
700.437139	0.067210
700.638274	0.067274
700.839392	0.067322
701.040491	0.067518
701.241572	0.067514
701.442635	0.067719
701.643679	0.067796
701.844706	0.067548
702.045714	0.067559
702.246704	0.067623
702.447675	0.067658
702.648629	0.067489
702.849564	0.067491
703.050481	0.067524
703.251380	0.067515
703.452260	0.067615
703.653122	0.067828
703.853966	0.067860
704.054792	0.067949
704.255600	0.067909
704.456389	0.067939
704.657160	0.067947
704.857913	0.067818
705.058648	0.067700
705.259365	0.067537
705.460063	0.067290
705.660743	0.067236
705.861405	0.067220
706.062048	0.067267
706.262674	0.067361
706.463281	0.067121
706.663870	0.067146
706.864441	0.067154
707.064993	0.067065
707.265527	0.067146
707.466043	0.067210
707.666541	0.067213
707.867021	0.067247
708.067482	0.067204
708.267925	0.067271
708.468350	0.067202
708.668757	0.067122
708.869145	0.067166
709.069516	0.067095
709.269868	0.067001
709.470201	0.066970
709.670517	0.066933
709.870814	0.066873
710.071093	0.066924
710.271354	0.067129
710.471597	0.067062
710.671821	0.067105
710.872028	0.067078
711.072216	0.067110
711.272385	0.067026
711.472537	0.066973
711.672670	0.066924
711.872785	0.066949
712.072882	0.066681
712.272961	0.066787
712.473021	0.066839
712.673063	0.066736
712.873087	0.066442
713.073093	0.066519
713.273081	0.066485
713.473050	0.066287
713.673001	0.066355
713.872934	0.066572
714.072849	0.066414
714.272745	0.066367
714.472623	0.066632
714.672483	0.066903
714.872325	0.066878
715.072148	0.067017
715.271954	0.067243
715.471741	0.067207
715.671509	0.067185
715.871260	0.067263
716.070992	0.067369
716.270707	0.067508
716.470403	0.067405
716.670080	0.067330
716.869740	0.067241
717.069381	0.067114
717.269004	0.067134
717.468609	0.067136
717.668195	0.067303
717.867764	0.067350
718.067314	0.067089
718.266846	0.067143
718.466360	0.067241
718.665855	0.067186
718.865332	0.067211
719.064791	0.067008
719.264232	0.066917
719.463655	0.066878
719.663059	0.066615
719.862445	0.066466
720.061813	0.066299
720.261163	0.066245
720.460494	0.066167
720.659807	0.066083
720.859102	0.066006
721.058379	0.065812
721.257638	0.065442
721.456878	0.065199
721.656100	0.065163
721.855304	0.065203
722.054490	0.065015
722.253657	0.064948
722.452806	0.064789
722.651937	0.064730
722.851050	0.064696
723.050145	0.064500
723.249221	0.064613
723.448279	0.064454
723.647319	0.064357
723.846340	0.064191
724.045344	0.064143
724.244329	0.064034
724.443296	0.063932
724.642245	0.063964
724.841175	0.064117
725.040088	0.063973
725.238982	0.063912
725.437857	0.063898
725.636715	0.063998
725.835554	0.063802
726.034376	0.063886
726.233179	0.063789
726.431963	0.063516
726.630730	0.063538
726.829478	0.063651
727.028208	0.063703
727.226920	0.063605
727.425614	0.063368
727.624289	0.063424
727.822946	0.063445
728.021585	0.063640
728.220206	0.063962
728.418808	0.063713
728.617392	0.063608
728.815958	0.063550
729.014506	0.063547
729.213036	0.063630
729.411547	0.063509
729.610040	0.063314
729.808515	0.063273
730.006972	0.063076
730.205410	0.063014
730.403831	0.062930
730.602233	0.062979
730.800616	0.062916
730.998982	0.063004
731.197329	0.062995
731.395658	0.062917
731.593969	0.062903
731.792262	0.062722
731.990536	0.062957
732.188793	0.062967
732.387031	0.062767
732.585250	0.062812
732.783452	0.062698
732.981635	0.062711
733.179800	0.062831
733.377947	0.062450
733.576076	0.062403
733.774186	0.062099
733.972278	0.061874
734.170352	0.061753
734.368408	0.061587
734.566446	0.061487
734.764465	0.061202
734.962466	0.060968
735.160449	0.060891
735.358413	0.060806
735.556360	0.060791
735.754288	0.060760
735.952198	0.060852
736.150090	0.060769
736.347963	0.060670
736.545818	0.060745
736.743655	0.060681
736.941474	0.060820
737.139275	0.060920
737.337057	0.060903
737.534821	0.061077
737.732567	0.061020
737.930295	0.061047
738.128005	0.061213
738.325696	0.061089
738.523369	0.061337
738.721024	0.061192
738.918660	0.061179
739.116279	0.061148
739.313879	0.061060
739.511461	0.061133
739.709024	0.061005
739.906570	0.060636
740.104097	0.060738
740.301606	0.060466
740.499097	0.060700
740.696569	0.060727
740.894024	0.060770
741.091460	0.060502
741.288878	0.060391
741.486277	0.060345
741.683659	0.060347
741.881022	0.060317
742.078367	0.060415
742.275694	0.060151
742.473002	0.059916
742.670293	0.059887
742.867565	0.059964
743.064819	0.059854
743.262054	0.059855
743.459272	0.059956
743.656471	0.059845
743.853652	0.059699
744.050815	0.059827
744.247959	0.059923
744.445085	0.059958
744.642194	0.059983
744.839283	0.060143
745.036355	0.060448
745.233408	0.060424
745.430444	0.060396
745.627461	0.060433
745.824459	0.060363
746.021440	0.060362
746.218402	0.060207
746.415346	0.060149
746.612272	0.060019
746.809180	0.059854
747.006069	0.059788
747.202940	0.059960
747.399793	0.060109
747.596628	0.060135
747.793444	0.060037
747.990243	0.060160
748.187023	0.060076
748.383784	0.060051
748.580528	0.059915
748.777253	0.060168
748.973960	0.060193
749.170649	0.059929
749.367320	0.059891
749.563973	0.059998
749.760607	0.060015
749.957223	0.060199
750.153821	0.060208
750.350400	0.060184
750.546962	0.059991
750.743505	0.059801
750.940030	0.059922
751.136536	0.059941
751.333025	0.059958
751.529495	0.060004
751.725947	0.059927
751.922381	0.059951
752.118796	0.059913
752.315194	0.059809
752.511573	0.059844
752.707934	0.059725
752.904276	0.059725
753.100601	0.059531
753.296907	0.059247
753.493195	0.059369
753.689465	0.059263
753.885716	0.059388
754.081949	0.059662
754.278164	0.059403
754.474361	0.059314
754.670540	0.059197
754.866700	0.059214
755.062843	0.059297
755.258967	0.058962
755.455072	0.058898
755.651160	0.058465
755.847229	0.057965
756.043280	0.057899
756.239313	0.057922
756.435328	0.057736
756.631324	0.057561
756.827302	0.057365
757.023262	0.057457
757.219204	0.057323
757.415127	0.057466
757.611033	0.057562
757.806920	0.057519
758.002788	0.057356
758.198639	0.057375
758.394471	0.057263
758.590286	0.057201
758.786081	0.056834
758.981859	0.056838
759.177619	0.056698
759.373360	0.056632
759.569083	0.056614
759.764788	0.056590
759.960474	0.056460
760.156143	0.056454
760.351793	0.056340
760.547425	0.056328
760.743038	0.056066
760.938634	0.056097
761.134211	0.055850
761.329770	0.055891
761.525311	0.055858
761.720833	0.055956
761.916338	0.055997
762.111824	0.056105
762.307292	0.056127
762.502741	0.056453
762.698173	0.056383
762.893586	0.056568
763.088981	0.056652
763.284358	0.056615
763.479716	0.056480
763.675057	0.056275
763.870379	0.056385
764.065683	0.056487
764.260968	0.056292
764.456236	0.056412
764.651485	0.056260
764.846716	0.056088
765.041929	0.056173
765.237123	0.056195
765.432299	0.056261
765.627457	0.056134
765.822597	0.055959
766.017719	0.055930
766.212822	0.055837
766.407907	0.055943
766.602974	0.055848
766.798023	0.055565
766.993054	0.055568
767.188066	0.055370
767.383060	0.055166
767.578036	0.055172
767.772993	0.055245
767.967933	0.055211
768.162854	0.055026
768.357757	0.055089
768.552642	0.055248
768.747508	0.054989
768.942356	0.055202
769.137186	0.055252
769.331998	0.055331
769.526792	0.055239
769.721567	0.055136
769.916324	0.055307
770.111063	0.055351
770.305784	0.055578
770.500486	0.055703
770.695171	0.055613
770.889837	0.055508
771.084484	0.055460
771.279114	0.055461
771.473725	0.055691
771.668318	0.055710
771.862893	0.055543
772.057450	0.055175
772.251988	0.055134
772.446509	0.055171
772.641011	0.055363
772.835494	0.055238
773.029960	0.054963
773.224407	0.054609
773.418836	0.054380
773.613247	0.054588
773.807640	0.054737
774.002014	0.054479
774.196370	0.054449
774.390708	0.054398
774.585028	0.054379
774.779330	0.054410
774.973613	0.054123
775.167878	0.054232
775.362125	0.054059
775.556354	0.053701
775.750564	0.053781
775.944756	0.053704
776.138930	0.053548
776.333086	0.053600
776.527223	0.053547
776.721343	0.053843
776.915444	0.053659
777.109526	0.053654
777.303591	0.053707
777.497637	0.053773
777.691666	0.053677
777.885676	0.053669
778.079667	0.053561
778.273641	0.053713
778.467596	0.053589
778.661533	0.053653
778.855452	0.053736
779.049352	0.053905
779.243235	0.053867
779.437099	0.054020
779.630945	0.053795
779.824773	0.054111
780.018582	0.054241
780.212373	0.054457
780.406146	0.054772
780.599901	0.054847
780.793638	0.054842
780.987356	0.055165
781.181056	0.055181
781.374738	0.055467
781.568402	0.055293
781.762047	0.055211
781.955674	0.055024
782.149283	0.054853
782.342874	0.054723
782.536447	0.054667
782.730001	0.054421
782.923537	0.054342
783.117055	0.054272
783.310555	0.054174
783.504036	0.054072
783.697499	0.054063
783.890944	0.054164
784.084371	0.054147
784.277780	0.054119
784.471170	0.054074
784.664542	0.054179
784.857896	0.054331
785.051231	0.054546
785.244549	0.054360
785.437848	0.054304
785.631129	0.053925
785.824392	0.053810
786.017636	0.053842
786.210863	0.053664
786.404071	0.053377
786.597260	0.053192
786.790432	0.052895
786.983585	0.052973
787.176721	0.052999
787.369838	0.053217
787.562936	0.053374
787.756017	0.053415
787.949079	0.053689
788.142123	0.053943
788.335149	0.054150
788.528156	0.054585
788.721146	0.054753
788.914117	0.055173
789.107070	0.055374
789.300005	0.055411
789.492921	0.055617
789.685819	0.055736
789.878699	0.055781
790.071561	0.055856
790.264405	0.055636
790.457230	0.055899
790.650037	0.055765
790.842826	0.055588
791.035597	0.055796
791.228349	0.055710
791.421084	0.055656
791.613800	0.055765
791.806497	0.055624
791.999177	0.055859
792.191838	0.055773
792.384481	0.055794
792.577106	0.055778
792.769713	0.055531
792.962301	0.055526
793.154871	0.055773
793.347423	0.055703
793.539957	0.055989
793.732473	0.055937
793.924970	0.056056
794.117449	0.056291
794.309910	0.056597
794.502353	0.056970
794.694777	0.057269
794.887183	0.057287
795.079571	0.057584
795.271941	0.057546
795.464293	0.057807
795.656626	0.057861
795.848941	0.057916
796.041238	0.058135
796.233516	0.058361
796.425777	0.058600
796.618019	0.058688
796.810243	0.058785
797.002449	0.058843
797.194636	0.058664
797.386805	0.058743
797.578956	0.058843
797.771089	0.058660
797.963204	0.058526
798.155300	0.058370
798.347378	0.058489
798.539438	0.058423
798.731480	0.058518
798.923503	0.058568
799.115509	0.058472
799.307496	0.058355
799.499465	0.058396
799.691415	0.058412
799.883348	0.058363
800.075262	0.058270
800.267158	0.058079
800.459035	0.058220
800.650895	0.058345
800.842736	0.058504
801.034559	0.058631
801.226364	0.058578
801.418150	0.058534
801.609919	0.058353
801.801669	0.058425
801.993401	0.058732
802.185114	0.058737
802.376810	0.058705
802.568487	0.058943
802.760146	0.059002
802.951787	0.059203
803.143409	0.059329
803.335014	0.059739
803.526600	0.059687
803.718168	0.059825
803.909717	0.059966
804.101249	0.060193
804.292762	0.059961
804.484257	0.059995
804.675734	0.059961
804.867192	0.060058
805.058632	0.060189
805.250054	0.060454
805.441458	0.060437
805.632844	0.060584
805.824211	0.060595
806.015561	0.060923
806.206891	0.060878
806.398204	0.061061
806.589499	0.061055
806.780775	0.060919
806.972033	0.060837
807.163273	0.060984
807.354495	0.060782
807.545698	0.060700
807.736883	0.060746
807.928050	0.060935
808.119199	0.060903
808.310329	0.061047
808.501441	0.061311
808.692535	0.061439
808.883611	0.061465
809.074669	0.061524
809.265708	0.061827
809.456729	0.061850
809.647732	0.062144
809.838717	0.062288
810.029683	0.062379
810.220632	0.062464
810.411562	0.062531
810.602474	0.062659
810.793367	0.062943
810.984242	0.063008
811.175100	0.063265
811.365938	0.063225
811.556759	0.063400
811.747562	0.063510
811.938346	0.063550
812.129112	0.063674
812.319860	0.063827
812.510589	0.063864
812.701300	0.063869
812.891994	0.063712
813.082668	0.063647
813.273325	0.063790
813.463964	0.063896
813.654584	0.064067
813.845186	0.064379
814.035769	0.064193
814.226335	0.064128
814.416882	0.064281
814.607411	0.064423
814.797922	0.064652
814.988415	0.064569
815.178889	0.064449
815.369345	0.064275
815.559783	0.064048
815.750203	0.064187
815.940605	0.064203
816.130988	0.064338
816.321353	0.064321
816.511700	0.064063
816.702028	0.064180
816.892339	0.064331
817.082631	0.064376
817.272905	0.064504
817.463161	0.064499
817.653398	0.064507
817.843617	0.064268
818.033819	0.064363
818.224001	0.064565
818.414166	0.064627
818.604312	0.064823
818.794440	0.064919
818.984550	0.064921
819.174642	0.065099
819.364716	0.065320
819.554771	0.065572
819.744808	0.065736
819.934827	0.065874
820.124827	0.065863
820.314810	0.065923
820.504774	0.066287
820.694720	0.066578
820.884647	0.066887
821.074557	0.067054
821.264448	0.067168
821.454321	0.067381
821.644176	0.067542
821.834012	0.067826
822.023831	0.068060
822.213631	0.068296
822.403413	0.068615
822.593176	0.068583
822.782922	0.068823
822.972649	0.068847
823.162358	0.068867
823.352049	0.069191
823.541721	0.069302
823.731376	0.069289
823.921012	0.069113
824.110629	0.069085
824.300229	0.068875
824.489811	0.068947
824.679374	0.069267
824.868919	0.069239
825.058445	0.069138
825.247954	0.069275
825.437444	0.069479
825.626916	0.069515
825.816370	0.069483
826.005806	0.069915
826.195223	0.070153
826.384622	0.070255
826.574003	0.070412
826.763366	0.070473
826.952711	0.070423
827.142037	0.070194
827.331345	0.070300
827.520635	0.070237
827.709906	0.070048
827.899160	0.069882
828.088395	0.069821
828.277612	0.069868
828.466810	0.069939
828.655991	0.070095
828.845153	0.070335
829.034297	0.070465
829.223423	0.070595
829.412531	0.070859
829.601620	0.070834
829.790691	0.071165
829.979744	0.071361
830.168779	0.071557
830.357795	0.071673
830.546793	0.071557
830.735773	0.071584
830.924735	0.071617
831.113679	0.071852
831.302604	0.072224
831.491511	0.072150
831.680400	0.072158
831.869271	0.072282
832.058123	0.072338
832.246957	0.072655
832.435773	0.072899
832.624571	0.072921
832.813351	0.073042
833.002112	0.072974
833.190855	0.073202
833.379580	0.073392
833.568287	0.073484
833.756975	0.073809
833.945645	0.073841
834.134297	0.074116
834.322931	0.074502
834.511547	0.074624
834.700144	0.074734
834.888723	0.074782
835.077284	0.074775
835.265826	0.075012
835.454351	0.074900
835.642857	0.075041
835.831345	0.074924
836.019815	0.075007
836.208266	0.075153
836.396699	0.075358
836.585114	0.075651
836.773511	0.076057
836.961890	0.076206
837.150250	0.076580
837.338592	0.077111
837.526916	0.077619
837.715222	0.078086
837.903510	0.078214
838.091779	0.078538
838.280030	0.078914
838.468263	0.079102
838.656477	0.079461
838.844674	0.079582
839.032852	0.079743
839.221012	0.079789
839.409153	0.079805
839.597277	0.080052
839.785382	0.080316
839.973469	0.080451
840.161538	0.080479
840.349589	0.080703
840.537621	0.081015
840.725635	0.080981
840.913631	0.081127
841.101609	0.081398
841.289568	0.081730
841.477509	0.081823
841.665432	0.081908
841.853337	0.082384
842.041224	0.082363
842.229092	0.082732
842.416942	0.083076
842.604774	0.083409
842.792588	0.083367
842.980383	0.083228
843.168160	0.083490
843.355919	0.083516
843.543660	0.083557
843.731382	0.083890
843.919087	0.083593
844.106773	0.083720
844.294441	0.083658
844.482090	0.083967
844.669722	0.084125
844.857335	0.084151
845.044930	0.084312
845.232507	0.084640
845.420065	0.084599
845.607605	0.084780
845.795127	0.084983
845.982631	0.085322
846.170117	0.085435
846.357584	0.085788
846.545033	0.086110
846.732464	0.086338
846.919877	0.086514
847.107272	0.086952
847.294648	0.087302
847.482006	0.087334
847.669346	0.087499
847.856667	0.087792
848.043971	0.088184
848.231256	0.088078
848.418523	0.088263
848.605771	0.088604
848.793002	0.088539
848.980214	0.088427
849.167408	0.088441
849.354584	0.088406
849.541742	0.088368
849.728881	0.088368
849.916002	0.088743
850.103105	0.088633
850.290190	0.088413
850.477256	0.088314
850.664304	0.088477
850.851334	0.088476
851.038346	0.088461
851.225340	0.088796
851.412315	0.088789
851.599272	0.089041
851.786211	0.089246
851.973132	0.089181
852.160034	0.089399
852.346918	0.089718
852.533784	0.090220
852.720632	0.090390
852.907462	0.090051
853.094273	0.089891
853.281066	0.089788
853.467841	0.090068
853.654598	0.090226
853.841336	0.090457
854.028056	0.090377
854.214758	0.090382
854.401442	0.090606
854.588107	0.091013
854.774755	0.091448
854.961384	0.091545
855.147995	0.091787
855.334587	0.092227
855.521162	0.092460
855.707718	0.092764
855.894256	0.092956
856.080775	0.093225
856.267277	0.093345
856.453760	0.093492
856.640225	0.093557
856.826672	0.093364
857.013101	0.093096
857.199511	0.093203
857.385903	0.093257
857.572277	0.093476
857.758633	0.093413
857.944970	0.093692
858.131290	0.093949
858.317591	0.094184
858.503873	0.094674
858.690138	0.095114
858.876384	0.095333
859.062612	0.095799
859.248822	0.095942
859.435014	0.096386
859.621188	0.096509
859.807343	0.096750
859.993480	0.097076
860.179599	0.097186
860.365699	0.097411
860.551781	0.097394
860.737846	0.097431
860.923891	0.097813
861.109919	0.097844
861.295929	0.098135
861.481920	0.098208
861.667893	0.098299
861.853848	0.098475
862.039784	0.098635
862.225702	0.098908
862.411603	0.098835
862.597484	0.098667
862.783348	0.098784
862.969193	0.098707
863.155021	0.098750
863.340830	0.098958
863.526620	0.099143
863.712393	0.098792
863.898147	0.098688
864.083883	0.098861
864.269601	0.098953
864.455301	0.099113
864.640982	0.099341
864.826645	0.099405
865.012290	0.099433
865.197917	0.099380
865.383526	0.099696
865.569116	0.100023
865.754688	0.100083
865.940242	0.100192
866.125777	0.099989
866.311295	0.100061
866.496794	0.100057
866.682275	0.100013
866.867737	0.099921
867.053182	0.100005
867.238608	0.100025
867.424016	0.100040
867.609406	0.100015
867.794778	0.100346
867.980131	0.100641
868.165466	0.101013
868.350783	0.100998
868.536082	0.101457
868.721362	0.101639
868.906625	0.101610
869.091869	0.101883
869.277094	0.102198
869.462302	0.102210
869.647491	0.101915
869.832662	0.101752
870.017815	0.101852
870.202950	0.101673
870.388066	0.101527
870.573165	0.101690
870.758245	0.101716
870.943306	0.101544
871.128350	0.101850
871.313375	0.102266
871.498382	0.102420
871.683371	0.102804
871.868342	0.102889
872.053294	0.103282
872.238229	0.103441
872.423144	0.103757
872.608042	0.103941
872.792922	0.104031
872.977783	0.103823
873.162626	0.103895
873.347451	0.103766
873.532258	0.103868
873.717046	0.103854
873.901816	0.103694
874.086568	0.103555
874.271302	0.103353
874.456017	0.103029
874.640715	0.103199
874.825394	0.103221
875.010055	0.103610
875.194697	0.103804
875.379322	0.103956
875.563928	0.104108
875.748516	0.104231
875.933085	0.105002
876.117637	0.105374
876.302170	0.105387
876.486685	0.105483
876.671182	0.105230
876.855661	0.105229
877.040121	0.105241
877.224563	0.105095
877.408987	0.105651
877.593393	0.105406
877.777780	0.105437
877.962150	0.105781
878.146501	0.105727
878.330833	0.105766
878.515148	0.106004
878.699444	0.106284
878.883722	0.106674
879.067982	0.106393
879.252224	0.106330
879.436447	0.106559
879.620653	0.106735
879.804840	0.106938
879.989008	0.107117
880.173159	0.106722
880.357291	0.106364
880.541405	0.106280
880.725501	0.106077
880.909579	0.106109
881.093638	0.106159
881.277680	0.105981
881.461703	0.105916
881.645707	0.106106
881.829694	0.106272
882.013662	0.106579
882.197612	0.106654
882.381544	0.106888
882.565458	0.107313
882.749353	0.107037
882.933230	0.107026
883.117089	0.107276
883.300930	0.107039
883.484753	0.107179
883.668557	0.107434
883.852343	0.107377
884.036111	0.107362
884.219861	0.107309
884.403592	0.107406
884.587305	0.107370
884.771000	0.107135
884.954677	0.107199
885.138335	0.107475
885.321976	0.107207
885.505598	0.107667
885.689201	0.107614
885.872787	0.107462
886.056354	0.107531
886.239904	0.107481
886.423434	0.107758
886.606947	0.107676
886.790442	0.107524
886.973918	0.107581
887.157376	0.107472
887.340816	0.107681
887.524237	0.107756
887.707641	0.107912
887.891026	0.107972
888.074393	0.108093
888.257741	0.108023
888.441072	0.108324
888.624384	0.107931
888.807678	0.107587
888.990954	0.106962
889.174211	0.106554
889.357451	0.106465
889.540672	0.106471
889.723875	0.105828
889.907059	0.106175
890.090226	0.105652
890.273374	0.105740
890.456504	0.105933
890.639616	0.106443
890.822709	0.106908
891.005785	0.106973
891.188842	0.106776
891.371881	0.107381
891.554901	0.107095
891.737904	0.107125
891.920888	0.107240
892.103854	0.107057
892.286802	0.106995
892.469731	0.106746
892.652643	0.106741
892.835536	0.106619
893.018410	0.106390
893.201267	0.106568
893.384106	0.106362
893.566926	0.106399
893.749728	0.106783
893.932511	0.106757
894.115277	0.106542
894.298024	0.106338
894.480753	0.106577
894.663464	0.106533
894.846157	0.106146
895.028831	0.106069
895.211487	0.106003
895.394125	0.105317
895.576745	0.105097
895.759346	0.105017
895.941930	0.104738
896.124495	0.104367
896.307041	0.104190
896.489570	0.104628
896.672080	0.104640
896.854573	0.104888
897.037046	0.105005
897.219502	0.104925
897.401940	0.105038
897.584359	0.105028
897.766760	0.105286
897.949143	0.105462
898.131507	0.104898
898.313854	0.105114
898.496182	0.104539
898.678492	0.104435
898.860783	0.104143
899.043057	0.104056
899.225312	0.104242
899.407549	0.104250
899.589768	0.103986
899.771968	0.103942
899.954151	0.103913
900.136315	0.103592
900.318461	0.103455
900.500588	0.103249
900.682698	0.102861
900.864789	0.102206
901.046862	0.101723
901.228917	0.101591
901.410953	0.101494
901.592971	0.100829
901.774972	0.101440
901.956953	0.101293
902.138917	0.101570
902.320862	0.101646
902.502790	0.101670
902.684699	0.101951
902.866589	0.101695
903.048462	0.101295
903.230316	0.100941
903.412152	0.100143
903.593970	0.099769
903.775770	0.099450
903.957551	0.099296
904.139314	0.099081
904.321059	0.098005
904.502786	0.097593
904.684494	0.097843
904.866185	0.098044
905.047857	0.097705
905.229510	0.098127
905.411146	0.097644
905.592763	0.097461
905.774363	0.096896
905.955943	0.097455
906.137506	0.097704
906.319051	0.097490
906.500577	0.096910
906.682085	0.096779
906.863575	0.096306
907.045046	0.096018
907.226500	0.095711
907.407935	0.096076
907.589352	0.095705
907.770750	0.095090
907.952131	0.094855
908.133493	0.094988
908.314837	0.095304
908.496163	0.094818
908.677470	0.094793
908.858760	0.094625
909.040031	0.094348
909.221284	0.094116
909.402518	0.094158
909.583735	0.094291
909.764933	0.094368
909.946113	0.094299
910.127275	0.094281
910.308418	0.094539
910.489544	0.094430
910.670651	0.094402
910.851740	0.094296
911.032810	0.094079
911.213863	0.093248
911.394897	0.092752
911.575913	0.092191
911.756911	0.092185
911.937890	0.091866
912.118851	0.091508
912.299794	0.091347
912.480719	0.091078
912.661626	0.090811
912.842514	0.090677
913.023384	0.090507
913.204236	0.090077
913.385070	0.089528
913.565886	0.089088
913.746683	0.088873
913.927462	0.087949
914.108223	0.087379
914.288965	0.087551
914.469690	0.087466
914.650396	0.087329
914.831084	0.087313
915.011754	0.087438
915.192405	0.087049
915.373038	0.087051
915.553653	0.087174
915.734250	0.087220
915.914829	0.086179
916.095389	0.085859
916.275931	0.085490
916.456455	0.084842
916.636961	0.083868
916.817448	0.083777
916.997917	0.082945
917.178368	0.082708
917.358801	0.081662
917.539216	0.081357
917.719612	0.080919
917.899990	0.080548
918.080350	0.080135
918.260692	0.080383
918.441015	0.080097
918.621320	0.079867
918.801607	0.079277
918.981876	0.079635
919.162127	0.079359
919.342359	0.079165
919.522573	0.078802
919.702769	0.078935
919.882947	0.078513
920.063106	0.078406
920.243247	0.078264
920.423370	0.077972
920.603475	0.077777
920.783562	0.077500
920.963630	0.077076
921.143680	0.076888
921.323712	0.076436
921.503725	0.076097
921.683721	0.075736
921.863698	0.075496
922.043657	0.075612
922.223598	0.075072
922.403520	0.074579
922.583424	0.074881
922.763311	0.074405
922.943178	0.074108
923.123028	0.073764
923.302859	0.073393
923.482673	0.073162
923.662467	0.072938
923.842244	0.073256
924.022003	0.073619
924.201743	0.072484
924.381465	0.072473
924.561169	0.072268
924.740854	0.072222
924.920522	0.072131
925.100171	0.071908
925.279802	0.071493
925.459414	0.070446
925.639009	0.069695
925.818585	0.069805
925.998143	0.069095
926.177683	0.068370
926.357205	0.067436
926.536708	0.066934
926.716193	0.066020
926.895660	0.065579
927.075109	0.064841
927.254539	0.064535
927.433951	0.063874
927.613345	0.062900
927.792721	0.062710
927.972079	0.062355
928.151418	0.061289
928.330739	0.061035
928.510042	0.060423
928.689327	0.060342
928.868593	0.060164
929.047841	0.059023
929.227071	0.059470
929.406283	0.059285
929.585476	0.059379
929.764652	0.058838
929.943809	0.058134
930.122948	0.057343
930.302068	0.056618
930.481171	0.055944
930.660255	0.055884
930.839321	0.054760
931.018369	0.053963
931.197398	0.053130
931.376409	0.053308
931.555402	0.053435
931.734377	0.053478
931.913334	0.053109
932.092272	0.052522
932.271192	0.052169
932.450094	0.052041
932.628978	0.052100
932.807844	0.051906
932.986691	0.050850
933.165520	0.049940
933.344331	0.049050
933.523123	0.048849
933.701898	0.048602
933.880654	0.048084
934.059392	0.047288
934.238111	0.046298
934.416813	0.045053
934.595496	0.044938
934.774161	0.044009
934.952808	0.043271
935.131437	0.043133
935.310047	0.042528
935.488639	0.041949
935.667213	0.041884
935.845769	0.041700
936.024306	0.041121
936.202825	0.040749
936.381326	0.041062
936.559809	0.041344
936.738274	0.040837
936.916720	0.040500
937.095148	0.040398
937.273558	0.039909
937.451950	0.039163
937.630323	0.039050
937.808678	0.038828
937.987015	0.038049
938.165334	0.037039
938.343635	0.035933
938.521917	0.035256
938.700181	0.034903
938.878427	0.034619
939.056655	0.034032
939.234864	0.034141
939.413055	0.033905
939.591228	0.033461
939.769383	0.033530
939.947519	0.033549
940.125638	0.032828
940.303738	0.031874
940.481820	0.031408
940.659883	0.031063
940.837929	0.030136
941.015956	0.029438
941.193965	0.028537
941.371955	0.027531
941.549928	0.026986
941.727882	0.027632
941.905818	0.028016
942.083736	0.027591
942.261636	0.026228
942.439517	0.025789
942.617380	0.025587
942.795225	0.026824
942.973052	0.026406
943.150860	0.025560
943.328651	0.023840
943.506423	0.022720
943.684176	0.022327
943.861912	0.022817
944.039629	0.021400
944.217328	0.020246
944.395009	0.018032
944.572672	0.017692
944.750317	0.018591
944.927943	0.018566
945.105551	0.017873
945.283141	0.016028
945.460712	0.015745
945.638265	0.016487
945.815801	0.015740
945.993317	0.016211
946.170816	0.015585
946.348297	0.014027
946.525759	0.014439
946.703203	0.014789
946.880629	0.015875
947.058036	0.014923
947.235425	0.015078
947.412797	0.015304
947.590149	0.014244
947.767484	0.015422
947.944800	0.015073
948.122099	0.014249
948.299379	0.014146
948.476640	0.014409
948.653884	0.015315
948.831109	0.014445
949.008316	0.013363
949.185505	0.013451
949.362676	0.010996
949.539828	0.010245
949.716962	0.009798
949.894078	0.008456
950.071176	0.006666
950.248256	0.006090
950.425317	0.006348
950.602360	0.008532
950.779385	0.008749
950.956391	0.010389
951.133380	0.011645
951.310350	0.009387
951.487302	0.009560
951.664235	0.009564
951.841151	0.008860
952.018048	0.007873
952.194927	0.004916
952.371788	0.004061
952.548631	0.003494
952.725455	0.002039
952.902261	0.004612
953.079049	0.004977
953.255819	0.005445
953.432570	0.005427
953.609303	0.006178
953.786018	0.005930
953.962715	0.005820
954.139394	0.005261
954.316054	0.006205
954.492696	0.005820
954.669320	0.006282
954.845926	0.003787
955.022513	0.003778
955.199083	0.002991
955.375634	0.003062
955.552166	0.003902
955.728681	0.003424
955.905177	0.002022
956.081655	0.001957
956.258115	0.001737
956.434557	0.004327
956.610980	0.004645
956.787385	0.004593
956.963772	0.006039
957.140141	0.004235
957.316492	0.006121
957.492824	0.007547
957.669138	0.007274
957.845434	0.006967
958.021712	0.007272
958.197971	0.006482
958.374212	0.005677
958.550435	0.004011
958.726640	0.005541
958.902826	0.003798
959.078995	0.003876
959.255145	0.003973
959.431277	0.001353
959.607390	0.002088
959.783486	0.003702
959.959563	0.004425
960.135622	0.006914
960.311662	0.006777
960.487685	0.006865
960.663689	0.007527
960.839675	0.007044
961.015643	0.008868
961.191593	0.008751
961.367524	0.007473
961.543437	0.010156
961.719332	0.009204
961.895209	0.009934
962.071067	0.011130
962.246907	0.012014
962.422730	0.014138
962.598533	0.014593
962.774319	0.013708
962.950086	0.013658
963.125835	0.012203
963.301566	0.012145
963.477279	0.013994
963.652973	0.014343
963.828650	0.012175
964.004308	0.011052
964.179947	0.012497
964.355569	0.012534
964.531172	0.014030
964.706757	0.012720
964.882324	0.013476
965.057873	0.012553
965.233403	0.013014
965.408916	0.014943
965.584410	0.014815
965.759885	0.013997
965.935343	0.014925
966.110782	0.014438
966.286203	0.014469
966.461606	0.015052
966.636991	0.014647
966.812357	0.014177
966.987705	0.013019
967.163035	0.014609
967.338347	0.015148
967.513641	0.016692
967.688916	0.017284
967.864173	0.018636
968.039412	0.018274
968.214632	0.018786
968.389835	0.018803
968.565019	0.019071
968.740185	0.018700
968.915333	0.018578
969.090462	0.015966
969.265573	0.016334
969.440667	0.016751
969.615741	0.017587
969.790798	0.016559
969.965836	0.017912
970.140856	0.017014
970.315858	0.015796
970.490842	0.016257
970.665808	0.017103
970.840755	0.017967
971.015684	0.018378
971.190595	0.016936
971.365487	0.017557
971.540362	0.017595
971.715218	0.018549
971.890056	0.018826
972.064875	0.018079
972.239677	0.018171
972.414460	0.018937
972.589225	0.017438
972.763972	0.018719
972.938700	0.017373
973.113411	0.015410
973.288103	0.013884
973.462777	0.014104
973.637432	0.014434
973.812070	0.015402
973.986689	0.013343
974.161290	0.014693
974.335873	0.012801
974.510437	0.013883
974.684984	0.014946
974.859512	0.016954
975.034022	0.016169
975.208513	0.016632
975.382987	0.015672
975.557442	0.018588
975.731879	0.018141
975.906298	0.018847
976.080698	0.017026
976.255080	0.017016
976.429445	0.016180
976.603790	0.015370
976.778118	0.015319
976.952427	0.014239
977.126719	0.010021
977.300992	0.010632
977.475246	0.011379
977.649483	0.015683
977.823701	0.014053
977.997901	0.016591
978.172083	0.017526
978.346247	0.016814
978.520392	0.020330
978.694519	0.020933
978.868628	0.021507
979.042719	0.020527
979.216791	0.017727
979.390845	0.019684
979.564882	0.018167
979.738899	0.019063
979.912899	0.019575
980.086880	0.016954
980.260843	0.017993
980.434788	0.016741
980.608715	0.019359
980.782623	0.019166
980.956514	0.018666
981.130386	0.018822
981.304240	0.016887
981.478075	0.014286
981.651892	0.014681
981.825692	0.014312
981.999472	0.014812
982.173235	0.013652
982.346980	0.015846
982.520706	0.013595
982.694414	0.014190
982.868104	0.015518
983.041775	0.017561
983.215428	0.016816
983.389064	0.016482
983.562680	0.015634
983.736279	0.014037
983.909860	0.013071
984.083422	0.014558
984.256966	0.014129
984.430491	0.012668
984.603999	0.012318
984.777488	0.011640
984.950959	0.011708
985.124412	0.011095
985.297847	0.011967
985.471263	0.012795
985.644661	0.013024
985.818041	0.011886
985.991403	0.013151
986.164747	0.013149
986.338072	0.015176
986.511379	0.014902
986.684668	0.017280
986.857938	0.018009
987.031191	0.016471
987.204425	0.014675
987.377641	0.014148
987.550839	0.013281
987.724018	0.013758
987.897179	0.013601
988.070322	0.013137
988.243447	0.010151
988.416554	0.008786
988.589642	0.007395
988.762712	0.009175
988.935764	0.010162
989.108798	0.013104
989.281813	0.013143
989.454811	0.012787
989.627790	0.014054
989.800751	0.016415
989.973693	0.017148
990.146617	0.017701
990.319524	0.017753
990.492412	0.017680
990.665281	0.016504
990.838133	0.017269
991.010966	0.016554
991.183781	0.014926
991.356578	0.015099
991.529356	0.014050
991.702117	0.014625
991.874859	0.014553
992.047583	0.015944
992.220288	0.015883
992.392976	0.013827
992.565645	0.014064
992.738296	0.013539
992.910929	0.011636
993.083543	0.011797
993.256139	0.010868
993.428718	0.010055
993.601277	0.006991
993.773819	0.007914
993.946342	0.009578
994.118848	0.009013
994.291335	0.010264
994.463803	0.010567
994.636254	0.011806
994.808686	0.011584
994.981100	0.012198
995.153496	0.014474
995.325874	0.012808
995.498233	0.010505
995.670574	0.011688
995.842897	0.011899
996.015202	0.013013
996.187488	0.012739
996.359757	0.014138
996.532007	0.015512
996.704239	0.013654
996.876452	0.012965
997.048648	0.015656
997.220825	0.014796
997.392984	0.015457
997.565124	0.014023
997.737247	0.014170
997.909351	0.013539
998.081437	0.012012
998.253505	0.012634
998.425554	0.013918
998.597586	0.013152
998.769599	0.013468
998.941594	0.013279
999.113571	0.014069
999.285529	0.012099
999.457469	0.011606
999.629391	0.011606
999.801295	0.011844
999.973181	0.010083
1000.145048	0.008235
1000.316897	0.008075
1000.488728	0.006588
1000.660541	0.005932
1000.832335	0.007713
1001.004111	0.008990
1001.175869	0.010956
1001.347609	0.008984
1001.519331	0.010752
1001.691034	0.011228
1001.862719	0.009623
1002.034386	0.009311
1002.206035	0.009240
1002.377665	0.007764
1002.549277	0.005573
1002.720871	0.002998
1002.892447	0.004505
1003.064004	0.004865
1003.235544	0.007249
1003.407065	0.007857
1003.578568	0.009612
1003.750052	0.009078
1003.921519	0.010181
1004.092967	0.011011
1004.264397	0.011606
1004.435809	0.011524
1004.607202	0.010903
1004.778577	0.008584
1004.949934	0.009447
1005.121273	0.008373
1005.292594	0.011029
1005.463896	0.010156
1005.635180	0.010272
1005.806446	0.010632
1005.977694	0.009711
1006.148923	0.009153
1006.320135	0.009159
1006.491328	0.008974
1006.662503	0.009561
1006.833659	0.006337
1007.004798	0.006906
1007.175918	0.004832
1007.347020	0.002861
1007.518103	0.004216
1007.689169	0.004227
1007.860216	0.004184
1008.031245	0.003077
1008.202256	0.002057
1008.373248	0.003932
1008.544223	0.003518
1008.715179	0.005635
1008.886117	0.005361
1009.057036	0.004687
1009.227938	0.003451
1009.398821	0.003268
1009.569686	0.003051
1009.740533	0.001583
1009.911361	0.000947
1010.082172	-0.000591
1010.252964	-0.002677
1010.423738	0.000810
1010.594493	0.001020
1010.765231	0.002979
1010.935950	0.003478
1011.106651	0.003247
1011.277334	0.006382
1011.447998	0.006166
1011.618645	0.007884
1011.789273	0.010219
1011.959882	0.007868
1012.130474	0.007715
1012.301048	0.006835
1012.471603	0.007162
1012.642140	0.007612
1012.812658	0.004208
1012.983159	0.004514
1013.153641	0.003669
1013.324105	0.003249
1013.494551	0.003491
1013.664979	0.003696
1013.835388	0.005214
1014.005779	0.002563
1014.176152	0.002142
1014.346507	0.003985
1014.516843	0.003094
1014.687162	0.004464
1014.857462	0.003793
1015.027744	0.003385
1015.198007	0.004182
1015.368252	0.002452
1015.538480	0.003950
1015.708689	0.004254
1015.878879	0.003863
1016.049052	0.003730
1016.219206	0.002513
1016.389342	0.001690
1016.559460	0.002784
1016.729559	0.000977
1016.899641	0.001700
1017.069704	0.002940
1017.239749	0.004005
1017.409775	0.003988
1017.579784	0.004901
1017.749774	0.004995
1017.919746	0.006061
1018.089700	0.005435
1018.259635	0.006286
1018.429553	0.004997
1018.599452	0.004155
1018.769333	0.002981
1018.939195	0.003971
1019.109040	0.003210
1019.278866	0.003392
1019.448674	0.003849
1019.618464	0.004195
1019.788235	0.005302
1019.957989	0.006345
1020.127724	0.007144
1020.297441	0.007309
1020.467139	0.006174
1020.636820	0.006387
1020.806482	0.005865
1020.976126	0.005072
1021.145752	0.003911
1021.315359	0.000196
1021.484948	-0.000089
1021.654519	-0.000879
1021.824072	-0.001431
1021.993607	-0.002876
1022.163123	-0.002185
1022.332621	-0.002139
1022.502101	-0.000965
1022.671563	0.000048
1022.841007	0.002465
1023.010432	0.003375
1023.179839	0.003789
1023.349228	0.005380
1023.518598	0.008304
1023.687951	0.006671
1023.857285	0.006994
1024.026601	0.006209
1024.195899	0.006339
1024.365178	0.007006
1024.534439	0.005410
1024.703682	0.004725
1024.872907	0.005265
1025.042114	0.004506
1025.211302	0.005644
1025.380472	0.005393
1025.549624	0.005658
1025.718758	0.004947
1025.887873	0.004428
1026.056970	0.003781
1026.226049	0.005448
1026.395110	0.004294
1026.564153	0.004580
1026.733177	0.004526
1026.902183	0.004748
1027.071171	0.003662
1027.240141	0.003453
1027.409092	0.003968
1027.578026	0.004045
1027.746940	0.003393
1027.915837	0.004785
1028.084716	0.003955
1028.253576	0.003428
1028.422418	0.003712
1028.591242	0.005923
1028.760048	0.006419
1028.928835	0.005005
1029.097604	0.006363
1029.266355	0.004746
1029.435088	0.003979
1029.603803	0.002652
1029.772499	0.002938
1029.941177	0.002517
1030.109837	0.001781
1030.278478	0.000398
1030.447102	-0.000491
1030.615707	-0.002308
1030.784294	-0.001612
1030.952863	-0.002425
1031.121413	-0.000778
1031.289945	-0.001613
1031.458460	-0.000638
1031.626955	0.000883
1031.795433	0.001467
1031.963892	0.001178
1032.132334	0.002801
1032.300756	0.002738
1032.469161	0.002457
1032.637548	0.001013
1032.805916	0.002381
1032.974266	0.002015
1033.142598	0.001562
1033.310911	0.000492
1033.479207	0.001398
1033.647484	0.000342
1033.815743	0.001384
1033.983983	0.002847
1034.152206	0.003364
1034.320410	0.001804
1034.488596	0.000134
1034.656764	-0.001141
1034.824914	-0.000777
1034.993045	0.000264
1035.161158	0.001032
1035.329253	0.000911
1035.497330	-0.000779
1035.665388	-0.000581
1035.833428	0.001702
1036.001450	0.002522
1036.169454	0.002856
1036.337440	0.003376
1036.505407	0.002919
1036.673356	0.001759
1036.841287	0.001807
1037.009200	0.003964
1037.177094	0.005106
1037.344970	0.004398
1037.512828	0.005015
1037.680668	0.003491
1037.848489	0.002871
1038.016293	0.001822
1038.184078	0.003313
1038.351845	0.001018
1038.519593	-0.000539
1038.687324	-0.001657
1038.855036	-0.002949
1039.022730	-0.004530
1039.190406	-0.003958
1039.358063	-0.002171
1039.525702	-0.000352
1039.693323	-0.002223
1039.860926	-0.002151
1040.028511	-0.001520
1040.196077	-0.002128
1040.363625	-0.001848
1040.531155	0.000576
1040.698667	0.001427
1040.866161	0.001923
1041.033636	0.002525
1041.201093	0.004656
1041.368532	0.005246
1041.535952	0.004179
1041.703355	0.005085
1041.870739	0.005178
1042.038105	0.002529
1042.205452	0.003548
1042.372782	0.002394
1042.540093	0.001441
1042.707386	0.000605
1042.874661	0.000224
1043.041918	-0.000594
1043.209156	-0.000738
1043.376376	0.000890
1043.543578	0.001503
1043.710762	0.000177
1043.877927	0.000057
1044.045074	0.000158
1044.212203	0.001083
1044.379314	0.001735
1044.546407	0.004377
1044.713481	0.004321
1044.880537	0.002987
1045.047575	0.003958
1045.214595	0.002874
1045.381596	0.002800
1045.548579	0.003021
1045.715544	0.001022
1045.882491	0.001750
1046.049420	0.001159
1046.216330	0.000449
1046.383222	0.001419
1046.550096	0.002286
1046.716951	0.002244
1046.883789	0.003025
1047.050608	0.001586
1047.217409	0.002797
1047.384192	0.000952
1047.550956	0.000989
1047.717703	0.001703
1047.884431	0.000261
1048.051140	-0.000885
1048.217832	-0.000536
1048.384505	-0.000550
1048.551161	-0.000338
1048.717798	-0.000647
1048.884416	0.000846
1049.051017	-0.000095
1049.217599	-0.000523
1049.384163	0.000711
1049.550709	0.001632
1049.717237	0.002444
1049.883746	0.001273
1050.050237	0.001462
1050.216710	0.002622
1050.383165	0.002176
1050.549601	0.003414
1050.716019	0.005624
1050.882420	0.004990
1051.048801	0.004904
1051.215165	0.004835
1051.381510	0.004753
1051.547837	0.005086
1051.714146	0.005113
1051.880437	0.005392
1052.046709	0.006522
1052.212964	0.004824
1052.379200	0.006316
1052.545417	0.005418
1052.711617	0.004288
1052.877798	0.006445
1053.043961	0.007096
1053.210106	0.005843
1053.376233	0.005800
1053.542341	0.002973
1053.708432	0.004116
1053.874504	0.003110
1054.040557	0.004266
1054.206593	0.005973
1054.372610	0.004549
1054.538609	0.003640
1054.704590	0.003501
1054.870553	0.003072
1055.036497	0.002945
1055.202424	0.001751
1055.368331	0.001750
1055.534221	0.001252
1055.700093	0.000349
1055.865946	-0.000647
1056.031781	-0.000732
1056.197598	-0.000072
1056.363397	0.000628
1056.529177	0.000954
1056.694939	0.000170
1056.860683	-0.001035
1057.026409	-0.000920
1057.192116	0.000040
1057.357806	-0.000743
1057.523477	-0.000726
1057.689130	-0.002718
1057.854764	-0.001515
1058.020381	-0.002432
1058.185979	-0.002716
1058.351559	-0.001241
1058.517120	-0.001178
1058.682664	-0.004242
1058.848189	-0.004120
1059.013696	-0.005078
1059.179185	-0.003791
1059.344656	-0.005390
1059.510108	-0.003886
1059.675542	-0.003409
1059.840958	-0.006224
1060.006356	-0.005718
1060.171735	-0.003944
1060.337096	-0.002057
1060.502439	-0.000330
1060.667764	0.000872
1060.833071	0.001963
1060.998359	0.000854
1061.163629	0.002793
1061.328881	0.002750
1061.494115	0.000949
1061.659330	0.000118
1061.824527	-0.000941
1061.989706	0.000815
1062.154867	-0.001481
1062.320010	-0.002610
1062.485134	-0.002225
1062.650240	-0.004221
1062.815328	-0.003039
1062.980398	-0.003639
1063.145449	-0.001684
1063.310482	-0.000754
1063.475497	-0.003619
1063.640494	-0.003292
1063.805473	-0.003813
1063.970433	-0.001804
1064.135375	-0.001604
1064.300299	-0.000451
1064.465204	-0.000333
1064.630092	-0.000211
1064.794961	0.000401
1064.959812	0.000507
1065.124645	0.000610
1065.289459	0.001120
1065.454256	-0.001484
1065.619034	-0.002359
1065.783793	-0.001131
1065.948535	-0.000559
1066.113258	-0.000347
1066.277964	-0.001058
1066.442651	-0.000669
1066.607319	0.000907
1066.771970	0.002154
1066.936602	0.003881
1067.101216	0.004970
1067.265812	0.002573
1067.430389	0.002184
1067.594949	0.001197
1067.759490	0.001785
1067.924013	0.003951
1068.088518	0.002707
1068.253004	0.001638
1068.417472	0.000177
1068.581922	0.001904
1068.746354	0.003685
1068.910768	0.004891
1069.075163	0.004232
1069.239540	0.003740
1069.403899	0.001251
1069.568240	0.002486
1069.732562	0.003029
1069.896866	0.003385
1070.061152	0.003916
1070.225420	0.004185
1070.389670	0.004192
1070.553901	0.003365
1070.718114	0.003361
1070.882309	0.003941
1071.046486	0.003016
1071.210644	0.004226
1071.374784	0.003921
1071.538906	0.002806
1071.703010	0.001456
1071.867096	0.002155
1072.031163	0.003668
1072.195212	0.002765
1072.359243	0.001225
1072.523256	0.002472
1072.687250	0.001901
1072.851226	0.003297
1073.015184	0.003872
1073.179124	0.004210
1073.343045	0.003121
1073.506949	0.002307
1073.670834	0.001626
1073.834701	0.004049
1073.998549	0.002241
1074.162380	0.002613
1074.326192	0.003050
1074.489986	0.003680
1074.653761	0.005334
1074.817519	0.005329
1074.981258	0.006686
1075.144979	0.008550
1075.308682	0.008638
1075.472367	0.011100
1075.636033	0.011185
1075.799681	0.009405
1075.963311	0.009147
1076.126923	0.008259
1076.290516	0.009507
1076.454092	0.009575
1076.617649	0.010427
1076.781187	0.009075
1076.944708	0.008864
1077.108210	0.007597
1077.271695	0.009029
1077.435160	0.007432
1077.598608	0.005690
1077.762038	0.004672
1077.925449	0.001894
1078.088842	-0.000225
1078.252217	0.000258
1078.415573	0.000500
1078.578912	-0.000733
1078.742232	-0.001007
1078.905534	-0.001217
1079.068817	-0.000444
1079.232083	-0.001559
1079.395330	0.001657
1079.558559	0.002614
1079.721770	0.002169
1079.884962	-0.000049
1080.048136	-0.000797
1080.211293	-0.002150
1080.374430	-0.001168
1080.537550	0.000060
1080.700651	0.001375
1080.863735	0.000169
1081.026800	-0.000695
1081.189846	0.000376
1081.352875	0.002593
1081.515885	0.003436
1081.678877	0.004742
1081.841851	0.004550
1082.004807	0.003640
1082.167744	0.002654
1082.330663	0.002901
1082.493564	0.004146
1082.656447	0.001907
1082.819312	-0.002652
1082.982158	-0.000311
1083.144986	-0.000343
1083.307796	-0.001116
1083.470587	-0.003243
1083.633361	-0.003024
1083.796116	-0.002963
1083.958853	-0.003379
1084.121571	0.000096
1084.284272	0.003796
1084.446954	0.001744
1084.609618	0.000504
1084.772264	0.000361
1084.934892	0.002318
1085.097501	0.002429
1085.260092	0.002580
1085.422665	0.002219
1085.585220	-0.003227
1085.747756	-0.003332
1085.910274	0.000390
1086.072774	0.001008
1086.235256	0.000739
1086.397720	0.001901
1086.560165	0.002926
1086.722592	0.003897
1086.885001	0.004478
1087.047392	0.010002
1087.209764	0.010350
1087.372119	0.008027
1087.534455	0.007003
1087.696772	0.007841
1087.859072	0.007104
1088.021353	0.007811
1088.183616	0.006141
1088.345861	0.006969
1088.508088	0.004245
1088.670296	0.003593
1088.832486	0.002205
1088.994658	0.004293
1089.156812	0.006166
1089.318948	0.006813
1089.481065	0.005771
1089.643164	0.005052
1089.805245	0.004649
1089.967308	0.005814
1090.129352	0.007238
1090.291378	0.008256
1090.453386	0.007507
1090.615376	0.006077
1090.777347	0.005650
1090.939301	0.006556
1091.101236	0.008368
1091.263153	0.006655
1091.425051	0.008930
1091.586932	0.008448
1091.748794	0.009499
1091.910638	0.009221
1092.072463	0.010793
1092.234271	0.009378
1092.396060	0.007638
1092.557831	0.006902
1092.719584	0.007614
1092.881319	0.005303
1093.043035	0.004279
1093.204733	0.003341
1093.366413	0.003795
1093.528075	-0.002292
1093.689718	0.000832
1093.851343	0.004106
1094.012950	0.004430
1094.174539	0.007941
1094.336110	0.009041
1094.497662	0.008134
1094.659196	0.007337
1094.820712	0.009338
1094.982210	0.011312
1095.143689	0.009115
1095.305151	0.006435
1095.466594	0.005074
1095.628018	0.000270
1095.789425	-0.001384
1095.950813	-0.000431
1096.112183	0.000576
1096.273535	0.000123
1096.434869	0.004490
1096.596184	0.003254
1096.757482	0.003613
1096.918761	0.002914
1097.080021	0.005439
1097.241264	0.005608
1097.402488	0.004799
1097.563694	0.004341
1097.724882	-0.000964
1097.886052	-0.002690
1098.047203	-0.001058
1098.208336	-0.004751
1098.369451	-0.000828
1098.530548	-0.001221
1098.691627	-0.001091
1098.852687	0.001241
1099.013729	0.001403
1099.174753	0.003890
1099.335758	0.002170
1099.496746	0.001331
1099.657715	0.002342
1099.818666	-0.000910
1099.979599	-0.002932
1100.140513	-0.002984
1100.301409	-0.005519
1100.462287	-0.007369
1100.623147	-0.006381
1100.783989	-0.005915
1100.944812	-0.005664
1101.105617	-0.005240
1101.266404	-0.007901
1101.427173	-0.007404
1101.587923	-0.009986
1101.748656	-0.009334
1101.909370	-0.006109
1102.070066	-0.006418
1102.230743	-0.004468
1102.391403	-0.004325
1102.552044	-0.000287
1102.712667	0.004704
1102.873271	0.006886
1103.033858	0.011224
1103.194426	0.008858
1103.354976	0.008863
1103.515508	0.007852
1103.676021	0.006571
1103.836517	0.004405
1103.996994	0.001741
1104.157453	0.000203
1104.317893	-0.002176
1104.478316	-0.006311
1104.638720	-0.004905
1104.799106	-0.007104
1104.959474	-0.005896
1105.119823	-0.010795
1105.280155	-0.010990
1105.440468	-0.011108
1105.600763	-0.013869
1105.761039	-0.010506
1105.921298	-0.009358
1106.081538	-0.005230
1106.241760	-0.005771
1106.401964	-0.005821
1106.562149	0.000491
1106.722316	0.001047
1106.882465	0.002238
1107.042596	0.006513
1107.202709	0.002720
1107.362803	0.004480
1107.522879	0.000732
1107.682937	0.001211
1107.842977	0.003554
1108.002999	0.003058
1108.163002	0.008143
1108.322987	0.007065
1108.482954	0.006773
1108.642902	0.009376
1108.802833	0.008734
1108.962745	0.006462
1109.122639	0.006378
1109.282515	0.005679
1109.442372	0.004929
1109.602211	0.003792
1109.762032	0.002140
1109.921835	0.004847
1110.081620	0.001471
1110.241386	-0.000547
1110.401134	0.001931
1110.560864	0.000064
1110.720576	-0.002477
1110.880269	-0.002905
1111.039945	-0.008146
1111.199602	-0.005110
1111.359240	-0.005415
1111.518861	-0.003078
1111.678463	-0.000283
1111.838047	0.000971
1111.997613	0.005327
1112.157161	0.009102
1112.316690	0.005706
1112.476202	0.010352
1112.635695	0.007201
1112.795169	0.003932
1112.954626	0.004893
1113.114064	0.002557
1113.273484	0.000987
1113.432886	0.002580
1113.592270	-0.001175
1113.751635	-0.001594
1113.910983	-0.002998
1114.070312	-0.002083
1114.229622	0.000302
1114.388915	0.000947
1114.548189	0.005088
1114.707445	0.008016
1114.866683	0.006726
1115.025903	0.007380
1115.185104	0.009145
1115.344287	0.007383
1115.503452	0.009134
1115.662599	0.003488
1115.821727	0.001676
1115.980838	0.002863
1116.139930	0.000879
1116.299004	-0.004222
1116.458059	-0.002395
1116.617097	-0.002381
1116.776116	-0.000299
1116.935117	-0.000255
1117.094099	0.000835
1117.253064	0.000532
1117.412010	-0.001091
1117.570938	0.001615
1117.729848	0.001478
1117.888740	0.000926
1118.047613	0.001089
1118.206468	0.002730
1118.365305	0.001299
1118.524124	0.007385
1118.682924	0.004845
1118.841707	0.004680
1119.000471	0.001412
1119.159216	0.007688
1119.317944	0.005008
1119.476653	0.010089
1119.635344	0.005262
1119.794017	0.006311
1119.952672	0.003715
1120.111308	0.004376
1120.269927	0.003834
1120.428527	0.006975
1120.587108	0.006015
1120.745672	0.007261
1120.904217	0.003993
1121.062744	0.006696
1121.221253	0.008341
1121.379744	0.004612
1121.538216	0.007597
1121.696671	0.007218
1121.855107	0.004349
1122.013524	0.003708
1122.171924	0.007376
1122.330305	0.005597
1122.488668	0.008590
1122.647013	0.006750
1122.805340	0.007951
1122.963648	0.010649
1123.121938	0.010388
1123.280210	0.015313
1123.438464	0.012914
1123.596700	0.009700
1123.754917	0.011484
1123.913116	0.009592
1124.071297	0.011528
1124.229459	0.012563
1124.387604	0.010697
1124.545730	0.009663
1124.703838	0.007701
1124.861928	0.005728
1125.019999	0.005729
1125.178052	0.009485
1125.336088	0.013831
1125.494104	0.011514
1125.652103	0.011544
1125.810083	0.011102
1125.968045	0.010645
1126.125989	0.007331
1126.283915	0.014105
1126.441823	0.011278
1126.599712	0.007441
1126.757583	-0.000149
1126.915436	-0.001132
1127.073270	0.001382
1127.231087	0.001270
1127.388885	0.002659
1127.546665	0.001967
1127.704426	-0.000111
1127.862170	0.005468
1128.019895	0.006903
1128.177602	0.010623
1128.335291	0.013150
1128.492961	0.008642
1128.650614	0.008982
1128.808248	0.005239
1128.965864	0.004985
1129.123461	0.001053
1129.281041	-0.002074
1129.438602	-0.000553
1129.596145	-0.001052
1129.753670	-0.002550
1129.911176	-0.001549
1130.068665	-0.005561
1130.226135	0.000387
1130.383587	0.001470
1130.541020	0.003208
1130.698436	0.002150
1130.855833	0.000214
1131.013212	-0.002447
1131.170573	-0.002532
1131.327915	-0.003334
1131.485239	0.002793
1131.642545	-0.000219
1131.799833	0.005284
1131.957103	0.008610
1132.114354	0.011030
1132.271588	0.009612
1132.428803	0.014802
1132.585999	0.017965
1132.743178	0.024634
1132.900338	0.022540
1133.057480	0.019134
1133.214604	0.010227
1133.371710	0.004664
1133.528797	0.003830
1133.685866	0.009545
1133.842917	0.003363
1133.999950	0.003104
1134.156964	-0.001673
1134.313960	-0.000517
1134.470938	0.001272
1134.627898	0.005995
1134.784840	0.010498
1134.941763	0.011925
1135.098668	0.011169
1135.255555	0.013789
1135.412424	0.014205
1135.569274	0.019463
1135.726107	0.021389
1135.882921	0.018755
1136.039716	0.018501
1136.196494	0.019027
1136.353253	0.015953
1136.509995	0.011916
1136.666717	0.013312
1136.823422	0.012783
1136.980109	0.004042
1137.136777	-0.002906
1137.293427	0.003998
1137.450059	0.003642
1137.606672	0.002681
1137.763267	0.009086
1137.919844	0.012411
1138.076403	0.016469
1138.232944	0.014269
1138.389466	0.017377
1138.545971	0.021392
1138.702457	0.022542
1138.858924	0.017893
1139.015374	0.014927
1139.171805	0.014156
1139.328218	0.012803
1139.484613	0.010222
1139.640990	0.012662
1139.797348	0.016389
1139.953688	0.012637
1140.110010	0.007840
1140.266314	0.013538
1140.422600	0.026222
1140.578867	0.014461
1140.735116	0.013418
1140.891347	0.012953
1141.047559	0.012373
1141.203754	0.007587
1141.359930	0.007970
1141.516088	0.010161
1141.672228	0.014632
1141.828349	0.000493
1141.984452	0.007527
1142.140537	0.006481
1142.296604	0.004296
1142.452653	0.001528
1142.608683	0.009581
1142.764695	0.008289
1142.920689	0.005744
1143.076665	0.000913
1143.232622	0.000051
1143.388562	0.002288
1143.544483	0.004767
1143.700385	0.007297
1143.856270	0.011888
1144.012136	0.011450
1144.167985	0.010057
1144.323814	0.008803
1144.479626	0.005553
1144.635420	0.009008
1144.791195	0.013540
1144.946952	0.011633
1145.102691	0.009195
1145.258411	-0.000733
1145.414113	-0.007012
1145.569798	0.001467
1145.725463	0.004450
1145.881111	0.007437
1146.036741	0.009873
1146.192352	0.004336
1146.347945	0.002857
1146.503519	-0.005859
1146.659076	0.003371
1146.814614	0.001142
1146.970134	-0.002826
1147.125636	-0.005137
1147.281120	-0.007424
1147.436585	-0.013076
1147.592032	-0.017555
1147.747461	-0.011087
1147.902872	0.000331
1148.058265	0.003938
1148.213639	0.009227
1148.368995	0.015319
1148.524333	0.020794
1148.679653	0.019527
1148.834954	0.029207
1148.990237	0.034118
1149.145502	0.033195
1149.300749	0.027815
1149.455977	0.020220
1149.611188	0.017970
1149.766380	0.007307
1149.921553	0.008055
1150.076709	0.009745
1150.231846	0.005449
1150.386966	0.007024
1150.542066	0.005456
1150.697149	0.012330
1150.852214	0.014993
1151.007260	0.013196
1151.162288	0.026299
1151.317298	0.019415
1151.472289	0.020790
1151.627263	0.024840
1151.782218	0.021533
1151.937155	0.018038
1152.092073	0.017629
1152.246974	0.019930
1152.401856	0.024638
1152.556720	0.018699
1152.711566	0.017483
1152.866393	0.013965
1153.021203	0.010654
1153.175994	0.014194
1153.330767	0.008190
1153.485521	-0.001164
1153.640258	-0.002831
1153.794976	-0.003501
1153.949676	-0.002587
1154.104358	0.001859
1154.259021	0.003920
1154.413667	0.006155
1154.568294	0.007210
1154.722903	0.015184
1154.877493	0.015344
1155.032066	0.011426
1155.186620	0.012465
1155.341156	0.013960
1155.495674	0.020327
1155.650173	0.021470
1155.804654	0.020441
1155.959118	0.030819
1156.113562	0.030661
1156.267989	0.043608
1156.422397	0.049015
1156.576788	0.045471
1156.731160	0.035834
1156.885513	0.028189
1157.039849	0.030239
1157.194166	0.021972
1157.348465	0.010437
1157.502746	0.005116
1157.657009	0.004263
1157.811253	0.003994
1157.965479	0.000987
1158.119687	0.004385
1158.273877	0.005795
1158.428048	0.006771
1158.582201	0.017150
1158.736337	0.004229
1158.890453	0.013983
1159.044552	0.000500
1159.198632	0.003574
1159.352694	-0.001644
1159.506738	0.002384
1159.660764	-0.003551
1159.814771	-0.001887
1159.968761	-0.014408
1160.122732	0.001503
1160.276685	-0.002649
1160.430619	0.009098
1160.584535	0.003821
1160.738434	0.013732
1160.892313	0.015905
1161.046175	0.019069
1161.200019	0.023745
1161.353844	0.032694
1161.507651	0.031257
1161.661440	0.027583
1161.815210	0.022500
1161.968962	0.023238
1162.122697	0.029180
1162.276412	0.020712
1162.430110	0.015734
1162.583789	-0.000202
1162.737451	-0.005874
1162.891094	-0.013575
1163.044718	-0.014257
1163.198325	-0.025599
1163.351913	-0.031280
1163.505483	-0.036339
1163.659035	-0.033980
1163.812569	-0.028372
1163.966084	-0.023969
1164.119581	-0.023740
1164.273060	-0.024171
1164.426521	-0.025262
1164.579964	-0.007322
1164.733388	-0.001757
1164.886794	-0.007185
1165.040182	-0.018118
1165.193551	-0.021453
1165.346903	-0.014015
1165.500236	-0.001395
1165.653551	0.005224
1165.806848	0.004610
1165.960126	0.000120
1166.113386	0.008046
1166.266628	0.004191
1166.419852	0.021872
1166.573058	0.032930
1166.726245	0.034281
1166.879414	0.037141
1167.032565	0.037090
1167.185698	0.047295
1167.338812	0.052918
1167.491909	0.053665
1167.644987	0.050161
1167.798046	0.041009
1167.951088	0.031032
1168.104111	0.025548
1168.257117	0.008811
1168.410103	0.001148
1168.563072	-0.006664
1168.716023	-0.010935
1168.868955	-0.031857
1169.021869	-0.026180
1169.174765	-0.028873
1169.327642	-0.027448
1169.480501	-0.033900
1169.633343	-0.020370
1169.786165	-0.021171
1169.938970	-0.019874
1170.091757	-0.028583
1170.244525	-0.013509
1170.397275	-0.006782
1170.550007	0.002021
1170.702720	-0.007998
1170.855415	0.006129
1171.008092	-0.009196
1171.160751	-0.010157
1171.313392	-0.014081
1171.466014	0.101608
1171.618619	-0.050146
1171.771205	-0.050146
1171.923772	-0.050146
