sample name	sample
index	706
start time	 03-25-2021  10:48:38 AM


Wavelength (nm)	Absorbance
494.344910	-0.291088
494.563924	-0.291088
494.782919	-0.291088
495.001897	-0.229478
495.220856	-0.171482
495.439797	-0.150488
495.658719	-0.121994
495.877624	-0.094387
496.096510	-0.062476
496.315378	-0.060751
496.534227	-0.066150
496.753059	-0.083071
496.971872	-0.091543
497.190667	-0.008960
497.409444	0.007977
497.628203	0.008978
497.846943	0.012364
498.065665	0.012105
498.284369	0.011761
498.503055	0.012561
498.721723	0.013722
498.940372	0.013548
499.159003	0.014281
499.377616	0.013281
499.596210	0.013715
499.814787	0.013004
500.033345	0.012375
500.251885	0.011942
500.470406	0.011810
500.688910	0.011882
500.907395	0.011854
501.125862	0.011502
501.344311	0.011872
501.562742	0.012076
501.781154	0.012066
501.999548	0.013059
502.217924	0.013949
502.436282	0.013961
502.654621	0.013051
502.872942	0.012995
503.091245	0.013553
503.309530	0.013505
503.527797	0.012201
503.746045	0.011663
503.964275	0.011163
504.182487	0.011056
504.400681	0.011139
504.618856	0.011161
504.837013	0.011622
505.055152	0.011102
505.273273	0.011040
505.491376	0.011491
505.709460	0.011701
505.927526	0.011598
506.145574	0.011099
506.363604	0.011339
506.581615	0.011809
506.799608	0.011903
507.017583	0.012023
507.235540	0.011957
507.453478	0.011947
507.671399	0.012435
507.889301	0.012420
508.107185	0.012899
508.325050	0.012754
508.542898	0.011651
508.760727	0.012120
508.978538	0.011684
509.196330	0.011333
509.414105	0.011682
509.631861	0.011550
509.849599	0.011786
510.067319	0.011604
510.285021	0.011209
510.502704	0.011845
510.720369	0.010892
510.938016	0.011393
511.155645	0.011431
511.373255	0.011471
511.590848	0.011079
511.808422	0.011075
512.025977	0.011436
512.243515	0.011713
512.461034	0.012030
512.678536	0.012346
512.896018	0.011856
513.113483	0.012386
513.330930	0.012375
513.548358	0.012419
513.765768	0.012765
513.983160	0.012706
514.200533	0.012285
514.417889	0.011996
514.635226	0.012836
514.852545	0.013122
515.069845	0.012718
515.287128	0.013063
515.504392	0.012964
515.721638	0.012530
515.938866	0.012607
516.156075	0.012947
516.373267	0.012551
516.590440	0.011368
516.807594	0.011304
517.024731	0.010962
517.241850	0.010152
517.458950	0.010054
517.676032	0.009931
517.893095	0.009540
518.110141	0.009196
518.327168	0.009594
518.544177	0.009694
518.761168	0.009919
518.978141	0.010035
519.195095	0.010432
519.412031	0.010717
519.628949	0.011142
519.845849	0.011227
520.062731	0.011570
520.279594	0.011598
520.496439	0.011849
520.713266	0.011818
520.930074	0.012001
521.146865	0.011580
521.363637	0.011916
521.580391	0.011249
521.797127	0.010330
522.013844	0.010382
522.230543	0.010503
522.447224	0.010148
522.663887	0.010178
522.880532	0.010314
523.097158	0.010704
523.313766	0.010682
523.530356	0.011230
523.746928	0.012079
523.963481	0.011318
524.180017	0.011719
524.396534	0.012006
524.613032	0.011693
524.829513	0.011502
525.045975	0.011448
525.262420	0.011158
525.478845	0.011368
525.695253	0.011371
525.911643	0.011663
526.128014	0.011215
526.344367	0.010961
526.560702	0.011076
526.777018	0.010725
526.993316	0.010701
527.209597	0.010494
527.425858	0.010003
527.642102	0.009865
527.858328	0.010002
528.074535	0.009521
528.290724	0.009652
528.506894	0.009336
528.723047	0.009591
528.939181	0.009748
529.155297	0.010382
529.371395	0.010443
529.587475	0.010749
529.803536	0.010656
530.019579	0.010935
530.235604	0.010796
530.451611	0.011011
530.667600	0.011010
530.883570	0.011003
531.099522	0.010489
531.315456	0.010576
531.531372	0.010216
531.747269	0.009824
531.963148	0.010183
532.179009	0.010326
532.394852	0.010569
532.610676	0.010680
532.826482	0.010218
533.042271	0.010070
533.258040	0.010174
533.473792	0.010348
533.689525	0.010742
533.905240	0.010579
534.120937	0.010586
534.336616	0.010272
534.552277	0.010106
534.767919	0.010726
534.983543	0.010549
535.199149	0.010487
535.414736	0.010471
535.630306	0.010382
535.845857	0.010477
536.061390	0.010455
536.276904	0.010371
536.492401	0.010493
536.707879	0.010329
536.923339	0.010464
537.138781	0.010380
537.354204	0.010330
537.569610	0.010829
537.784997	0.010476
538.000366	0.010545
538.215716	0.010347
538.431049	0.010325
538.646363	0.010540
538.861659	0.010804
539.076937	0.010804
539.292196	0.010560
539.507438	0.010268
539.722661	0.010551
539.937866	0.010655
540.153052	0.010948
540.368221	0.010971
540.583371	0.010749
540.798503	0.010362
541.013617	0.010487
541.228712	0.010951
541.443789	0.010690
541.658848	0.010424
541.873889	0.010129
542.088912	0.009906
542.303916	0.009763
542.518902	0.009351
542.733870	0.009698
542.948820	0.009477
543.163752	0.009112
543.378665	0.009344
543.593560	0.009704
543.808437	0.009971
544.023295	0.010453
544.238136	0.010726
544.452958	0.011059
544.667762	0.010984
544.882548	0.010729
545.097315	0.011076
545.312064	0.011337
545.526795	0.011292
545.741508	0.010920
545.956203	0.010839
546.170879	0.010738
546.385537	0.010860
546.600177	0.010623
546.814799	0.010827
547.029402	0.010238
547.243988	0.010052
547.458555	0.010013
547.673103	0.010403
547.887634	0.010272
548.102146	0.010164
548.316640	0.010159
548.531116	0.010124
548.745574	0.010430
548.960013	0.010691
549.174435	0.010658
549.388838	0.010475
549.603222	0.010232
549.817589	0.010066
550.031937	0.010243
550.246267	0.009993
550.460579	0.010077
550.674873	0.010065
550.889148	0.010268
551.103405	0.010367
551.317644	0.010477
551.531865	0.010551
551.746068	0.010968
551.960252	0.010407
552.174418	0.010474
552.388566	0.010705
552.602696	0.010301
552.816807	0.010093
553.030900	0.009832
553.244975	0.009634
553.459032	0.009711
553.673070	0.009571
553.887091	0.009975
554.101093	0.009820
554.315077	0.009773
554.529042	0.009659
554.742990	0.009799
554.956919	0.009757
555.170830	0.009644
555.384722	0.009351
555.598597	0.009449
555.812453	0.009541
556.026291	0.009730
556.240111	0.009490
556.453913	0.009805
556.667696	0.009848
556.881461	0.010005
557.095208	0.010211
557.308937	0.010463
557.522647	0.010070
557.736339	0.010112
557.950013	0.010036
558.163669	0.009936
558.377307	0.009515
558.590926	0.009216
558.804527	0.009068
559.018110	0.008869
559.231675	0.008580
559.445221	0.008837
559.658749	0.008715
559.872259	0.008731
560.085751	0.009075
560.299225	0.009480
560.512680	0.009528
560.726117	0.009620
560.939536	0.009744
561.152937	0.010151
561.366319	0.009971
561.579683	0.009938
561.793029	0.009817
562.006357	0.009566
562.219667	0.009549
562.432958	0.009699
562.646231	0.009506
562.859486	0.009596
563.072723	0.009578
563.285941	0.009534
563.499141	0.009584
563.712323	0.009677
563.925487	0.009650
564.138632	0.009706
564.351760	0.009794
564.564869	0.009935
564.777960	0.009906
564.991032	0.009942
565.204087	0.009945
565.417123	0.009947
565.630141	0.009914
565.843140	0.009930
566.056122	0.009914
566.269085	0.009942
566.482030	0.010097
566.694957	0.010060
566.907866	0.009793
567.120756	0.009981
567.333628	0.010051
567.546482	0.009967
567.759318	0.010050
567.972135	0.010041
568.184935	0.009901
568.397716	0.009841
568.610478	0.009945
568.823223	0.009964
569.035949	0.009899
569.248657	0.009771
569.461347	0.009670
569.674019	0.009605
569.886672	0.009533
570.099308	0.009372
570.311925	0.009506
570.524523	0.009222
570.737104	0.009251
570.949666	0.009249
571.162210	0.009589
571.374736	0.009774
571.587244	0.009885
571.799733	0.009884
572.012205	0.009959
572.224658	0.009939
572.437092	0.010429
572.649509	0.010502
572.861907	0.010500
573.074287	0.010115
573.286649	0.010299
573.498993	0.010577
573.711318	0.010822
573.923625	0.011103
574.135914	0.011061
574.348185	0.010864
574.560438	0.010870
574.772672	0.010883
574.984888	0.010970
575.197086	0.010775
575.409266	0.010445
575.621427	0.009981
575.833570	0.009604
576.045695	0.009632
576.257802	0.009710
576.469890	0.009736
576.681961	0.009783
576.894013	0.010048
577.106046	0.010164
577.318062	0.010272
577.530059	0.010786
577.742039	0.010814
577.954000	0.010710
578.165942	0.010854
578.377867	0.010532
578.589773	0.010498
578.801661	0.010174
579.013531	0.010291
579.225382	0.010240
579.437216	0.010009
579.649031	0.010115
579.860828	0.010297
580.072606	0.010000
580.284367	0.010239
580.496109	0.010134
580.707833	0.010218
580.919539	0.010291
581.131227	0.010364
581.342896	0.010133
581.554547	0.010200
581.766180	0.010077
581.977795	0.010216
582.189391	0.010096
582.400969	0.010371
582.612529	0.010586
582.824071	0.010299
583.035595	0.010200
583.247100	0.010563
583.458587	0.010366
583.670056	0.010214
583.881506	0.010168
584.092939	0.010437
584.304353	0.010119
584.515749	0.010076
584.727127	0.010481
584.938486	0.010681
585.149828	0.010449
585.361151	0.010766
585.572456	0.010990
585.783742	0.010976
585.995011	0.010894
586.206261	0.011019
586.417493	0.011084
586.628706	0.010808
586.839902	0.010476
587.051079	0.010557
587.262238	0.010476
587.473379	0.010402
587.684502	0.010397
587.895606	0.010041
588.106692	0.009865
588.317760	0.009657
588.528810	0.009575
588.739841	0.009707
588.950855	0.009701
589.161850	0.009616
589.372827	0.009617
589.583785	0.009562
589.794726	0.009990
590.005648	0.010214
590.216552	0.010455
590.427437	0.010602
590.638305	0.010719
590.849154	0.010796
591.059985	0.010827
591.270798	0.010933
591.481592	0.010985
591.692369	0.011086
591.903127	0.011037
592.113867	0.010838
592.324588	0.011000
592.535292	0.010814
592.745977	0.010701
592.956644	0.010655
593.167293	0.010470
593.377923	0.010412
593.588536	0.010347
593.799130	0.010250
594.009706	0.010209
594.220263	0.009775
594.430803	0.009933
594.641324	0.009875
594.851827	0.009938
595.062312	0.009924
595.272778	0.009927
595.483227	0.009985
595.693657	0.010191
595.904069	0.010204
596.114462	0.010448
596.324838	0.010465
596.535195	0.010413
596.745534	0.010709
596.955855	0.011051
597.166157	0.011225
597.376441	0.011065
597.586707	0.010852
597.796955	0.010978
598.007185	0.010733
598.217396	0.010859
598.427589	0.010745
598.637764	0.010449
598.847921	0.010079
599.058060	0.009881
599.268180	0.009872
599.478282	0.009861
599.688366	0.009670
599.898431	0.009790
600.108479	0.009565
600.318508	0.009976
600.528519	0.010290
600.738511	0.010368
600.948486	0.010262
601.158442	0.010212
601.368380	0.010245
601.578300	0.010322
601.788202	0.010271
601.998085	0.010335
602.207950	0.010486
602.417797	0.010135
602.627626	0.010106
602.837436	0.010104
603.047228	0.010027
603.257002	0.010109
603.466758	0.010305
603.676496	0.010542
603.886215	0.010424
604.095916	0.010207
604.305599	0.010487
604.515264	0.010472
604.724910	0.010548
604.934538	0.010629
605.144148	0.010537
605.353740	0.010177
605.563314	0.010124
605.772869	0.010246
605.982406	0.010312
606.191925	0.010250
606.401425	0.010238
606.610908	0.010269
606.820372	0.010352
607.029818	0.010619
607.239246	0.010854
607.448655	0.010758
607.658047	0.010886
607.867420	0.010971
608.076775	0.010736
608.286111	0.010959
608.495430	0.011094
608.704730	0.010977
608.914012	0.010857
609.123275	0.010830
609.332521	0.010954
609.541748	0.010949
609.750957	0.010626
609.960148	0.010675
610.169321	0.010652
610.378475	0.010367
610.587611	0.010323
610.796729	0.010140
611.005829	0.010191
611.214910	0.010186
611.423974	0.010199
611.633019	0.010475
611.842045	0.010620
612.051054	0.010443
612.260044	0.010737
612.469017	0.010843
612.677970	0.010913
612.886906	0.010918
613.095824	0.010944
613.304723	0.010780
613.513604	0.010741
613.722467	0.010557
613.931311	0.010619
614.140138	0.010349
614.348946	0.010243
614.557736	0.010074
614.766507	0.010111
614.975261	0.009988
615.183996	0.010062
615.392713	0.009837
615.601412	0.009824
615.810092	0.009708
616.018754	0.010030
616.227399	0.010176
616.436024	0.010384
616.644632	0.010291
616.853222	0.010096
617.061793	0.009961
617.270346	0.010165
617.478880	0.010490
617.687397	0.010467
617.895895	0.010254
618.104375	0.010254
618.312837	0.010119
618.521281	0.010056
618.729706	0.010317
618.938113	0.010494
619.146502	0.010289
619.354873	0.010030
619.563226	0.010172
619.771560	0.010179
619.979876	0.010133
620.188174	0.010287
620.396453	0.010480
620.604715	0.010511
620.812958	0.010423
621.021183	0.010692
621.229390	0.010662
621.437578	0.010520
621.645748	0.010583
621.853900	0.010791
622.062034	0.010833
622.270150	0.010763
622.478247	0.010820
622.686326	0.011102
622.894387	0.011082
623.102430	0.011533
623.310454	0.011759
623.518461	0.011775
623.726449	0.011956
623.934418	0.011898
624.142370	0.011856
624.350303	0.011786
624.558218	0.011674
624.766115	0.011713
624.973994	0.011277
625.181855	0.011180
625.389697	0.011160
625.597521	0.010913
625.805327	0.010832
626.013114	0.010938
626.220883	0.011055
626.428634	0.010901
626.636367	0.010699
626.844082	0.010983
627.051778	0.010846
627.259457	0.010862
627.467117	0.010693
627.674758	0.010868
627.882382	0.010809
628.089987	0.010812
628.297574	0.010693
628.505143	0.010731
628.712694	0.010417
628.920226	0.010555
629.127740	0.010456
629.335236	0.010616
629.542714	0.010439
629.750174	0.010494
629.957615	0.010432
630.165038	0.010580
630.372443	0.010710
630.579829	0.010811
630.787198	0.010909
630.994548	0.010949
631.201880	0.010807
631.409194	0.010906
631.616489	0.010696
631.823766	0.010728
632.031025	0.010651
632.238266	0.010630
632.445489	0.010739
632.652693	0.010658
632.859879	0.010726
633.067047	0.010873
633.274197	0.010887
633.481329	0.011135
633.688442	0.011109
633.895537	0.011301
634.102614	0.011411
634.309672	0.011268
634.516713	0.011037
634.723735	0.010938
634.930739	0.010661
635.137724	0.010665
635.344692	0.010436
635.551641	0.010421
635.758572	0.010358
635.965485	0.010320
636.172379	0.010467
636.379256	0.010692
636.586114	0.010759
636.792954	0.010829
636.999775	0.010974
637.206579	0.010935
637.413364	0.010936
637.620131	0.011023
637.826880	0.010907
638.033610	0.010922
638.240323	0.011088
638.447017	0.011131
638.653692	0.011460
638.860350	0.011327
639.066990	0.011672
639.273611	0.011645
639.480214	0.011707
639.686798	0.011646
639.893365	0.011669
640.099913	0.011487
640.306443	0.011706
640.512955	0.011540
640.719449	0.011557
640.925924	0.011271
641.132381	0.011356
641.338820	0.011152
641.545241	0.011216
641.751644	0.011066
641.958028	0.011005
642.164394	0.010723
642.370742	0.010753
642.577071	0.010766
642.783383	0.010764
642.989676	0.010753
643.195951	0.010876
643.402207	0.010675
643.608446	0.010639
643.814666	0.010807
644.020868	0.010903
644.227052	0.010983
644.433218	0.010966
644.639365	0.010871
644.845494	0.010796
645.051605	0.010606
645.257698	0.010874
645.463772	0.010927
645.669828	0.010901
645.875866	0.010985
646.081886	0.010839
646.287888	0.010895
646.493871	0.011213
646.699836	0.011226
646.905783	0.011359
647.111712	0.011318
647.317622	0.011391
647.523514	0.011430
647.729388	0.011395
647.935244	0.011485
648.141082	0.011542
648.346901	0.011340
648.552702	0.011332
648.758485	0.011410
648.964250	0.011406
649.169996	0.011434
649.375724	0.011449
649.581434	0.011369
649.787126	0.011245
649.992800	0.011113
650.198455	0.011186
650.404092	0.011226
650.609711	0.011185
650.815311	0.011045
651.020894	0.010730
651.226458	0.010700
651.432004	0.010758
651.637532	0.010949
651.843041	0.010926
652.048532	0.010847
652.254006	0.010741
652.459460	0.010651
652.664897	0.010672
652.870315	0.010932
653.075716	0.010789
653.281097	0.010841
653.486461	0.010736
653.691807	0.010689
653.897134	0.010719
654.102443	0.010629
654.307734	0.010632
654.513006	0.010766
654.718261	0.010674
654.923497	0.010949
655.128715	0.010961
655.333915	0.011060
655.539096	0.011221
655.744259	0.011166
655.949404	0.011294
656.154531	0.011373
656.359640	0.011305
656.564730	0.011425
656.769802	0.011251
656.974856	0.011131
657.179892	0.010921
657.384909	0.010784
657.589908	0.010811
657.794889	0.010695
657.999852	0.010709
658.204797	0.010808
658.409723	0.010808
658.614631	0.010852
658.819521	0.010691
659.024393	0.010638
659.229246	0.010625
659.434081	0.010697
659.638898	0.010834
659.843697	0.010785
660.048478	0.010695
660.253240	0.010632
660.457984	0.010579
660.662710	0.010659
660.867417	0.010854
661.072107	0.010899
661.276778	0.010883
661.481431	0.010828
661.686066	0.010942
661.890682	0.011047
662.095281	0.011055
662.299861	0.011095
662.504422	0.011123
662.708966	0.011172
662.913491	0.011281
663.117999	0.011251
663.322488	0.011433
663.526958	0.011346
663.731411	0.011252
663.935845	0.011157
664.140261	0.011199
664.344659	0.011297
664.549038	0.011123
664.753400	0.011046
664.957743	0.011027
665.162068	0.010681
665.366375	0.010501
665.570663	0.010562
665.774933	0.010587
665.979185	0.010570
666.183419	0.010373
666.387635	0.010376
666.591832	0.010599
666.796011	0.010713
667.000172	0.010935
667.204315	0.010928
667.408439	0.010829
667.612545	0.010971
667.816634	0.010893
668.020703	0.011151
668.224755	0.011353
668.428788	0.011059
668.632803	0.011037
668.836800	0.010932
669.040779	0.011171
669.244739	0.011298
669.448681	0.011306
669.652605	0.011314
669.856511	0.011260
670.060399	0.011094
670.264268	0.011059
670.468119	0.011070
670.671952	0.011360
670.875767	0.011216
671.079563	0.011025
671.283341	0.010817
671.487101	0.010825
671.690843	0.010787
671.894567	0.010893
672.098272	0.011010
672.301959	0.010985
672.505628	0.010950
672.709278	0.011014
672.912911	0.011250
673.116525	0.011531
673.320121	0.011441
673.523699	0.011469
673.727258	0.011345
673.930799	0.011454
674.134322	0.011561
674.337827	0.011400
674.541314	0.011359
674.744782	0.011345
674.948232	0.011394
675.151664	0.011581
675.355078	0.011459
675.558474	0.011649
675.761851	0.011555
675.965210	0.011460
676.168551	0.011490
676.371873	0.011546
676.575178	0.011354
676.778464	0.011172
676.981732	0.011160
677.184981	0.011281
677.388213	0.011153
677.591426	0.011265
677.794621	0.011297
677.997798	0.011228
678.200956	0.011532
678.404097	0.011639
678.607219	0.011652
678.810323	0.011644
679.013408	0.011787
679.216476	0.011914
679.419525	0.011776
679.622556	0.011738
679.825569	0.011766
680.028563	0.011404
680.231540	0.011375
680.434498	0.011342
680.637438	0.011473
680.840359	0.011323
681.043263	0.011135
681.246148	0.011324
681.449015	0.011396
681.651864	0.011428
681.854694	0.011628
682.057506	0.011559
682.260301	0.011618
682.463076	0.011389
682.665834	0.011474
682.868573	0.011634
683.071295	0.011671
683.273998	0.011788
683.476682	0.011826
683.679349	0.011728
683.881997	0.011827
684.084627	0.011821
684.287239	0.011953
684.489833	0.012028
684.692408	0.011882
684.894965	0.011724
685.097504	0.011615
685.300025	0.011606
685.502527	0.011668
685.705012	0.011666
685.907478	0.011697
686.109925	0.011643
686.312355	0.011596
686.514766	0.011870
686.717159	0.011838
686.919534	0.011883
687.121891	0.011953
687.324230	0.011888
687.526550	0.011904
687.728852	0.011753
687.931136	0.011786
688.133401	0.011803
688.335649	0.011695
688.537878	0.011756
688.740089	0.011659
688.942281	0.011469
689.144456	0.011647
689.346612	0.011683
689.548750	0.011882
689.750870	0.011929
689.952971	0.011978
690.155055	0.011857
690.357120	0.011847
690.559167	0.012019
690.761195	0.012163
690.963206	0.012020
691.165198	0.011911
691.367172	0.011702
691.569128	0.011635
691.771065	0.011563
691.972984	0.011569
692.174885	0.011612
692.376768	0.011551
692.578633	0.011637
692.780479	0.011557
692.982308	0.011607
693.184118	0.011637
693.385909	0.011704
693.587683	0.011695
693.789438	0.011784
693.991175	0.011726
694.192894	0.011791
694.394595	0.011796
694.596277	0.011879
694.797941	0.011975
694.999587	0.012071
695.201215	0.012009
695.402824	0.012063
695.604416	0.012025
695.805989	0.012053
696.007543	0.011901
696.209080	0.011774
696.410598	0.011714
696.612099	0.011577
696.813580	0.011635
697.015044	0.011635
697.216490	0.011612
697.417917	0.011577
697.619326	0.011508
697.820717	0.011480
698.022089	0.011472
698.223444	0.011517
698.424780	0.011728
698.626098	0.011882
698.827397	0.011853
699.028679	0.011773
699.229942	0.011889
699.431187	0.011881
699.632414	0.012009
699.833622	0.012136
700.034813	0.012199
700.235985	0.012150
700.437139	0.011995
700.638274	0.012031
700.839392	0.012277
701.040491	0.012250
701.241572	0.012305
701.442635	0.012311
701.643679	0.012238
701.844706	0.012273
702.045714	0.012210
702.246704	0.012259
702.447675	0.012233
702.648629	0.012028
702.849564	0.012043
703.050481	0.012136
703.251380	0.012064
703.452260	0.012128
703.653122	0.012013
703.853966	0.011994
704.054792	0.012006
704.255600	0.012256
704.456389	0.012334
704.657160	0.012401
704.857913	0.012276
705.058648	0.012277
705.259365	0.012244
705.460063	0.012283
705.660743	0.012149
705.861405	0.012156
706.062048	0.011941
706.262674	0.011947
706.463281	0.011859
706.663870	0.011881
706.864441	0.011745
707.064993	0.011798
707.265527	0.011782
707.466043	0.012025
707.666541	0.012052
707.867021	0.012181
708.067482	0.012200
708.267925	0.012240
708.468350	0.012277
708.668757	0.012385
708.869145	0.012344
709.069516	0.012345
709.269868	0.012324
709.470201	0.012290
709.670517	0.012187
709.870814	0.012184
710.071093	0.012121
710.271354	0.012038
710.471597	0.011951
710.671821	0.012009
710.872028	0.011949
711.072216	0.011866
711.272385	0.011738
711.472537	0.011766
711.672670	0.011508
711.872785	0.011470
712.072882	0.011470
712.272961	0.011399
712.473021	0.011171
712.673063	0.011249
712.873087	0.011240
713.073093	0.011224
713.273081	0.011241
713.473050	0.011383
713.673001	0.011421
713.872934	0.011389
714.072849	0.011547
714.272745	0.011556
714.472623	0.011558
714.672483	0.011509
714.872325	0.011577
715.072148	0.011459
715.271954	0.011424
715.471741	0.011386
715.671509	0.011502
715.871260	0.011441
716.070992	0.011520
716.270707	0.011228
716.470403	0.011377
716.670080	0.011414
716.869740	0.011393
717.069381	0.011372
717.269004	0.011405
717.468609	0.011372
717.668195	0.011422
717.867764	0.011303
718.067314	0.011387
718.266846	0.011358
718.466360	0.011395
718.665855	0.011328
718.865332	0.011348
719.064791	0.011283
719.264232	0.011183
719.463655	0.011133
719.663059	0.011301
719.862445	0.011356
720.061813	0.011315
720.261163	0.011247
720.460494	0.011340
720.659807	0.011182
720.859102	0.011136
721.058379	0.011187
721.257638	0.011177
721.456878	0.011089
721.656100	0.011109
721.855304	0.010954
722.054490	0.010724
722.253657	0.010590
722.452806	0.010723
722.651937	0.010718
722.851050	0.010692
723.050145	0.010660
723.249221	0.010729
723.448279	0.010750
723.647319	0.010801
723.846340	0.010820
724.045344	0.010849
724.244329	0.010890
724.443296	0.010794
724.642245	0.010885
724.841175	0.011072
725.040088	0.010995
725.238982	0.010975
725.437857	0.010935
725.636715	0.011011
725.835554	0.010979
726.034376	0.010716
726.233179	0.010725
726.431963	0.010504
726.630730	0.010257
726.829478	0.010009
727.028208	0.009906
727.226920	0.009799
727.425614	0.009714
727.624289	0.009763
727.822946	0.009906
728.021585	0.009964
728.220206	0.010174
728.418808	0.010259
728.617392	0.010608
728.815958	0.010799
729.014506	0.010829
729.213036	0.010807
729.411547	0.010753
729.610040	0.010644
729.808515	0.010501
730.006972	0.010458
730.205410	0.010354
730.403831	0.010173
730.602233	0.010022
730.800616	0.010069
730.998982	0.010152
731.197329	0.010267
731.395658	0.010425
731.593969	0.010576
731.792262	0.010343
731.990536	0.010251
732.188793	0.010236
732.387031	0.010261
732.585250	0.010171
732.783452	0.010240
732.981635	0.010135
733.179800	0.010166
733.377947	0.010225
733.576076	0.010315
733.774186	0.010446
733.972278	0.010500
734.170352	0.010367
734.368408	0.010470
734.566446	0.010513
734.764465	0.010619
734.962466	0.010494
735.160449	0.010367
735.358413	0.010326
735.556360	0.010197
735.754288	0.010032
735.952198	0.010073
736.150090	0.009999
736.347963	0.009611
736.545818	0.009313
736.743655	0.009189
736.941474	0.009042
737.139275	0.008907
737.337057	0.008748
737.534821	0.008515
737.732567	0.008443
737.930295	0.008175
738.128005	0.008163
738.325696	0.008199
738.523369	0.008174
738.721024	0.008226
738.918660	0.008138
739.116279	0.008314
739.313879	0.008705
739.511461	0.008795
739.709024	0.008875
739.906570	0.008905
740.104097	0.008919
740.301606	0.008899
740.499097	0.008792
740.696569	0.008928
740.894024	0.008782
741.091460	0.008547
741.288878	0.008514
741.486277	0.008784
741.683659	0.008881
741.881022	0.008854
742.078367	0.008937
742.275694	0.009048
742.473002	0.009040
742.670293	0.009021
742.867565	0.009193
743.064819	0.009263
743.262054	0.009071
743.459272	0.009054
743.656471	0.009271
743.853652	0.009323
744.050815	0.009280
744.247959	0.009323
744.445085	0.009516
744.642194	0.009456
744.839283	0.009479
745.036355	0.009592
745.233408	0.009709
745.430444	0.009638
745.627461	0.009593
745.824459	0.009754
746.021440	0.009956
746.218402	0.010008
746.415346	0.009995
746.612272	0.009946
746.809180	0.010176
747.006069	0.010258
747.202940	0.010097
747.399793	0.010109
747.596628	0.010000
747.793444	0.009728
747.990243	0.009597
748.187023	0.009427
748.383784	0.009452
748.580528	0.009156
748.777253	0.008862
748.973960	0.009036
749.170649	0.008985
749.367320	0.009059
749.563973	0.009019
749.760607	0.009007
749.957223	0.009174
750.153821	0.009164
750.350400	0.009192
750.546962	0.009241
750.743505	0.009133
750.940030	0.009161
751.136536	0.009253
751.333025	0.009567
751.529495	0.009664
751.725947	0.009874
751.922381	0.009865
752.118796	0.009975
752.315194	0.010079
752.511573	0.010056
752.707934	0.010198
752.904276	0.010102
753.100601	0.009906
753.296907	0.009906
753.493195	0.009902
753.689465	0.009942
753.885716	0.009961
754.081949	0.009999
754.278164	0.010163
754.474361	0.010088
754.670540	0.010098
754.866700	0.010163
755.062843	0.010143
755.258967	0.009970
755.455072	0.009979
755.651160	0.010021
755.847229	0.010056
756.043280	0.010040
756.239313	0.010135
756.435328	0.010222
756.631324	0.010236
756.827302	0.010592
757.023262	0.010690
757.219204	0.010800
757.415127	0.010660
757.611033	0.010565
757.806920	0.010546
758.002788	0.010488
758.198639	0.010309
758.394471	0.010470
758.590286	0.010249
758.786081	0.010244
758.981859	0.010079
759.177619	0.010222
759.373360	0.010428
759.569083	0.010644
759.764788	0.010747
759.960474	0.010968
760.156143	0.010907
760.351793	0.010906
760.547425	0.011067
760.743038	0.011220
760.938634	0.011076
761.134211	0.011108
761.329770	0.011005
761.525311	0.010811
761.720833	0.010776
761.916338	0.010742
762.111824	0.010833
762.307292	0.010826
762.502741	0.010808
762.698173	0.010794
762.893586	0.010739
763.088981	0.010624
763.284358	0.010663
763.479716	0.010585
763.675057	0.010661
763.870379	0.010642
764.065683	0.010385
764.260968	0.010527
764.456236	0.010731
764.651485	0.010606
764.846716	0.010693
765.041929	0.010615
765.237123	0.010727
765.432299	0.010591
765.627457	0.010652
765.822597	0.010889
766.017719	0.010792
766.212822	0.010570
766.407907	0.010713
766.602974	0.010697
766.798023	0.010714
766.993054	0.010474
767.188066	0.010524
767.383060	0.010369
767.578036	0.010230
767.772993	0.010059
767.967933	0.010383
768.162854	0.010396
768.357757	0.010383
768.552642	0.010599
768.747508	0.010809
768.942356	0.010918
769.137186	0.010814
769.331998	0.010925
769.526792	0.011107
769.721567	0.011071
769.916324	0.011050
770.111063	0.011124
770.305784	0.011074
770.500486	0.011129
770.695171	0.011126
770.889837	0.011379
771.084484	0.011303
771.279114	0.011140
771.473725	0.011093
771.668318	0.011057
771.862893	0.011124
772.057450	0.011206
772.251988	0.011308
772.446509	0.011226
772.641011	0.011217
772.835494	0.011243
773.029960	0.011465
773.224407	0.011464
773.418836	0.011665
773.613247	0.011541
773.807640	0.011568
774.002014	0.011504
774.196370	0.011608
774.390708	0.011512
774.585028	0.011550
774.779330	0.011314
774.973613	0.011296
775.167878	0.011181
775.362125	0.011237
775.556354	0.011039
775.750564	0.011033
775.944756	0.010930
776.138930	0.010995
776.333086	0.010920
776.527223	0.011074
776.721343	0.010964
776.915444	0.011005
777.109526	0.011082
777.303591	0.011144
777.497637	0.011047
777.691666	0.011068
777.885676	0.010943
778.079667	0.010983
778.273641	0.010931
778.467596	0.010984
778.661533	0.011060
778.855452	0.011125
779.049352	0.011216
779.243235	0.011269
779.437099	0.011365
779.630945	0.011509
779.824773	0.011663
780.018582	0.011776
780.212373	0.011904
780.406146	0.011826
780.599901	0.011695
780.793638	0.011763
780.987356	0.011818
781.181056	0.011904
781.374738	0.011906
781.568402	0.011847
781.762047	0.011870
781.955674	0.011805
782.149283	0.011838
782.342874	0.011903
782.536447	0.011888
782.730001	0.011969
782.923537	0.011809
783.117055	0.011805
783.310555	0.011750
783.504036	0.011673
783.697499	0.011592
783.890944	0.011537
784.084371	0.011491
784.277780	0.011571
784.471170	0.011494
784.664542	0.011547
784.857896	0.011504
785.051231	0.011607
785.244549	0.011604
785.437848	0.011760
785.631129	0.011882
785.824392	0.011904
786.017636	0.011796
786.210863	0.011933
786.404071	0.011998
786.597260	0.012184
786.790432	0.012150
786.983585	0.012171
787.176721	0.012076
787.369838	0.012082
787.562936	0.012092
787.756017	0.012137
787.949079	0.011915
788.142123	0.011902
788.335149	0.011845
788.528156	0.011817
788.721146	0.012033
788.914117	0.012182
789.107070	0.012116
789.300005	0.012323
789.492921	0.012388
789.685819	0.012566
789.878699	0.012632
790.071561	0.012637
790.264405	0.012704
790.457230	0.012290
790.650037	0.012279
790.842826	0.012286
791.035597	0.012014
791.228349	0.012093
791.421084	0.012189
791.613800	0.012085
791.806497	0.012053
791.999177	0.012073
792.191838	0.012575
792.384481	0.012378
792.577106	0.012320
792.769713	0.012413
792.962301	0.012385
793.154871	0.012422
793.347423	0.012522
793.539957	0.012368
793.732473	0.012290
793.924970	0.012136
794.117449	0.012262
794.309910	0.012374
794.502353	0.012232
794.694777	0.012169
794.887183	0.012107
795.079571	0.012072
795.271941	0.012176
795.464293	0.012202
795.656626	0.012320
795.848941	0.012464
796.041238	0.012401
796.233516	0.012440
796.425777	0.012351
796.618019	0.012079
796.810243	0.012040
797.002449	0.012140
797.194636	0.012383
797.386805	0.012215
797.578956	0.012207
797.771089	0.012087
797.963204	0.012232
798.155300	0.012381
798.347378	0.012563
798.539438	0.012615
798.731480	0.012665
798.923503	0.012383
799.115509	0.012409
799.307496	0.012331
799.499465	0.012552
799.691415	0.012534
799.883348	0.012417
800.075262	0.012319
800.267158	0.012529
800.459035	0.012450
800.650895	0.012514
800.842736	0.012535
801.034559	0.012439
801.226364	0.012449
801.418150	0.012525
801.609919	0.012644
801.801669	0.012814
801.993401	0.012816
802.185114	0.012841
802.376810	0.012881
802.568487	0.012707
802.760146	0.012912
802.951787	0.012860
803.143409	0.012868
803.335014	0.012693
803.526600	0.012615
803.718168	0.012434
803.909717	0.012442
804.101249	0.012560
804.292762	0.012850
804.484257	0.012694
804.675734	0.012887
804.867192	0.012867
805.058632	0.012939
805.250054	0.012774
805.441458	0.012708
805.632844	0.012663
805.824211	0.012548
806.015561	0.012524
806.206891	0.012503
806.398204	0.012239
806.589499	0.012200
806.780775	0.012353
806.972033	0.012602
807.163273	0.012707
807.354495	0.012901
807.545698	0.012915
807.736883	0.012797
807.928050	0.012793
808.119199	0.012692
808.310329	0.012764
808.501441	0.012523
808.692535	0.012522
808.883611	0.012432
809.074669	0.012196
809.265708	0.012303
809.456729	0.012003
809.647732	0.012194
809.838717	0.012424
810.029683	0.012304
810.220632	0.012400
810.411562	0.012334
810.602474	0.012488
810.793367	0.012530
810.984242	0.012246
811.175100	0.012516
811.365938	0.012456
811.556759	0.012412
811.747562	0.012337
811.938346	0.012355
812.129112	0.012304
812.319860	0.012042
812.510589	0.011995
812.701300	0.012130
812.891994	0.012080
813.082668	0.012034
813.273325	0.012009
813.463964	0.012030
813.654584	0.011987
813.845186	0.011834
814.035769	0.011764
814.226335	0.011780
814.416882	0.011874
814.607411	0.011897
814.797922	0.011967
814.988415	0.011952
815.178889	0.012152
815.369345	0.012258
815.559783	0.012469
815.750203	0.012687
815.940605	0.012840
816.130988	0.012772
816.321353	0.012741
816.511700	0.012763
816.702028	0.012807
816.892339	0.012726
817.082631	0.012451
817.272905	0.012436
817.463161	0.012433
817.653398	0.012402
817.843617	0.012240
818.033819	0.012066
818.224001	0.012149
818.414166	0.011984
818.604312	0.011979
818.794440	0.011947
818.984550	0.011960
819.174642	0.011941
819.364716	0.011813
819.554771	0.011993
819.744808	0.012205
819.934827	0.011929
820.124827	0.011889
820.314810	0.011855
820.504774	0.011944
820.694720	0.011794
820.884647	0.011789
821.074557	0.011652
821.264448	0.011558
821.454321	0.011461
821.644176	0.011260
821.834012	0.011364
822.023831	0.011241
822.213631	0.011349
822.403413	0.011519
822.593176	0.011267
822.782922	0.011339
822.972649	0.011176
823.162358	0.011072
823.352049	0.011282
823.541721	0.011296
823.731376	0.011349
823.921012	0.011393
824.110629	0.011241
824.300229	0.011407
824.489811	0.011423
824.679374	0.011503
824.868919	0.011467
825.058445	0.011386
825.247954	0.011294
825.437444	0.011199
825.626916	0.010888
825.816370	0.010923
826.005806	0.010948
826.195223	0.010970
826.384622	0.011032
826.574003	0.011081
826.763366	0.010982
826.952711	0.010857
827.142037	0.010896
827.331345	0.011035
827.520635	0.011031
827.709906	0.010884
827.899160	0.010682
828.088395	0.010555
828.277612	0.010826
828.466810	0.010904
828.655991	0.010809
828.845153	0.010804
829.034297	0.010921
829.223423	0.010920
829.412531	0.010997
829.601620	0.011148
829.790691	0.011071
829.979744	0.010601
830.168779	0.010494
830.357795	0.010694
830.546793	0.010753
830.735773	0.010716
830.924735	0.010729
831.113679	0.010678
831.302604	0.010575
831.491511	0.010573
831.680400	0.010725
831.869271	0.010817
832.058123	0.010713
832.246957	0.010606
832.435773	0.010493
832.624571	0.010339
832.813351	0.010405
833.002112	0.010515
833.190855	0.010622
833.379580	0.010593
833.568287	0.010642
833.756975	0.010547
833.945645	0.010587
834.134297	0.010536
834.322931	0.010457
834.511547	0.010302
834.700144	0.010294
834.888723	0.010231
835.077284	0.010240
835.265826	0.010183
835.454351	0.010339
835.642857	0.010198
835.831345	0.010121
836.019815	0.010169
836.208266	0.010042
836.396699	0.010120
836.585114	0.010245
836.773511	0.010426
836.961890	0.010387
837.150250	0.010568
837.338592	0.010682
837.526916	0.010923
837.715222	0.010935
837.903510	0.011293
838.091779	0.011252
838.280030	0.011311
838.468263	0.011046
838.656477	0.011017
838.844674	0.011089
839.032852	0.011335
839.221012	0.011361
839.409153	0.011363
839.597277	0.011158
839.785382	0.011145
839.973469	0.011064
840.161538	0.011318
840.349589	0.011385
840.537621	0.011223
840.725635	0.010804
840.913631	0.010654
841.101609	0.010622
841.289568	0.010560
841.477509	0.010471
841.665432	0.010588
841.853337	0.010382
842.041224	0.010388
842.229092	0.010558
842.416942	0.010581
842.604774	0.010691
842.792588	0.010900
842.980383	0.011131
843.168160	0.011238
843.355919	0.010989
843.543660	0.011100
843.731382	0.011019
843.919087	0.010922
844.106773	0.011180
844.294441	0.011302
844.482090	0.011505
844.669722	0.011406
844.857335	0.011273
845.044930	0.011428
845.232507	0.011457
845.420065	0.011709
845.607605	0.011561
845.795127	0.011418
845.982631	0.011269
846.170117	0.010832
846.357584	0.011018
846.545033	0.010784
846.732464	0.010863
846.919877	0.010891
847.107272	0.010788
847.294648	0.010807
847.482006	0.011012
847.669346	0.011052
847.856667	0.011172
848.043971	0.011018
848.231256	0.011290
848.418523	0.011143
848.605771	0.011060
848.793002	0.010947
848.980214	0.011016
849.167408	0.011087
849.354584	0.011188
849.541742	0.011208
849.728881	0.011198
849.916002	0.011331
850.103105	0.011691
850.290190	0.011751
850.477256	0.011925
850.664304	0.011921
850.851334	0.011494
851.038346	0.011416
851.225340	0.011402
851.412315	0.011537
851.599272	0.011248
851.786211	0.011020
851.973132	0.011172
852.160034	0.011133
852.346918	0.010819
852.533784	0.011161
852.720632	0.011031
852.907462	0.011084
853.094273	0.010984
853.281066	0.011426
853.467841	0.011360
853.654598	0.011107
853.841336	0.011039
854.028056	0.011367
854.214758	0.011296
854.401442	0.011550
854.588107	0.011691
854.774755	0.011894
854.961384	0.011782
855.147995	0.011941
855.334587	0.012047
855.521162	0.012084
855.707718	0.012343
855.894256	0.012397
856.080775	0.012491
856.267277	0.012524
856.453760	0.012314
856.640225	0.012301
856.826672	0.012126
857.013101	0.012490
857.199511	0.012673
857.385903	0.012469
857.572277	0.012729
857.758633	0.012639
857.944970	0.012608
858.131290	0.012797
858.317591	0.012781
858.503873	0.012981
858.690138	0.012601
858.876384	0.012589
859.062612	0.012681
859.248822	0.012591
859.435014	0.012473
859.621188	0.012494
859.807343	0.012605
859.993480	0.012975
860.179599	0.012759
860.365699	0.013352
860.551781	0.013560
860.737846	0.013723
860.923891	0.013855
861.109919	0.013966
861.295929	0.014071
861.481920	0.013954
861.667893	0.013640
861.853848	0.014146
862.039784	0.014014
862.225702	0.014042
862.411603	0.013894
862.597484	0.013678
862.783348	0.013701
862.969193	0.013830
863.155021	0.013851
863.340830	0.013848
863.526620	0.013704
863.712393	0.013425
863.898147	0.013281
864.083883	0.013414
864.269601	0.013630
864.455301	0.014014
864.640982	0.013938
864.826645	0.013916
865.012290	0.013879
865.197917	0.013836
865.383526	0.013907
865.569116	0.013914
865.754688	0.013985
865.940242	0.013782
866.125777	0.013451
866.311295	0.013393
866.496794	0.013546
866.682275	0.013731
866.867737	0.013731
867.053182	0.013736
867.238608	0.013904
867.424016	0.013701
867.609406	0.013871
867.794778	0.014100
867.980131	0.014137
868.165466	0.014234
868.350783	0.014237
868.536082	0.014273
868.721362	0.014349
868.906625	0.014062
869.091869	0.014124
869.277094	0.013943
869.462302	0.013708
869.647491	0.013655
869.832662	0.013530
870.017815	0.013492
870.202950	0.013450
870.388066	0.013502
870.573165	0.013676
870.758245	0.013819
870.943306	0.013745
871.128350	0.013873
871.313375	0.013860
871.498382	0.013868
871.683371	0.013917
871.868342	0.013796
872.053294	0.013661
872.238229	0.013738
872.423144	0.013646
872.608042	0.013961
872.792922	0.013931
872.977783	0.014116
873.162626	0.014005
873.347451	0.014236
873.532258	0.014336
873.717046	0.014746
873.901816	0.014715
874.086568	0.014553
874.271302	0.014211
874.456017	0.014354
874.640715	0.014323
874.825394	0.014839
875.010055	0.014377
875.194697	0.014451
875.379322	0.014263
875.563928	0.014207
875.748516	0.014277
875.933085	0.014319
876.117637	0.013930
876.302170	0.013741
876.486685	0.013206
876.671182	0.013314
876.855661	0.013294
877.040121	0.013268
877.224563	0.013272
877.408987	0.013300
877.593393	0.013338
877.777780	0.013629
877.962150	0.013533
878.146501	0.013694
878.330833	0.014012
878.515148	0.013911
878.699444	0.013950
878.883722	0.014039
879.067982	0.014500
879.252224	0.014709
879.436447	0.014725
879.620653	0.014898
879.804840	0.014934
879.989008	0.014959
880.173159	0.014982
880.357291	0.014691
880.541405	0.014727
880.725501	0.014363
880.909579	0.014585
881.093638	0.014318
881.277680	0.014446
881.461703	0.014447
881.645707	0.014391
881.829694	0.014526
882.013662	0.014711
882.197612	0.014733
882.381544	0.014840
882.565458	0.014454
882.749353	0.014721
882.933230	0.014770
883.117089	0.014908
883.300930	0.014827
883.484753	0.014888
883.668557	0.014980
883.852343	0.015008
884.036111	0.014981
884.219861	0.015476
884.403592	0.015660
884.587305	0.015375
884.771000	0.015297
884.954677	0.015573
885.138335	0.015463
885.321976	0.015522
885.505598	0.015561
885.689201	0.015410
885.872787	0.014931
886.056354	0.014515
886.239904	0.014666
886.423434	0.014516
886.606947	0.014391
886.790442	0.014185
886.973918	0.014257
887.157376	0.014182
887.340816	0.014360
887.524237	0.014534
887.707641	0.014862
887.891026	0.014643
888.074393	0.014775
888.257741	0.014502
888.441072	0.014572
888.624384	0.014228
888.807678	0.013806
888.990954	0.013386
889.174211	0.013262
889.357451	0.013225
889.540672	0.013240
889.723875	0.013239
889.907059	0.013450
890.090226	0.013737
890.273374	0.014000
890.456504	0.014312
890.639616	0.014802
890.822709	0.014662
891.005785	0.014729
891.188842	0.014838
891.371881	0.014787
891.554901	0.014763
891.737904	0.014809
891.920888	0.014579
892.103854	0.014383
892.286802	0.013832
892.469731	0.014035
892.652643	0.013851
892.835536	0.013916
893.018410	0.013943
893.201267	0.013697
893.384106	0.013479
893.566926	0.013910
893.749728	0.014335
893.932511	0.014567
894.115277	0.014524
894.298024	0.014403
894.480753	0.014494
894.663464	0.014497
894.846157	0.014908
895.028831	0.014906
895.211487	0.014725
895.394125	0.014829
895.576745	0.014961
895.759346	0.015127
895.941930	0.014923
896.124495	0.014771
896.307041	0.015011
896.489570	0.014955
896.672080	0.015330
896.854573	0.015292
897.037046	0.014930
897.219502	0.014891
897.401940	0.014526
897.584359	0.014819
897.766760	0.014807
897.949143	0.014590
898.131507	0.014683
898.313854	0.014346
898.496182	0.014455
898.678492	0.014480
898.860783	0.014587
899.043057	0.014772
899.225312	0.014619
899.407549	0.015052
899.589768	0.015119
899.771968	0.014791
899.954151	0.014797
900.136315	0.014305
900.318461	0.014315
900.500588	0.014036
900.682698	0.014193
900.864789	0.014456
901.046862	0.014282
901.228917	0.014389
901.410953	0.014326
901.592971	0.014206
901.774972	0.014451
901.956953	0.014622
902.138917	0.014738
902.320862	0.014671
902.502790	0.014723
902.684699	0.014748
902.866589	0.014504
903.048462	0.015010
903.230316	0.014953
903.412152	0.014858
903.593970	0.014826
903.775770	0.015267
903.957551	0.015169
904.139314	0.014978
904.321059	0.014758
904.502786	0.014846
904.684494	0.014675
904.866185	0.014919
905.047857	0.015005
905.229510	0.014924
905.411146	0.014742
905.592763	0.014686
905.774363	0.014806
905.955943	0.015002
906.137506	0.014865
906.319051	0.014624
906.500577	0.014747
906.682085	0.014680
906.863575	0.014573
907.045046	0.014220
907.226500	0.014351
907.407935	0.014183
907.589352	0.014158
907.770750	0.013820
907.952131	0.013658
908.133493	0.013216
908.314837	0.013374
908.496163	0.013347
908.677470	0.013163
908.858760	0.012971
909.040031	0.012796
909.221284	0.012672
909.402518	0.012823
909.583735	0.013237
909.764933	0.013460
909.946113	0.013168
910.127275	0.013250
910.308418	0.013640
910.489544	0.013956
910.670651	0.014299
910.851740	0.014139
911.032810	0.014111
911.213863	0.013162
911.394897	0.012932
911.575913	0.012815
911.756911	0.012571
911.937890	0.012304
912.118851	0.011962
912.299794	0.011688
912.480719	0.011849
912.661626	0.011456
912.842514	0.011979
913.023384	0.011919
913.204236	0.011862
913.385070	0.011729
913.565886	0.011525
913.746683	0.011566
913.927462	0.011404
914.108223	0.011244
914.288965	0.011567
914.469690	0.011568
914.650396	0.011398
914.831084	0.011380
915.011754	0.011711
915.192405	0.011940
915.373038	0.011541
915.553653	0.011330
915.734250	0.011078
915.914829	0.010914
916.095389	0.010569
916.275931	0.010631
916.456455	0.010273
916.636961	0.009596
916.817448	0.009068
916.997917	0.009124
917.178368	0.009112
917.358801	0.009243
917.539216	0.009210
917.719612	0.009346
917.899990	0.009223
918.080350	0.009459
918.260692	0.009591
918.441015	0.010005
918.621320	0.009979
918.801607	0.010329
918.981876	0.009957
919.162127	0.009892
919.342359	0.009489
919.522573	0.009189
919.702769	0.009134
919.882947	0.008973
920.063106	0.008989
920.243247	0.009334
920.423370	0.009204
920.603475	0.009144
920.783562	0.009151
920.963630	0.009048
921.143680	0.009026
921.323712	0.009166
921.503725	0.009197
921.683721	0.009061
921.863698	0.008444
922.043657	0.008339
922.223598	0.008017
922.403520	0.007974
922.583424	0.008222
922.763311	0.008639
922.943178	0.008230
923.123028	0.007877
923.302859	0.007752
923.482673	0.008084
923.662467	0.007822
923.842244	0.008094
924.022003	0.007962
924.201743	0.007969
924.381465	0.007912
924.561169	0.008276
924.740854	0.008713
924.920522	0.008254
925.100171	0.008054
925.279802	0.007616
925.459414	0.007465
925.639009	0.007482
925.818585	0.007217
925.998143	0.006664
926.177683	0.006086
926.357205	0.005746
926.536708	0.005521
926.716193	0.005079
926.895660	0.005673
927.075109	0.005335
927.254539	0.005205
927.433951	0.005041
927.613345	0.005283
927.792721	0.005330
927.972079	0.005113
928.151418	0.005166
928.330739	0.004896
928.510042	0.004067
928.689327	0.004201
928.868593	0.003632
929.047841	0.003418
929.227071	0.002765
929.406283	0.002601
929.585476	0.002632
929.764652	0.002564
929.943809	0.002914
930.122948	0.003339
930.302068	0.003012
930.481171	0.003473
930.660255	0.002940
930.839321	0.002967
931.018369	0.002854
931.197398	0.002643
931.376409	0.002627
931.555402	0.002513
931.734377	0.002300
931.913334	0.002757
932.092272	0.002082
932.271192	0.002086
932.450094	0.002036
932.628978	0.002177
932.807844	0.002292
932.986691	0.001922
933.165520	0.001184
933.344331	0.000932
933.523123	0.000605
933.701898	0.000664
933.880654	0.000655
934.059392	0.000526
934.238111	0.000236
934.416813	-0.000391
934.595496	-0.000270
934.774161	-0.000182
934.952808	-0.000727
935.131437	-0.001220
935.310047	-0.001210
935.488639	-0.001035
935.667213	-0.001158
935.845769	-0.002010
936.024306	-0.001573
936.202825	-0.002293
936.381326	-0.002350
936.559809	-0.002249
936.738274	-0.002238
936.916720	-0.002648
937.095148	-0.002708
937.273558	-0.003482
937.451950	-0.003470
937.630323	-0.003995
937.808678	-0.003017
937.987015	-0.003436
938.165334	-0.003536
938.343635	-0.003842
938.521917	-0.004127
938.700181	-0.004518
938.878427	-0.004283
939.056655	-0.004253
939.234864	-0.003932
939.413055	-0.004891
939.591228	-0.005022
939.769383	-0.005008
939.947519	-0.005066
940.125638	-0.004520
940.303738	-0.004395
940.481820	-0.004934
940.659883	-0.004758
940.837929	-0.005578
941.015956	-0.005117
941.193965	-0.005030
941.371955	-0.005650
941.549928	-0.005586
941.727882	-0.006092
941.905818	-0.006342
942.083736	-0.005617
942.261636	-0.005806
942.439517	-0.005594
942.617380	-0.005940
942.795225	-0.005778
942.973052	-0.005973
943.150860	-0.006355
943.328651	-0.006417
943.506423	-0.006862
943.684176	-0.006856
943.861912	-0.007138
944.039629	-0.007580
944.217328	-0.007803
944.395009	-0.007903
944.572672	-0.007578
944.750317	-0.007764
944.927943	-0.007445
945.105551	-0.007633
945.283141	-0.008223
945.460712	-0.008412
945.638265	-0.008567
945.815801	-0.008532
945.993317	-0.007802
946.170816	-0.007575
946.348297	-0.007963
946.525759	-0.007828
946.703203	-0.007499
946.880629	-0.007579
947.058036	-0.006298
947.235425	-0.006337
947.412797	-0.006095
947.590149	-0.006243
947.767484	-0.006555
947.944800	-0.006207
948.122099	-0.008398
948.299379	-0.008147
948.476640	-0.007716
948.653884	-0.008079
948.831109	-0.007420
949.008316	-0.008918
949.185505	-0.009975
949.362676	-0.010220
949.539828	-0.010564
949.716962	-0.008554
949.894078	-0.009370
950.071176	-0.010258
950.248256	-0.011595
950.425317	-0.012565
950.602360	-0.011900
950.779385	-0.011167
950.956391	-0.011975
951.133380	-0.011579
951.310350	-0.011711
951.487302	-0.010647
951.664235	-0.008181
951.841151	-0.007878
952.018048	-0.007617
952.194927	-0.007661
952.371788	-0.008438
952.548631	-0.007231
952.725455	-0.006881
952.902261	-0.008043
953.079049	-0.008887
953.255819	-0.010457
953.432570	-0.010075
953.609303	-0.009263
953.786018	-0.008116
953.962715	-0.007177
954.139394	-0.006474
954.316054	-0.005745
954.492696	-0.004489
954.669320	-0.004000
954.845926	-0.004240
955.022513	-0.003972
955.199083	-0.004099
955.375634	-0.005201
955.552166	-0.006433
955.728681	-0.006528
955.905177	-0.006612
956.081655	-0.008438
956.258115	-0.008303
956.434557	-0.006401
956.610980	-0.006914
956.787385	-0.007244
956.963772	-0.005711
957.140141	-0.007045
957.316492	-0.007944
957.492824	-0.010275
957.669138	-0.008307
957.845434	-0.007978
958.021712	-0.008663
958.197971	-0.007943
958.374212	-0.007700
958.550435	-0.008698
958.726640	-0.006220
958.902826	-0.006170
959.078995	-0.004038
959.255145	-0.003730
959.431277	-0.004574
959.607390	-0.005419
959.783486	-0.003884
959.959563	-0.003756
960.135622	-0.002104
960.311662	-0.002760
960.487685	-0.001263
960.663689	0.000876
960.839675	0.000367
961.015643	0.000941
961.191593	0.002581
961.367524	-0.000508
961.543437	0.000466
961.719332	0.000327
961.895209	0.000984
962.071067	0.000955
962.246907	-0.000025
962.422730	0.001266
962.598533	0.002668
962.774319	0.002340
962.950086	0.003736
963.125835	0.003546
963.301566	0.003311
963.477279	0.004045
963.652973	0.004035
963.828650	0.003770
964.004308	0.002282
964.179947	0.002042
964.355569	0.000963
964.531172	0.002330
964.706757	0.002496
964.882324	0.003756
965.057873	0.004103
965.233403	0.002894
965.408916	0.002705
965.584410	0.001327
965.759885	0.000994
965.935343	0.000925
966.110782	0.000422
966.286203	0.000399
966.461606	-0.000689
966.636991	-0.001904
966.812357	-0.000431
966.987705	-0.000010
967.163035	0.002269
967.338347	0.001939
967.513641	0.002331
967.688916	0.002635
967.864173	0.002578
968.039412	0.002300
968.214632	0.002872
968.389835	0.003215
968.565019	0.003755
968.740185	0.005019
968.915333	0.005914
969.090462	0.006144
969.265573	0.005538
969.440667	0.006542
969.615741	0.006949
969.790798	0.007053
969.965836	0.007365
970.140856	0.006448
970.315858	0.006379
970.490842	0.006262
970.665808	0.007431
970.840755	0.009104
971.015684	0.008327
971.190595	0.008355
971.365487	0.008580
971.540362	0.008338
971.715218	0.008326
971.890056	0.007637
972.064875	0.006158
972.239677	0.005635
972.414460	0.004655
972.589225	0.004874
972.763972	0.005316
972.938700	0.005612
973.113411	0.005341
973.288103	0.006160
973.462777	0.005719
973.637432	0.006803
973.812070	0.007270
973.986689	0.007476
974.161290	0.006783
974.335873	0.007512
974.510437	0.007172
974.684984	0.006741
974.859512	0.005256
975.034022	0.006269
975.208513	0.006430
975.382987	0.007359
975.557442	0.007919
975.731879	0.009223
975.906298	0.008672
976.080698	0.008123
976.255080	0.008304
976.429445	0.010235
976.603790	0.008977
976.778118	0.009049
976.952427	0.008760
977.126719	0.007944
977.300992	0.006270
977.475246	0.005836
977.649483	0.007108
977.823701	0.007024
977.997901	0.003814
978.172083	0.004310
978.346247	0.004004
978.520392	0.002586
978.694519	0.002590
978.868628	0.002217
979.042719	0.001753
979.216791	0.002272
979.390845	0.001195
979.564882	0.003051
979.738899	0.002598
979.912899	0.004687
980.086880	0.005398
980.260843	0.006085
980.434788	0.008601
980.608715	0.009024
980.782623	0.007675
980.956514	0.008736
981.130386	0.009119
981.304240	0.011079
981.478075	0.009233
981.651892	0.008942
981.825692	0.008069
981.999472	0.006994
982.173235	0.007998
982.346980	0.009168
982.520706	0.009668
982.694414	0.009863
982.868104	0.010195
983.041775	0.011441
983.215428	0.011951
983.389064	0.012805
983.562680	0.012310
983.736279	0.012327
983.909860	0.011296
984.083422	0.012796
984.256966	0.011740
984.430491	0.010207
984.603999	0.009284
984.777488	0.009011
984.950959	0.007849
985.124412	0.008590
985.297847	0.006892
985.471263	0.007948
985.644661	0.006732
985.818041	0.008671
985.991403	0.008095
986.164747	0.008262
986.338072	0.009186
986.511379	0.010014
986.684668	0.010416
986.857938	0.011662
987.031191	0.010543
987.204425	0.011492
987.377641	0.011742
987.550839	0.013212
987.724018	0.011740
987.897179	0.010425
988.070322	0.009797
988.243447	0.010296
988.416554	0.008999
988.589642	0.009700
988.762712	0.008420
988.935764	0.006849
989.108798	0.005525
989.281813	0.006762
989.454811	0.007352
989.627790	0.006301
989.800751	0.005875
989.973693	0.007087
990.146617	0.006781
990.319524	0.008292
990.492412	0.008595
990.665281	0.009486
990.838133	0.010112
991.010966	0.009966
991.183781	0.011550
991.356578	0.010561
991.529356	0.011762
991.702117	0.012904
991.874859	0.012019
992.047583	0.013822
992.220288	0.014216
992.392976	0.014650
992.565645	0.014645
992.738296	0.014809
992.910929	0.015773
993.083543	0.013633
993.256139	0.013151
993.428718	0.012680
993.601277	0.010517
993.773819	0.008919
993.946342	0.008692
994.118848	0.008819
994.291335	0.008587
994.463803	0.008445
994.636254	0.009828
994.808686	0.009129
994.981100	0.008494
995.153496	0.009196
995.325874	0.009805
995.498233	0.009131
995.670574	0.007966
995.842897	0.008799
996.015202	0.008537
996.187488	0.007772
996.359757	0.007878
996.532007	0.008919
996.704239	0.008628
996.876452	0.009169
997.048648	0.009071
997.220825	0.009692
997.392984	0.008766
997.565124	0.008095
997.737247	0.007366
997.909351	0.007450
998.081437	0.006454
998.253505	0.007604
998.425554	0.008260
998.597586	0.008245
998.769599	0.009504
998.941594	0.009350
999.113571	0.009318
999.285529	0.009609
999.457469	0.009161
999.629391	0.009929
999.801295	0.009219
999.973181	0.007395
1000.145048	0.007045
1000.316897	0.006007
1000.488728	0.006947
1000.660541	0.007079
1000.832335	0.006661
1001.004111	0.007369
1001.175869	0.009363
1001.347609	0.008757
1001.519331	0.009171
1001.691034	0.010766
1001.862719	0.012168
1002.034386	0.011518
1002.206035	0.011879
1002.377665	0.013784
1002.549277	0.014745
1002.720871	0.012404
1002.892447	0.012566
1003.064004	0.014117
1003.235544	0.013304
1003.407065	0.011133
1003.578568	0.011930
1003.750052	0.011824
1003.921519	0.011249
1004.092967	0.010380
1004.264397	0.011096
1004.435809	0.010832
1004.607202	0.008559
1004.778577	0.007532
1004.949934	0.009076
1005.121273	0.009239
1005.292594	0.009254
1005.463896	0.008829
1005.635180	0.011042
1005.806446	0.010786
1005.977694	0.011961
1006.148923	0.014526
1006.320135	0.016320
1006.491328	0.014106
1006.662503	0.014834
1006.833659	0.016065
1007.004798	0.015173
1007.175918	0.013684
1007.347020	0.013398
1007.518103	0.013739
1007.689169	0.012455
1007.860216	0.011804
1008.031245	0.014595
1008.202256	0.012889
1008.373248	0.012485
1008.544223	0.014780
1008.715179	0.014348
1008.886117	0.013914
1009.057036	0.014006
1009.227938	0.013982
1009.398821	0.013418
1009.569686	0.012617
1009.740533	0.013116
1009.911361	0.012267
1010.082172	0.011391
1010.252964	0.011195
1010.423738	0.011442
1010.594493	0.010122
1010.765231	0.010685
1010.935950	0.010205
1011.106651	0.009886
1011.277334	0.010316
1011.447998	0.011477
1011.618645	0.010507
1011.789273	0.012261
1011.959882	0.012637
1012.130474	0.012066
1012.301048	0.012100
1012.471603	0.012352
1012.642140	0.012630
1012.812658	0.011241
1012.983159	0.009696
1013.153641	0.009231
1013.324105	0.006872
1013.494551	0.007365
1013.664979	0.008866
1013.835388	0.008261
1014.005779	0.009205
1014.176152	0.007700
1014.346507	0.008131
1014.516843	0.009428
1014.687162	0.011104
1014.857462	0.011067
1015.027744	0.010528
1015.198007	0.010557
1015.368252	0.008936
1015.538480	0.007798
1015.708689	0.009239
1015.878879	0.008961
1016.049052	0.007048
1016.219206	0.006081
1016.389342	0.005943
1016.559460	0.004893
1016.729559	0.004463
1016.899641	0.006529
1017.069704	0.007962
1017.239749	0.007508
1017.409775	0.008507
1017.579784	0.009688
1017.749774	0.009766
1017.919746	0.009176
1018.089700	0.010095
1018.259635	0.009497
1018.429553	0.010399
1018.599452	0.008941
1018.769333	0.009430
1018.939195	0.008785
1019.109040	0.009808
1019.278866	0.010849
1019.448674	0.011786
1019.618464	0.012355
1019.788235	0.011786
1019.957989	0.011067
1020.127724	0.012770
1020.297441	0.011782
1020.467139	0.012104
1020.636820	0.010113
1020.806482	0.009685
1020.976126	0.011306
1021.145752	0.010621
1021.315359	0.011267
1021.484948	0.009805
1021.654519	0.009591
1021.824072	0.010493
1021.993607	0.010215
1022.163123	0.011260
1022.332621	0.010088
1022.502101	0.009324
1022.671563	0.008520
1022.841007	0.008556
1023.010432	0.009312
1023.179839	0.009091
1023.349228	0.009013
1023.518598	0.009524
1023.687951	0.008981
1023.857285	0.009408
1024.026601	0.009498
1024.195899	0.009744
1024.365178	0.009661
1024.534439	0.010118
1024.703682	0.009048
1024.872907	0.008193
1025.042114	0.007647
1025.211302	0.008342
1025.380472	0.008921
1025.549624	0.007427
1025.718758	0.009633
1025.887873	0.009524
1026.056970	0.008993
1026.226049	0.009959
1026.395110	0.010899
1026.564153	0.011355
1026.733177	0.011555
1026.902183	0.011119
1027.071171	0.012334
1027.240141	0.010846
1027.409092	0.010316
1027.578026	0.010009
1027.746940	0.010169
1027.915837	0.010343
1028.084716	0.009100
1028.253576	0.009018
1028.422418	0.008783
1028.591242	0.009264
1028.760048	0.009578
1028.928835	0.009825
1029.097604	0.011523
1029.266355	0.011323
1029.435088	0.011919
1029.603803	0.013187
1029.772499	0.012582
1029.941177	0.012688
1030.109837	0.011455
1030.278478	0.010230
1030.447102	0.011189
1030.615707	0.010280
1030.784294	0.009668
1030.952863	0.008226
1031.121413	0.008024
1031.289945	0.008364
1031.458460	0.008294
1031.626955	0.008825
1031.795433	0.010535
1031.963892	0.010462
1032.132334	0.009817
1032.300756	0.010201
1032.469161	0.010149
1032.637548	0.009597
1032.805916	0.009416
1032.974266	0.011197
1033.142598	0.010693
1033.310911	0.010052
1033.479207	0.009904
1033.647484	0.010337
1033.815743	0.011624
1033.983983	0.011780
1034.152206	0.011508
1034.320410	0.012064
1034.488596	0.009747
1034.656764	0.008425
1034.824914	0.008207
1034.993045	0.008138
1035.161158	0.007972
1035.329253	0.006789
1035.497330	0.006377
1035.665388	0.006108
1035.833428	0.005912
1036.001450	0.005533
1036.169454	0.007015
1036.337440	0.007075
1036.505407	0.006882
1036.673356	0.006229
1036.841287	0.006452
1037.009200	0.007924
1037.177094	0.010594
1037.344970	0.011181
1037.512828	0.012610
1037.680668	0.012358
1037.848489	0.013729
1038.016293	0.012288
1038.184078	0.013578
1038.351845	0.013978
1038.519593	0.014401
1038.687324	0.011643
1038.855036	0.011460
1039.022730	0.011821
1039.190406	0.012557
1039.358063	0.011822
1039.525702	0.012643
1039.693323	0.011414
1039.860926	0.009882
1040.028511	0.008306
1040.196077	0.009714
1040.363625	0.009232
1040.531155	0.008876
1040.698667	0.009868
1040.866161	0.008923
1041.033636	0.009730
1041.201093	0.010655
1041.368532	0.010600
1041.535952	0.012530
1041.703355	0.011215
1041.870739	0.011663
1042.038105	0.011177
1042.205452	0.010020
1042.372782	0.010086
1042.540093	0.008549
1042.707386	0.008110
1042.874661	0.010750
1043.041918	0.008357
1043.209156	0.008432
1043.376376	0.007009
1043.543578	0.007511
1043.710762	0.007120
1043.877927	0.005804
1044.045074	0.007407
1044.212203	0.007921
1044.379314	0.005487
1044.546407	0.005574
1044.713481	0.006072
1044.880537	0.007329
1045.047575	0.008140
1045.214595	0.008439
1045.381596	0.010025
1045.548579	0.009997
1045.715544	0.010808
1045.882491	0.011535
1046.049420	0.014609
1046.216330	0.016499
1046.383222	0.015311
1046.550096	0.014770
1046.716951	0.014493
1046.883789	0.014839
1047.050608	0.015151
1047.217409	0.014819
1047.384192	0.014976
1047.550956	0.012259
1047.717703	0.010262
1047.884431	0.010555
1048.051140	0.008926
1048.217832	0.008846
1048.384505	0.007829
1048.551161	0.007624
1048.717798	0.007618
1048.884416	0.007038
1049.051017	0.007166
1049.217599	0.008049
1049.384163	0.009095
1049.550709	0.011053
1049.717237	0.011097
1049.883746	0.012578
1050.050237	0.013981
1050.216710	0.013284
1050.383165	0.014086
1050.549601	0.015415
1050.716019	0.014630
1050.882420	0.014918
1051.048801	0.013859
1051.215165	0.014101
1051.381510	0.013874
1051.547837	0.012601
1051.714146	0.012248
1051.880437	0.011178
1052.046709	0.010276
1052.212964	0.011928
1052.379200	0.011123
1052.545417	0.010253
1052.711617	0.009766
1052.877798	0.007993
1053.043961	0.007787
1053.210106	0.007165
1053.376233	0.007335
1053.542341	0.008871
1053.708432	0.006660
1053.874504	0.005838
1054.040557	0.006313
1054.206593	0.007323
1054.372610	0.007329
1054.538609	0.007184
1054.704590	0.008869
1054.870553	0.009890
1055.036497	0.007500
1055.202424	0.009002
1055.368331	0.010795
1055.534221	0.011528
1055.700093	0.011941
1055.865946	0.013036
1056.031781	0.013445
1056.197598	0.014318
1056.363397	0.013324
1056.529177	0.015161
1056.694939	0.015064
1056.860683	0.012738
1057.026409	0.013266
1057.192116	0.010290
1057.357806	0.010628
1057.523477	0.010543
1057.689130	0.010317
1057.854764	0.008947
1058.020381	0.008123
1058.185979	0.006637
1058.351559	0.007765
1058.517120	0.006956
1058.682664	0.007984
1058.848189	0.008374
1059.013696	0.009058
1059.179185	0.007348
1059.344656	0.009167
1059.510108	0.010938
1059.675542	0.011066
1059.840958	0.012078
1060.006356	0.012890
1060.171735	0.012717
1060.337096	0.012048
1060.502439	0.011826
1060.667764	0.011802
1060.833071	0.011530
1060.998359	0.008505
1061.163629	0.009182
1061.328881	0.009083
1061.494115	0.009465
1061.659330	0.010083
1061.824527	0.010141
1061.989706	0.008418
1062.154867	0.007750
1062.320010	0.008217
1062.485134	0.008805
1062.650240	0.009864
1062.815328	0.007946
1062.980398	0.006595
1063.145449	0.006419
1063.310482	0.006727
1063.475497	0.008232
1063.640494	0.008962
1063.805473	0.008472
1063.970433	0.008619
1064.135375	0.007008
1064.300299	0.009349
1064.465204	0.008236
1064.630092	0.008314
1064.794961	0.006530
1064.959812	0.008177
1065.124645	0.007152
1065.289459	0.006541
1065.454256	0.004322
1065.619034	0.004946
1065.783793	0.004155
1065.948535	0.004783
1066.113258	0.005844
1066.277964	0.005879
1066.442651	0.003957
1066.607319	0.004387
1066.771970	0.004949
1066.936602	0.007340
1067.101216	0.006923
1067.265812	0.006510
1067.430389	0.008131
1067.594949	0.007773
1067.759490	0.008956
1067.924013	0.007591
1068.088518	0.007249
1068.253004	0.006708
1068.417472	0.007558
1068.581922	0.007894
1068.746354	0.007884
1068.910768	0.006732
1069.075163	0.005848
1069.239540	0.005249
1069.403899	0.005509
1069.568240	0.007551
1069.732562	0.008387
1069.896866	0.006459
1070.061152	0.006908
1070.225420	0.006227
1070.389670	0.006541
1070.553901	0.006949
1070.718114	0.009234
1070.882309	0.011934
1071.046486	0.009894
1071.210644	0.007587
1071.374784	0.010277
1071.538906	0.009506
1071.703010	0.011705
1071.867096	0.010416
1072.031163	0.010166
1072.195212	0.007046
1072.359243	0.004974
1072.523256	0.006291
1072.687250	0.007048
1072.851226	0.004979
1073.015184	0.005262
1073.179124	0.002688
1073.343045	0.005132
1073.506949	0.005129
1073.670834	0.006133
1073.834701	0.006865
1073.998549	0.006378
1074.162380	0.008461
1074.326192	0.007780
1074.489986	0.007891
1074.653761	0.007339
1074.817519	0.005351
1074.981258	0.005486
1075.144979	0.004733
1075.308682	0.003728
1075.472367	0.002871
1075.636033	0.001499
1075.799681	0.003492
1075.963311	0.003305
1076.126923	0.004664
1076.290516	0.003605
1076.454092	0.003449
1076.617649	0.003996
1076.781187	0.004587
1076.944708	0.006776
1077.108210	0.007406
1077.271695	0.006769
1077.435160	0.007651
1077.598608	0.008679
1077.762038	0.009280
1077.925449	0.009699
1078.088842	0.010035
1078.252217	0.008513
1078.415573	0.007737
1078.578912	0.004403
1078.742232	0.004589
1078.905534	0.003213
1079.068817	0.000523
1079.232083	-0.000872
1079.395330	-0.002388
1079.558559	-0.001895
1079.721770	-0.000220
1079.884962	-0.002023
1080.048136	0.000468
1080.211293	0.002019
1080.374430	0.003419
1080.537550	0.006170
1080.700651	0.008355
1080.863735	0.009623
1081.026800	0.008220
1081.189846	0.006725
1081.352875	0.009155
1081.515885	0.007420
1081.678877	0.004154
1081.841851	0.005000
1082.004807	0.005275
1082.167744	0.006106
1082.330663	0.006966
1082.493564	0.007782
1082.656447	0.009482
1082.819312	0.011619
1082.982158	0.015544
1083.144986	0.017689
1083.307796	0.017259
1083.470587	0.017415
1083.633361	0.016376
1083.796116	0.016185
1083.958853	0.015664
1084.121571	0.014351
1084.284272	0.011412
1084.446954	0.007656
1084.609618	0.006745
1084.772264	0.005146
1084.934892	0.003394
1085.097501	0.003236
1085.260092	0.000209
1085.422665	0.002154
1085.585220	0.003671
1085.747756	0.003283
1085.910274	0.004961
1086.072774	0.004734
1086.235256	0.005495
1086.397720	0.004252
1086.560165	0.006196
1086.722592	0.009567
1086.885001	0.009859
1087.047392	0.009359
1087.209764	0.009966
1087.372119	0.010692
1087.534455	0.010795
1087.696772	0.010719
1087.859072	0.011806
1088.021353	0.009819
1088.183616	0.008567
1088.345861	0.007806
1088.508088	0.006629
1088.670296	0.005803
1088.832486	0.005004
1088.994658	0.003268
1089.156812	0.002655
1089.318948	0.000340
1089.481065	-0.000413
1089.643164	-0.000651
1089.805245	-0.001980
1089.967308	-0.003381
1090.129352	-0.005101
1090.291378	-0.005265
1090.453386	-0.004108
1090.615376	-0.005308
1090.777347	-0.001691
1090.939301	-0.000368
1091.101236	-0.000152
1091.263153	-0.002928
1091.425051	-0.001060
1091.586932	0.000508
1091.748794	0.001899
1091.910638	0.003692
1092.072463	0.004256
1092.234271	0.004207
1092.396060	0.003906
1092.557831	0.006174
1092.719584	0.008054
1092.881319	0.007585
1093.043035	0.007401
1093.204733	0.006795
1093.366413	0.006249
1093.528075	0.005538
1093.689718	0.003141
1093.851343	0.002941
1094.012950	0.001253
1094.174539	0.002867
1094.336110	0.004943
1094.497662	0.003191
1094.659196	0.003418
1094.820712	0.002694
1094.982210	0.003372
1095.143689	0.004447
1095.305151	0.006262
1095.466594	0.005189
1095.628018	0.006005
1095.789425	0.001909
1095.950813	0.003752
1096.112183	0.001817
1096.273535	0.003680
1096.434869	0.004908
1096.596184	0.002808
1096.757482	0.001611
1096.918761	0.002818
1097.080021	0.003283
1097.241264	0.005158
1097.402488	0.005006
1097.563694	0.006495
1097.724882	0.006120
1097.886052	0.006898
1098.047203	0.009901
1098.208336	0.007442
1098.369451	0.006304
1098.530548	0.006868
1098.691627	0.004863
1098.852687	0.006387
1099.013729	0.003830
1099.174753	0.000606
1099.335758	-0.001938
1099.496746	-0.003126
1099.657715	0.000274
1099.818666	0.000684
1099.979599	-0.003194
1100.140513	-0.000182
1100.301409	-0.001902
1100.462287	0.001311
1100.623147	0.001903
1100.783989	0.001775
1100.944812	0.002488
1101.105617	0.002305
1101.266404	0.002420
1101.427173	0.003407
1101.587923	0.001170
1101.748656	0.003151
1101.909370	0.002769
1102.070066	0.005345
1102.230743	0.004670
1102.391403	0.003142
1102.552044	0.000603
1102.712667	-0.001117
1102.873271	0.003467
1103.033858	0.006568
1103.194426	0.004618
1103.354976	0.005573
1103.515508	0.002282
1103.676021	0.004393
1103.836517	0.004744
1103.996994	0.005505
1104.157453	0.004520
1104.317893	0.000760
1104.478316	-0.000655
1104.638720	-0.000002
1104.799106	-0.003801
1104.959474	-0.003063
1105.119823	-0.001442
1105.280155	-0.000656
1105.440468	-0.002640
1105.600763	-0.005274
1105.761039	-0.006730
1105.921298	-0.006731
1106.081538	-0.008346
1106.241760	-0.005030
1106.401964	-0.004775
1106.562149	-0.008727
1106.722316	-0.011096
1106.882465	-0.011011
1107.042596	-0.007234
1107.202709	-0.007056
1107.362803	-0.008241
1107.522879	-0.007178
1107.682937	-0.008392
1107.842977	-0.007304
1108.002999	-0.006389
1108.163002	-0.004460
1108.322987	-0.001388
1108.482954	-0.000197
1108.642902	-0.000775
1108.802833	-0.000780
1108.962745	-0.001576
1109.122639	-0.001894
1109.282515	-0.000454
1109.442372	-0.000391
1109.602211	0.000668
1109.762032	0.000459
1109.921835	-0.001199
1110.081620	0.002866
1110.241386	0.002068
1110.401134	0.005102
1110.560864	0.004135
1110.720576	0.000687
1110.880269	0.002059
1111.039945	-0.002646
1111.199602	-0.003347
1111.359240	-0.001410
1111.518861	-0.003021
1111.678463	-0.002259
1111.838047	-0.003673
1111.997613	-0.002040
1112.157161	0.001375
1112.316690	0.002523
1112.476202	0.010516
1112.635695	0.011788
1112.795169	0.011723
1112.954626	0.007317
1113.114064	0.007486
1113.273484	0.006777
1113.432886	0.007641
1113.592270	0.005533
1113.751635	0.004112
1113.910983	0.004204
1114.070312	0.002905
1114.229622	0.001528
1114.388915	0.006625
1114.548189	0.008857
1114.707445	0.006868
1114.866683	0.008624
1115.025903	0.004228
1115.185104	0.003902
1115.344287	-0.001846
1115.503452	-0.001166
1115.662599	0.000908
1115.821727	-0.001217
1115.980838	-0.000331
1116.139930	0.002026
1116.299004	-0.000226
1116.458059	0.006014
1116.617097	0.008576
1116.776116	0.012045
1116.935117	0.014543
1117.094099	0.015795
1117.253064	0.017239
1117.412010	0.014587
1117.570938	0.013041
1117.729848	0.014159
1117.888740	0.012954
1118.047613	0.013563
1118.206468	0.012585
1118.365305	0.011335
1118.524124	0.009899
1118.682924	0.010904
1118.841707	0.010373
1119.000471	0.009686
1119.159216	0.009904
1119.317944	0.006093
1119.476653	0.003236
1119.635344	0.004682
1119.794017	-0.000004
1119.952672	0.001077
1120.111308	-0.005210
1120.269927	-0.008790
1120.428527	-0.008727
1120.587108	-0.012115
1120.745672	-0.010851
1120.904217	-0.011811
1121.062744	-0.013326
1121.221253	-0.012185
1121.379744	-0.010992
1121.538216	-0.002084
1121.696671	0.002003
1121.855107	0.004214
1122.013524	0.003114
1122.171924	0.001776
1122.330305	0.002943
1122.488668	0.000964
1122.647013	0.004462
1122.805340	0.005011
1122.963648	-0.001441
1123.121938	-0.004235
1123.280210	-0.008108
1123.438464	-0.004044
1123.596700	0.000189
1123.754917	-0.000796
1123.913116	-0.003089
1124.071297	-0.004859
1124.229459	-0.009106
1124.387604	-0.004591
1124.545730	-0.002058
1124.703838	-0.000360
1124.861928	-0.003479
1125.019999	-0.005019
1125.178052	-0.004386
1125.336088	0.003515
1125.494104	0.005577
1125.652103	0.006153
1125.810083	0.000749
1125.968045	-0.000571
1126.125989	-0.000910
1126.283915	-0.002053
1126.441823	-0.004426
1126.599712	-0.004598
1126.757583	-0.011245
1126.915436	-0.012907
1127.073270	-0.013601
1127.231087	-0.007315
1127.388885	-0.005473
1127.546665	-0.005424
1127.704426	-0.003584
1127.862170	-0.001882
1128.019895	-0.002060
1128.177602	-0.001061
1128.335291	-0.005012
1128.492961	-0.002944
1128.650614	-0.007459
1128.808248	-0.008403
1128.965864	-0.003958
1129.123461	-0.005315
1129.281041	-0.006517
1129.438602	-0.002996
1129.596145	-0.003376
1129.753670	-0.004284
1129.911176	-0.004197
1130.068665	-0.004600
1130.226135	-0.003948
1130.383587	-0.009017
1130.541020	-0.004520
1130.698436	-0.007816
1130.855833	-0.014241
1131.013212	-0.010918
1131.170573	-0.009240
1131.327915	-0.012004
1131.485239	-0.006825
1131.642545	-0.004569
1131.799833	-0.004305
1131.957103	-0.004903
1132.114354	-0.000688
1132.271588	0.005812
1132.428803	0.006636
1132.585999	0.009559
1132.743178	0.007673
1132.900338	0.003872
1133.057480	0.003468
1133.214604	0.002827
1133.371710	-0.000830
1133.528797	0.001498
1133.685866	-0.001360
1133.842917	-0.002480
1133.999950	-0.002688
1134.156964	-0.001640
1134.313960	-0.000685
1134.470938	-0.003518
1134.627898	-0.004757
1134.784840	-0.008340
1134.941763	-0.010962
1135.098668	-0.010463
1135.255555	-0.016674
1135.412424	-0.019105
1135.569274	-0.016864
1135.726107	-0.017228
1135.882921	-0.014585
1136.039716	-0.011230
1136.196494	-0.008356
1136.353253	-0.010831
1136.509995	-0.013839
1136.666717	-0.013305
1136.823422	-0.007173
1136.980109	-0.002327
1137.136777	-0.000706
1137.293427	-0.002918
1137.450059	-0.000938
1137.606672	0.005999
1137.763267	0.005280
1137.919844	0.007927
1138.076403	0.013350
1138.232944	0.007313
1138.389466	0.003293
1138.545971	-0.001424
1138.702457	0.002024
1138.858924	-0.000324
1139.015374	-0.001572
1139.171805	0.001299
1139.328218	-0.002582
1139.484613	-0.004163
1139.640990	-0.001956
1139.797348	-0.004522
1139.953688	-0.004796
1140.110010	-0.005487
1140.266314	-0.006971
1140.422600	-0.010061
1140.578867	-0.012657
1140.735116	-0.010670
1140.891347	-0.011196
1141.047559	-0.014108
1141.203754	-0.013531
1141.359930	-0.010253
1141.516088	-0.008809
1141.672228	-0.006699
1141.828349	-0.008603
1141.984452	-0.005562
1142.140537	-0.004951
1142.296604	-0.003170
1142.452653	-0.002678
1142.608683	-0.000926
1142.764695	-0.002568
1142.920689	-0.004798
1143.076665	-0.002522
1143.232622	0.003435
1143.388562	0.003499
1143.544483	0.005581
1143.700385	0.001620
1143.856270	0.009179
1144.012136	0.007274
1144.167985	0.003783
1144.323814	0.001441
1144.479626	0.006169
1144.635420	0.001886
1144.791195	-0.002368
1144.946952	-0.002795
1145.102691	-0.001216
1145.258411	-0.009408
1145.414113	-0.007732
1145.569798	-0.005819
1145.725463	-0.005357
1145.881111	-0.007845
1146.036741	-0.007132
1146.192352	0.000494
1146.347945	0.001694
1146.503519	0.008327
1146.659076	0.012175
1146.814614	0.008182
1146.970134	0.009428
1147.125636	0.010831
1147.281120	0.007113
1147.436585	0.006469
1147.592032	0.000900
1147.747461	-0.008507
1147.902872	-0.012245
1148.058265	-0.012082
1148.213639	-0.005935
1148.368995	-0.002460
1148.524333	-0.007168
1148.679653	-0.007320
1148.834954	-0.008979
1148.990237	-0.005856
1149.145502	0.003008
1149.300749	0.002666
1149.455977	-0.000727
1149.611188	-0.000523
1149.766380	-0.003416
1149.921553	-0.000037
1150.076709	0.002016
1150.231846	-0.000953
1150.386966	-0.003983
1150.542066	-0.007277
1150.697149	-0.003958
1150.852214	-0.001917
1151.007260	-0.012570
1151.162288	-0.016186
1151.317298	-0.019386
1151.472289	-0.018342
1151.627263	-0.013680
1151.782218	-0.011585
1151.937155	-0.008650
1152.092073	-0.021254
1152.246974	-0.023997
1152.401856	-0.013561
1152.556720	-0.004125
1152.711566	0.003120
1152.866393	-0.003221
1153.021203	-0.006303
1153.175994	-0.005937
1153.330767	-0.002660
1153.485521	0.001590
1153.640258	0.006208
1153.794976	0.001406
1153.949676	-0.005930
1154.104358	-0.008678
1154.259021	-0.009114
1154.413667	-0.003733
1154.568294	-0.006233
1154.722903	-0.015027
1154.877493	-0.010012
1155.032066	-0.007988
1155.186620	-0.007683
1155.341156	-0.011453
1155.495674	-0.016823
1155.650173	-0.014466
1155.804654	-0.018090
1155.959118	-0.017309
1156.113562	-0.019076
1156.267989	-0.023224
1156.422397	-0.025531
1156.576788	-0.031256
1156.731160	-0.031632
1156.885513	-0.021797
1157.039849	-0.022196
1157.194166	-0.019944
1157.348465	-0.018768
1157.502746	-0.014792
1157.657009	-0.015698
1157.811253	-0.014282
1157.965479	-0.012887
1158.119687	-0.003647
1158.273877	-0.006214
1158.428048	-0.004951
1158.582201	-0.011173
1158.736337	-0.009702
1158.890453	-0.010800
1159.044552	-0.006585
1159.198632	-0.005049
1159.352694	-0.003786
1159.506738	-0.010224
1159.660764	-0.014325
1159.814771	-0.012893
1159.968761	-0.009684
1160.122732	-0.007596
1160.276685	-0.002157
1160.430619	0.002976
1160.584535	-0.005824
1160.738434	-0.003532
1160.892313	-0.002550
1161.046175	-0.000087
1161.200019	-0.003841
1161.353844	0.000548
1161.507651	-0.000626
1161.661440	0.002864
1161.815210	-0.001131
1161.968962	-0.003180
1162.122697	0.002658
1162.276412	0.001933
1162.430110	0.001475
1162.583789	0.007150
1162.737451	-0.001110
1162.891094	-0.003941
1163.044718	-0.016756
1163.198325	-0.027147
1163.351913	-0.017413
1163.505483	-0.023977
1163.659035	-0.023088
1163.812569	-0.023261
1163.966084	-0.029381
1164.119581	-0.029273
1164.273060	-0.033779
1164.426521	-0.029498
1164.579964	-0.026378
1164.733388	-0.029251
1164.886794	-0.024490
1165.040182	-0.023934
1165.193551	-0.034004
1165.346903	-0.032384
1165.500236	-0.029239
1165.653551	-0.021436
1165.806848	-0.023806
1165.960126	-0.018951
1166.113386	-0.031229
1166.266628	-0.043290
1166.419852	-0.044279
1166.573058	-0.036992
1166.726245	-0.035585
1166.879414	-0.037403
1167.032565	-0.040351
1167.185698	-0.029467
1167.338812	-0.022259
1167.491909	-0.010013
1167.644987	0.005890
1167.798046	0.009453
1167.951088	0.012486
1168.104111	0.016916
1168.257117	0.015279
1168.410103	0.013800
1168.563072	0.012238
1168.716023	0.001152
1168.868955	0.007026
1169.021869	-0.004945
1169.174765	-0.010098
1169.327642	-0.016662
1169.480501	-0.031351
1169.633343	-0.036115
1169.786165	-0.030683
1169.938970	-0.042465
1170.091757	-0.044619
1170.244525	-0.054018
1170.397275	-0.047423
1170.550007	-0.034883
1170.702720	-0.039126
1170.855415	-0.032031
1171.008092	-0.016267
1171.160751	-0.015439
1171.313392	-0.003689
1171.466014	-0.033956
1171.618619	0.041406
1171.771205	0.041406
1171.923772	0.041406
