sample name	sample
index	952
start time	 04-12-2021  03:40:08 PM


Wavelength (nm)	Absorbance
494.344910	-0.437854
494.563924	-0.437854
494.782919	-0.437854
495.001897	-0.089852
495.220856	-0.222124
495.439797	-0.184577
495.658719	-0.172895
495.877624	-0.137499
496.096510	-0.161604
496.315378	-0.165739
496.534227	-0.131565
496.753059	-0.155996
496.971872	-0.131227
497.190667	-0.009982
497.409444	-0.001424
497.628203	0.004099
497.846943	0.004146
498.065665	0.004556
498.284369	0.004437
498.503055	0.003801
498.721723	0.003915
498.940372	0.003911
499.159003	0.003068
499.377616	0.002609
499.596210	0.002074
499.814787	0.001553
500.033345	0.001415
500.251885	0.001798
500.470406	0.000622
500.688910	0.000222
500.907395	-0.000901
501.125862	-0.000826
501.344311	-0.000488
501.562742	-0.000741
501.781154	0.000562
501.999548	0.000934
502.217924	-0.000106
502.436282	0.002478
502.654621	0.003019
502.872942	0.004394
503.091245	0.004917
503.309530	0.005153
503.527797	0.004362
503.746045	0.004073
503.964275	0.003811
504.182487	0.004161
504.400681	0.003037
504.618856	0.003282
504.837013	0.002573
505.055152	0.003001
505.273273	0.002296
505.491376	0.002184
505.709460	0.001877
505.927526	0.001433
506.145574	0.001767
506.363604	0.001081
506.581615	0.000584
506.799608	0.000717
507.017583	-0.000425
507.235540	-0.000353
507.453478	0.000190
507.671399	0.000232
507.889301	0.000579
508.107185	0.000813
508.325050	0.001360
508.542898	0.001547
508.760727	0.001764
508.978538	0.002438
509.196330	0.002910
509.414105	0.003379
509.631861	0.003179
509.849599	0.003381
510.067319	0.003506
510.285021	0.003390
510.502704	0.003040
510.720369	0.003222
510.938016	0.003125
511.155645	0.003194
511.373255	0.002948
511.590848	0.003302
511.808422	0.003113
512.025977	0.003154
512.243515	0.003794
512.461034	0.004556
512.678536	0.004529
512.896018	0.004406
513.113483	0.004006
513.330930	0.004418
513.548358	0.004097
513.765768	0.004306
513.983160	0.004146
514.200533	0.003897
514.417889	0.003368
514.635226	0.003862
514.852545	0.003483
515.069845	0.003718
515.287128	0.003928
515.504392	0.004022
515.721638	0.003962
515.938866	0.003710
516.156075	0.004000
516.373267	0.004129
516.590440	0.003651
516.807594	0.003994
517.024731	0.004040
517.241850	0.003807
517.458950	0.004043
517.676032	0.004105
517.893095	0.004157
518.110141	0.003994
518.327168	0.004142
518.544177	0.004614
518.761168	0.004491
518.978141	0.004476
519.195095	0.004580
519.412031	0.004711
519.628949	0.005357
519.845849	0.005485
520.062731	0.005226
520.279594	0.005127
520.496439	0.004794
520.713266	0.004672
520.930074	0.004816
521.146865	0.004679
521.363637	0.004270
521.580391	0.003766
521.797127	0.004504
522.013844	0.004685
522.230543	0.004647
522.447224	0.004740
522.663887	0.005459
522.880532	0.005457
523.097158	0.005735
523.313766	0.006078
523.530356	0.006155
523.746928	0.005530
523.963481	0.005622
524.180017	0.006079
524.396534	0.005833
524.613032	0.006301
524.829513	0.006329
525.045975	0.006133
525.262420	0.006071
525.478845	0.006012
525.695253	0.006234
525.911643	0.006302
526.128014	0.006012
526.344367	0.006103
526.560702	0.005796
526.777018	0.006115
526.993316	0.006250
527.209597	0.006510
527.425858	0.006766
527.642102	0.006312
527.858328	0.006072
528.074535	0.006039
528.290724	0.006104
528.506894	0.005919
528.723047	0.005771
528.939181	0.005804
529.155297	0.005560
529.371395	0.005303
529.587475	0.005596
529.803536	0.005543
530.019579	0.005995
530.235604	0.006530
530.451611	0.005921
530.667600	0.005973
530.883570	0.006316
531.099522	0.006767
531.315456	0.007532
531.531372	0.007626
531.747269	0.007738
531.963148	0.007613
532.179009	0.007475
532.394852	0.007972
532.610676	0.008074
532.826482	0.007771
533.042271	0.007663
533.258040	0.007195
533.473792	0.007694
533.689525	0.007827
533.905240	0.007898
534.120937	0.007738
534.336616	0.007783
534.552277	0.007686
534.767919	0.007423
534.983543	0.007581
535.199149	0.007860
535.414736	0.007695
535.630306	0.007500
535.845857	0.007730
536.061390	0.008248
536.276904	0.008413
536.492401	0.008015
536.707879	0.008753
536.923339	0.009342
537.138781	0.009238
537.354204	0.009203
537.569610	0.009686
537.784997	0.009308
538.000366	0.008996
538.215716	0.009636
538.431049	0.010286
538.646363	0.010205
538.861659	0.009586
539.076937	0.009635
539.292196	0.009393
539.507438	0.009307
539.722661	0.009444
539.937866	0.009760
540.153052	0.009173
540.368221	0.008893
540.583371	0.008556
540.798503	0.008685
541.013617	0.008445
541.228712	0.008739
541.443789	0.008859
541.658848	0.008988
541.873889	0.008708
542.088912	0.008692
542.303916	0.008861
542.518902	0.009207
542.733870	0.009249
542.948820	0.009544
543.163752	0.009666
543.378665	0.009631
543.593560	0.010069
543.808437	0.010228
544.023295	0.010498
544.238136	0.010604
544.452958	0.010643
544.667762	0.010535
544.882548	0.010653
545.097315	0.010482
545.312064	0.010739
545.526795	0.010228
545.741508	0.010291
545.956203	0.010447
546.170879	0.010404
546.385537	0.010423
546.600177	0.010537
546.814799	0.010445
547.029402	0.010593
547.243988	0.010492
547.458555	0.010686
547.673103	0.010729
547.887634	0.010442
548.102146	0.010399
548.316640	0.010475
548.531116	0.010483
548.745574	0.010523
548.960013	0.010541
549.174435	0.010540
549.388838	0.010797
549.603222	0.010658
549.817589	0.011132
550.031937	0.011455
550.246267	0.011516
550.460579	0.011690
550.674873	0.011802
550.889148	0.011762
551.103405	0.011561
551.317644	0.011348
551.531865	0.011505
551.746068	0.011052
551.960252	0.010994
552.174418	0.010884
552.388566	0.010661
552.602696	0.010730
552.816807	0.010661
553.030900	0.011154
553.244975	0.010937
553.459032	0.011095
553.673070	0.011187
553.887091	0.011102
554.101093	0.011114
554.315077	0.011286
554.529042	0.011157
554.742990	0.011693
554.956919	0.011423
555.170830	0.011540
555.384722	0.011370
555.598597	0.011461
555.812453	0.011580
556.026291	0.011700
556.240111	0.011581
556.453913	0.011657
556.667696	0.011232
556.881461	0.011506
557.095208	0.011853
557.308937	0.012057
557.522647	0.012023
557.736339	0.012312
557.950013	0.012000
558.163669	0.012058
558.377307	0.011957
558.590926	0.012296
558.804527	0.011853
559.018110	0.012031
559.231675	0.011847
559.445221	0.012357
559.658749	0.012452
559.872259	0.012763
560.085751	0.012869
560.299225	0.012905
560.512680	0.012864
560.726117	0.013344
560.939536	0.013076
561.152937	0.013407
561.366319	0.012707
561.579683	0.012428
561.793029	0.012591
562.006357	0.012652
562.219667	0.012515
562.432958	0.012480
562.646231	0.012502
562.859486	0.012475
563.072723	0.012058
563.285941	0.012495
563.499141	0.012250
563.712323	0.012034
563.925487	0.012020
564.138632	0.012429
564.351760	0.012195
564.564869	0.012162
564.777960	0.011809
564.991032	0.012007
565.204087	0.011891
565.417123	0.012114
565.630141	0.012428
565.843140	0.012897
566.056122	0.012669
566.269085	0.013127
566.482030	0.013187
566.694957	0.014075
566.907866	0.014313
567.120756	0.014376
567.333628	0.014432
567.546482	0.014304
567.759318	0.014184
567.972135	0.014286
568.184935	0.014218
568.397716	0.013786
568.610478	0.013146
568.823223	0.012835
569.035949	0.012788
569.248657	0.012719
569.461347	0.012408
569.674019	0.012092
569.886672	0.011860
570.099308	0.011846
570.311925	0.012136
570.524523	0.012013
570.737104	0.011958
570.949666	0.011787
571.162210	0.011787
571.374736	0.012328
571.587244	0.012485
571.799733	0.012680
572.012205	0.012282
572.224658	0.012203
572.437092	0.012521
572.649509	0.012915
572.861907	0.013172
573.074287	0.013450
573.286649	0.013311
573.498993	0.013278
573.711318	0.013358
573.923625	0.013677
574.135914	0.013815
574.348185	0.013806
574.560438	0.013207
574.772672	0.013342
574.984888	0.013008
575.197086	0.012911
575.409266	0.012917
575.621427	0.013008
575.833570	0.012869
576.045695	0.012836
576.257802	0.012969
576.469890	0.013291
576.681961	0.013185
576.894013	0.013370
577.106046	0.013101
577.318062	0.013093
577.530059	0.013036
577.742039	0.013309
577.954000	0.013708
578.165942	0.013676
578.377867	0.013757
578.589773	0.013726
578.801661	0.013552
579.013531	0.013627
579.225382	0.013594
579.437216	0.013510
579.649031	0.013216
579.860828	0.012709
580.072606	0.012776
580.284367	0.012916
580.496109	0.012979
580.707833	0.013099
580.919539	0.013499
581.131227	0.013321
581.342896	0.013303
581.554547	0.013543
581.766180	0.013665
581.977795	0.013608
582.189391	0.013388
582.400969	0.013361
582.612529	0.013287
582.824071	0.013107
583.035595	0.013383
583.247100	0.013567
583.458587	0.013505
583.670056	0.013552
583.881506	0.013489
584.092939	0.013510
584.304353	0.013441
584.515749	0.013587
584.727127	0.013590
584.938486	0.013308
585.149828	0.013337
585.361151	0.013356
585.572456	0.013320
585.783742	0.013336
585.995011	0.013437
586.206261	0.013494
586.417493	0.013517
586.628706	0.013409
586.839902	0.013742
587.051079	0.013789
587.262238	0.013779
587.473379	0.014039
587.684502	0.013901
587.895606	0.013738
588.106692	0.013928
588.317760	0.013810
588.528810	0.013961
588.739841	0.013751
588.950855	0.013627
589.161850	0.013826
589.372827	0.013634
589.583785	0.013985
589.794726	0.014207
590.005648	0.014365
590.216552	0.014235
590.427437	0.014009
590.638305	0.014046
590.849154	0.014126
591.059985	0.014046
591.270798	0.014136
591.481592	0.014023
591.692369	0.014203
591.903127	0.014110
592.113867	0.014397
592.324588	0.014766
592.535292	0.014911
592.745977	0.015010
592.956644	0.014711
593.167293	0.014521
593.377923	0.014779
593.588536	0.014413
593.799130	0.014187
594.009706	0.014141
594.220263	0.014089
594.430803	0.013865
594.641324	0.013912
594.851827	0.014286
595.062312	0.014355
595.272778	0.014235
595.483227	0.014393
595.693657	0.014570
595.904069	0.014702
596.114462	0.014666
596.324838	0.014746
596.535195	0.014580
596.745534	0.014677
596.955855	0.014895
597.166157	0.014835
597.376441	0.014852
597.586707	0.014934
597.796955	0.014976
598.007185	0.015045
598.217396	0.015136
598.427589	0.015303
598.637764	0.015141
598.847921	0.014991
599.058060	0.015015
599.268180	0.014922
599.478282	0.014733
599.688366	0.014779
599.898431	0.015099
600.108479	0.015095
600.318508	0.015139
600.528519	0.015238
600.738511	0.015593
600.948486	0.015939
601.158442	0.016359
601.368380	0.016657
601.578300	0.016521
601.788202	0.016325
601.998085	0.016379
602.207950	0.016535
602.417797	0.016578
602.627626	0.016323
602.837436	0.015994
603.047228	0.015673
603.257002	0.015553
603.466758	0.015572
603.676496	0.015541
603.886215	0.015683
604.095916	0.015325
604.305599	0.015278
604.515264	0.015279
604.724910	0.015548
604.934538	0.015771
605.144148	0.015864
605.353740	0.015902
605.563314	0.015915
605.772869	0.015972
605.982406	0.016221
606.191925	0.016085
606.401425	0.016155
606.610908	0.016135
606.820372	0.015768
607.029818	0.015840
607.239246	0.015816
607.448655	0.015836
607.658047	0.015763
607.867420	0.015753
608.076775	0.016046
608.286111	0.015776
608.495430	0.015563
608.704730	0.015788
608.914012	0.015663
609.123275	0.015700
609.332521	0.015795
609.541748	0.015714
609.750957	0.015871
609.960148	0.015805
610.169321	0.015923
610.378475	0.016184
610.587611	0.016349
610.796729	0.016278
611.005829	0.016162
611.214910	0.016172
611.423974	0.016246
611.633019	0.016166
611.842045	0.016086
612.051054	0.016359
612.260044	0.016427
612.469017	0.016652
612.677970	0.016374
612.886906	0.016711
613.095824	0.016731
613.304723	0.016840
613.513604	0.016741
613.722467	0.016725
613.931311	0.016775
614.140138	0.016567
614.348946	0.016162
614.557736	0.016506
614.766507	0.016325
614.975261	0.016272
615.183996	0.016306
615.392713	0.016332
615.601412	0.016576
615.810092	0.016457
616.018754	0.016477
616.227399	0.016696
616.436024	0.016750
616.644632	0.016764
616.853222	0.016865
617.061793	0.016796
617.270346	0.016834
617.478880	0.016649
617.687397	0.016567
617.895895	0.016477
618.104375	0.016538
618.312837	0.016596
618.521281	0.016576
618.729706	0.016692
618.938113	0.016779
619.146502	0.016805
619.354873	0.016896
619.563226	0.016957
619.771560	0.017174
619.979876	0.016997
620.188174	0.017219
620.396453	0.017277
620.604715	0.016904
620.812958	0.016776
621.021183	0.016690
621.229390	0.016830
621.437578	0.016819
621.645748	0.016765
621.853900	0.016959
622.062034	0.016740
622.270150	0.016616
622.478247	0.016758
622.686326	0.016759
622.894387	0.016920
623.102430	0.016757
623.310454	0.016961
623.518461	0.016840
623.726449	0.016763
623.934418	0.016564
624.142370	0.016833
624.350303	0.016880
624.558218	0.016902
624.766115	0.016832
624.973994	0.016904
625.181855	0.016684
625.389697	0.016781
625.597521	0.016780
625.805327	0.017179
626.013114	0.017110
626.220883	0.017334
626.428634	0.017428
626.636367	0.017460
626.844082	0.017436
627.051778	0.017576
627.259457	0.017622
627.467117	0.017534
627.674758	0.017297
627.882382	0.017357
628.089987	0.017056
628.297574	0.017352
628.505143	0.017492
628.712694	0.017598
628.920226	0.017548
629.127740	0.017793
629.335236	0.018002
629.542714	0.018258
629.750174	0.018368
629.957615	0.018547
630.165038	0.018289
630.372443	0.018478
630.579829	0.018434
630.787198	0.018528
630.994548	0.018131
631.201880	0.018225
631.409194	0.018038
631.616489	0.018265
631.823766	0.018196
632.031025	0.018327
632.238266	0.018042
632.445489	0.018184
632.652693	0.018120
632.859879	0.018326
633.067047	0.018076
633.274197	0.018289
633.481329	0.017946
633.688442	0.018099
633.895537	0.017960
634.102614	0.018136
634.309672	0.017926
634.516713	0.018207
634.723735	0.018211
634.930739	0.018380
635.137724	0.018340
635.344692	0.018375
635.551641	0.018242
635.758572	0.018360
635.965485	0.018451
636.172379	0.018424
636.379256	0.018129
636.586114	0.018291
636.792954	0.018307
636.999775	0.018257
637.206579	0.018350
637.413364	0.018498
637.620131	0.018586
637.826880	0.018274
638.033610	0.018450
638.240323	0.018600
638.447017	0.018410
638.653692	0.018389
638.860350	0.018381
639.066990	0.018494
639.273611	0.018530
639.480214	0.018389
639.686798	0.018574
639.893365	0.018616
640.099913	0.018599
640.306443	0.018857
640.512955	0.019005
640.719449	0.019158
640.925924	0.018908
641.132381	0.018876
641.338820	0.018920
641.545241	0.018870
641.751644	0.019032
641.958028	0.019057
642.164394	0.018841
642.370742	0.018807
642.577071	0.018627
642.783383	0.018779
642.989676	0.018844
643.195951	0.018647
643.402207	0.018743
643.608446	0.018660
643.814666	0.018608
644.020868	0.018838
644.227052	0.018707
644.433218	0.018552
644.639365	0.018542
644.845494	0.018553
645.051605	0.018895
645.257698	0.019165
645.463772	0.019031
645.669828	0.019265
645.875866	0.019287
646.081886	0.019489
646.287888	0.019670
646.493871	0.019923
646.699836	0.019855
646.905783	0.019923
647.111712	0.019633
647.317622	0.019648
647.523514	0.019471
647.729388	0.019460
647.935244	0.019519
648.141082	0.019739
648.346901	0.019592
648.552702	0.019736
648.758485	0.019637
648.964250	0.019633
649.169996	0.019754
649.375724	0.019957
649.581434	0.020043
649.787126	0.019948
649.992800	0.019938
650.198455	0.019994
650.404092	0.019868
650.609711	0.019813
650.815311	0.019961
651.020894	0.020121
651.226458	0.020307
651.432004	0.020307
651.637532	0.020540
651.843041	0.020464
652.048532	0.020490
652.254006	0.020518
652.459460	0.020765
652.664897	0.020925
652.870315	0.020905
653.075716	0.020919
653.281097	0.020906
653.486461	0.021044
653.691807	0.021233
653.897134	0.021390
654.102443	0.021708
654.307734	0.021924
654.513006	0.021892
654.718261	0.021765
654.923497	0.021653
655.128715	0.021767
655.333915	0.021570
655.539096	0.021646
655.744259	0.021634
655.949404	0.021500
656.154531	0.021349
656.359640	0.021370
656.564730	0.021650
656.769802	0.021916
656.974856	0.021779
657.179892	0.021891
657.384909	0.021883
657.589908	0.021791
657.794889	0.021807
657.999852	0.021723
658.204797	0.021649
658.409723	0.021672
658.614631	0.021373
658.819521	0.021504
659.024393	0.021525
659.229246	0.021619
659.434081	0.021615
659.638898	0.021723
659.843697	0.021731
660.048478	0.021820
660.253240	0.021734
660.457984	0.021964
660.662710	0.022107
660.867417	0.022321
661.072107	0.022212
661.276778	0.022513
661.481431	0.022466
661.686066	0.022638
661.890682	0.022637
662.095281	0.022741
662.299861	0.022461
662.504422	0.022314
662.708966	0.022070
662.913491	0.022231
663.117999	0.021833
663.322488	0.021780
663.526958	0.021784
663.731411	0.021912
663.935845	0.022009
664.140261	0.022182
664.344659	0.022502
664.549038	0.022605
664.753400	0.022562
664.957743	0.022888
665.162068	0.023190
665.366375	0.023183
665.570663	0.023082
665.774933	0.023158
665.979185	0.023205
666.183419	0.022994
666.387635	0.023074
666.591832	0.023076
666.796011	0.023103
667.000172	0.023037
667.204315	0.023133
667.408439	0.023208
667.612545	0.023063
667.816634	0.023163
668.020703	0.023175
668.224755	0.023135
668.428788	0.023163
668.632803	0.023183
668.836800	0.023116
669.040779	0.023141
669.244739	0.023215
669.448681	0.023306
669.652605	0.023409
669.856511	0.023504
670.060399	0.023352
670.264268	0.023312
670.468119	0.023340
670.671952	0.023456
670.875767	0.023625
671.079563	0.023686
671.283341	0.023693
671.487101	0.023663
671.690843	0.023540
671.894567	0.023797
672.098272	0.023999
672.301959	0.023907
672.505628	0.023986
672.709278	0.023789
672.912911	0.023832
673.116525	0.023851
673.320121	0.023893
673.523699	0.024080
673.727258	0.024216
673.930799	0.024095
674.134322	0.024313
674.337827	0.024433
674.541314	0.024510
674.744782	0.024654
674.948232	0.024771
675.151664	0.024846
675.355078	0.024801
675.558474	0.024539
675.761851	0.024680
675.965210	0.024510
676.168551	0.024422
676.371873	0.024365
676.575178	0.024283
676.778464	0.024221
676.981732	0.024132
677.184981	0.024181
677.388213	0.024482
677.591426	0.024364
677.794621	0.024527
677.997798	0.024589
678.200956	0.024687
678.404097	0.024742
678.607219	0.024688
678.810323	0.024676
679.013408	0.024624
679.216476	0.024370
679.419525	0.024453
679.622556	0.024515
679.825569	0.024390
680.028563	0.024288
680.231540	0.024275
680.434498	0.024268
680.637438	0.024384
680.840359	0.024405
681.043263	0.024555
681.246148	0.024710
681.449015	0.024695
681.651864	0.024725
681.854694	0.024892
682.057506	0.024903
682.260301	0.024858
682.463076	0.024861
682.665834	0.024878
682.868573	0.024830
683.071295	0.024675
683.273998	0.024652
683.476682	0.024678
683.679349	0.024688
683.881997	0.024835
684.084627	0.024881
684.287239	0.025039
684.489833	0.025136
684.692408	0.025261
684.894965	0.025232
685.097504	0.025230
685.300025	0.025205
685.502527	0.025163
685.705012	0.024907
685.907478	0.025100
686.109925	0.025067
686.312355	0.025032
686.514766	0.024973
686.717159	0.025109
686.919534	0.025006
687.121891	0.025058
687.324230	0.025037
687.526550	0.025232
687.728852	0.025267
687.931136	0.025140
688.133401	0.025175
688.335649	0.025204
688.537878	0.025223
688.740089	0.025490
688.942281	0.025582
689.144456	0.025663
689.346612	0.025640
689.548750	0.025716
689.750870	0.025875
689.952971	0.026054
690.155055	0.026076
690.357120	0.026011
690.559167	0.025946
690.761195	0.025847
690.963206	0.025912
691.165198	0.025746
691.367172	0.025639
691.569128	0.025547
691.771065	0.025243
691.972984	0.025190
692.174885	0.025250
692.376768	0.025176
692.578633	0.025287
692.780479	0.025100
692.982308	0.025208
693.184118	0.025243
693.385909	0.025180
693.587683	0.025352
693.789438	0.025517
693.991175	0.025664
694.192894	0.025736
694.394595	0.025788
694.596277	0.025912
694.797941	0.026014
694.999587	0.026060
695.201215	0.026267
695.402824	0.026340
695.604416	0.026366
695.805989	0.026304
696.007543	0.026260
696.209080	0.026305
696.410598	0.026524
696.612099	0.026472
696.813580	0.026549
697.015044	0.026438
697.216490	0.026465
697.417917	0.026625
697.619326	0.026621
697.820717	0.026746
698.022089	0.026780
698.223444	0.026621
698.424780	0.026665
698.626098	0.026565
698.827397	0.026722
699.028679	0.026710
699.229942	0.026511
699.431187	0.026491
699.632414	0.026502
699.833622	0.026418
700.034813	0.026631
700.235985	0.026528
700.437139	0.026625
700.638274	0.026589
700.839392	0.026575
701.040491	0.026708
701.241572	0.026707
701.442635	0.026691
701.643679	0.026593
701.844706	0.026425
702.045714	0.026598
702.246704	0.026604
702.447675	0.026607
702.648629	0.026700
702.849564	0.026710
703.050481	0.026758
703.251380	0.026880
703.452260	0.027000
703.653122	0.026942
703.853966	0.026923
704.054792	0.026869
704.255600	0.026814
704.456389	0.026689
704.657160	0.026671
704.857913	0.026572
705.058648	0.026424
705.259365	0.026575
705.460063	0.026572
705.660743	0.026601
705.861405	0.026728
706.062048	0.026710
706.262674	0.026764
706.463281	0.026700
706.663870	0.026919
706.864441	0.026886
707.064993	0.026803
707.265527	0.026848
707.466043	0.026936
707.666541	0.026960
707.867021	0.026938
708.067482	0.027013
708.267925	0.027004
708.468350	0.026904
708.668757	0.027112
708.869145	0.027034
709.069516	0.027221
709.269868	0.027235
709.470201	0.026988
709.670517	0.027038
709.870814	0.027140
710.071093	0.027099
710.271354	0.027061
710.471597	0.027001
710.671821	0.027114
710.872028	0.026856
711.072216	0.026775
711.272385	0.026841
711.472537	0.026893
711.672670	0.026740
711.872785	0.026856
712.072882	0.026908
712.272961	0.026860
712.473021	0.026729
712.673063	0.026876
712.873087	0.026762
713.073093	0.026925
713.273081	0.026849
713.473050	0.026798
713.673001	0.026826
713.872934	0.026711
714.072849	0.026592
714.272745	0.026521
714.472623	0.026496
714.672483	0.026563
714.872325	0.026388
715.072148	0.026477
715.271954	0.026401
715.471741	0.026226
715.671509	0.026225
715.871260	0.026230
716.070992	0.026401
716.270707	0.026351
716.470403	0.026331
716.670080	0.026262
716.869740	0.026149
717.069381	0.026248
717.269004	0.026294
717.468609	0.026288
717.668195	0.026334
717.867764	0.026193
718.067314	0.026261
718.266846	0.026266
718.466360	0.026311
718.665855	0.026456
718.865332	0.026298
719.064791	0.026196
719.264232	0.026346
719.463655	0.026578
719.663059	0.026670
719.862445	0.026539
720.061813	0.026581
720.261163	0.026570
720.460494	0.026407
720.659807	0.026698
720.859102	0.026678
721.058379	0.026569
721.257638	0.026449
721.456878	0.026406
721.656100	0.026523
721.855304	0.026506
722.054490	0.026580
722.253657	0.026742
722.452806	0.026516
722.651937	0.026443
722.851050	0.026545
723.050145	0.026559
723.249221	0.026525
723.448279	0.026330
723.647319	0.026280
723.846340	0.026137
724.045344	0.025835
724.244329	0.025895
724.443296	0.025882
724.642245	0.025850
724.841175	0.025531
725.040088	0.025333
725.238982	0.025442
725.437857	0.025272
725.636715	0.025250
725.835554	0.025440
726.034376	0.025383
726.233179	0.025462
726.431963	0.025183
726.630730	0.025280
726.829478	0.025348
727.028208	0.025097
727.226920	0.025212
727.425614	0.025310
727.624289	0.025312
727.822946	0.025165
728.021585	0.025140
728.220206	0.025261
728.418808	0.025147
728.617392	0.025079
728.815958	0.025143
729.014506	0.025032
729.213036	0.024892
729.411547	0.024630
729.610040	0.024795
729.808515	0.024700
730.006972	0.024624
730.205410	0.024655
730.403831	0.024745
730.602233	0.024772
730.800616	0.024808
730.998982	0.024899
731.197329	0.024857
731.395658	0.024732
731.593969	0.024927
731.792262	0.024841
731.990536	0.024893
732.188793	0.024830
732.387031	0.024798
732.585250	0.024982
732.783452	0.024711
732.981635	0.024776
733.179800	0.024816
733.377947	0.024542
733.576076	0.024523
733.774186	0.024532
733.972278	0.024517
734.170352	0.024470
734.368408	0.024136
734.566446	0.024366
734.764465	0.024319
734.962466	0.024183
735.160449	0.024237
735.358413	0.024275
735.556360	0.024109
735.754288	0.024039
735.952198	0.023961
736.150090	0.024040
736.347963	0.024000
736.545818	0.024007
736.743655	0.024073
736.941474	0.024028
737.139275	0.024075
737.337057	0.024282
737.534821	0.024264
737.732567	0.024196
737.930295	0.024032
738.128005	0.023927
738.325696	0.023831
738.523369	0.023712
738.721024	0.023664
738.918660	0.023648
739.116279	0.023458
739.313879	0.023380
739.511461	0.023719
739.709024	0.023833
739.906570	0.023779
740.104097	0.023758
740.301606	0.023679
740.499097	0.023765
740.696569	0.023741
740.894024	0.023860
741.091460	0.024016
741.288878	0.023790
741.486277	0.023665
741.683659	0.023746
741.881022	0.023997
742.078367	0.024076
742.275694	0.023955
742.473002	0.023908
742.670293	0.023823
742.867565	0.023885
743.064819	0.023713
743.262054	0.023946
743.459272	0.023847
743.656471	0.023713
743.853652	0.023697
744.050815	0.023815
744.247959	0.023575
744.445085	0.023371
744.642194	0.023338
744.839283	0.023549
745.036355	0.023456
745.233408	0.023456
745.430444	0.023371
745.627461	0.023350
745.824459	0.023123
746.021440	0.023378
746.218402	0.023446
746.415346	0.023202
746.612272	0.023144
746.809180	0.022934
747.006069	0.022861
747.202940	0.022705
747.399793	0.022694
747.596628	0.022849
747.793444	0.022726
747.990243	0.022789
748.187023	0.022834
748.383784	0.022750
748.580528	0.022865
748.777253	0.023033
748.973960	0.022992
749.170649	0.023026
749.367320	0.022902
749.563973	0.022931
749.760607	0.022987
749.957223	0.023055
750.153821	0.023004
750.350400	0.023106
750.546962	0.023034
750.743505	0.023060
750.940030	0.023039
751.136536	0.023073
751.333025	0.022954
751.529495	0.022789
751.725947	0.022628
751.922381	0.022577
752.118796	0.022443
752.315194	0.022301
752.511573	0.022330
752.707934	0.022485
752.904276	0.022416
753.100601	0.022329
753.296907	0.022456
753.493195	0.022400
753.689465	0.022561
753.885716	0.022540
754.081949	0.022646
754.278164	0.022456
754.474361	0.022124
754.670540	0.022169
754.866700	0.022253
755.062843	0.022291
755.258967	0.022252
755.455072	0.022037
755.651160	0.021923
755.847229	0.021789
756.043280	0.022157
756.239313	0.022344
756.435328	0.022234
756.631324	0.022076
756.827302	0.022047
757.023262	0.022195
757.219204	0.022407
757.415127	0.022368
757.611033	0.022252
757.806920	0.021970
758.002788	0.021814
758.198639	0.021703
758.394471	0.021781
758.590286	0.021541
758.786081	0.021337
758.981859	0.021082
759.177619	0.021085
759.373360	0.021227
759.569083	0.021330
759.764788	0.021491
759.960474	0.021706
760.156143	0.021726
760.351793	0.021838
760.547425	0.021909
760.743038	0.022025
760.938634	0.022195
761.134211	0.022257
761.329770	0.022173
761.525311	0.022175
761.720833	0.022166
761.916338	0.022276
762.111824	0.022052
762.307292	0.022123
762.502741	0.022105
762.698173	0.021951
762.893586	0.021853
763.088981	0.021957
763.284358	0.021773
763.479716	0.021725
763.675057	0.021511
763.870379	0.021633
764.065683	0.021523
764.260968	0.021570
764.456236	0.021709
764.651485	0.021672
764.846716	0.021702
765.041929	0.021910
765.237123	0.022061
765.432299	0.022372
765.627457	0.022465
765.822597	0.022508
766.017719	0.022544
766.212822	0.022530
766.407907	0.022625
766.602974	0.022539
766.798023	0.022433
766.993054	0.022369
767.188066	0.022250
767.383060	0.022058
767.578036	0.022222
767.772993	0.022253
767.967933	0.022163
768.162854	0.022155
768.357757	0.022145
768.552642	0.021912
768.747508	0.021719
768.942356	0.021675
769.137186	0.021711
769.331998	0.021443
769.526792	0.021260
769.721567	0.021148
769.916324	0.020985
770.111063	0.020872
770.305784	0.020903
770.500486	0.020917
770.695171	0.020871
770.889837	0.020954
771.084484	0.021122
771.279114	0.020956
771.473725	0.020956
771.668318	0.021045
771.862893	0.020881
772.057450	0.020894
772.251988	0.021039
772.446509	0.020878
772.641011	0.020687
772.835494	0.020569
773.029960	0.020777
773.224407	0.020797
773.418836	0.020749
773.613247	0.020734
773.807640	0.020805
774.002014	0.020674
774.196370	0.020924
774.390708	0.021070
774.585028	0.021218
774.779330	0.021274
774.973613	0.021284
775.167878	0.021200
775.362125	0.021501
775.556354	0.021585
775.750564	0.021695
775.944756	0.021659
776.138930	0.021649
776.333086	0.021501
776.527223	0.021312
776.721343	0.021401
776.915444	0.021477
777.109526	0.021480
777.303591	0.021405
777.497637	0.021339
777.691666	0.021406
777.885676	0.021409
778.079667	0.021592
778.273641	0.021709
778.467596	0.021690
778.661533	0.021839
778.855452	0.021954
779.049352	0.022047
779.243235	0.022057
779.437099	0.021874
779.630945	0.021900
779.824773	0.021826
780.018582	0.021998
780.212373	0.022011
780.406146	0.022013
780.599901	0.021939
780.793638	0.021715
780.987356	0.021787
781.181056	0.021771
781.374738	0.021744
781.568402	0.021655
781.762047	0.021324
781.955674	0.021111
782.149283	0.020881
782.342874	0.020694
782.536447	0.021007
782.730001	0.020987
782.923537	0.021069
783.117055	0.021155
783.310555	0.021222
783.504036	0.021415
783.697499	0.021438
783.890944	0.021492
784.084371	0.021581
784.277780	0.021392
784.471170	0.021447
784.664542	0.021494
784.857896	0.021522
785.051231	0.021580
785.244549	0.021632
785.437848	0.021713
785.631129	0.021720
785.824392	0.021719
786.017636	0.021871
786.210863	0.021769
786.404071	0.021884
786.597260	0.021962
786.790432	0.021943
786.983585	0.021869
787.176721	0.021937
787.369838	0.022195
787.562936	0.022367
787.756017	0.022103
787.949079	0.022003
788.142123	0.021904
788.335149	0.021668
788.528156	0.021616
788.721146	0.021579
788.914117	0.021861
789.107070	0.021749
789.300005	0.021656
789.492921	0.021989
789.685819	0.022050
789.878699	0.022051
790.071561	0.022160
790.264405	0.022022
790.457230	0.021964
790.650037	0.021622
790.842826	0.021613
791.035597	0.021533
791.228349	0.021385
791.421084	0.021541
791.613800	0.021595
791.806497	0.021559
791.999177	0.021787
792.191838	0.021967
792.384481	0.022181
792.577106	0.022183
792.769713	0.022264
792.962301	0.022254
793.154871	0.022276
793.347423	0.022265
793.539957	0.022301
793.732473	0.022431
793.924970	0.022249
794.117449	0.022165
794.309910	0.022185
794.502353	0.022193
794.694777	0.022362
794.887183	0.022356
795.079571	0.022183
795.271941	0.022258
795.464293	0.022172
795.656626	0.022258
795.848941	0.022324
796.041238	0.022134
796.233516	0.022223
796.425777	0.022067
796.618019	0.021949
796.810243	0.022133
797.002449	0.022096
797.194636	0.022152
797.386805	0.021968
797.578956	0.021803
797.771089	0.021880
797.963204	0.021869
798.155300	0.021885
798.347378	0.021820
798.539438	0.021710
798.731480	0.021595
798.923503	0.021162
799.115509	0.021146
799.307496	0.021169
799.499465	0.021311
799.691415	0.021405
799.883348	0.021490
800.075262	0.021497
800.267158	0.021640
800.459035	0.021665
800.650895	0.022015
800.842736	0.022372
801.034559	0.022502
801.226364	0.022374
801.418150	0.022328
801.609919	0.022180
801.801669	0.022398
801.993401	0.022446
802.185114	0.022504
802.376810	0.022564
802.568487	0.022594
802.760146	0.022656
802.951787	0.022688
803.143409	0.022599
803.335014	0.022677
803.526600	0.022794
803.718168	0.022749
803.909717	0.022914
804.101249	0.022912
804.292762	0.023010
804.484257	0.023053
804.675734	0.023352
804.867192	0.023530
805.058632	0.023801
805.250054	0.023952
805.441458	0.023998
805.632844	0.024038
805.824211	0.023999
806.015561	0.023779
806.206891	0.023987
806.398204	0.023788
806.589499	0.023906
806.780775	0.023815
806.972033	0.023564
807.163273	0.023690
807.354495	0.023745
807.545698	0.023796
807.736883	0.023876
807.928050	0.023644
808.119199	0.023832
808.310329	0.023555
808.501441	0.023407
808.692535	0.023427
808.883611	0.023131
809.074669	0.023039
809.265708	0.023141
809.456729	0.023289
809.647732	0.023268
809.838717	0.023289
810.029683	0.023385
810.220632	0.023716
810.411562	0.023839
810.602474	0.024046
810.793367	0.024258
810.984242	0.024205
811.175100	0.024047
811.365938	0.024139
811.556759	0.024015
811.747562	0.024006
811.938346	0.023698
812.129112	0.023661
812.319860	0.023674
812.510589	0.023563
812.701300	0.023652
812.891994	0.023773
813.082668	0.023745
813.273325	0.023582
813.463964	0.023633
813.654584	0.023832
813.845186	0.023707
814.035769	0.023621
814.226335	0.023466
814.416882	0.023426
814.607411	0.023405
814.797922	0.023446
814.988415	0.023620
815.178889	0.023818
815.369345	0.023911
815.559783	0.024165
815.750203	0.024349
815.940605	0.024517
816.130988	0.024621
816.321353	0.024749
816.511700	0.024745
816.702028	0.025046
816.892339	0.025083
817.082631	0.025144
817.272905	0.025124
817.463161	0.025294
817.653398	0.025272
817.843617	0.025385
818.033819	0.025531
818.224001	0.025961
818.414166	0.026197
818.604312	0.026307
818.794440	0.026172
818.984550	0.026382
819.174642	0.026275
819.364716	0.026412
819.554771	0.026413
819.744808	0.026213
819.934827	0.025873
820.124827	0.025479
820.314810	0.025382
820.504774	0.025334
820.694720	0.025434
820.884647	0.025573
821.074557	0.025650
821.264448	0.025534
821.454321	0.025704
821.644176	0.025756
821.834012	0.025840
822.023831	0.025807
822.213631	0.025812
822.403413	0.025715
822.593176	0.025873
822.782922	0.025731
822.972649	0.025867
823.162358	0.025693
823.352049	0.025725
823.541721	0.025876
823.731376	0.025870
823.921012	0.026059
824.110629	0.025991
824.300229	0.025942
824.489811	0.026062
824.679374	0.026097
824.868919	0.026293
825.058445	0.026354
825.247954	0.026365
825.437444	0.026390
825.626916	0.026372
825.816370	0.026202
826.005806	0.026076
826.195223	0.026148
826.384622	0.026107
826.574003	0.026152
826.763366	0.026218
826.952711	0.026222
827.142037	0.026316
827.331345	0.026485
827.520635	0.026670
827.709906	0.026783
827.899160	0.026792
828.088395	0.026706
828.277612	0.026735
828.466810	0.026658
828.655991	0.026558
828.845153	0.026702
829.034297	0.026729
829.223423	0.026877
829.412531	0.026820
829.601620	0.026828
829.790691	0.027031
829.979744	0.027253
830.168779	0.027253
830.357795	0.027379
830.546793	0.027294
830.735773	0.027205
830.924735	0.027208
831.113679	0.027491
831.302604	0.027875
831.491511	0.027935
831.680400	0.028052
831.869271	0.028395
832.058123	0.028536
832.246957	0.028426
832.435773	0.028631
832.624571	0.028578
832.813351	0.028589
833.002112	0.028497
833.190855	0.028723
833.379580	0.028735
833.568287	0.028736
833.756975	0.028919
833.945645	0.029140
834.134297	0.029233
834.322931	0.029368
834.511547	0.029376
834.700144	0.029346
834.888723	0.029385
835.077284	0.029154
835.265826	0.029005
835.454351	0.028835
835.642857	0.028956
835.831345	0.028765
836.019815	0.028714
836.208266	0.028801
836.396699	0.029072
836.585114	0.029115
836.773511	0.029323
836.961890	0.029504
837.150250	0.029724
837.338592	0.029838
837.526916	0.030187
837.715222	0.030581
837.903510	0.030693
838.091779	0.030420
838.280030	0.030479
838.468263	0.030383
838.656477	0.030535
838.844674	0.030625
839.032852	0.030525
839.221012	0.030589
839.409153	0.030483
839.597277	0.030472
839.785382	0.030691
839.973469	0.030690
840.161538	0.030981
840.349589	0.031017
840.537621	0.031027
840.725635	0.031251
840.913631	0.031119
841.101609	0.031143
841.289568	0.031177
841.477509	0.031391
841.665432	0.031413
841.853337	0.031750
842.041224	0.031817
842.229092	0.031899
842.416942	0.032080
842.604774	0.032365
842.792588	0.032633
842.980383	0.032933
843.168160	0.032922
843.355919	0.033236
843.543660	0.033031
843.731382	0.033401
843.919087	0.033404
844.106773	0.033549
844.294441	0.033329
844.482090	0.033210
844.669722	0.033173
844.857335	0.033328
845.044930	0.033304
845.232507	0.033369
845.420065	0.033135
845.607605	0.033318
845.795127	0.033273
845.982631	0.033528
846.170117	0.033915
846.357584	0.034167
846.545033	0.034248
846.732464	0.034468
846.919877	0.034626
847.107272	0.034837
847.294648	0.034833
847.482006	0.034828
847.669346	0.035063
847.856667	0.034748
848.043971	0.034604
848.231256	0.034393
848.418523	0.034404
848.605771	0.034677
848.793002	0.034419
848.980214	0.034303
849.167408	0.034342
849.354584	0.034116
849.541742	0.034297
849.728881	0.034281
849.916002	0.034638
850.103105	0.034618
850.290190	0.034716
850.477256	0.035135
850.664304	0.035556
850.851334	0.035721
851.038346	0.036117
851.225340	0.036360
851.412315	0.036467
851.599272	0.036470
851.786211	0.036946
851.973132	0.036740
852.160034	0.036861
852.346918	0.037165
852.533784	0.037418
852.720632	0.037326
852.907462	0.037486
853.094273	0.037735
853.281066	0.037612
853.467841	0.037342
853.654598	0.037556
853.841336	0.037608
854.028056	0.037375
854.214758	0.037455
854.401442	0.037862
854.588107	0.037736
854.774755	0.037926
854.961384	0.038104
855.147995	0.038143
855.334587	0.038293
855.521162	0.038314
855.707718	0.038186
855.894256	0.038273
856.080775	0.038224
856.267277	0.038425
856.453760	0.038313
856.640225	0.038608
856.826672	0.038807
857.013101	0.038684
857.199511	0.038881
857.385903	0.039356
857.572277	0.039355
857.758633	0.039456
857.944970	0.039741
858.131290	0.040104
858.317591	0.040084
858.503873	0.040367
858.690138	0.040553
858.876384	0.040540
859.062612	0.040379
859.248822	0.040592
859.435014	0.040506
859.621188	0.040243
859.807343	0.039933
859.993480	0.040388
860.179599	0.039958
860.365699	0.039934
860.551781	0.039989
860.737846	0.040218
860.923891	0.040127
861.109919	0.040360
861.295929	0.040633
861.481920	0.040920
861.667893	0.040510
861.853848	0.041015
862.039784	0.041191
862.225702	0.041306
862.411603	0.041324
862.597484	0.041318
862.783348	0.041185
862.969193	0.041078
863.155021	0.040885
863.340830	0.041222
863.526620	0.041137
863.712393	0.041289
863.898147	0.041420
864.083883	0.041441
864.269601	0.041552
864.455301	0.041846
864.640982	0.041947
864.826645	0.042235
865.012290	0.042315
865.197917	0.042374
865.383526	0.042532
865.569116	0.042730
865.754688	0.042659
865.940242	0.042639
866.125777	0.042670
866.311295	0.042660
866.496794	0.042593
866.682275	0.042499
866.867737	0.042561
867.053182	0.042391
867.238608	0.042193
867.424016	0.042330
867.609406	0.042339
867.794778	0.042237
867.980131	0.042403
868.165466	0.042294
868.350783	0.042156
868.536082	0.042057
868.721362	0.042141
868.906625	0.042120
869.091869	0.042046
869.277094	0.042101
869.462302	0.042162
869.647491	0.042135
869.832662	0.042372
870.017815	0.042558
870.202950	0.042852
870.388066	0.042937
870.573165	0.043162
870.758245	0.043324
870.943306	0.043630
871.128350	0.043809
871.313375	0.044053
871.498382	0.044053
871.683371	0.044063
871.868342	0.044086
872.053294	0.043993
872.238229	0.044115
872.423144	0.044055
872.608042	0.043855
872.792922	0.043954
872.977783	0.044194
873.162626	0.044279
873.347451	0.044554
873.532258	0.044667
873.717046	0.044691
873.901816	0.044578
874.086568	0.044679
874.271302	0.044853
874.456017	0.044976
874.640715	0.044552
874.825394	0.044843
875.010055	0.044920
875.194697	0.044582
875.379322	0.044571
875.563928	0.044501
875.748516	0.044349
875.933085	0.044343
876.117637	0.044116
876.302170	0.044148
876.486685	0.043929
876.671182	0.043783
876.855661	0.043922
877.040121	0.044457
877.224563	0.044225
877.408987	0.044422
877.593393	0.044443
877.777780	0.044471
877.962150	0.044565
878.146501	0.044601
878.330833	0.044544
878.515148	0.044911
878.699444	0.044309
878.883722	0.044753
879.067982	0.044882
879.252224	0.044811
879.436447	0.044602
879.620653	0.044626
879.804840	0.044377
879.989008	0.043996
880.173159	0.043844
880.357291	0.044182
880.541405	0.043974
880.725501	0.044016
880.909579	0.044151
881.093638	0.044551
881.277680	0.044689
881.461703	0.044782
881.645707	0.045160
881.829694	0.045303
882.013662	0.045209
882.197612	0.045258
882.381544	0.045169
882.565458	0.045030
882.749353	0.044820
882.933230	0.044570
883.117089	0.044802
883.300930	0.044653
883.484753	0.044470
883.668557	0.044337
883.852343	0.044515
884.036111	0.044606
884.219861	0.044859
884.403592	0.044761
884.587305	0.045102
884.771000	0.044959
884.954677	0.045228
885.138335	0.045038
885.321976	0.045091
885.505598	0.044890
885.689201	0.044711
885.872787	0.044416
886.056354	0.044483
886.239904	0.044247
886.423434	0.044006
886.606947	0.043676
886.790442	0.043646
886.973918	0.043699
887.157376	0.043747
887.340816	0.043651
887.524237	0.043553
887.707641	0.043360
887.891026	0.043271
888.074393	0.043220
888.257741	0.043244
888.441072	0.043313
888.624384	0.043286
888.807678	0.043141
888.990954	0.043343
889.174211	0.043381
889.357451	0.043641
889.540672	0.043691
889.723875	0.043715
889.907059	0.044002
890.090226	0.044149
890.273374	0.044069
890.456504	0.044085
890.639616	0.044008
890.822709	0.044295
891.005785	0.044529
891.188842	0.044463
891.371881	0.044603
891.554901	0.044648
891.737904	0.044616
891.920888	0.044635
892.103854	0.044880
892.286802	0.045061
892.469731	0.044992
892.652643	0.044693
892.835536	0.044835
893.018410	0.045171
893.201267	0.045026
893.384106	0.044890
893.566926	0.044764
893.749728	0.044518
893.932511	0.044356
894.115277	0.044325
894.298024	0.044375
894.480753	0.044234
894.663464	0.044085
894.846157	0.044582
895.028831	0.044543
895.211487	0.044597
895.394125	0.044577
895.576745	0.044543
895.759346	0.044788
895.941930	0.044693
896.124495	0.044707
896.307041	0.044481
896.489570	0.043746
896.672080	0.043548
896.854573	0.043676
897.037046	0.043638
897.219502	0.043654
897.401940	0.043394
897.584359	0.043329
897.766760	0.043261
897.949143	0.043541
898.131507	0.043504
898.313854	0.043762
898.496182	0.043660
898.678492	0.043695
898.860783	0.043819
899.043057	0.043947
899.225312	0.043985
899.407549	0.043718
899.589768	0.043440
899.771968	0.043934
899.954151	0.043861
900.136315	0.044115
900.318461	0.044252
900.500588	0.044225
900.682698	0.044066
900.864789	0.043954
901.046862	0.044124
901.228917	0.044069
901.410953	0.043481
901.592971	0.043286
901.774972	0.042991
901.956953	0.043024
902.138917	0.042885
902.320862	0.042559
902.502790	0.042657
902.684699	0.042542
902.866589	0.042490
903.048462	0.042707
903.230316	0.042903
903.412152	0.042632
903.593970	0.042270
903.775770	0.041678
903.957551	0.041526
904.139314	0.041408
904.321059	0.041474
904.502786	0.041316
904.684494	0.041405
904.866185	0.040925
905.047857	0.041005
905.229510	0.040769
905.411146	0.041169
905.592763	0.040932
905.774363	0.040905
905.955943	0.040679
906.137506	0.040780
906.319051	0.040687
906.500577	0.041097
906.682085	0.040919
906.863575	0.041123
907.045046	0.041207
907.226500	0.041562
907.407935	0.041485
907.589352	0.041568
907.770750	0.041546
907.952131	0.041201
908.133493	0.040515
908.314837	0.040585
908.496163	0.040170
908.677470	0.039717
908.858760	0.039147
909.040031	0.038852
909.221284	0.038456
909.402518	0.038182
909.583735	0.038131
909.764933	0.038191
909.946113	0.038024
910.127275	0.038089
910.308418	0.038102
910.489544	0.038282
910.670651	0.038081
910.851740	0.038283
911.032810	0.038417
911.213863	0.038518
911.394897	0.038442
911.575913	0.038460
911.756911	0.038723
911.937890	0.038394
912.118851	0.038436
912.299794	0.038350
912.480719	0.038028
912.661626	0.037274
912.842514	0.036806
913.023384	0.036801
913.204236	0.036641
913.385070	0.036274
913.565886	0.036565
913.746683	0.036353
913.927462	0.036137
914.108223	0.036119
914.288965	0.036064
914.469690	0.035900
914.650396	0.035508
914.831084	0.035174
915.011754	0.034710
915.192405	0.034148
915.373038	0.034020
915.553653	0.033864
915.734250	0.033674
915.914829	0.033925
916.095389	0.033462
916.275931	0.033641
916.456455	0.033686
916.636961	0.033957
916.817448	0.033946
916.997917	0.033848
917.178368	0.033887
917.358801	0.033519
917.539216	0.033230
917.719612	0.033680
917.899990	0.033435
918.080350	0.033121
918.260692	0.033162
918.441015	0.032882
918.621320	0.032717
918.801607	0.032464
918.981876	0.032771
919.162127	0.032585
919.342359	0.032019
919.522573	0.031616
919.702769	0.031313
919.882947	0.031039
920.063106	0.031150
920.243247	0.030999
920.423370	0.030883
920.603475	0.030416
920.783562	0.030335
920.963630	0.030279
921.143680	0.030427
921.323712	0.030601
921.503725	0.030099
921.683721	0.029933
921.863698	0.029636
922.043657	0.029392
922.223598	0.029412
922.403520	0.029547
922.583424	0.029173
922.763311	0.028780
922.943178	0.028673
923.123028	0.028889
923.302859	0.028323
923.482673	0.028242
923.662467	0.028412
923.842244	0.027982
924.022003	0.027528
924.201743	0.027761
924.381465	0.028026
924.561169	0.027532
924.740854	0.027363
924.920522	0.027389
925.100171	0.027344
925.279802	0.027190
925.459414	0.027058
925.639009	0.027286
925.818585	0.026750
925.998143	0.025973
926.177683	0.026124
926.357205	0.025191
926.536708	0.024755
926.716193	0.024372
926.895660	0.024051
927.075109	0.023905
927.254539	0.023526
927.433951	0.023336
927.613345	0.023158
927.792721	0.022340
927.972079	0.022448
928.151418	0.022374
928.330739	0.021626
928.510042	0.021078
928.689327	0.020662
928.868593	0.020214
929.047841	0.020085
929.227071	0.019829
929.406283	0.019559
929.585476	0.018553
929.764652	0.018655
929.943809	0.018632
930.122948	0.018018
930.302068	0.018144
930.481171	0.017721
930.660255	0.017688
930.839321	0.018090
931.018369	0.018251
931.197398	0.019068
931.376409	0.018837
931.555402	0.018464
931.734377	0.019224
931.913334	0.018756
932.092272	0.018662
932.271192	0.017712
932.450094	0.017028
932.628978	0.016614
932.807844	0.015522
932.986691	0.015099
933.165520	0.014853
933.344331	0.013710
933.523123	0.012759
933.701898	0.012367
933.880654	0.012621
934.059392	0.012068
934.238111	0.012014
934.416813	0.011947
934.595496	0.011016
934.774161	0.010864
934.952808	0.010340
935.131437	0.010490
935.310047	0.010142
935.488639	0.009674
935.667213	0.009806
935.845769	0.008876
936.024306	0.008327
936.202825	0.008517
936.381326	0.008354
936.559809	0.008697
936.738274	0.008844
936.916720	0.008075
937.095148	0.008534
937.273558	0.008078
937.451950	0.008092
937.630323	0.008551
937.808678	0.008385
937.987015	0.008151
938.165334	0.007892
938.343635	0.007305
938.521917	0.007895
938.700181	0.007206
938.878427	0.006975
939.056655	0.007036
939.234864	0.006736
939.413055	0.006697
939.591228	0.006881
939.769383	0.006952
939.947519	0.006658
940.125638	0.006395
940.303738	0.006079
940.481820	0.005347
940.659883	0.005571
940.837929	0.005229
941.015956	0.004568
941.193965	0.004067
941.371955	0.004004
941.549928	0.003949
941.727882	0.003065
941.905818	0.002705
942.083736	0.002666
942.261636	0.001702
942.439517	0.002052
942.617380	0.001608
942.795225	0.001435
942.973052	0.000992
943.150860	0.000474
943.328651	0.000293
943.506423	0.000049
943.684176	0.000087
943.861912	-0.000017
944.039629	-0.001037
944.217328	-0.000750
944.395009	-0.001138
944.572672	-0.002532
944.750317	-0.002109
944.927943	-0.002296
945.105551	-0.002189
945.283141	-0.002801
945.460712	-0.003012
945.638265	-0.002503
945.815801	-0.003234
945.993317	-0.002848
946.170816	-0.003205
946.348297	-0.003690
946.525759	-0.003619
946.703203	-0.003817
946.880629	-0.003170
947.058036	-0.003227
947.235425	-0.003777
947.412797	-0.002818
947.590149	-0.003032
947.767484	-0.001716
947.944800	-0.002551
948.122099	-0.002594
948.299379	-0.003904
948.476640	-0.004319
948.653884	-0.004443
948.831109	-0.005133
949.008316	-0.005034
949.185505	-0.005953
949.362676	-0.007156
949.539828	-0.007102
949.716962	-0.007472
949.894078	-0.007260
950.071176	-0.008916
950.248256	-0.009676
950.425317	-0.009641
950.602360	-0.010505
950.779385	-0.010184
950.956391	-0.010729
951.133380	-0.010535
951.310350	-0.010166
951.487302	-0.010897
951.664235	-0.009593
951.841151	-0.009629
952.018048	-0.009588
952.194927	-0.010548
952.371788	-0.011870
952.548631	-0.011415
952.725455	-0.011825
952.902261	-0.013136
953.079049	-0.012454
953.255819	-0.012908
953.432570	-0.013357
953.609303	-0.014980
953.786018	-0.014888
953.962715	-0.014048
954.139394	-0.014550
954.316054	-0.014542
954.492696	-0.012058
954.669320	-0.012569
954.845926	-0.012997
955.022513	-0.011972
955.199083	-0.008735
955.375634	-0.008108
955.552166	-0.008011
955.728681	-0.006381
955.905177	-0.006454
956.081655	-0.009830
956.258115	-0.010372
956.434557	-0.012607
956.610980	-0.013228
956.787385	-0.015768
956.963772	-0.014949
957.140141	-0.016056
957.316492	-0.017671
957.492824	-0.018449
957.669138	-0.017676
957.845434	-0.016264
958.021712	-0.014866
958.197971	-0.015752
958.374212	-0.015416
958.550435	-0.017447
958.726640	-0.016906
958.902826	-0.017041
959.078995	-0.014944
959.255145	-0.014720
959.431277	-0.015320
959.607390	-0.015306
959.783486	-0.015366
959.959563	-0.015379
960.135622	-0.015038
960.311662	-0.014672
960.487685	-0.012877
960.663689	-0.013803
960.839675	-0.012728
961.015643	-0.012796
961.191593	-0.013350
961.367524	-0.012063
961.543437	-0.013353
961.719332	-0.012548
961.895209	-0.011294
962.071067	-0.013240
962.246907	-0.013995
962.422730	-0.013281
962.598533	-0.014156
962.774319	-0.011583
962.950086	-0.011588
963.125835	-0.008960
963.301566	-0.008891
963.477279	-0.010743
963.652973	-0.008979
963.828650	-0.008263
964.004308	-0.009407
964.179947	-0.007470
964.355569	-0.009114
964.531172	-0.009750
964.706757	-0.008816
964.882324	-0.009198
965.057873	-0.008092
965.233403	-0.009845
965.408916	-0.010800
965.584410	-0.009483
965.759885	-0.010595
965.935343	-0.008464
966.110782	-0.009676
966.286203	-0.010918
966.461606	-0.010194
966.636991	-0.009748
966.812357	-0.008353
966.987705	-0.006255
967.163035	-0.008731
967.338347	-0.008304
967.513641	-0.009458
967.688916	-0.008329
967.864173	-0.008125
968.039412	-0.008746
968.214632	-0.010703
968.389835	-0.010936
968.565019	-0.011879
968.740185	-0.009346
968.915333	-0.008446
969.090462	-0.008354
969.265573	-0.007860
969.440667	-0.008423
969.615741	-0.007293
969.790798	-0.006190
969.965836	-0.006389
970.140856	-0.005910
970.315858	-0.007061
970.490842	-0.008672
970.665808	-0.007749
970.840755	-0.008159
971.015684	-0.008865
971.190595	-0.010136
971.365487	-0.009127
971.540362	-0.007742
971.715218	-0.009511
971.890056	-0.010026
972.064875	-0.010248
972.239677	-0.011573
972.414460	-0.011280
972.589225	-0.010402
972.763972	-0.010928
972.938700	-0.010005
973.113411	-0.010120
973.288103	-0.009992
973.462777	-0.008607
973.637432	-0.008299
973.812070	-0.005888
973.986689	-0.002833
974.161290	-0.003015
974.335873	-0.001550
974.510437	-0.004754
974.684984	-0.005649
974.859512	-0.003248
975.034022	-0.005319
975.208513	-0.003700
975.382987	-0.006192
975.557442	-0.007893
975.731879	-0.008134
975.906298	-0.009552
976.080698	-0.008622
976.255080	-0.008209
976.429445	-0.008177
976.603790	-0.006970
976.778118	-0.006176
976.952427	-0.005357
977.126719	-0.006443
977.300992	-0.004153
977.475246	-0.002625
977.649483	-0.002127
977.823701	-0.003220
977.997901	-0.004354
978.172083	-0.004307
978.346247	-0.005627
978.520392	-0.006240
978.694519	-0.005886
978.868628	-0.008154
979.042719	-0.008196
979.216791	-0.007533
979.390845	-0.006023
979.564882	-0.006169
979.738899	-0.005663
979.912899	-0.004865
980.086880	-0.003306
980.260843	-0.004245
980.434788	-0.004629
980.608715	-0.003925
980.782623	-0.004031
980.956514	-0.004140
981.130386	-0.005133
981.304240	-0.004542
981.478075	-0.005120
981.651892	-0.006920
981.825692	-0.005453
981.999472	-0.004088
982.173235	-0.006632
982.346980	-0.006366
982.520706	-0.006880
982.694414	-0.005823
982.868104	-0.006764
983.041775	-0.007365
983.215428	-0.007164
983.389064	-0.008535
983.562680	-0.007547
983.736279	-0.008303
983.909860	-0.009204
984.083422	-0.008317
984.256966	-0.008224
984.430491	-0.009175
984.603999	-0.009689
984.777488	-0.009445
984.950959	-0.009209
985.124412	-0.012597
985.297847	-0.009976
985.471263	-0.008525
985.644661	-0.009727
985.818041	-0.008902
985.991403	-0.008186
986.164747	-0.006352
986.338072	-0.006639
986.511379	-0.006187
986.684668	-0.002797
986.857938	-0.004077
987.031191	-0.004546
987.204425	-0.004672
987.377641	-0.005005
987.550839	-0.004917
987.724018	-0.006632
987.897179	-0.005906
988.070322	-0.005369
988.243447	-0.005660
988.416554	-0.006309
988.589642	-0.006125
988.762712	-0.004409
988.935764	-0.004651
989.108798	-0.006446
989.281813	-0.004411
989.454811	-0.003183
989.627790	-0.004217
989.800751	-0.004514
989.973693	-0.003676
990.146617	-0.004514
990.319524	-0.004110
990.492412	-0.002818
990.665281	-0.001571
990.838133	-0.001984
991.010966	-0.002282
991.183781	-0.001634
991.356578	-0.001649
991.529356	-0.001952
991.702117	-0.003115
991.874859	-0.005049
992.047583	-0.006126
992.220288	-0.006230
992.392976	-0.007544
992.565645	-0.008498
992.738296	-0.007348
992.910929	-0.007913
993.083543	-0.006661
993.256139	-0.004684
993.428718	-0.004327
993.601277	-0.004381
993.773819	-0.003419
993.946342	-0.002312
994.118848	-0.001869
994.291335	-0.003291
994.463803	-0.003004
994.636254	-0.003175
994.808686	-0.003450
994.981100	-0.003486
995.153496	-0.002876
995.325874	-0.003298
995.498233	-0.003413
995.670574	-0.003256
995.842897	-0.002467
996.015202	-0.002154
996.187488	-0.001628
996.359757	-0.002131
996.532007	-0.002324
996.704239	-0.001447
996.876452	-0.001638
997.048648	-0.000610
997.220825	-0.000643
997.392984	0.000227
997.565124	-0.000152
997.737247	-0.000872
997.909351	-0.001354
998.081437	-0.000723
998.253505	-0.001993
998.425554	-0.001443
998.597586	-0.003353
998.769599	-0.003467
998.941594	-0.004782
999.113571	-0.003797
999.285529	-0.004003
999.457469	-0.002226
999.629391	-0.002088
999.801295	-0.001835
999.973181	-0.000786
1000.145048	-0.001378
1000.316897	-0.002365
1000.488728	-0.003487
1000.660541	-0.005248
1000.832335	-0.005171
1001.004111	-0.005851
1001.175869	-0.007004
1001.347609	-0.007040
1001.519331	-0.007929
1001.691034	-0.008103
1001.862719	-0.006110
1002.034386	-0.004469
1002.206035	-0.003891
1002.377665	-0.004560
1002.549277	-0.004528
1002.720871	-0.003467
1002.892447	-0.003910
1003.064004	-0.003543
1003.235544	-0.001821
1003.407065	-0.003906
1003.578568	-0.005061
1003.750052	-0.005009
1003.921519	-0.003045
1004.092967	-0.003383
1004.264397	-0.002890
1004.435809	-0.002608
1004.607202	-0.002988
1004.778577	-0.001681
1004.949934	-0.001507
1005.121273	-0.000050
1005.292594	-0.000074
1005.463896	-0.001648
1005.635180	-0.001486
1005.806446	-0.002805
1005.977694	-0.002515
1006.148923	-0.002128
1006.320135	-0.003133
1006.491328	-0.002260
1006.662503	-0.002809
1006.833659	-0.003688
1007.004798	-0.004203
1007.175918	-0.004988
1007.347020	-0.004151
1007.518103	-0.003022
1007.689169	-0.004307
1007.860216	-0.005541
1008.031245	-0.007251
1008.202256	-0.008456
1008.373248	-0.007420
1008.544223	-0.007325
1008.715179	-0.006023
1008.886117	-0.006173
1009.057036	-0.007370
1009.227938	-0.007469
1009.398821	-0.007515
1009.569686	-0.007101
1009.740533	-0.004675
1009.911361	-0.003663
1010.082172	-0.002393
1010.252964	-0.001948
1010.423738	-0.001996
1010.594493	-0.003275
1010.765231	-0.002692
1010.935950	-0.002416
1011.106651	-0.001668
1011.277334	-0.003209
1011.447998	-0.003995
1011.618645	-0.004281
1011.789273	-0.004284
1011.959882	-0.004245
1012.130474	-0.004556
1012.301048	-0.004495
1012.471603	-0.004170
1012.642140	-0.003198
1012.812658	-0.002756
1012.983159	-0.003282
1013.153641	-0.004131
1013.324105	-0.005412
1013.494551	-0.005844
1013.664979	-0.005059
1013.835388	-0.005606
1014.005779	-0.005395
1014.176152	-0.006650
1014.346507	-0.006488
1014.516843	-0.005446
1014.687162	-0.006796
1014.857462	-0.005990
1015.027744	-0.005308
1015.198007	-0.004329
1015.368252	-0.003738
1015.538480	-0.003071
1015.708689	-0.002645
1015.878879	-0.003189
1016.049052	-0.004667
1016.219206	-0.001773
1016.389342	-0.003177
1016.559460	-0.004782
1016.729559	-0.005852
1016.899641	-0.005296
1017.069704	-0.006151
1017.239749	-0.006015
1017.409775	-0.007287
1017.579784	-0.007095
1017.749774	-0.008390
1017.919746	-0.007182
1018.089700	-0.006575
1018.259635	-0.005818
1018.429553	-0.005686
1018.599452	-0.005219
1018.769333	-0.005185
1018.939195	-0.004176
1019.109040	-0.003117
1019.278866	-0.003175
1019.448674	-0.002911
1019.618464	-0.002942
1019.788235	-0.002903
1019.957989	-0.004459
1020.127724	-0.006201
1020.297441	-0.005713
1020.467139	-0.005944
1020.636820	-0.007240
1020.806482	-0.006568
1020.976126	-0.007373
1021.145752	-0.008188
1021.315359	-0.007845
1021.484948	-0.007730
1021.654519	-0.005292
1021.824072	-0.005961
1021.993607	-0.005890
1022.163123	-0.004202
1022.332621	-0.005839
1022.502101	-0.005858
1022.671563	-0.005149
1022.841007	-0.005553
1023.010432	-0.003295
1023.179839	-0.003613
1023.349228	-0.004263
1023.518598	-0.002430
1023.687951	-0.003639
1023.857285	-0.002138
1024.026601	-0.003620
1024.195899	-0.001941
1024.365178	-0.004104
1024.534439	-0.005459
1024.703682	-0.008035
1024.872907	-0.008474
1025.042114	-0.010017
1025.211302	-0.010177
1025.380472	-0.010593
1025.549624	-0.010047
1025.718758	-0.010843
1025.887873	-0.009347
1026.056970	-0.008638
1026.226049	-0.006549
1026.395110	-0.004465
1026.564153	-0.005136
1026.733177	-0.005131
1026.902183	-0.004278
1027.071171	-0.001935
1027.240141	-0.004113
1027.409092	-0.004731
1027.578026	-0.006930
1027.746940	-0.007095
1027.915837	-0.007909
1028.084716	-0.006838
1028.253576	-0.005754
1028.422418	-0.006782
1028.591242	-0.007896
1028.760048	-0.006260
1028.928835	-0.005375
1029.097604	-0.003906
1029.266355	-0.003784
1029.435088	-0.004183
1029.603803	-0.003653
1029.772499	-0.004577
1029.941177	-0.005618
1030.109837	-0.005241
1030.278478	-0.005656
1030.447102	-0.005137
1030.615707	-0.004308
1030.784294	-0.005125
1030.952863	-0.005207
1031.121413	-0.006380
1031.289945	-0.006255
1031.458460	-0.004629
1031.626955	-0.005692
1031.795433	-0.006470
1031.963892	-0.006842
1032.132334	-0.006783
1032.300756	-0.005762
1032.469161	-0.005490
1032.637548	-0.007296
1032.805916	-0.006865
1032.974266	-0.007195
1033.142598	-0.006814
1033.310911	-0.004320
1033.479207	-0.005430
1033.647484	-0.006013
1033.815743	-0.006588
1033.983983	-0.006730
1034.152206	-0.004725
1034.320410	-0.005298
1034.488596	-0.006029
1034.656764	-0.007033
1034.824914	-0.006712
1034.993045	-0.006773
1035.161158	-0.007613
1035.329253	-0.007082
1035.497330	-0.007765
1035.665388	-0.008660
1035.833428	-0.008084
1036.001450	-0.007377
1036.169454	-0.005894
1036.337440	-0.006934
1036.505407	-0.005260
1036.673356	-0.004213
1036.841287	-0.004044
1037.009200	-0.002560
1037.177094	-0.002065
1037.344970	-0.002056
1037.512828	-0.001430
1037.680668	-0.002479
1037.848489	-0.003326
1038.016293	-0.004728
1038.184078	-0.004886
1038.351845	-0.006214
1038.519593	-0.006322
1038.687324	-0.007662
1038.855036	-0.007373
1039.022730	-0.007477
1039.190406	-0.008012
1039.358063	-0.008089
1039.525702	-0.006582
1039.693323	-0.006205
1039.860926	-0.006476
1040.028511	-0.006347
1040.196077	-0.003534
1040.363625	-0.004647
1040.531155	-0.004299
1040.698667	-0.002929
1040.866161	-0.002469
1041.033636	-0.002105
1041.201093	-0.002139
1041.368532	-0.002202
1041.535952	-0.002838
1041.703355	-0.004684
1041.870739	-0.003631
1042.038105	-0.003269
1042.205452	-0.003475
1042.372782	-0.003892
1042.540093	-0.004854
1042.707386	-0.005489
1042.874661	-0.004839
1043.041918	-0.004043
1043.209156	-0.003439
1043.376376	-0.004137
1043.543578	-0.004092
1043.710762	-0.004176
1043.877927	-0.003898
1044.045074	-0.003096
1044.212203	-0.003082
1044.379314	-0.003670
1044.546407	-0.004303
1044.713481	-0.002556
1044.880537	-0.003814
1045.047575	-0.004968
1045.214595	-0.005622
1045.381596	-0.004273
1045.548579	-0.004995
1045.715544	-0.006064
1045.882491	-0.006076
1046.049420	-0.006106
1046.216330	-0.006372
1046.383222	-0.006533
1046.550096	-0.004698
1046.716951	-0.004043
1046.883789	-0.006055
1047.050608	-0.005888
1047.217409	-0.006159
1047.384192	-0.005880
1047.550956	-0.006817
1047.717703	-0.008430
1047.884431	-0.006614
1048.051140	-0.008785
1048.217832	-0.008272
1048.384505	-0.007166
1048.551161	-0.008857
1048.717798	-0.006242
1048.884416	-0.005600
1049.051017	-0.003981
1049.217599	-0.002702
1049.384163	-0.002540
1049.550709	-0.002030
1049.717237	-0.003111
1049.883746	-0.002000
1050.050237	0.000947
1050.216710	-0.000137
1050.383165	-0.000371
1050.549601	-0.000975
1050.716019	-0.001069
1050.882420	-0.001298
1051.048801	-0.001798
1051.215165	-0.001290
1051.381510	-0.001263
1051.547837	-0.002460
1051.714146	-0.003418
1051.880437	-0.001394
1052.046709	-0.001808
1052.212964	-0.002392
1052.379200	-0.001257
1052.545417	-0.000845
1052.711617	-0.001199
1052.877798	-0.003527
1053.043961	-0.003348
1053.210106	-0.003887
1053.376233	-0.005435
1053.542341	-0.006287
1053.708432	-0.005482
1053.874504	-0.008015
1054.040557	-0.008823
1054.206593	-0.009264
1054.372610	-0.008779
1054.538609	-0.008338
1054.704590	-0.006719
1054.870553	-0.007560
1055.036497	-0.007107
1055.202424	-0.008499
1055.368331	-0.008435
1055.534221	-0.007153
1055.700093	-0.004650
1055.865946	-0.005169
1056.031781	-0.007241
1056.197598	-0.006683
1056.363397	-0.006154
1056.529177	-0.003935
1056.694939	-0.003800
1056.860683	-0.003266
1057.026409	-0.003629
1057.192116	-0.005133
1057.357806	-0.004473
1057.523477	-0.004542
1057.689130	-0.004993
1057.854764	-0.004238
1058.020381	-0.005313
1058.185979	-0.005077
1058.351559	-0.004005
1058.517120	-0.004135
1058.682664	-0.003617
1058.848189	-0.002622
1059.013696	0.000130
1059.179185	-0.000696
1059.344656	-0.002184
1059.510108	-0.003133
1059.675542	-0.003382
1059.840958	-0.002558
1060.006356	-0.002165
1060.171735	-0.002608
1060.337096	-0.002579
1060.502439	-0.004604
1060.667764	-0.004972
1060.833071	-0.004786
1060.998359	-0.004272
1061.163629	-0.004832
1061.328881	-0.006260
1061.494115	-0.007444
1061.659330	-0.006634
1061.824527	-0.009030
1061.989706	-0.010586
1062.154867	-0.008688
1062.320010	-0.007304
1062.485134	-0.006837
1062.650240	-0.007252
1062.815328	-0.007414
1062.980398	-0.006964
1063.145449	-0.007176
1063.310482	-0.004518
1063.475497	-0.002730
1063.640494	-0.004838
1063.805473	-0.004959
1063.970433	-0.004251
1064.135375	-0.002404
1064.300299	-0.001273
1064.465204	-0.000504
1064.630092	-0.000761
1064.794961	-0.002194
1064.959812	-0.003031
1065.124645	-0.001650
1065.289459	-0.003017
1065.454256	-0.003014
1065.619034	-0.002681
1065.783793	-0.003854
1065.948535	-0.004980
1066.113258	-0.004779
1066.277964	-0.004054
1066.442651	-0.003883
1066.607319	-0.004291
1066.771970	-0.005601
1066.936602	-0.006485
1067.101216	-0.008184
1067.265812	-0.006689
1067.430389	-0.005867
1067.594949	-0.007226
1067.759490	-0.007785
1067.924013	-0.006866
1068.088518	-0.007434
1068.253004	-0.006300
1068.417472	-0.007627
1068.581922	-0.006756
1068.746354	-0.008071
1068.910768	-0.008311
1069.075163	-0.008075
1069.239540	-0.007197
1069.403899	-0.008808
1069.568240	-0.009594
1069.732562	-0.007825
1069.896866	-0.005814
1070.061152	-0.005409
1070.225420	-0.004648
1070.389670	-0.006887
1070.553901	-0.007364
1070.718114	-0.007864
1070.882309	-0.006911
1071.046486	-0.005576
1071.210644	-0.006663
1071.374784	-0.007991
1071.538906	-0.010045
1071.703010	-0.011201
1071.867096	-0.011214
1072.031163	-0.009057
1072.195212	-0.009014
1072.359243	-0.006831
1072.523256	-0.007986
1072.687250	-0.008312
1072.851226	-0.009290
1073.015184	-0.007852
1073.179124	-0.008540
1073.343045	-0.006506
1073.506949	-0.007358
1073.670834	-0.007013
1073.834701	-0.007935
1073.998549	-0.008140
1074.162380	-0.006864
1074.326192	-0.004112
1074.489986	-0.004492
1074.653761	-0.003205
1074.817519	-0.004406
1074.981258	-0.003995
1075.144979	-0.004384
1075.308682	-0.005192
1075.472367	-0.003944
1075.636033	-0.005500
1075.799681	-0.006747
1075.963311	-0.006052
1076.126923	-0.006515
1076.290516	-0.004421
1076.454092	-0.003285
1076.617649	-0.004991
1076.781187	-0.004522
1076.944708	-0.004134
1077.108210	-0.001684
1077.271695	-0.001684
1077.435160	-0.000944
1077.598608	-0.001080
1077.762038	-0.002244
1077.925449	-0.003061
1078.088842	-0.001589
1078.252217	-0.000943
1078.415573	0.000487
1078.578912	-0.002014
1078.742232	-0.003157
1078.905534	-0.004146
1079.068817	-0.002147
1079.232083	-0.002229
1079.395330	-0.002215
1079.558559	-0.002575
1079.721770	-0.004480
1079.884962	-0.007247
1080.048136	-0.005403
1080.211293	-0.004610
1080.374430	-0.004655
1080.537550	-0.005196
1080.700651	-0.003886
1080.863735	-0.006106
1081.026800	-0.005063
1081.189846	-0.004551
1081.352875	-0.004000
1081.515885	-0.006687
1081.678877	-0.005499
1081.841851	-0.006864
1082.004807	-0.009097
1082.167744	-0.009541
1082.330663	-0.008440
1082.493564	-0.009017
1082.656447	-0.009231
1082.819312	-0.008502
1082.982158	-0.007045
1083.144986	-0.008977
1083.307796	-0.009497
1083.470587	-0.008265
1083.633361	-0.008433
1083.796116	-0.006775
1083.958853	-0.006878
1084.121571	-0.006355
1084.284272	-0.005713
1084.446954	-0.006237
1084.609618	-0.007753
1084.772264	-0.005503
1084.934892	-0.006282
1085.097501	-0.008259
1085.260092	-0.011265
1085.422665	-0.013082
1085.585220	-0.014128
1085.747756	-0.016380
1085.910274	-0.015556
1086.072774	-0.014077
1086.235256	-0.014163
1086.397720	-0.013059
1086.560165	-0.011448
1086.722592	-0.008744
1086.885001	-0.007148
1087.047392	-0.005985
1087.209764	-0.004483
1087.372119	-0.004014
1087.534455	-0.003518
1087.696772	-0.003718
1087.859072	-0.004342
1088.021353	-0.004559
1088.183616	-0.008363
1088.345861	-0.007646
1088.508088	-0.006324
1088.670296	-0.006502
1088.832486	-0.007803
1088.994658	-0.005988
1089.156812	-0.004538
1089.318948	-0.005826
1089.481065	-0.008478
1089.643164	-0.007413
1089.805245	-0.012675
1089.967308	-0.014822
1090.129352	-0.014301
1090.291378	-0.012414
1090.453386	-0.012651
1090.615376	-0.013898
1090.777347	-0.013106
1090.939301	-0.007679
1091.101236	-0.007342
1091.263153	-0.003370
1091.425051	-0.003384
1091.586932	-0.005688
1091.748794	-0.006225
1091.910638	-0.007374
1092.072463	-0.006647
1092.234271	-0.004064
1092.396060	-0.005423
1092.557831	-0.006004
1092.719584	-0.005700
1092.881319	-0.001849
1093.043035	-0.000620
1093.204733	-0.000498
1093.366413	-0.001417
1093.528075	-0.001322
1093.689718	-0.004513
1093.851343	-0.008052
1094.012950	-0.007698
1094.174539	-0.006199
1094.336110	-0.009504
1094.497662	-0.008443
1094.659196	-0.012190
1094.820712	-0.012867
1094.982210	-0.012964
1095.143689	-0.013342
1095.305151	-0.011380
1095.466594	-0.013458
1095.628018	-0.012886
1095.789425	-0.013532
1095.950813	-0.014029
1096.112183	-0.010810
1096.273535	-0.009434
1096.434869	-0.011518
1096.596184	-0.010257
1096.757482	-0.007442
1096.918761	-0.006014
1097.080021	-0.005001
1097.241264	-0.007207
1097.402488	-0.005989
1097.563694	-0.007662
1097.724882	-0.006002
1097.886052	-0.004431
1098.047203	-0.003206
1098.208336	-0.005742
1098.369451	-0.002061
1098.530548	-0.004228
1098.691627	-0.001076
1098.852687	-0.000942
1099.013729	-0.000239
1099.174753	-0.001620
1099.335758	-0.001981
1099.496746	-0.001289
1099.657715	0.001654
1099.818666	-0.001210
1099.979599	-0.002936
1100.140513	-0.002171
1100.301409	-0.003305
1100.462287	-0.000699
1100.623147	0.000033
1100.783989	-0.002901
1100.944812	-0.003227
1101.105617	-0.005284
1101.266404	-0.004223
1101.427173	-0.003592
1101.587923	-0.004003
1101.748656	-0.005859
1101.909370	-0.004526
1102.070066	-0.005398
1102.230743	-0.003967
1102.391403	-0.004452
1102.552044	-0.002795
1102.712667	-0.001450
1102.873271	-0.003058
1103.033858	-0.004657
1103.194426	-0.002101
1103.354976	-0.005909
1103.515508	-0.005847
1103.676021	-0.004022
1103.836517	-0.003138
1103.996994	-0.007654
1104.157453	-0.010645
1104.317893	-0.008530
1104.478316	-0.009976
1104.638720	-0.010355
1104.799106	-0.008298
1104.959474	-0.006244
1105.119823	-0.005997
1105.280155	-0.010150
1105.440468	-0.010464
1105.600763	-0.008676
1105.761039	-0.008239
1105.921298	-0.005154
1106.081538	-0.003876
1106.241760	-0.007422
1106.401964	-0.011881
1106.562149	-0.011038
1106.722316	-0.006774
1106.882465	-0.005642
1107.042596	-0.006358
1107.202709	-0.006911
1107.362803	-0.009274
1107.522879	-0.011481
1107.682937	-0.009008
1107.842977	-0.004701
1108.002999	-0.005057
1108.163002	-0.007129
1108.322987	-0.005056
1108.482954	-0.006256
1108.642902	-0.006096
1108.802833	-0.001674
1108.962745	-0.001668
1109.122639	-0.001413
1109.282515	-0.005696
1109.442372	-0.005236
1109.602211	-0.004719
1109.762032	-0.004380
1109.921835	-0.002881
1110.081620	-0.004155
1110.241386	-0.007519
1110.401134	-0.008287
1110.560864	-0.010108
1110.720576	-0.009076
1110.880269	-0.009364
1111.039945	-0.009393
1111.199602	-0.008414
1111.359240	-0.006761
1111.518861	-0.003262
1111.678463	0.000452
1111.838047	-0.000026
1111.997613	0.002234
1112.157161	0.002449
1112.316690	-0.000816
1112.476202	-0.000631
1112.635695	-0.000511
1112.795169	-0.003732
1112.954626	-0.002713
1113.114064	-0.008007
1113.273484	-0.007659
1113.432886	-0.010784
1113.592270	-0.012715
1113.751635	-0.010499
1113.910983	-0.010787
1114.070312	-0.012762
1114.229622	-0.012716
1114.388915	-0.016351
1114.548189	-0.013357
1114.707445	-0.013807
1114.866683	-0.012302
1115.025903	-0.010382
1115.185104	-0.011044
1115.344287	-0.011128
1115.503452	-0.008109
1115.662599	-0.007896
1115.821727	-0.006923
1115.980838	-0.006373
1116.139930	-0.003768
1116.299004	-0.008678
1116.458059	-0.007462
1116.617097	-0.006114
1116.776116	-0.003304
1116.935117	-0.007243
1117.094099	-0.008764
1117.253064	-0.006295
1117.412010	-0.009463
1117.570938	-0.008417
1117.729848	-0.007024
1117.888740	-0.009177
1118.047613	-0.008582
1118.206468	-0.012148
1118.365305	-0.012998
1118.524124	-0.009028
1118.682924	-0.014299
1118.841707	-0.010866
1119.000471	-0.011518
1119.159216	-0.007963
1119.317944	-0.004505
1119.476653	-0.009425
1119.635344	-0.011399
1119.794017	-0.012772
1119.952672	-0.013582
1120.111308	-0.012007
1120.269927	-0.015533
1120.428527	-0.018268
1120.587108	-0.017555
1120.745672	-0.022009
1120.904217	-0.020106
1121.062744	-0.019970
1121.221253	-0.019010
1121.379744	-0.020914
1121.538216	-0.018692
1121.696671	-0.016195
1121.855107	-0.011378
1122.013524	-0.010394
1122.171924	-0.006623
1122.330305	-0.003854
1122.488668	-0.003916
1122.647013	-0.002505
1122.805340	-0.003391
1122.963648	-0.002794
1123.121938	-0.004806
1123.280210	-0.010293
1123.438464	-0.015220
1123.596700	-0.014436
1123.754917	-0.017661
1123.913116	-0.017090
1124.071297	-0.017522
1124.229459	-0.016039
1124.387604	-0.014649
1124.545730	-0.012930
1124.703838	-0.010823
1124.861928	-0.007959
1125.019999	-0.011770
1125.178052	-0.010663
1125.336088	-0.008631
1125.494104	-0.006786
1125.652103	-0.006372
1125.810083	-0.009311
1125.968045	-0.009966
1126.125989	-0.010211
1126.283915	-0.009835
1126.441823	-0.006161
1126.599712	-0.007688
1126.757583	-0.008461
1126.915436	-0.011541
1127.073270	-0.013099
1127.231087	-0.013660
1127.388885	-0.012583
1127.546665	-0.013504
1127.704426	-0.014994
1127.862170	-0.016568
1128.019895	-0.015653
1128.177602	-0.016398
1128.335291	-0.016722
1128.492961	-0.012573
1128.650614	-0.012586
1128.808248	-0.012896
1128.965864	-0.008350
1129.123461	-0.007111
1129.281041	-0.004181
1129.438602	-0.003442
1129.596145	-0.000767
1129.753670	0.005745
1129.911176	0.001907
1130.068665	0.003744
1130.226135	0.002924
1130.383587	-0.000569
1130.541020	0.000643
1130.698436	-0.003157
1130.855833	-0.004315
1131.013212	-0.005205
1131.170573	-0.010183
1131.327915	-0.010672
1131.485239	-0.010402
1131.642545	-0.006441
1131.799833	-0.005654
1131.957103	-0.006021
1132.114354	-0.005513
1132.271588	-0.004627
1132.428803	-0.012708
1132.585999	-0.012353
1132.743178	-0.011632
1132.900338	-0.016356
1133.057480	-0.017124
1133.214604	-0.019292
1133.371710	-0.020806
1133.528797	-0.018409
1133.685866	-0.020961
1133.842917	-0.011990
1133.999950	-0.009148
1134.156964	-0.007584
1134.313960	-0.009714
1134.470938	-0.012255
1134.627898	-0.016644
1134.784840	-0.014262
1134.941763	-0.016351
1135.098668	-0.014427
1135.255555	-0.016648
1135.412424	-0.019675
1135.569274	-0.021320
1135.726107	-0.016505
1135.882921	-0.015302
1136.039716	-0.006800
1136.196494	-0.007168
1136.353253	-0.010826
1136.509995	-0.009393
1136.666717	-0.005786
1136.823422	-0.004430
1136.980109	-0.002455
1137.136777	0.001510
1137.293427	-0.001502
1137.450059	-0.004030
1137.606672	-0.004322
1137.763267	-0.000877
1137.919844	0.000250
1138.076403	0.000903
1138.232944	0.000720
1138.389466	0.001991
1138.545971	0.001175
1138.702457	-0.001200
1138.858924	-0.005332
1139.015374	-0.008368
1139.171805	-0.010480
1139.328218	-0.015900
1139.484613	-0.021204
1139.640990	-0.023896
1139.797348	-0.030418
1139.953688	-0.035828
1140.110010	-0.033374
1140.266314	-0.031073
1140.422600	-0.026757
1140.578867	-0.024912
1140.735116	-0.019228
1140.891347	-0.017785
1141.047559	-0.016704
1141.203754	-0.012112
1141.359930	-0.008518
1141.516088	-0.005364
1141.672228	-0.003763
1141.828349	-0.008091
1141.984452	-0.007097
1142.140537	-0.007085
1142.296604	-0.006223
1142.452653	-0.001483
1142.608683	0.000341
1142.764695	-0.001296
1142.920689	-0.004211
1143.076665	-0.005829
1143.232622	-0.007813
1143.388562	-0.005357
1143.544483	-0.009295
1143.700385	-0.006551
1143.856270	-0.006685
1144.012136	-0.008418
1144.167985	-0.012520
1144.323814	-0.012984
1144.479626	-0.009258
1144.635420	-0.004774
1144.791195	-0.009910
1144.946952	-0.007198
1145.102691	-0.006936
1145.258411	-0.007232
1145.414113	-0.012828
1145.569798	-0.002864
1145.725463	-0.002159
1145.881111	-0.006003
1146.036741	-0.009209
1146.192352	-0.008810
1146.347945	-0.005229
1146.503519	-0.006118
1146.659076	-0.007375
1146.814614	0.000645
1146.970134	-0.009357
1147.125636	-0.006987
1147.281120	-0.009671
1147.436585	-0.008460
1147.592032	-0.006965
1147.747461	-0.015821
1147.902872	-0.016245
1148.058265	-0.017724
1148.213639	-0.018282
1148.368995	-0.011647
1148.524333	-0.015873
1148.679653	-0.012562
1148.834954	-0.008564
1148.990237	-0.004327
1149.145502	-0.002204
1149.300749	-0.001362
1149.455977	0.003120
1149.611188	0.004764
1149.766380	-0.001919
1149.921553	-0.000746
1150.076709	0.001409
1150.231846	-0.006251
1150.386966	-0.006114
1150.542066	-0.004031
1150.697149	-0.005579
1150.852214	-0.013578
1151.007260	-0.017739
1151.162288	-0.016840
1151.317298	-0.018490
1151.472289	-0.013818
1151.627263	-0.002689
1151.782218	-0.004057
1151.937155	0.001633
1152.092073	-0.001882
1152.246974	0.002557
1152.401856	0.001131
1152.556720	0.000681
1152.711566	0.008081
1152.866393	0.002509
1153.021203	-0.004422
1153.175994	-0.007908
1153.330767	-0.009058
1153.485521	-0.006449
1153.640258	-0.004451
1153.794976	-0.003492
1153.949676	-0.001308
1154.104358	-0.006763
1154.259021	-0.015079
1154.413667	-0.016265
1154.568294	-0.007716
1154.722903	-0.011770
1154.877493	-0.012275
1155.032066	-0.014744
1155.186620	-0.013097
1155.341156	-0.011915
1155.495674	-0.015425
1155.650173	-0.000721
1155.804654	-0.000112
1155.959118	-0.010468
1156.113562	-0.008899
1156.267989	-0.010440
1156.422397	-0.010872
1156.576788	-0.006290
1156.731160	-0.003563
1156.885513	0.002723
1157.039849	0.002215
1157.194166	-0.001837
1157.348465	-0.002550
1157.502746	-0.002866
1157.657009	-0.003195
1157.811253	-0.006912
1157.965479	-0.007972
1158.119687	-0.003904
1158.273877	-0.005729
1158.428048	-0.007636
1158.582201	0.004404
1158.736337	0.005485
1158.890453	0.004420
1159.044552	0.003175
1159.198632	0.007165
1159.352694	-0.000571
1159.506738	-0.006307
1159.660764	-0.010635
1159.814771	-0.021484
1159.968761	-0.024588
1160.122732	-0.027531
1160.276685	-0.029607
1160.430619	-0.024129
1160.584535	-0.024629
1160.738434	-0.022777
1160.892313	-0.023007
1161.046175	-0.012175
1161.200019	-0.010950
1161.353844	-0.012176
1161.507651	-0.001036
1161.661440	0.000290
1161.815210	-0.006764
1161.968962	-0.013502
1162.122697	-0.010249
1162.276412	-0.012978
1162.430110	-0.018145
1162.583789	-0.010538
1162.737451	-0.016787
1162.891094	-0.023762
1163.044718	-0.025595
1163.198325	-0.025712
1163.351913	-0.014884
1163.505483	-0.024354
1163.659035	-0.025533
1163.812569	-0.035039
1163.966084	-0.039957
1164.119581	-0.034777
1164.273060	-0.035734
1164.426521	-0.035261
1164.579964	-0.032665
1164.733388	-0.034529
1164.886794	-0.028387
1165.040182	-0.016948
1165.193551	-0.016743
1165.346903	-0.012915
1165.500236	-0.018308
1165.653551	-0.018067
1165.806848	-0.015783
1165.960126	-0.020910
1166.113386	-0.024134
1166.266628	-0.025560
1166.419852	-0.033091
1166.573058	-0.030576
1166.726245	-0.028711
1166.879414	-0.022888
1167.032565	-0.020722
1167.185698	-0.011840
1167.338812	-0.007061
1167.491909	-0.003411
1167.644987	-0.003602
1167.798046	-0.006689
1167.951088	-0.000213
1168.104111	-0.006953
1168.257117	-0.011769
1168.410103	-0.019273
1168.563072	-0.027948
1168.716023	-0.016229
1168.868955	-0.015153
1169.021869	-0.018803
1169.174765	-0.012737
1169.327642	-0.009680
1169.480501	-0.005548
1169.633343	-0.007278
1169.786165	0.000591
1169.938970	-0.004918
1170.091757	-0.020495
1170.244525	-0.030368
1170.397275	-0.025318
1170.550007	-0.024872
1170.702720	-0.034890
1170.855415	-0.032761
1171.008092	-0.023689
1171.160751	-0.020750
1171.313392	-0.011497
1171.466014	0.015763
1171.618619	0.025126
1171.771205	0.025126
1171.923772	0.025126
