sample name	sample
index	362
start time	 03-04-2021  11:28:04 AM
880	-0.045101
Peak Time (s)	91.535
Peak Height 	-0.0451
calc peak height	90,93
Baseline Time (s)	8.54
Baseline Value 	-0.00415
subtract baseline	10,4
Abs	-0.012266
Peak Time (s)	90.038
Peak Height 	-0.01227
calc peak height	90,93
Baseline Time (s)	11.036
Baseline Value 	0.003096
subtract baseline	10,3
PK_550	-0.003679
Peak Time (s)	91.535
Peak Height 	-0.003679
calc peak height	90,93
Baseline Time (s)	10.536
Baseline Value 	7.2987E-5
subtract baseline	10,2
PK_880	-0.013139
Peak Time (s)	92.536
Peak Height 	-0.01314
calc peak height	90,93
Baseline Time (s)	10.036
Baseline Value 	0.001028
subtract baseline	10,1


Time (s)	A880-A510	A880-A775	A880-A975	A880	I510	I775	I975	I880	
0.035000	-0.000876	0.000540	0.003319	0.002291	6881.649515	47688.458004	3969.128203	25108.351779
0.535500	-0.002568	-0.000489	-0.005829	0.004110	6849.073930	47395.455160	3940.156482	25015.228056
1.035500	0.000430	-0.000090	-0.003332	0.004266	6875.417627	47420.352794	3946.278886	25007.234519
1.536000	-0.003409	-0.000448	-0.001045	0.005482	6828.674119	47259.164807	3949.092752	24945.216778
2.039000	-0.000454	-0.000325	0.000801	0.000327	6903.941473	47802.081604	3967.648542	25209.393274
2.536500	0.000262	0.000294	-0.000197	0.000559	6908.477069	47842.115504	3964.366530	25197.410265
3.036500	-0.000542	0.000600	0.001042	-0.000880	6914.437063	48023.174312	3971.524635	25271.675726
3.537000	0.000802	-0.000433	-0.003643	0.000660	6912.596549	47756.421858	3954.955194	25192.229994
4.040000	0.000711	0.000335	0.000539	0.000921	6909.300363	47808.964680	3965.363311	25178.802212
4.535000	0.000610	0.000428	-0.003203	0.001047	6907.162212	47805.464887	3955.092990	25172.284457
5.035500	-0.001277	0.000224	0.002228	0.000411	6895.461401	47850.260625	3971.242588	25205.071260
5.535500	0.000360	-0.000532	-0.001969	-0.000201	6916.538503	47835.286408	3961.675433	25236.631643
6.035500	0.001506	0.000851	0.004459	0.001044	6915.607500	47849.558666	3975.534307	25172.456517
6.536000	-0.000412	0.000028	-0.006360	-0.000268	6909.916832	47900.285142	3950.237020	25240.064415
7.036500	0.000065	0.000267	0.001692	0.000646	6905.820624	47830.274061	3969.176815	25192.942845
7.537000	-0.000009	0.000146	-0.001525	-0.000049	6911.639754	47889.753865	3962.449003	25228.779157
8.037000	-0.001373	0.000161	0.002928	0.000465	6894.055681	47838.129727	3972.977254	25202.297707
8.540000	0.001443	-0.000167	-0.000151	0.000000	6924.833787	47852.322187	3965.979770	25226.247091
9.034500	0.000027	0.000161	0.002210	0.000175	6909.876416	47868.147832	3971.827494	25217.218418
9.535000	0.000554	-0.000183	0.003285	-0.000041	6916.860696	47854.872022	3975.295311	25228.374844
10.035500	0.000000	0.000518	-0.004870	0.000349	6907.995634	47887.165779	3952.536677	25208.266364
10.535500	-0.000041	0.000000	-0.001906	-0.000443	6915.042218	47915.484616	3962.484687	25249.097748
11.035500	-0.001373	-0.000126	0.000000	-0.000648	6904.464757	47923.661799	3968.113090	25259.689257
11.536000	-0.000754	0.000873	0.001113	0.003207	6874.267151	47628.335843	3960.808478	25061.426183
12.036500	0.001414	-0.000417	0.000309	-0.001061	6934.560434	47936.371973	3970.045800	25281.069547
12.536500	0.002343	0.000146	-0.002118	-0.000626	6939.230619	47949.659831	3962.406846	25258.562920
13.037000	0.001889	-0.000513	0.002942	-0.003338	6960.614845	48163.309212	3983.265373	25399.101658
13.537500	0.000303	0.000241	0.003623	-0.000737	6921.037983	47971.000726	3978.076420	25264.282750
14.038000	-0.000262	0.000034	0.003290	-0.000909	6917.342971	47967.395078	3977.645387	25273.182256
14.535000	-0.002183	-0.000017	-0.004290	0.002152	6870.783559	47645.268643	3949.313863	25115.492926
15.035500	-0.000653	-0.000108	0.003240	-0.000696	6911.667966	47930.527113	3976.935680	25262.169013
15.560500	-0.001691	-0.000084	0.002423	0.001782	6878.797610	47676.531490	3968.095205	25134.491673
16.036500	-0.000091	0.000554	0.003211	-0.000443	6914.574418	47973.036635	3976.177896	25249.117063
16.536500	-0.000206	0.000155	0.005281	-0.001052	6919.216441	47994.864209	3983.411655	25280.592287
17.037000	0.001528	0.000836	0.001230	-0.000352	6928.949807	47992.848587	3970.612374	25244.421922
17.536500	-0.001680	-0.000223	0.002444	0.000689	6889.093936	47775.212643	3971.077817	25190.748760
18.040000	0.001575	0.000688	0.002317	-0.002603	6950.660277	48211.941915	3979.589062	25360.920288
18.534500	-0.000034	0.000791	-0.001377	0.001297	6898.801906	47817.169622	3959.268707	25159.462201
19.034500	0.000071	0.000197	0.006668	0.000949	6903.042486	47791.762457	3981.748151	25177.363183
19.535500	-0.000794	0.000640	-0.000131	0.001833	6886.691598	47746.083906	3961.154010	25131.897033
20.035500	0.000636	-0.000027	0.002336	0.000938	6908.431564	47769.674175	3970.119131	25177.895397
20.536000	0.000258	0.000603	0.002857	0.001185	6902.570042	47809.248715	3970.852352	25165.189280
21.036000	-0.002009	0.000447	0.001103	0.000594	6886.910725	47854.345884	3967.744113	25195.647782
21.536000	0.000373	0.000144	-0.000210	0.001760	6898.269530	47702.368095	3961.135454	25135.630490
22.036500	0.000220	0.000289	-0.001622	0.000936	6904.555224	47802.575974	3959.574734	25178.025740
22.535000	-0.000669	0.000836	0.001896	0.001414	6891.763327	47809.679584	3967.668906	25153.398158
23.037000	-0.001513	0.000402	0.005824	0.000796	6889.649287	47828.753543	3979.879975	25185.218167
23.534500	-0.000222	0.000382	0.003250	0.002518	6885.624228	47648.697428	3968.336456	25096.706368
24.035000	-0.000251	-0.000090	0.003516	0.000833	6901.100388	47774.020160	3973.565534	25183.301702
24.536000	-0.002396	0.000256	0.002371	0.000972	6879.777133	47795.377845	3970.123865	25176.155658
25.036000	-0.002515	-0.000019	-0.001296	0.001079	6877.679744	47756.009484	3960.062864	25170.676047
25.536000	-0.000905	0.000397	0.001379	0.001366	6890.002706	47769.206978	3966.417120	25155.870001
26.039000	-0.001743	0.000790	0.001136	0.001269	6883.098369	47819.926111	3966.028313	25160.880502
26.537000	-0.002209	0.000144	-0.002639	0.000784	6883.279796	47803.284689	3957.281979	25185.848837
27.037000	0.000684	-0.000223	0.001367	0.000562	6912.412304	47788.286431	3968.533381	25197.274696
27.540000	-0.002208	-0.000374	0.001818	0.001668	6875.054771	47658.448853	3966.785426	25140.388498
28.040000	0.000214	-0.000476	0.003107	-0.002335	6935.263862	48062.625383	3980.999369	25347.034530
28.535000	0.001469	0.000867	0.000302	-0.000585	6930.594615	48020.371423	3968.752547	25256.463954
29.060000	0.001015	-0.000369	0.000623	-0.001033	6930.530137	47938.454428	3970.811108	25279.599685
29.535500	-0.001330	0.000694	0.000146	0.003525	6865.954229	47577.080867	3957.398430	25045.120892
30.036000	0.000684	0.000817	0.001858	-0.000458	6921.992257	48001.852974	3972.578600	25249.864414
30.536000	0.000637	0.000651	0.000421	-0.000612	6922.997917	48000.622001	3969.141423	25257.816708
31.036500	-0.002398	0.000119	-0.002181	0.002298	6867.436482	47644.267653	3954.489751	25108.012476
31.537000	-0.001212	-0.000122	0.002624	0.002972	6872.193380	47550.072103	3965.455800	25073.459127
32.037500	0.000652	-0.000273	0.003875	0.001875	6899.799364	47647.454828	3971.731097	25129.708430
32.548000	-0.000272	0.000896	0.005077	-0.000212	6910.707812	47984.596770	3980.585172	25237.183081
33.037500	0.000263	-0.000059	-0.005929	0.002592	6889.469391	47595.676533	3943.862624	25092.953358
33.535500	-0.001727	0.000539	0.003013	0.003059	6866.595205	47609.113769	3966.258289	25068.987943
34.035500	0.000594	0.000111	0.001789	-0.000759	6923.977143	47959.769724	3973.202943	25265.418657
34.536000	0.002142	0.000524	0.000042	-0.001979	6950.119303	48129.658488	3971.789021	25328.552148
35.036000	-0.001537	0.000226	0.002171	0.002296	6875.458488	47655.550126	3966.050553	25108.126239
35.536500	-0.001328	-0.000096	-0.000095	0.002351	6876.882835	47616.738427	3959.872170	25105.302149
36.036500	0.000413	0.000612	0.000151	0.001553	6900.580858	47772.181493	3962.645239	25146.264357
36.537000	-0.001727	0.000502	0.002080	0.001886	6877.496834	47726.361309	3966.901499	25129.161592
37.040000	-0.001159	0.000160	0.000887	0.002240	6879.490317	47654.455641	3962.777407	25110.974450
37.534500	0.001773	0.000921	-0.001153	0.003136	6898.494289	47640.657080	3954.992909	25065.069310
38.035000	-0.000977	0.000635	0.000570	0.002081	6882.671924	47719.995492	3962.357787	25119.160357
38.535500	0.000442	0.000453	-0.000248	0.001859	6897.988594	47724.122042	3960.774137	25130.564586
39.035500	-0.001054	0.000465	0.001681	0.003012	6873.280069	47606.374217	3962.835847	25071.399960
39.536000	-0.002489	0.000214	0.003218	0.002782	6862.097850	47604.192188	3967.546808	25083.175233
40.036000	0.000427	-0.000109	0.001118	0.001324	6902.859131	47721.397888	3965.834779	25158.074970
40.536500	0.000060	0.000881	-0.003293	0.002119	6891.989765	47741.469084	3952.028561	25117.207101
41.036500	-0.000913	0.000147	-0.001719	0.001680	6887.000451	47710.971038	3957.344345	25139.728347
41.540000	-0.000762	0.000464	-0.001153	0.002849	6877.520550	47623.044954	3955.750402	25079.760838
42.040000	-0.001933	0.000114	0.003001	0.001883	6875.605725	47686.575226	3969.370883	25129.301528
42.537500	-0.000937	0.000667	-0.000053	0.001917	6884.561106	47740.172670	3961.136212	25127.550685
43.035500	-0.000166	0.001196	0.005664	0.002302	6888.175186	47755.098656	3975.391106	25107.823056
43.538500	-0.000851	0.000522	0.000309	0.002906	6876.164979	47623.243204	3959.473895	25076.855352
44.035500	-0.002715	0.000292	0.000004	0.001600	6870.969236	47734.213825	3962.130203	25143.856945
44.536000	0.000574	0.000520	0.002609	0.001479	6902.789317	47770.311534	3969.403193	25150.095814
45.036000	0.001668	0.000017	-0.000240	0.002909	6899.631128	47570.783898	3958.006025	25076.662265
45.536500	-0.000972	-0.000063	0.001556	0.002727	6876.695083	47581.286005	3963.260804	25086.001005
46.056000	0.000533	0.001396	0.006490	-0.000077	6916.997755	48022.588206	3984.045776	25230.241557
46.537000	0.001533	0.000512	0.002178	-0.000470	6930.115353	47971.544937	3973.472150	25250.519990
47.037500	-0.002244	0.000070	-0.002659	0.004308	6850.238487	47432.446869	3947.935935	25005.101747
47.535000	0.000540	0.000500	0.002154	-0.000564	6921.644224	47979.952194	3973.660055	25255.357016
48.035500	0.002064	0.000675	0.005343	-0.000248	6933.022299	47965.377589	3981.401191	25239.049648
48.535500	-0.000058	0.000592	0.003155	0.002062	6891.421717	47717.536350	3969.305143	25120.140021
49.036000	-0.001535	0.000923	0.001573	0.004606	6854.041554	47489.500983	3958.317009	24989.913973
49.539000	-0.002927	0.000316	0.000544	0.003027	6855.768232	47589.447185	3959.772846	25070.630377
50.036500	-0.000464	0.000075	0.000427	-0.000882	6915.191530	47968.901772	3969.882614	25271.801373
50.537000	-0.000599	-0.000114	0.009109	-0.001422	6918.999736	48005.338009	3994.836245	25299.740021
51.039500	-0.002662	0.000611	0.001730	0.004540	6844.231012	47464.237814	3958.908594	24993.271934
51.537000	-0.000575	0.000394	0.002473	0.003421	6873.942933	47557.010843	3963.855246	25050.484474
52.037500	0.002140	0.000094	0.003245	-0.000188	6933.170179	47898.806133	3975.580664	25235.933113
52.535000	0.004501	-0.007569	0.010791	0.325618	4781.221119	23757.798416	3368.679469	13407.776153
53.035000	-0.028300	-0.018313	-0.013026	0.089765	5941.065656	37953.140324	3722.076973	21042.793671
53.535500	-0.029503	-0.044577	-0.014401	-0.156816	8299.683798	61143.803800	4416.232408	34969.247111
54.036000	-0.020308	-0.183124	-0.005480	-0.326909	11092.369322	65535.000000	5237.030562	50381.173402
54.536000	-0.011563	-0.188324	0.007182	-0.332109	11361.798206	65535.000000	5339.052633	50954.048372
55.036500	-0.013527	-0.148136	0.001828	-0.291922	10573.146671	65535.000000	5087.001474	46700.066523
55.537000	-0.020456	-0.083005	-0.004937	-0.225710	9373.846174	65379.354399	4734.378005	40495.569727
56.037000	-0.021925	-0.071199	-0.009778	-0.211302	9139.117834	65005.762159	4650.823055	39266.189869
56.537500	-0.018381	-0.089992	-0.015081	-0.233777	9528.330395	65535.000000	4725.181549	41201.865934
57.037500	-0.010259	-0.087190	-0.010652	-0.230976	9610.818448	65535.000000	4732.383153	40955.109579
57.535000	-0.006505	-0.077622	-0.013966	-0.221408	9520.727176	65535.000000	4676.118466	40124.186685
58.035500	-0.001160	-0.061320	-0.009421	-0.204112	9339.268064	65391.782113	4622.043147	38667.812540
58.535000	-0.003775	-0.047220	-0.008761	-0.182115	8980.941814	64264.960230	4535.037594	36897.494768
59.036000	-0.004878	-0.033123	-0.011211	-0.161626	8682.876483	63367.867818	4446.145911	35327.275615
59.536000	-0.007302	-0.035367	-0.009703	-0.164246	8685.503777	63420.160021	4461.794227	35523.912171
60.036000	-0.005948	-0.018885	-0.010963	-0.129581	8253.571582	60936.993201	4330.440012	33015.191810
60.539500	-0.007077	-0.013335	-0.011271	-0.108653	7985.268123	58916.549969	4257.749844	31594.769434
61.037000	-0.010132	-0.012105	-0.010624	-0.100181	7850.372921	57989.377085	4231.847372	31038.902653
61.534500	-0.015438	-0.011651	-0.017994	-0.096753	7750.528815	57613.189727	4196.861504	30817.045780
62.035000	-0.011006	-0.011353	-0.014177	-0.100258	7841.188334	58094.870177	4220.491001	31043.937999
62.535500	-0.014094	-0.012515	-0.016389	-0.098462	7785.203074	57719.799075	4207.505243	30927.428871
63.035500	-0.012513	-0.013615	-0.014097	-0.105467	7884.028871	58470.805709	4237.805609	31384.435189
63.536000	-0.011964	-0.008539	-0.015638	-0.109789	7940.979030	59687.488143	4246.996729	31670.119997
64.036000	-0.014076	-0.010729	-0.013253	-0.117079	8002.211122	60358.638613	4279.429123	32158.402702
64.536000	-0.012778	-0.010414	-0.019150	-0.115161	7994.849163	60146.829804	4253.174647	32029.146695
65.040500	-0.010948	-0.009627	-0.019343	-0.116188	8028.896627	60386.761691	4255.956961	32098.325310
65.537000	-0.012606	-0.010390	-0.017153	-0.116155	8008.721328	60281.346255	4263.170219	32096.094442
66.037000	-0.012343	-0.008640	-0.016999	-0.113463	7979.859677	60156.804051	4254.682935	31915.153540
66.537500	-0.012719	-0.008341	-0.018925	-0.111550	7952.816603	59944.352592	4241.947741	31787.334606
67.035500	-0.017490	-0.006272	-0.022704	-0.103651	7805.689103	59183.229766	4203.881899	31265.286633
67.535500	-0.016935	-0.006201	-0.025200	-0.102254	7796.056431	59011.465586	4191.416496	31173.903733
68.036000	-0.012389	-0.006131	-0.023616	-0.104303	7871.955027	59286.047869	4203.046945	31307.999319
68.541500	-0.012175	-0.005364	-0.014542	-0.102310	7851.361781	59126.939371	4225.989733	31177.555850
69.036000	-0.017720	-0.004216	-0.018646	-0.096296	7719.622593	58500.093968	4193.319462	30787.611523
69.537000	-0.014611	-0.004314	-0.017205	-0.098784	7782.986611	58807.136580	4205.917238	30948.312860
70.040000	-0.015896	-0.005241	-0.016877	-0.098065	7760.209364	58595.451587	4204.656054	30901.774699
70.537000	-0.012701	-0.004898	-0.021679	-0.096296	7776.397598	58412.676684	4183.671608	30787.608880
71.037000	-0.019155	-0.004574	-0.021353	-0.089861	7631.919478	57636.561184	4164.448269	30376.339497
71.535000	-0.017955	-0.004091	-0.025953	-0.088974	7635.380688	57585.656180	4147.407359	30320.119681
72.035500	-0.014472	-0.004098	-0.020098	-0.091450	7701.684756	57897.519205	4173.360491	30477.285093
72.535500	-0.014359	-0.004404	-0.019624	-0.090527	7692.614253	57742.041990	4171.950098	30418.589151
73.036000	-0.015312	-0.002474	-0.021553	-0.082533	7593.581187	56981.018114	4141.122458	29915.267575
73.536500	-0.015489	-0.002553	-0.022929	-0.081651	7581.991595	56861.492268	4134.206120	29860.344561
74.036000	-0.013071	-0.003157	-0.015594	-0.084901	7644.344617	57191.400027	4166.945677	30063.402060
74.539500	-0.011755	-0.001885	-0.015039	-0.082803	7635.702930	57088.299885	4162.124720	29932.150507
75.037000	-0.012150	-0.001263	-0.014468	-0.081014	7611.618237	56942.623258	4158.328275	29820.680635
75.537000	-0.013677	-0.000979	-0.020795	-0.075581	7535.676705	56305.258096	4122.234649	29485.048929
76.037500	-0.012097	-0.001419	-0.020189	-0.078749	7587.359675	56642.115289	4133.712274	29680.278581
76.535000	-0.011338	-0.001428	-0.016895	-0.078017	7587.647677	56550.305804	4141.559498	29635.017194
77.035500	-0.012835	-0.001036	-0.013693	-0.076883	7558.935437	56458.599609	4147.925856	29565.081689
77.535500	-0.016365	-0.001528	-0.019468	-0.072243	7470.911562	55829.058764	4116.159806	29280.916227
78.036000	-0.010876	-0.001706	-0.016691	-0.075779	7568.253328	56240.188537	4135.324774	29497.215737
78.535500	-0.013732	-0.002392	-0.014934	-0.075358	7532.671189	56104.310577	4139.414765	29471.351569
79.036500	-0.013258	-0.001321	-0.013606	-0.073887	7521.899257	56055.304775	4138.976365	29381.236203
79.537000	-0.014554	-0.000967	-0.018460	-0.067880	7443.754898	55367.266073	4106.085051	29016.423343
80.036500	-0.010750	-0.000952	-0.015485	-0.071710	7525.484334	55834.335718	4126.599699	29248.485788
80.536500	-0.012582	-0.002158	-0.017793	-0.071655	7505.148408	55680.731045	4119.441147	29245.128552
81.035000	-0.016798	-0.001797	-0.020963	-0.065641	7396.428963	54997.552016	4091.981466	28881.722109
81.534500	-0.015164	-0.002592	-0.015957	-0.070120	7461.087927	55441.746589	4120.349121	29151.885041
82.035000	-0.015249	-0.002993	-0.019580	-0.069196	7450.351767	55281.489792	4106.671163	29095.915519
82.535500	-0.014776	-0.002838	-0.016221	-0.067804	7440.599773	55132.535627	4112.572749	29011.869649
83.036000	-0.017726	-0.003265	-0.019065	-0.063144	7360.595335	54523.637655	4090.207966	28732.311512
83.536000	-0.017504	-0.003164	-0.019834	-0.060516	7335.597030	54223.969102	4080.213599	28575.997529
84.039500	-0.014187	-0.002753	-0.015750	-0.063845	7404.998859	54668.225895	4102.129396	28774.216235
84.537000	-0.014769	-0.002859	-0.022973	-0.062306	7382.727604	54472.362098	4076.264330	28682.364225
85.034500	-0.017324	-0.004281	-0.023068	-0.058348	7315.046523	53836.895002	4064.476702	28447.762398
85.537500	-0.016367	-0.003539	-0.018950	-0.060114	7343.220557	54132.184575	4081.626092	28552.194306
86.035000	-0.015491	-0.003626	-0.018049	-0.058605	7336.660844	53944.135903	4079.846051	28462.980127
86.535500	-0.015400	-0.003567	-0.017331	-0.056974	7320.728940	53759.557892	4077.173354	28366.866386
87.036000	-0.018875	-0.003752	-0.018929	-0.053375	7248.261712	53317.931227	4062.065552	28156.048199
87.536000	-0.019365	-0.003990	-0.019047	-0.050406	7213.254885	52946.698702	4053.177893	27983.446941
88.036000	-0.014240	-0.003417	-0.012940	-0.054071	7302.750094	53437.801186	4081.528421	28196.632230
88.536500	-0.016183	-0.004715	-0.015021	-0.054333	7285.503036	53317.374217	4076.206629	28212.000574
89.037000	-0.016948	-0.003687	-0.019219	-0.050648	7240.139555	53009.631039	4053.378864	27997.475736
89.536500	-0.017762	-0.004154	-0.016950	-0.046833	7193.439575	52517.534303	4048.949727	27777.262771
90.037500	-0.017296	-0.004119	-0.012266	-0.051720	7247.484171	53083.524111	4076.620379	28059.676726
90.534000	-0.014766	-0.004118	-0.016582	-0.051077	7266.695313	53009.316791	4062.206051	28022.321640
91.035000	-0.015027	-0.004164	-0.012842	-0.048821	7241.097931	52744.297974	4066.504157	27891.798488
91.535500	-0.018415	-0.003679	-0.013660	-0.045101	7169.567486	52374.006563	4053.414187	27677.960687
92.035500	-0.014953	-0.004239	-0.018285	-0.049794	7251.722823	52847.478739	4053.607205	27947.992472
92.536000	-0.013139	-0.003756	-0.013351	-0.048984	7261.941528	52809.844692	4065.499183	27901.155276
93.036000	-0.015007	-0.004021	-0.016630	-0.047239	7225.272206	52579.258465	4051.029632	27800.636981
93.539500	-0.018097	-0.004330	-0.014746	-0.043717	7158.949956	52142.644037	4046.347143	27598.894782
94.037000	-0.013295	-0.003583	-0.011892	-0.048393	7254.335987	52761.726371	4068.017179	27867.051064
94.537500	-0.014124	-0.003230	-0.010163	-0.047890	7240.807310	52744.660032	4071.582890	27838.101918
95.035000	-0.013355	-0.003607	-0.011503	-0.046309	7232.576258	52520.134236	4063.105832	27747.160840
95.535000	-0.012632	-0.004279	-0.012182	-0.048240	7259.533904	52664.427985	4066.732635	27858.277960
96.035500	-0.013177	-0.003497	-0.013778	-0.047094	7242.333438	52622.607018	4058.803215	27792.250441
96.535500	-0.013049	-0.003815	-0.011334	-0.047312	7245.849393	52611.127194	4066.498821	27804.810878
97.035500	-0.014561	-0.003771	-0.017341	-0.045934	7216.590103	52458.516350	4045.267788	27725.650518
97.536000	-0.013480	-0.004390	-0.015575	-0.047339	7241.750221	52548.443131	4054.341252	27806.361477
98.071500	-0.013228	-0.004571	-0.010034	-0.047165	7242.539521	52507.793773	4069.847329	27796.338186
98.537000	-0.012446	-0.004273	-0.005359	-0.046899	7247.777558	52511.466913	4082.730390	27781.054581
