sample name	sample
index	691
start time	 03-22-2021  12:26:20 PM
880	-0.003654
Peak Time (s)	92.038
Peak Height 	-0.003654
calc peak height	90,93
Baseline Time (s)	8.536
Baseline Value 	-0.005419
subtract baseline	10,4
Abs	-0.014220
Peak Time (s)	91.538
Peak Height 	-0.01422
calc peak height	90,93
Baseline Time (s)	11.535
Baseline Value 	0.004505
subtract baseline	10,3
PK_550	-0.003244
Peak Time (s)	92.038
Peak Height 	-0.003244
calc peak height	90,93
Baseline Time (s)	9.037
Baseline Value 	9.4471E-4
subtract baseline	10,2
PK_880	-0.012375
Peak Time (s)	90.037
Peak Height 	-0.01237
calc peak height	90,93
Baseline Time (s)	9.037
Baseline Value 	0.003868
subtract baseline	10,1


Time (s)	A880-A510	A880-A775	A880-A975	A880	I510	I775	I975	I880	
0.036500	-0.002595	-0.000674	-0.005178	0.001600	7362.657348	45753.723377	3964.668029	24221.787363
0.537500	-0.003036	-0.000797	-0.003613	0.004346	7329.820441	45471.579571	3961.628697	24087.200470
1.034500	-0.003054	-0.000369	-0.004929	0.003982	7333.378146	45549.298532	3959.187561	24105.015873
1.538000	-0.002833	-0.000285	-0.003813	0.005577	7319.290561	45401.241023	3957.958842	24027.156951
2.035500	-0.000742	0.000550	0.001035	0.001192	7386.098940	45915.080334	3981.867684	24241.882728
2.535500	-0.000032	-0.000983	-0.005833	0.000252	7403.281817	45856.391131	3966.459346	24288.206746
3.038500	0.000588	0.000082	0.000756	0.000362	7408.607257	45950.903016	3983.308579	24282.753186
3.536000	-0.001364	-0.000177	0.000486	0.000692	7384.830329	45892.596139	3981.736721	24266.484923
4.036500	0.001131	0.000322	0.000772	0.000521	7412.625301	45959.010160	3982.936900	24274.947443
4.537000	0.000493	0.000060	0.002159	0.000270	7408.579095	45957.925454	3987.234180	24287.322912
5.034000	0.000414	-0.000752	-0.006187	-0.000151	7412.148312	45919.104472	3966.583767	24308.071509
5.537000	-0.002594	-0.000668	-0.003854	-0.000620	7385.691914	45974.013619	3973.843295	24331.268066
6.035000	0.000449	-0.000169	0.000663	-0.000225	7413.294538	45984.300485	3984.605206	24311.749708
6.535000	-0.000612	0.000313	-0.000494	-0.000094	7400.848253	46019.165518	3981.231842	24305.290494
7.035500	-0.000282	-0.000271	-0.001988	-0.000429	7407.781098	45994.338564	3978.203251	24321.813335
7.537500	-0.001776	-0.000218	0.001086	-0.000425	7392.168670	45999.281513	3986.239499	24321.619583
8.036000	0.001239	-0.000455	-0.001433	-0.000468	7424.102440	45979.889754	3979.753591	24323.716595
8.536000	-0.001151	0.000262	0.002013	0.000000	7394.243924	46004.682193	3987.561000	24300.629744
9.036500	0.000000	0.000000	-0.001578	0.000047	7405.756241	45974.013436	3978.030510	24298.301351
9.537000	0.000451	-0.000385	0.000724	-0.000290	7413.991247	45969.307390	3984.934300	24314.942285
10.037500	0.000073	-0.000470	-0.001281	-0.000934	7416.777982	46024.727698	3981.370017	24346.775950
10.537500	0.000886	0.001010	0.004976	0.000291	7412.464279	46050.073467	3994.610245	24286.260677
11.035000	-0.000703	0.000416	-0.001656	0.000087	7397.999460	46011.282460	3977.721868	24296.319759
11.535000	-0.001210	-0.000279	0.000000	-0.000097	7394.640822	45960.683189	3982.532307	24305.431058
12.038500	0.001275	-0.000031	0.002185	0.000326	7416.161315	45943.296907	3987.154239	24284.523009
12.535500	0.000706	0.000215	0.000001	0.000103	7412.555684	45989.794183	3982.011487	24295.557997
13.036000	-0.003055	-0.001084	-0.002185	0.004061	7332.549122	45471.387456	3966.040931	24101.131710
13.536000	0.000881	-0.000372	-0.001264	0.000092	7414.498029	45932.691435	3978.733228	24296.110336
14.037000	-0.002164	0.000071	-0.003503	0.003713	7345.302826	45618.971743	3963.541267	24118.160682
14.537000	-0.002150	0.000062	-0.002086	0.002379	7359.216148	45749.567036	3970.649040	24183.560242
15.037500	-0.003322	-0.000726	0.001527	0.004299	7327.364100	45483.188615	3975.043164	24089.490867
15.537500	0.000322	0.000160	-0.000905	0.000165	7407.887623	45978.231337	3979.478774	24292.482705
16.035000	0.000163	-0.000246	0.002795	-0.000130	7409.305300	45967.187929	3989.960514	24307.046088
16.538000	0.000471	0.000414	0.003630	0.000356	7407.444133	45984.435563	3990.880142	24283.058051
17.036000	-0.001381	-0.000179	-0.001274	0.002068	7370.383051	45756.459505	3973.561024	24198.813105
17.536000	-0.000917	0.000305	-0.004782	0.001482	7381.266201	45862.032706	3965.994126	24227.593705
18.036500	-0.001019	-0.000779	0.001063	0.001019	7385.016945	45800.710793	3982.392411	24250.409022
18.536500	-0.002518	-0.000352	-0.002727	0.001424	7365.276243	45802.875537	3971.463114	24230.467431
19.036500	-0.000742	0.000146	-0.000914	0.002862	7368.770408	45710.141344	3972.434039	24159.836849
19.537000	0.000096	0.000247	0.001390	0.001706	7389.465583	45834.255700	3981.451145	24216.599990
20.034500	-0.000815	0.000215	0.001614	0.001417	7383.004045	45859.616594	3982.793543	24230.815524
20.535000	-0.000499	-0.000216	0.002923	0.001309	7387.403373	45827.688337	3986.509377	24236.112872
21.038000	-0.002095	0.000322	0.001114	0.002890	7354.497591	45724.769232	3977.637417	24158.490204
21.535500	-0.001869	-0.000368	-0.001838	0.000892	7377.508935	45853.880993	3975.153539	24256.654512
22.036000	0.001513	0.000263	0.003316	0.001768	7403.592299	45829.706961	3986.337549	24213.568193
22.536000	-0.000206	-0.000136	0.003260	0.001442	7389.078962	45822.502002	3987.048374	24229.598881
23.036500	-0.001538	0.000044	-0.004689	0.002973	7359.391893	45689.225861	3962.393471	24154.408982
23.536500	-0.001844	0.000559	0.002477	0.001663	7369.780860	45869.281537	3984.410622	24218.703317
24.037000	-0.001090	-0.000297	0.000381	0.001299	7381.368526	45820.650774	3979.875241	24236.596326
24.537500	0.000012	-0.000383	0.000620	0.001675	7388.918533	45775.040925	3979.516713	24218.100563
25.037500	-0.000880	-0.000401	0.003589	0.002225	7373.948414	45719.090999	3985.853842	24191.116526
25.538000	-0.001671	-0.000109	0.002796	0.001079	7377.628158	45861.052425	3986.782851	24247.446292
26.035500	0.001321	0.000522	0.002790	0.001531	7404.054417	45878.690406	3985.577130	24225.187529
26.535500	0.001039	0.000239	0.003603	0.001833	7397.962997	45820.888758	3986.921853	24210.362832
27.036000	-0.001479	-0.000128	-0.001734	0.004969	7339.417489	45476.089528	3964.863526	24056.775177
27.536500	0.000982	-0.000442	-0.000712	-0.001051	7427.526001	46039.154682	3983.165223	24352.581604
28.036500	0.001361	0.000596	0.000346	0.000906	7411.005692	45948.037047	3980.813650	24255.978750
28.536500	0.000739	0.000434	-0.004167	0.000226	7411.601212	45999.296345	3970.834174	24289.457316
29.037000	-0.001914	-0.000057	-0.000487	0.005771	7326.712995	45404.549396	3966.012683	24017.707391
29.537000	0.000767	0.000617	-0.001831	0.000437	7409.696714	45996.561040	3976.353184	24279.056397
30.037000	0.000037	0.000405	0.001754	0.000477	7401.656773	45971.540744	3985.626190	24277.085575
30.535000	-0.000825	-0.000134	-0.003406	0.002967	7366.825939	45672.247999	3965.712905	24154.687229
31.035500	-0.002952	-0.000131	0.000452	0.005354	7320.346518	45438.124094	3969.516494	24038.023935
31.535500	0.000703	-0.000692	0.000354	-0.000228	7415.976478	45932.728313	3983.800997	24311.877432
32.036000	0.002728	0.000498	-0.003240	0.000161	7433.125065	46012.128889	3973.408958	24292.679733
32.536000	0.002494	0.000520	0.005042	0.000488	7427.245657	45981.925572	3994.262303	24276.565299
33.036500	-0.000883	0.000013	-0.001343	0.005109	7344.117715	45476.244272	3965.511401	24049.962967
33.537000	-0.000889	0.000503	0.004060	0.002311	7372.960541	45799.689369	3986.866252	24186.864779
34.037500	-0.000965	0.000440	0.000956	0.002432	7370.914587	45781.567034	3978.418491	24180.916362
34.537500	0.000285	-0.000184	0.001432	0.002017	7388.199442	45760.945878	3980.746258	24201.299659
35.037000	-0.003015	-0.000293	0.001874	0.003221	7341.610039	45631.645681	3978.755916	24142.263421
35.535500	-0.003004	-0.000169	-0.003044	0.002349	7350.702281	45729.688579	3968.246979	24185.026523
36.035500	-0.001755	0.000231	0.001495	0.002399	7363.089869	45764.256668	3979.914541	24182.565984
36.535500	-0.001880	-0.000723	-0.002746	0.001972	7366.209173	45712.178700	3969.992386	24203.516329
37.036000	-0.001197	-0.000086	0.002020	0.002671	7366.036490	45706.097119	3980.573759	24169.193314
37.536500	-0.000608	0.001119	-0.002788	0.002905	7369.719890	45801.964269	3967.470035	24157.757710
38.036500	-0.001946	0.000451	-0.003243	0.002779	7357.185015	45748.418444	3966.620880	24163.917651
38.537000	0.000199	0.000723	0.003362	0.003564	7371.243153	45697.855190	3981.747704	24125.441880
39.042500	-0.001341	0.000459	0.001428	0.004646	7344.167766	45565.416781	3973.884316	24072.564560
39.535000	-0.000599	0.001379	0.002776	0.003677	7361.820269	45751.415664	3979.923027	24119.941006
40.035500	-0.000067	0.001063	-0.001794	0.003325	7370.970764	45754.933383	3968.954878	24137.181509
40.535500	-0.000342	0.000307	-0.000253	0.002461	7377.074437	45765.554529	3975.193354	24179.491057
41.034500	0.000129	0.001012	0.002443	0.004722	7358.543204	45612.320188	3976.326210	24068.851167
41.535500	-0.000650	0.000197	-0.000254	0.002507	7373.409071	45750.249365	3975.071498	24177.265871
42.038500	0.000028	-0.000068	0.001400	0.002698	7378.458072	45705.268561	3978.885450	24167.892833
42.536500	0.000196	0.000864	-0.000858	0.003453	7372.375002	45722.755112	3971.046936	24130.910929
43.036500	-0.000840	0.000347	0.001507	0.004544	7350.384683	45564.440437	3974.354871	24077.549521
43.540000	0.003470	0.000523	0.010644	-0.002302	7466.916741	46259.796599	4016.681861	24414.539664
44.037000	0.003423	0.000297	0.002094	0.000528	7436.582521	45955.795373	3986.385782	24274.596676
44.537500	-0.000224	0.000123	0.002292	0.000398	7399.761168	45951.439940	3987.247692	24280.991544
45.038000	-0.002672	0.000531	0.004333	0.005243	7324.358584	45513.903331	3979.897860	24043.448221
45.535500	0.002719	0.000339	-0.000107	0.000990	7424.340539	45914.188092	3979.409798	24251.838244
46.044000	0.001184	0.000174	0.002007	0.001033	7407.819835	45893.530827	3984.828435	24249.684622
46.535500	0.003385	0.000666	0.000152	0.001245	7428.655083	45921.323177	3979.421521	24239.294740
47.036500	-0.004151	-0.000431	0.001816	0.005433	7307.281145	45401.027520	3972.846739	24034.167030
47.536500	-0.000033	0.000205	0.001069	0.001954	7385.554657	45805.585316	3979.964271	24204.418990
48.040000	0.002560	0.000764	0.005507	0.000974	7422.843562	45957.925326	3994.207908	24252.632733
48.537000	0.001337	0.001383	0.002477	0.001640	7403.083936	45953.213018	3984.469149	24219.819909
49.037500	-0.001081	0.000888	0.005532	0.006149	7331.378586	45460.046023	3980.662789	23999.273049
49.535500	0.002812	0.000844	-0.000451	0.000810	7427.201189	45982.060119	3978.979592	24260.671509
50.038000	0.001062	0.000924	0.001927	0.003488	7380.981658	45725.129495	3978.196331	24129.158460
50.536000	-0.074784	-0.022132	0.003777	0.375103	4481.065119	20162.699499	3328.814272	11903.269910
51.035500	-0.054428	-0.012732	-0.033120	0.050955	6429.258119	40103.546178	3782.158985	21927.762372
51.536000	-0.069151	-0.134776	-0.033699	-0.297348	10540.537142	65535.000000	4931.742704	45372.467038
52.036000	-0.057788	-0.188003	-0.015263	-0.350574	11770.235843	65535.000000	5306.064630	50914.561525
52.539500	-0.065343	-0.156482	-0.012615	-0.319054	11004.559683	65535.000000	5147.787943	47550.893742
53.034000	-0.069005	-0.139943	-0.014928	-0.302515	10634.910546	65535.000000	5049.974793	45881.172687
53.534500	-0.052951	-0.110612	-0.012238	-0.273184	10401.175959	65535.000000	4918.794059	43072.051176
54.037500	-0.029709	-0.116014	-0.015153	-0.278586	10914.524785	65535.000000	4930.704525	43575.272286
54.535000	-0.018004	-0.105009	-0.014625	-0.267580	10927.496678	65535.000000	4880.992983	42556.625274
55.039500	-0.019945	-0.072601	-0.013823	-0.233346	10283.675989	65272.244127	4730.164487	39548.163744
55.536000	-0.019114	-0.044960	-0.008406	-0.193807	9651.635364	63586.751708	4587.737085	36356.112772
56.036000	-0.011324	-0.026834	-0.006912	-0.160013	9257.592830	61436.547565	4462.847210	33849.008854
56.536500	-0.010347	-0.011949	-0.016018	-0.106636	8531.781286	56472.111242	4246.086947	30265.851396
57.041500	-0.019266	-0.010231	-0.013721	-0.072660	7999.460652	52637.539285	4147.545466	28204.059858
57.537000	-0.015166	-0.009359	-0.012637	-0.073934	8063.292469	52883.810055	4154.633769	28278.463393
58.036500	-0.021237	-0.009188	-0.012339	-0.055520	7778.700921	50827.927530	4101.137797	27223.557548
58.537500	-0.024477	-0.010729	-0.016478	-0.038318	7553.096001	48803.788856	4040.918057	26277.693868
59.035000	-0.030094	-0.009039	-0.020145	-0.017722	7278.890505	46848.525688	3975.951896	25193.350374
59.535000	-0.027718	-0.008415	-0.021139	-0.007496	7199.948250	45887.638633	3947.112859	24673.766424
60.035500	-0.027123	-0.008449	-0.021153	0.002225	7109.949223	44932.942822	3922.691615	24191.115228
60.535500	-0.023239	-0.007513	-0.018870	0.010394	7068.332977	44238.765210	3908.186673	23793.733565
61.036500	-0.029051	-0.006943	-0.020787	0.020817	6914.350895	43311.644896	3878.410656	23297.481412
61.539500	-0.021340	-0.005924	-0.025584	0.009784	7092.660168	44448.668793	3893.354377	23823.182105
62.037000	-0.018488	-0.004197	-0.020718	0.008911	7129.009274	44698.063071	3907.294845	23865.330270
62.537000	-0.019095	-0.004875	-0.021142	0.003578	7175.590476	45148.393589	3919.366173	24124.773519
63.037500	-0.017776	-0.004207	-0.023099	0.004494	7179.586335	45124.328487	3912.283275	24079.976065
63.537500	-0.017370	-0.005388	-0.021808	-0.001874	7247.304423	45631.595968	3931.268376	24393.316548
64.035500	-0.015329	-0.004208	-0.012635	-0.002372	7272.961738	45796.962946	3955.724477	24418.014068
64.535500	-0.014757	-0.004487	-0.018422	-0.003731	7292.576152	45903.784459	3944.459322	24485.580602
65.035500	-0.018959	-0.005291	-0.024400	0.001517	7197.410384	45308.729213	3916.410156	24225.870387
65.536500	-0.015099	-0.004664	-0.024734	-0.005761	7309.782794	46087.615797	3933.672313	24586.824929
66.036000	-0.016956	-0.005385	-0.021902	-0.006418	7297.545901	46081.285044	3942.454864	24619.750310
66.537000	-0.015350	-0.004511	-0.019264	-0.005615	7305.729522	46088.250481	3947.098657	24579.526675
67.037000	-0.019644	-0.004314	-0.022063	0.001333	7192.436732	45422.235864	3922.647513	24234.946163
67.537000	-0.014958	-0.004898	-0.020482	-0.004591	7299.285474	45948.227680	3941.425997	24528.415840
68.037500	-0.015221	-0.003077	-0.020658	-0.002386	7274.199617	45910.272902	3935.434022	24418.723429
68.535000	-0.012589	-0.003394	-0.019741	-0.002468	7301.796412	45886.951195	3937.941948	24422.763615
69.035500	-0.017536	-0.002580	-0.018237	0.004773	7179.194723	45255.517906	3923.604479	24066.340425
69.535500	-0.013134	-0.003403	-0.022529	-0.001811	7289.548550	45821.030977	3929.310568	24390.188044
70.036000	-0.011402	-0.002936	-0.025562	-0.001600	7305.051440	45846.366474	3921.242835	24379.718990
70.538500	-0.012781	-0.002290	-0.012444	-0.001297	7287.913378	45880.337397	3953.464413	24364.734055
71.036500	-0.015411	-0.002212	-0.021075	0.004171	7206.332415	45350.174134	3918.064726	24095.741894
71.537000	-0.013770	-0.002989	-0.019155	-0.001083	7275.699806	45789.997197	3935.935012	24354.132983
72.037000	-0.009665	-0.001871	-0.016085	-0.000848	7315.118759	45877.387895	3943.077710	24342.536026
72.537000	-0.012930	-0.002497	-0.018701	-0.001536	7288.821307	45883.448106	3938.213546	24376.548463
73.035000	-0.013618	-0.002343	-0.024774	0.000740	7258.781562	45674.010823	3917.404836	24264.133067
73.535500	-0.012000	-0.002318	-0.021173	-0.001429	7297.201228	45890.614979	3931.742684	24371.259777
74.035500	-0.012419	-0.002755	-0.019872	-0.001922	7297.964193	45896.101042	3936.240194	24395.685550
74.535500	-0.011241	-0.001563	-0.020577	-0.000817	7298.707000	45904.746319	3931.704521	24340.975291
75.038500	-0.011575	-0.002638	-0.022810	-0.000046	7287.450668	45722.376521	3924.215533	24302.887023
75.536500	-0.011743	-0.002654	-0.021986	-0.001797	7303.582972	45893.788037	3930.629745	24389.483045
76.036500	-0.010496	-0.001801	-0.016164	-0.001938	7317.764729	45992.246349	3945.636726	24396.480765
76.537000	-0.012466	-0.002210	-0.018997	-0.001745	7295.681819	45932.573661	3937.996877	24386.930914
77.037500	-0.013866	-0.001938	-0.022709	0.004929	7214.194683	45302.943002	3912.174329	24058.735322
77.534500	-0.008763	-0.001500	-0.018957	-0.001283	7328.822588	45957.223954	3936.935476	24364.060400
78.035000	-0.009756	-0.002119	-0.017678	-0.001573	7321.613697	45924.547102	3940.885640	24378.399145
78.535500	-0.011344	-0.002509	-0.017976	-0.002274	7312.530348	45955.431851	3941.903163	24413.175239
79.035500	-0.013610	-0.002405	-0.026507	0.004515	7220.896643	45297.803891	3903.893301	24078.936331
79.539000	-0.012412	-0.002608	-0.020835	-0.001891	7297.718090	45907.630086	3933.747072	24394.160552
80.036500	-0.010644	-0.001802	-0.019005	-0.001784	7314.672946	45976.844194	3938.073960	24388.848732
80.539000	-0.012778	-0.002257	-0.017870	-0.002376	7298.928152	45990.488451	3942.427890	24418.201740
81.037000	-0.015728	-0.001983	-0.020173	0.004576	7199.125451	45333.056469	3919.293892	24075.953233
81.537000	-0.012835	-0.002441	-0.020067	-0.002031	7294.835008	45938.106763	3936.027415	24401.120306
82.037000	-0.013020	-0.002854	-0.017319	-0.003061	7303.448037	45999.215430	3945.556562	24452.233340
82.535000	-0.009163	-0.001401	-0.020196	-0.001749	7329.487132	46013.221616	3934.993074	24387.103517
83.035000	-0.015011	-0.002876	-0.023684	0.003370	7218.342176	45363.680108	3913.609509	24134.959905
83.535500	-0.011668	-0.002764	-0.016695	-0.002882	7315.427858	45990.392045	3946.683100	24443.313831
84.038500	-0.011159	-0.002388	-0.016932	-0.003126	7323.140270	46051.939234	3946.701364	24455.451846
84.536000	-0.011412	-0.002309	-0.015715	-0.002746	7316.659759	46022.011144	3948.826111	24436.567228
85.036500	-0.016193	-0.003529	-0.023428	0.002464	7215.576785	45388.379017	3916.471608	24179.363302
85.536500	-0.013109	-0.002778	-0.016998	-0.003026	7302.179920	46003.304040	3946.279489	24450.485896
86.037000	-0.012074	-0.002292	-0.017679	-0.003185	7314.386772	46067.392275	3944.958504	24458.402936
86.537000	-0.012726	-0.003427	-0.015451	-0.003767	7313.671535	46012.519621	3952.097450	24487.373589
87.037500	-0.017153	-0.003362	-0.021368	0.002891	7201.729721	45362.956123	3920.508857	24158.434915
87.535000	-0.011809	-0.003101	-0.017431	-0.003507	7320.384711	46018.979939	3946.400984	24474.405921
88.035500	-0.013086	-0.003773	-0.012377	-0.004116	7313.560614	46012.768390	3960.855283	24504.750806
88.538500	-0.013293	-0.003578	-0.014444	-0.004234	7312.647249	46043.793710	3955.860242	24510.612772
89.035500	-0.018945	-0.004533	-0.018134	0.001860	7194.143942	45349.195007	3931.119080	24209.011192
89.536500	-0.014711	-0.004662	-0.019128	-0.004444	7300.306796	45957.146939	3944.478412	24521.099027
90.036500	-0.012375	-0.003751	-0.017890	-0.003940	7319.028351	45997.422082	3946.336363	24495.951711
90.536000	-0.014880	-0.003682	-0.022037	-0.004565	7299.815775	46066.297241	3937.442318	24527.104535
91.039500	-0.014435	-0.003971	-0.017987	-0.003704	7295.576233	45952.250993	3945.493525	24484.221591
91.537500	-0.013734	-0.003619	-0.014220	-0.003938	7305.119130	46010.393110	3955.676021	24495.887578
92.038000	-0.014727	-0.003244	-0.016409	-0.003654	7292.094272	46019.363219	3949.369464	24481.722819
92.535000	-0.014673	-0.004100	-0.015142	-0.004015	7296.323388	45970.195129	3953.516553	24499.685291
93.038500	-0.019291	-0.003956	-0.018631	0.002315	7186.173223	45361.213734	3928.739639	24186.667507
93.536000	-0.015331	-0.003928	-0.015382	-0.004177	7291.271176	46003.391070	3953.317080	24507.787085
94.036000	-0.016867	-0.004565	-0.017412	-0.004609	7280.049479	45983.072113	3949.247676	24529.323910
94.536000	-0.015748	-0.004407	-0.014251	-0.004101	7286.251920	45948.290668	3956.010656	24503.970965
95.037000	-0.019584	-0.004786	-0.023196	0.001925	7187.136243	45318.137862	3918.375176	24205.813530
95.536500	-0.017123	-0.004382	-0.019837	-0.003714	7268.385972	45912.481097	3940.839146	24484.701014
