sample name	sample
index	658
start time	 03-22-2021  10:12:07 AM
880	0.038622
Peak Time (s)	181.039
Peak Height 	0.03862
calc peak height	180,183
Baseline Time (s)	9.036
Baseline Value 	-0.001072
subtract baseline	10,4
Abs	0.009689
Peak Time (s)	180.536
Peak Height 	0.009689
calc peak height	180,183
Baseline Time (s)	9.036
Baseline Value 	0.001492
subtract baseline	10,3
PK_550	0.005130
Peak Time (s)	182.037
Peak Height 	0.00513
calc peak height	180,183
Baseline Time (s)	10.537
Baseline Value 	6.323E-4
subtract baseline	10,2
PK_880	0.004464
Peak Time (s)	182.537
Peak Height 	0.004464
calc peak height	180,183
Baseline Time (s)	10.04
Baseline Value 	0.00109
subtract baseline	10,1


Time (s)	A880-A510	A880-A775	A880-A975	A880	I510	I775	I975	I880	
0.036500	-0.003947	-0.001209	-0.006086	0.005671	7291.388867	45455.130027	3849.025701	23915.221581
0.536000	-0.001841	-0.000756	-0.007328	0.003840	7333.353145	45680.648792	3850.652695	24005.018267
1.042000	-0.003039	-0.001088	-0.000712	0.002589	7333.925838	45771.703072	3872.538436	24066.561397
1.600500	-0.000948	-0.000352	0.000478	-0.000736	7392.282310	46176.286813	3885.283098	24231.012010
2.034500	-0.001659	-0.000917	-0.004596	0.002456	7350.157404	45801.882366	3862.055560	24073.122344
2.535000	-0.003021	-0.000480	-0.004364	0.004761	7310.920473	45616.849646	3856.297933	23959.819747
3.035000	0.001670	-0.000219	0.000048	-0.002357	7438.452433	46352.130850	3888.664296	24311.603608
3.536000	-0.002315	-0.000573	0.001420	-0.000362	7373.436839	46116.772402	3886.892672	24212.421762
4.036000	0.000040	-0.000591	0.000149	-0.000242	7397.632306	46102.993269	3882.947603	24206.470488
4.536500	-0.003639	-0.000871	-0.002284	0.003858	7313.952966	45667.420956	3864.589634	24004.111727
5.036500	-0.001638	-0.000052	-0.000540	-0.000177	7378.745975	46150.346258	3880.815798	24203.244253
5.540000	0.000698	0.000137	-0.002222	-0.000104	7403.282657	46161.911045	3875.864636	24199.619685
6.037500	-0.000541	-0.000407	-0.002675	-0.000240	7391.310297	46121.211186	3874.973565	24206.399649
6.535000	-0.001112	-0.000966	-0.002323	-0.000413	7386.999014	46082.576368	3876.450524	24214.943479
7.035000	-0.002164	-0.000724	-0.000964	-0.000547	7377.064951	46120.108315	3880.661098	24221.597888
7.535500	-0.001140	-0.000393	-0.002230	-0.000450	7387.096151	46143.571893	3876.819277	24216.822168
8.035500	0.000199	-0.000346	0.003816	-0.000412	7401.200684	46144.441907	3893.858585	24214.893788
8.535000	-0.000425	-0.000486	-0.003698	-0.000855	7399.237241	46174.779094	3873.825166	24236.890702
9.036000	-0.001908	-0.000112	0.000000	0.000000	7373.926032	46126.616406	3881.841808	24194.485494
9.536500	0.000658	0.000006	-0.001399	0.000336	7398.066656	46104.902340	3876.942562	24177.833492
10.039500	0.000000	0.000104	0.002580	0.000596	7388.110803	46088.704952	3887.465185	24164.950259
10.537000	-0.002480	0.000000	0.003907	-0.000037	7368.140994	46141.527487	3893.049108	24196.300232
11.035000	0.000244	0.000755	-0.001134	0.000240	7394.617600	46189.382720	3877.961962	24182.603797
11.535000	0.000347	-0.000020	0.002820	-0.000423	7402.935167	46178.250048	3891.050658	24215.477502
12.035000	-0.000880	0.000181	0.000269	0.000122	7383.718886	46143.749855	3882.256315	24188.426049
12.538500	-0.002241	-0.000447	-0.001420	0.002881	7339.339374	45806.288336	3869.735398	24052.175879
13.035000	0.000635	0.000084	-0.002755	-0.002294	7426.457691	46376.317333	3880.538553	24308.484003
13.536000	0.000161	-0.000145	0.001247	-0.001150	7408.808152	46238.422672	3888.639577	24251.542668
14.036000	0.001421	-0.000513	-0.000005	-0.001416	7425.448029	46228.256492	3885.838638	24264.757902
14.539500	-0.001167	0.000774	0.000145	0.003240	7347.015521	45891.940178	3873.118093	24034.509135
15.037000	0.000322	0.000785	0.006180	-0.000108	7399.250136	46227.288150	3899.760171	24199.854795
15.592000	0.003395	0.000210	0.005250	-0.000766	7439.921395	46235.571626	3898.980301	24232.483553
16.035000	-0.000127	-0.000338	0.002006	-0.001258	7406.856617	46229.919065	3891.108961	24256.910166
16.539500	-0.003566	-0.000335	-0.003238	0.004834	7304.336154	45624.029868	3859.218559	23956.251887
17.035500	0.001104	0.000423	0.000176	-0.000598	7413.077141	46240.065799	3884.033052	24224.145206
17.538000	0.002173	0.000478	0.005962	-0.002354	7443.937018	46422.040746	3905.594141	24311.491977
18.036000	-0.000005	-0.000083	-0.002402	0.001091	7382.693265	46020.538252	3871.998389	24140.465798
18.536000	-0.000611	0.000543	0.002504	0.003714	7347.885505	45821.811854	3878.421397	24011.175620
19.039000	-0.001858	-0.000162	0.003017	0.001354	7359.864930	45986.547498	3886.553974	24127.477317
19.537000	-0.000427	0.000153	0.001873	0.001956	7368.791259	45957.933328	3881.607769	24097.752394
20.037000	-0.000084	0.000535	0.003820	0.002077	7371.198735	45983.940973	3886.784328	24091.804069
20.534500	-0.001611	-0.000244	0.000873	0.003518	7339.271438	45763.238228	3874.382651	24020.834543
21.035000	0.001259	-0.000274	0.001849	0.001469	7392.288288	45963.807357	3882.916274	24121.777008
21.535500	0.000359	-0.000385	0.000999	0.001089	7386.661900	45990.638415	3881.585081	24140.557548
22.035500	0.001271	0.000328	0.003364	0.001903	7387.732631	45980.697475	3885.982287	24100.397924
22.536000	-0.001339	-0.000236	0.000896	0.003171	7345.905214	45798.487676	3875.422328	24037.894981
23.036000	-0.002298	-0.000509	0.000447	0.001221	7356.558714	45965.245075	3879.656347	24134.072496
23.539000	0.001413	0.000959	0.000413	0.002705	7380.582141	45963.608265	3875.375816	24060.826765
24.036500	0.001207	0.000091	-0.001499	0.002080	7385.115663	45939.445128	3871.759393	24091.665186
24.536500	-0.000055	0.000407	0.002864	0.003053	7360.983241	45873.989653	3881.306563	24043.693685
25.037500	-0.000285	-0.000031	0.001036	0.002290	7366.730976	45906.409771	3878.299610	24081.294618
25.537500	-0.000112	0.000279	0.002366	0.002116	7370.468527	45954.519009	3882.547899	24089.852165
26.035000	0.000017	-0.000568	0.000495	0.001918	7373.997230	45889.933382	3877.821015	24099.618321
26.535000	0.000569	0.000471	0.002487	0.003332	7364.695347	45852.697629	3879.451917	24029.960612
27.035500	0.000083	0.000142	0.000864	0.002368	7369.854776	45915.841802	3877.594258	24077.458977
27.538500	-0.000348	0.000212	0.003166	0.001320	7376.514788	46027.194934	3887.073365	24129.150852
28.039000	0.000326	0.000344	0.005191	-0.001361	7412.907571	46308.691933	3900.517663	24262.051278
28.536500	0.003014	0.000227	0.007468	-0.000045	7427.874281	46165.093221	3903.281265	24196.736280
29.042000	0.001859	0.000114	0.008495	0.000246	7412.107649	46124.667125	3905.399471	24182.293213
29.534000	-0.000707	0.000868	-0.002077	0.003508	7349.082672	45874.685770	3866.144881	24021.330088
30.036500	0.002077	0.000672	0.001412	0.000601	7410.608991	46144.937229	3884.139364	24164.727033
30.534500	0.002298	-0.000347	0.003417	0.000220	7417.173201	46081.199497	3890.921124	24183.607801
31.041000	0.000947	0.000302	0.004703	0.000260	7402.035340	46142.044233	3894.474081	24181.607468
31.535500	-0.002038	0.000809	-0.000111	0.005215	7316.556149	45699.429853	3866.866981	23937.570431
32.036000	0.001749	0.000067	0.000666	0.002180	7389.911000	45927.115980	3877.567594	24086.733888
32.541500	0.003275	0.000480	0.003903	0.000542	7424.312327	46131.636920	3891.385672	24167.641960
33.036000	0.000182	0.000575	0.001544	0.000752	7388.392975	46120.131112	3884.084658	24157.248624
33.536500	-0.002183	-0.000316	-0.001366	0.003856	7329.522409	45722.608407	3867.157068	24004.219027
34.038000	0.000715	0.001042	-0.000024	0.001236	7388.933652	46118.490548	3878.284203	24133.336328
34.537000	-0.003204	-0.000038	-0.000604	0.006202	7293.644857	45518.333271	3862.737535	23889.291507
35.034000	0.002145	0.000607	0.006906	0.000307	7414.553268	46167.958219	3900.652292	24179.294991
35.540500	-0.001492	0.000769	-0.001352	0.004745	7327.400662	45741.973122	3864.712558	23960.569777
36.035000	-0.001750	0.000315	-0.000370	0.003481	7338.171013	45822.425207	3870.995670	24022.643592
36.538000	-0.001131	0.000818	0.004225	0.004650	7332.280488	45756.294471	3880.640063	23965.256190
37.038500	0.001023	0.000885	0.004738	0.003627	7366.415700	45864.511771	3884.987986	24015.457299
37.538500	-0.000940	0.000231	0.002018	0.004743	7333.331158	45688.926574	3874.155515	23960.679843
38.036000	0.000805	0.000520	0.005002	0.003725	7363.011260	45818.534774	3885.459901	24010.655917
38.539500	-0.000180	0.000138	0.005359	0.003806	7351.534764	45772.523463	3886.240666	24006.656280
39.037000	0.000177	0.000896	0.001066	0.003924	7354.100693	45836.063404	3873.780685	24000.855468
39.539500	-0.001740	0.000281	0.000223	0.003514	7337.928664	45815.817927	3872.567665	24021.048175
40.037500	0.000456	0.001167	0.004380	0.004221	7353.905678	45833.520453	3882.291620	23986.284355
40.540500	-0.001626	0.000680	0.001997	0.004581	7327.720977	45749.447175	3874.552982	23968.623866
41.035500	-0.001171	0.000788	0.000900	0.003680	7342.245530	45849.544311	3874.002554	24012.844404
41.541000	-0.000413	0.000223	0.001177	0.003374	7353.670494	45823.849137	3875.642768	24027.895549
42.036000	0.000797	0.000374	0.001834	0.003512	7365.218731	45825.210225	3877.104699	24021.134534
42.539000	-0.000478	-0.000387	-0.000473	0.004426	7341.671898	45659.182323	3868.060240	23976.218865
43.036500	0.000441	0.001365	0.002200	0.004831	7347.201050	45792.666675	3874.420969	23956.383156
43.536500	-0.001846	0.000526	0.000104	0.005018	7320.713771	45690.960853	3868.020046	23947.232753
44.037000	-0.000472	0.000517	0.004050	0.003793	7348.544317	45811.496735	3882.569915	24007.331621
44.540500	-0.002922	0.000369	0.002344	0.005510	7303.988912	45626.721427	3872.918912	23923.116388
45.035000	0.001301	0.000798	0.000335	0.002814	7378.192254	45936.668698	3874.847044	24055.460205
45.540500	-0.002468	0.000349	0.002663	0.006959	7293.416985	45481.781714	3869.747344	23852.321725
46.041000	0.002274	0.000924	0.002294	0.001886	7398.789600	46041.796839	3882.998246	24101.223003
46.541500	-0.002121	0.000311	0.002849	0.007110	7295.505875	45463.188172	3869.847718	23844.963279
47.036000	0.002292	0.001221	0.007683	0.001913	7398.687473	46068.714471	3898.272850	24099.889557
47.538500	-0.002807	0.000616	0.002565	0.007184	7287.435499	45485.926409	3868.845532	23841.362053
48.036500	0.002065	0.000933	0.002628	0.001719	7398.336624	46059.307945	3884.416299	24109.466452
48.542000	-0.001134	-0.000010	0.002451	0.007206	7304.963740	45422.105876	3868.461596	23840.263600
49.037000	-0.000433	0.000294	0.005529	0.004576	7340.550623	45711.724320	3884.539291	23968.866681
49.535000	-0.001889	0.000823	0.003119	0.006749	7301.806046	45549.301059	3871.615658	23862.590736
50.045000	0.001759	0.000790	0.005358	0.001703	7395.176904	46046.637469	3892.224000	24110.240365
50.537500	-0.001911	0.001079	0.004461	0.007722	7291.243161	45478.582729	3872.651290	23815.168686
51.035500	0.000839	0.001321	0.006204	0.001592	7386.410659	46110.804751	3894.959509	24115.730142
51.541500	-0.000167	0.000814	0.002051	0.006706	7320.613176	45552.604067	3868.745675	23864.697615
52.035500	0.002712	0.001352	0.004437	0.003652	7384.387679	45908.457069	3884.065431	24014.256632
52.539000	-0.003346	-0.000464	0.003369	0.012041	7230.595818	44905.128993	3857.553695	23605.909972
53.037000	-0.040710	-0.019336	0.056344	0.475455	4119.040892	16605.113651	3121.309594	9872.322207
53.540000	-0.032021	-0.009584	0.003632	0.097593	6179.049272	36639.394796	3642.820887	19862.503830
54.037500	-0.032967	-0.073034	-0.015755	-0.229554	10091.434076	64983.706416	4663.291677	39186.394655
54.540500	-0.042799	-0.179308	-0.016603	-0.339655	12015.249985	65535.000000	5238.235991	49723.204427
55.038000	-0.047018	-0.147606	-0.011534	-0.307953	11274.489173	65535.000000	5084.477023	46410.868243
55.537500	-0.053712	-0.133038	-0.016204	-0.293385	10864.049258	65535.000000	4979.134158	44967.958700
56.035500	-0.038785	-0.103414	-0.014693	-0.263761	10591.844163	65535.000000	4833.340070	42178.904548
56.536000	-0.014150	-0.111387	-0.012797	-0.271734	11208.463028	65535.000000	4883.448389	42910.967612
57.036500	-0.016201	-0.110814	-0.017353	-0.271161	11157.101608	65535.000000	4857.265523	42857.872956
57.539000	-0.009214	-0.095710	-0.018834	-0.256057	11000.212282	65535.000000	4774.681740	41484.220665
58.037000	-0.013354	-0.073210	-0.013797	-0.232408	10484.735533	65368.843209	4685.684950	39427.120772
58.540000	-0.011377	-0.046468	-0.009552	-0.195029	9874.048400	63852.654546	4536.392008	36395.798144
59.037500	-0.011601	-0.027638	-0.008473	-0.159938	9312.520255	61605.655414	4394.541922	33777.973332
59.540500	-0.013350	-0.016337	-0.007288	-0.119017	8692.204453	57722.366818	4242.293652	30980.686140
60.035500	-0.020013	-0.012891	-0.006054	-0.090999	8231.055607	54695.818879	4147.254467	29211.889845
60.538500	-0.016640	-0.009746	-0.006738	-0.070211	8013.012106	52626.143305	4075.185870	27971.377841
61.035000	-0.015658	-0.007818	-0.008355	-0.050032	7782.577113	50571.686944	4005.585315	26822.664690
61.539000	-0.014401	-0.006139	-0.003885	-0.033109	7601.937589	48920.638120	3967.360555	25899.620773
62.036500	-0.015321	-0.005349	-0.008806	-0.021843	7465.854657	47819.180043	3919.281877	25304.769526
62.539500	-0.013140	-0.004217	-0.008581	-0.011611	7378.025303	46883.696693	3890.444561	24777.723088
63.037000	-0.016386	-0.005379	-0.008392	-0.001142	7232.089090	45716.105022	3861.500640	24251.138775
63.534500	-0.009036	-0.002109	-0.003890	0.002351	7272.657629	45694.041296	3864.312854	24078.262731
64.037500	-0.007528	-0.003646	-0.001545	-0.007070	7389.608621	46481.634826	3897.573816	24547.775848
64.535000	-0.011953	-0.004130	-0.006380	-0.002269	7290.689787	45952.158927	3870.265083	24307.225312
65.035500	-0.008963	-0.003938	-0.002745	-0.005801	7360.399233	46324.572656	3890.519613	24483.939435
65.570000	-0.008215	-0.003326	-0.004777	-0.009665	7410.337887	46776.502612	3895.749070	24678.890297
66.036000	-0.008158	-0.003579	-0.004964	-0.009775	7412.150288	46762.028112	3895.527133	24684.458826
66.536000	-0.010771	-0.004128	-0.009660	-0.003102	7312.120901	46035.395884	3863.428393	24348.774054
67.036500	-0.009080	-0.004028	-0.007453	-0.008808	7391.630958	46618.561529	3885.682957	24635.498932
67.537000	-0.011636	-0.004700	-0.005423	-0.002944	7301.234292	45962.630969	3874.849747	24340.914052
68.034500	-0.005899	-0.003808	-0.007543	-0.007711	7414.270849	46529.966210	3882.317923	24580.089783
68.537500	-0.009167	-0.003640	-0.011072	-0.000527	7301.790285	45827.651258	3852.371420	24220.637142
69.035000	-0.007822	-0.003387	-0.007521	-0.004778	7361.670710	46277.198335	3874.105785	24432.603351
69.535000	-0.006985	-0.002768	-0.007136	0.001926	7298.900335	45670.908243	3856.473066	24099.241473
70.036000	-0.005460	-0.002104	-0.005847	-0.000358	7339.559785	45963.602369	3866.411074	24212.235350
70.541500	-0.009870	-0.001476	-0.006248	0.006500	7220.312190	45347.473657	3846.302740	23874.710398
71.036000	-0.006033	-0.002883	-0.005068	-0.000507	7335.011985	45900.852278	3869.006532	24219.627486
71.536000	-0.009863	-0.002822	-0.009092	0.005624	7229.546037	45301.362022	3840.907704	23917.540015
72.037000	-0.003457	-0.001772	-0.007064	0.000133	7355.800443	45947.829166	3861.651812	24187.919406
72.536500	-0.009318	-0.002802	-0.007705	0.004234	7249.851972	45439.892210	3848.528842	23985.667219
73.040000	-0.004709	-0.000959	-0.004928	0.000520	7338.185638	45990.147744	3866.523773	24168.704140
73.537000	-0.006432	-0.000999	-0.013957	0.006811	7253.096872	45363.767542	3824.471997	23859.533972
74.035500	-0.004212	-0.001414	-0.007209	0.000285	7346.040742	45968.277836	3860.821970	24180.348290
74.535000	-0.005122	-0.000633	-0.005356	0.005992	7275.545256	45480.321913	3850.155320	23899.543737
75.035500	-0.002560	-0.000660	-0.003729	0.000695	7359.405086	46002.528985	3869.391811	24160.072684
75.535500	-0.004387	-0.000955	-0.005466	0.003751	7307.125805	45669.734419	3856.042102	24009.384892
76.036000	-0.004074	-0.000787	-0.001003	0.000152	7348.962659	46044.073424	3878.580005	24186.959050
76.536500	-0.003547	-0.000248	0.000470	0.000812	7347.529912	46031.978947	3880.874170	24154.277080
77.037000	-0.002427	-0.001293	-0.005060	0.000188	7366.293908	45989.983278	3867.085097	24185.155416
77.539000	-0.005482	0.000096	-0.011507	0.005295	7279.122972	45621.090894	3835.219122	23933.668494
78.037500	-0.003095	-0.000685	-0.006507	0.000274	7358.171455	46042.017666	3862.808853	24180.909175
78.535000	-0.002402	-0.000285	-0.004045	0.000542	7362.742725	46055.260461	3868.934338	24167.630143
79.035000	-0.002556	0.000008	0.001254	0.000895	7357.280967	46049.201275	3882.858126	24150.154378
79.535500	-0.006506	-0.001241	-0.007637	0.002911	7293.535022	45724.631481	3852.362263	24050.712456
80.035500	-0.001887	-0.000633	-0.002313	0.000121	7372.838750	46062.564078	3874.975889	24188.485461
80.536000	-0.003607	-0.000481	-0.004957	0.000412	7351.185891	46048.641536	3866.745418	24174.073807
81.036000	-0.002148	0.000075	-0.004538	0.000879	7361.848531	46057.470963	3866.612286	24150.942070
81.536500	-0.004401	-0.000574	-0.002808	0.004214	7302.052002	45661.656792	3862.136414	23986.650977
82.039500	-0.004007	-0.000203	-0.002381	0.001174	7338.703488	46000.397769	3871.825201	24136.369056
82.537000	-0.003836	-0.001026	0.000168	0.000251	7350.450051	46010.334333	3881.605669	24182.035481
83.037500	-0.002029	-0.000963	-0.003822	0.000374	7368.587399	46004.350751	3870.030063	24175.973905
83.535000	-0.004888	-0.000810	-0.004845	0.004219	7296.815200	45637.781681	3856.465854	23986.388043
84.035000	-0.003794	-0.000420	-0.000595	0.000804	7344.966651	46015.668050	3877.892160	24154.693484
84.535500	-0.006837	-0.001140	-0.007648	0.005927	7258.138659	45436.841596	3844.033742	23902.734328
85.036000	-0.001995	-0.001037	0.000584	0.000964	7362.584322	45938.154463	3880.767186	24146.747628
85.535500	-0.002185	-0.001008	-0.000809	0.000885	7361.400150	45948.964465	3877.061647	24150.692044
86.036000	-0.004119	-0.000740	-0.001738	0.000978	7339.608601	45966.373104	3874.182713	24146.054390
86.539500	-0.006520	-0.001063	-0.002959	0.006003	7260.675931	45436.833265	3856.748349	23898.990643
87.037500	-0.002285	-0.000585	-0.001077	0.001509	7353.594849	45928.954336	3874.547782	24119.804261
87.540000	-0.001831	-0.000944	-0.003470	0.001339	7360.313262	45910.146376	3868.313058	24128.228852
88.034500	-0.004909	-0.001319	-0.002854	0.000926	7331.708931	45913.928812	3871.193869	24148.642738
88.538000	-0.006580	-0.001267	-0.004163	0.006001	7260.062575	45417.006132	3853.421857	23899.110485
89.035500	-0.001949	-0.001300	-0.004287	0.001271	7359.769127	45881.513693	3866.218211	24131.572012
89.539000	-0.005488	-0.000276	-0.002944	0.004555	7286.889239	45657.346275	3860.808440	23969.891675
90.036000	-0.003423	-0.000560	-0.002328	0.001594	7340.469790	45923.004189	3870.796420	24115.632258
90.536000	-0.006873	-0.001667	-0.007215	0.006645	7250.206132	45314.492426	3843.253717	23867.657006
91.039500	-0.004100	-0.000145	-0.001003	0.002232	7326.392038	45900.865535	3872.725671	24084.168071
91.537000	-0.005923	-0.000791	-0.002594	0.004302	7284.964237	45631.521040	3862.487729	23982.318041
92.037000	-0.001851	-0.000384	0.001305	0.002571	7346.844519	45843.285172	3878.265578	24067.423327
92.537500	-0.007237	-0.000755	0.000122	0.006422	7248.714441	45425.932350	3864.147860	23878.519032
93.035000	-0.005451	-0.000857	0.001171	0.002116	7313.210060	45841.581857	3879.171590	24089.875689
93.535000	-0.007873	-0.000553	0.002267	0.005034	7256.628489	45582.720482	3874.037188	23946.419521
94.036000	-0.005169	-0.000080	0.000002	0.003510	7301.361469	45780.345547	3871.958040	24021.215363
94.536000	-0.007806	-0.001427	-0.003964	0.007894	7227.322508	45215.651567	3848.750866	23806.778991
95.036000	-0.003245	-0.000360	-0.003007	0.003899	7317.716210	45714.068691	3862.461358	24002.120542
95.539500	-0.004010	-0.000025	0.002551	0.006525	7281.681193	45487.795948	3870.652014	23873.529047
96.037000	-0.002301	0.000245	0.000228	0.004698	7319.273120	45694.873223	3869.261382	23962.914385
96.537000	-0.008217	-0.000222	0.000679	0.010413	7196.778105	45087.233396	3854.613531	23684.554783
97.037500	-0.004248	-0.000104	0.000396	0.004917	7296.210934	45638.695750	3869.120436	23952.184054
97.534500	-0.003286	0.000505	-0.002065	0.006213	7292.656540	45570.770421	3858.644928	23888.737122
98.035500	-0.003485	0.000267	0.001008	0.005577	7297.289224	45609.977135	3868.981745	23919.822804
98.535500	-0.004185	-0.000885	-0.001864	0.005100	7294.935554	45543.491813	3862.298998	23943.209378
99.035500	-0.002686	0.000388	0.005343	0.006386	7297.184874	45542.122046	3878.894208	23880.286297
99.536000	-0.005069	0.000486	0.000215	0.008868	7245.805519	45307.608563	3857.605164	23759.433945
100.039000	-0.004789	0.000166	0.001684	0.006931	7269.145627	45466.576819	3867.086594	23853.690871
100.536500	-0.005864	-0.000066	-0.001403	0.010143	7224.100732	45128.779575	3849.609110	23697.582942
101.037000	-0.002912	0.000659	0.002167	0.007583	7282.098596	45450.873618	3866.616641	23821.920315
101.537000	-0.004344	0.000432	-0.005229	0.008786	7254.285886	45310.335664	3842.826661	23763.406216
102.037000	-0.004440	-0.000663	0.000071	0.007361	7268.289625	45342.814340	3861.390265	23832.735263
102.535500	-0.005659	-0.000163	-0.002541	0.011094	7216.307833	45026.469263	3843.868456	23651.591467
103.035500	-0.002990	0.000131	0.002455	0.008485	7271.725637	45310.339345	3864.901289	23778.007382
103.535500	-0.005177	0.000396	0.003541	0.010124	7231.502513	45175.870941	3863.359417	23698.535866
104.036000	-0.004803	0.000519	0.008255	0.009411	7242.888740	45257.611878	3878.575942	23733.048905
104.539500	-0.003635	0.000332	0.001612	0.009414	7255.141097	45238.983803	3859.969062	23732.934569
105.039500	-0.006135	-0.000476	0.002032	0.008989	7233.346288	45201.474799	3862.317554	23753.527588
105.537000	-0.006404	0.000770	0.001113	0.011234	7207.097257	45103.908949	3853.541923	23644.859299
106.037000	-0.005596	-0.000025	0.000076	0.009941	7229.030707	45152.587045	3854.249667	23707.398345
106.537000	-0.006794	-0.000054	-0.003125	0.013933	7175.029443	44761.358069	3834.523617	23514.909336
107.035000	-0.006091	-0.000301	0.004640	0.010591	7217.054246	45062.081390	3865.122710	23675.921945
107.535500	-0.005006	-0.000338	0.000005	0.010561	7228.714987	45061.442385	3852.340780	23677.381787
108.035500	-0.003667	0.000010	0.001260	0.011152	7236.544794	45037.780813	3854.175665	23648.818663
108.535500	-0.004225	-0.000004	0.001749	0.011609	7225.918617	44991.839907	3854.263421	23626.750343
109.038500	-0.003538	0.000615	-0.002112	0.011863	7230.450310	45027.452199	3842.938017	23614.501629
109.536000	-0.003667	-0.000324	-0.000434	0.011776	7230.013886	44944.521525	3847.783383	23618.692466
110.036500	-0.003936	-0.000189	0.001660	0.012441	7220.242376	44892.928204	3851.719208	23586.644023
110.537000	-0.007662	0.001278	0.000621	0.017233	7132.134902	44571.132697	3835.734071	23357.096467
111.037500	-0.004871	-0.000138	0.004739	0.012757	7207.197458	44867.213163	3859.368749	23571.420129
111.537500	-0.004764	0.000079	0.003497	0.013635	7199.169128	44803.152174	3853.495032	23529.218119
112.034500	-0.003675	-0.000477	0.002035	0.013085	7216.242515	44802.452761	3850.976520	23555.630746
112.535000	-0.006467	0.000041	0.001351	0.018902	7127.275729	44291.909061	3833.180615	23277.739950
113.035500	-0.005369	-0.000404	0.002052	0.013586	7193.390711	44761.019596	3849.642986	23531.553790
113.539000	-0.006460	0.000475	0.002310	0.015180	7165.591836	44691.766981	3845.966900	23455.107151
114.036000	-0.004955	0.000357	0.002930	0.014609	7187.071814	44735.636034	3849.244109	23482.473245
114.536000	-0.007546	-0.000418	0.001105	0.018161	7123.820646	44318.936318	3834.524822	23312.924390
115.036500	-0.004747	-0.000451	-0.000983	0.014492	7190.446757	44668.904945	3838.837198	23488.103165
115.537000	-0.004355	-0.000191	0.002414	0.015019	7189.040790	44643.057958	3846.694337	23462.822351
116.037000	-0.004931	-0.000091	-0.001633	0.015091	7182.327960	44645.775867	3835.429181	23459.386302
116.537500	-0.009035	-0.000145	-0.000202	0.021460	7075.144031	44030.061397	3822.065202	23156.750068
117.035000	-0.005220	0.000136	0.001523	0.016009	7169.834539	44579.041024	3841.536713	23415.473462
117.535500	-0.007080	0.000205	0.001853	0.016389	7146.760248	44549.113996	3841.401464	23397.341968
118.038500	-0.006409	0.000914	0.004438	0.017187	7145.457397	44540.479486	3846.299814	23359.273941
118.536000	-0.009843	0.000238	0.005068	0.022098	7060.548330	44005.841753	3834.598289	23126.670254
119.036500	-0.006949	0.000156	0.004693	0.017692	7134.738629	44419.063941	3845.613777	23335.245805
119.536500	-0.005853	-0.000392	0.004781	0.017821	7144.649915	44354.020456	3845.498754	23329.091523
120.039500	-0.008401	-0.000516	0.005227	0.016974	7127.212140	44423.406465	3849.053949	23369.433373
120.537500	-0.004004	0.000087	0.007127	0.018169	7160.092181	44366.619064	3850.998226	23312.543837
121.037500	-0.004509	0.000365	0.001314	0.019095	7145.381901	44304.541982	3832.557167	23268.615982
121.537000	-0.007517	0.000289	0.005558	0.019298	7112.509964	44277.783910	3843.578817	23258.955500
122.035000	-0.006352	0.000423	0.004446	0.018912	7128.360838	44327.614297	3841.591934	23277.289491
122.538500	-0.007317	-0.000253	0.003879	0.018837	7119.251549	44269.991600	3840.244733	23280.815273
123.036000	-0.006405	0.000352	0.003896	0.019936	7117.337762	44222.762647	3837.292916	23228.726723
123.535500	-0.006613	0.000041	0.009596	0.019635	7118.296435	44221.807489	3853.767320	23242.981301
124.036500	-0.005980	0.000376	0.007014	0.020065	7120.368823	44212.787045	3845.471333	23222.649023
124.536500	-0.006331	0.000137	0.006224	0.020205	7115.361177	44176.593499	3842.920579	23216.034353
125.037000	-0.006717	0.000065	0.005879	0.021383	7099.433721	44057.401456	3838.755983	23160.376981
125.537500	-0.007208	0.000066	0.007615	0.020952	7098.814188	44098.490032	3844.686264	23180.705561
126.035000	-0.005063	0.000401	0.007249	0.021703	7113.011163	44058.929189	3841.626568	23145.291726
126.535000	-0.007743	-0.001146	0.003087	0.020791	7095.020064	43998.464546	3832.765058	23188.319899
127.037500	-0.008407	0.000210	0.001203	0.023037	7065.551133	43913.873404	3821.601791	23082.463702
127.536000	-0.007393	0.000117	0.007151	0.022691	7079.301061	43938.021344	3838.658828	23098.764364
128.036000	-0.007914	-0.000680	0.008235	0.022014	7080.874720	43926.531741	3843.472418	23130.594875
128.536500	-0.010292	-0.000394	0.000828	0.026762	7009.325007	43505.188364	3810.623485	22908.147338
129.036000	-0.009188	-0.000138	0.003381	0.024132	7046.672757	43777.259941	3824.520385	23031.087253
129.536500	-0.006769	-0.001025	0.004056	0.022946	7083.039304	43805.547999	3829.548854	23086.758854
130.037000	-0.007534	0.000659	0.003385	0.023745	7067.224548	43889.380144	3825.572990	23049.221962
130.537000	-0.006915	-0.000204	0.004794	0.023310	7077.866338	43848.737432	3830.561196	23069.635428
131.035000	-0.008635	0.000182	0.000590	0.025721	7036.267288	43657.326883	3812.764396	22956.687033
131.538000	-0.006780	0.000696	0.007981	0.024810	7064.077675	43791.919544	3835.143071	22999.300483
132.035500	-0.008388	0.000590	0.005737	0.024335	7052.674698	43826.906654	3830.341651	23021.578226
132.535500	-0.010596	0.000635	0.004778	0.029641	6977.734774	43331.847250	3813.482658	22774.443006
133.036000	-0.010794	-0.000468	0.007976	0.027014	7001.816602	43474.532644	3829.148927	22896.390776
133.536500	-0.005805	0.000100	0.002779	0.025600	7065.952281	43661.000976	3818.947874	22962.350253
134.037000	-0.007482	-0.000391	0.005572	0.024970	7055.398882	43674.138064	3828.173181	22991.802314
134.537000	-0.010812	0.000007	0.004385	0.030517	6966.941152	43191.310816	3810.094850	22733.895314
135.040000	-0.010183	0.000116	0.000077	0.029036	6987.802685	43339.776928	3802.590834	22802.430084
135.537500	-0.007234	0.000575	0.005167	0.026441	7043.111396	43626.545534	3823.109028	22923.113744
136.038000	-0.007356	0.000520	0.007173	0.026201	7044.295123	43644.049005	3829.176951	22934.309695
136.538000	-0.009284	0.000849	0.002501	0.030727	6979.974163	43250.331589	3804.533838	22724.226858
137.036000	-0.008708	0.000308	0.000091	0.029994	6992.936421	43268.247160	3800.097488	22758.104171
137.536000	-0.009483	-0.000185	0.005537	0.026764	7017.368604	43524.653402	3823.235842	22908.059803
138.036000	-0.006071	0.001136	0.002140	0.027582	7043.321727	43571.951825	3811.937033	22869.964402
138.536500	-0.010707	-0.000405	0.002361	0.029883	6974.237002	43211.998092	3806.399157	22763.203504
139.037000	-0.010621	-0.000808	0.006489	0.030386	6970.127454	43127.632099	3816.065567	22739.986249
139.537000	-0.006050	0.000419	0.006790	0.028303	7036.310125	43436.876441	3822.466111	22836.477052
140.037500	-0.007865	0.000204	0.005522	0.027630	7024.873303	43479.802219	3820.864128	22867.717075
140.535000	-0.009650	0.000009	0.003286	0.030669	6976.927737	43177.408012	3806.770992	22726.907674
141.037500	-0.005859	0.000715	0.007897	0.028760	7033.635793	43421.725160	3824.216097	22815.227495
141.535000	-0.007495	0.000228	0.004770	0.028985	7015.036723	43355.057115	3815.214087	22804.812109
142.035500	-0.009261	-0.000724	0.000299	0.027994	7007.320259	43358.757301	3805.942200	22850.826206
142.536000	-0.013388	-0.000220	0.004988	0.032820	6919.101517	42956.169789	3805.578112	22627.803075
143.036000	-0.006290	0.000137	0.004644	0.029190	7025.021825	43327.390010	3814.328956	22795.308344
143.536500	-0.006387	0.000168	0.005646	0.029264	7023.313281	43323.335660	3816.811181	22791.877527
144.037000	-0.007841	0.000225	0.004257	0.029470	7006.760165	43309.475575	3812.548156	22782.351384
144.537500	-0.009302	0.000439	0.001400	0.034378	6943.823382	42872.900972	3792.003609	22556.313396
145.040500	-0.007383	0.000429	0.001280	0.030028	7005.769031	43276.341011	3803.150127	22756.521417
145.535000	-0.007456	0.001037	0.009103	0.031006	6995.322306	43241.844535	3821.416656	22711.348229
146.035500	-0.006030	0.000755	0.005041	0.031332	7006.248392	43185.017729	3809.671253	22696.280060
146.535000	-0.005656	0.001056	0.008349	0.031031	7012.970758	43241.139372	3819.323014	22710.158210
147.038500	-0.010507	-0.000652	0.003048	0.035851	6917.638829	42636.514966	3792.462975	22489.003534
147.536500	-0.007642	0.000344	0.005772	0.031399	6989.579808	43140.579928	3811.444461	22693.220768
148.036000	-0.005061	0.000249	0.006563	0.031359	7015.632539	43135.353126	3813.658617	22695.031322
148.536500	-0.005576	0.001412	0.005246	0.032515	6999.004965	43136.066675	3807.072869	22641.815893
149.037000	-0.009459	0.000829	0.001564	0.037898	6907.909169	42584.420409	3783.238719	22395.799494
149.540500	-0.004487	0.001487	0.002766	0.033284	7002.182323	43071.492896	3798.473421	22606.486918
150.040500	-0.005493	0.000985	0.002866	0.033006	6994.957276	43050.707584	3799.470959	22619.270374
150.535000	-0.005396	0.001539	0.000204	0.035678	6969.465875	42854.401053	3785.478867	22496.892062
151.035500	-0.009193	0.000774	0.002968	0.038199	6907.569090	42551.794259	3786.110733	22382.136602
151.535500	-0.004589	0.001706	0.009394	0.034174	6992.328499	43009.201213	3813.702495	22565.672833
152.036000	-0.005649	0.000905	0.002582	0.033884	6984.698698	42961.800286	3796.408250	22578.981766
152.536000	-0.008671	0.000752	0.000496	0.038464	6910.072963	42525.428438	3778.996505	22370.118399
153.036500	-0.007879	0.001249	-0.001099	0.039311	6909.536090	42493.366843	3772.681686	22331.721648
153.537000	-0.002189	0.001997	0.001334	0.035564	7002.358514	42907.354510	3788.725642	22502.089302
154.040000	-0.006349	0.001168	0.008635	0.034670	6970.012184	42913.414484	3810.356620	22542.983437
154.537500	-0.006543	0.001395	0.005814	0.039588	6919.858109	42481.415994	3789.919503	22319.205402
155.035000	-0.007061	0.002023	0.005618	0.040993	6901.143422	42410.250261	3785.736574	22255.732839
155.535500	-0.004899	0.001661	0.006352	0.035073	6980.356485	42921.676958	3803.221650	22524.529360
156.035500	-0.003021	0.002203	0.004883	0.035247	6997.238612	42955.720299	3798.876964	22516.562325
156.536000	-0.002595	0.002232	0.002972	0.035717	6996.801842	42914.924492	3792.612855	22495.090925
157.036500	-0.005190	0.002628	0.001420	0.041525	6914.156670	42416.961051	3773.470886	22231.754729
157.536500	-0.002361	0.002213	0.005306	0.035695	6999.345883	42915.194758	3798.812343	22496.096579
158.037000	-0.002103	0.002853	0.008350	0.036091	6997.983692	42937.838072	3805.818760	22478.048053
158.540000	-0.002666	0.003848	0.009398	0.037176	6981.642736	42929.406828	3805.719213	22428.612976
159.036500	-0.005105	0.002549	0.004616	0.041757	6912.720959	42388.505799	3781.140411	22221.281978
159.534500	-0.000164	0.004091	0.006978	0.036925	7008.978901	42975.306627	3799.980143	22440.059075
160.035000	-0.001852	0.003433	0.010252	0.036946	6991.981849	42912.288396	3808.600385	22439.081427
160.535000	-0.000718	0.003775	0.005846	0.037019	7002.519536	42937.226551	3796.744625	22435.750870
161.035000	-0.004644	0.003328	0.008371	0.042740	6907.650812	42369.837916	3788.361777	22177.089959
161.536000	0.000540	0.003395	0.008242	0.036523	7019.996195	42947.977756	3804.387108	22458.344252
162.036500	0.001168	0.004013	0.007861	0.036874	7022.758028	42972.656248	3802.447856	22442.346645
162.536500	0.001030	0.003665	0.006413	0.036407	7026.051794	42983.756896	3799.854361	22463.635070
163.039500	-0.003182	0.004226	0.004665	0.042728	6922.013404	42453.055097	3778.749918	22177.638716
163.537000	0.001555	0.004315	0.007176	0.036761	7027.764636	43011.212952	3800.933940	22447.494287
164.037500	-0.000278	0.004331	0.010230	0.036820	7008.882604	43007.301352	3808.878301	22444.834588
164.535000	0.000550	0.003375	0.004235	0.039139	6994.057746	42704.388238	3786.964690	22339.492411
165.035000	-0.001329	0.004047	0.002189	0.042567	6941.714728	42451.470070	3772.765913	22184.878854
165.535500	0.001413	0.003772	0.009226	0.036022	7033.743405	43029.419974	3808.331196	22481.205709
166.035500	-0.000111	0.002956	0.005498	0.035456	7024.149173	43006.147083	3799.949106	22507.014796
166.535500	-0.000859	0.003447	0.001743	0.039689	6974.664187	42660.479341	3779.052777	22314.635792
167.036500	-0.002225	0.003153	0.000978	0.041150	6946.819362	42499.353684	3773.296492	22248.635408
167.539500	0.001280	0.004191	0.005189	0.035887	7033.763613	43080.853040	3797.997374	22487.347748
168.037000	0.001154	0.003744	0.003818	0.035291	7038.469818	43094.763919	3795.958730	22514.574600
168.537500	0.000910	0.004606	0.003007	0.039388	6995.155700	42794.989805	3783.115726	22328.216776
169.037500	-0.001100	0.003818	0.004234	0.041556	6953.883536	42523.077695	3780.669787	22230.333541
169.535000	0.002241	0.004296	0.003764	0.035506	7047.224007	43126.110976	3795.250383	22504.757784
170.035500	0.002275	0.004363	0.002217	0.035570	7046.920194	43126.338743	3791.019446	22501.813194
170.536000	-0.001604	0.004612	0.000634	0.040445	6959.852274	42698.076419	3774.228739	22280.451568
171.036000	0.003759	0.005116	0.008556	0.036146	7056.050086	43142.849610	3806.220185	22475.533821
171.536000	0.003383	0.004396	0.004032	0.035129	7062.509401	43170.464731	3796.945750	22521.960358
172.039000	0.003762	0.004229	0.008856	0.035089	7066.735997	43158.662638	3809.828656	22523.798523
172.536500	0.001528	0.004860	0.001045	0.040290	6992.341988	42735.240871	3775.690670	22287.460745
173.037000	0.000974	0.004705	0.005248	0.035150	7038.082010	43197.350392	3800.097420	22521.011100
173.537500	0.003562	0.004753	0.004272	0.035441	7061.174088	43174.757139	3796.757690	22507.731886
174.037500	0.005723	0.004815	0.005765	0.035189	7085.557999	43203.944525	3801.360394	22519.205060
174.535000	-0.001776	0.002915	-0.000797	0.038145	6980.854374	42753.681574	3776.473776	22384.585197
175.035000	0.002483	0.004850	0.006768	0.035017	7054.574700	43223.281224	3804.470733	22527.081551
175.536000	0.003770	0.004774	0.010539	0.035061	7067.102411	43212.097299	3814.393335	22525.091177
176.036000	0.004314	0.005088	0.003729	0.035533	7067.830395	43197.369069	3795.087421	22503.512086
176.538500	0.001721	0.004927	0.003399	0.038623	7010.837103	42895.368248	3786.128773	22362.896942
177.037000	0.000666	0.003912	0.003750	0.039199	6994.618482	42748.388414	3785.542730	22336.796976
177.537000	0.003198	0.004342	0.000103	0.035074	7061.197854	43170.550260	3786.790160	22524.464417
178.037000	0.003433	0.003931	0.007177	0.034246	7071.930110	43209.487515	3807.603828	22562.364203
178.535000	0.002934	0.004676	0.001932	0.039995	7009.248770	42745.505380	3778.748868	22300.795997
179.035000	-0.001444	0.004693	0.003096	0.040530	6960.598243	42697.778596	3780.380596	22276.616048
179.535000	0.002582	0.004020	0.004409	0.034100	7064.814997	43231.459231	3800.656781	22569.076063
180.035500	0.001772	0.004445	0.004994	0.034603	7051.586378	43224.161290	3800.872779	22546.021549
180.536000	0.003361	0.004745	0.009689	0.034558	7068.049818	43256.400810	3813.467251	22548.106707
181.039000	0.000714	0.003475	-0.000335	0.038622	7000.824579	42761.343787	3776.433582	22362.951207
181.536500	0.004182	0.004804	0.006275	0.034863	7073.262805	43233.350522	3803.572518	22534.140572
182.036500	0.003455	0.005130	0.009350	0.034913	7065.416644	43259.152227	3811.615842	22531.866657
182.537000	0.004464	0.004440	0.004615	0.034678	7077.990749	43216.661731	3799.673290	22542.608574
183.037500	-0.001443	0.003084	0.004727	0.037703	6988.538031	42810.072183	3792.009995	22404.675117
183.535000	0.003163	0.004564	0.007240	0.034371	7067.938402	43256.830800	3807.437113	22556.636460
184.035000	0.003465	0.004622	0.004244	0.034439	7070.299829	43255.999788	3799.325571	22553.550460
184.535500	0.004523	0.004514	-0.001510	0.034265	7082.764346	43262.191251	3784.695537	22561.515028
185.036000	0.000772	0.004110	0.001490	0.039078	6996.862169	42777.820413	3779.977879	22342.254653
185.539000	0.003472	0.004578	0.009176	0.034615	7068.594398	43235.387329	3811.943488	22545.458259
186.036000	0.006146	0.004861	0.007004	0.034404	7097.822807	43281.625454	3806.724927	22555.154477
186.550500	0.004097	0.004446	0.009341	0.034337	7077.715741	43249.008148	3813.124645	22558.189672
187.036500	0.001694	0.004563	0.002676	0.039076	7006.057823	42819.839007	3783.065686	22342.362373
187.534000	0.003112	0.004792	0.001222	0.034420	7066.931704	43273.636780	3791.426517	22554.404867
188.037500	0.003272	0.005378	0.006509	0.034928	7063.416590	43280.878488	3804.019628	22531.136057
188.538000	0.002773	0.004563	0.008369	0.035591	7051.719040	43143.078896	3807.197135	22500.878890
189.035000	-0.001007	0.003887	0.000650	0.038391	6986.033319	42820.691772	3779.582462	22373.410302
