sample name	sample
index	1341
start time	 05-03-2021  12:39:50 PM
880	0.036040
Peak Time (s)	90.037
Peak Height 	0.03604
calc peak height	90,93
Baseline Time (s)	11.536
Baseline Value 	-0.005199
subtract baseline	10,4
Abs	0.016712
Peak Time (s)	92.535
Peak Height 	0.01671
calc peak height	90,93
Baseline Time (s)	11.536
Baseline Value 	0.003429
subtract baseline	10,3
PK_550	0.025145
Peak Time (s)	92.535
Peak Height 	0.02515
calc peak height	90,93
Baseline Time (s)	10.037
Baseline Value 	6.1591E-4
subtract baseline	10,2
PK_880	0.017881
Peak Time (s)	90.537
Peak Height 	0.01788
calc peak height	90,93
Baseline Time (s)	8.536
Baseline Value 	0.00241
subtract baseline	10,1


Time (s)	A880-A510	A880-A775	A880-A975	A880	I510	I775	I975	I880	
0.034000	0.000181	-0.000363	-0.006813	0.001083	6126.082967	42662.781616	3878.581589	22106.057262
0.537500	-0.002444	0.000257	-0.005216	0.007117	6063.359727	42171.079457	3868.889702	21841.616688
1.037000	-0.002880	-0.000973	-0.003726	0.003146	6088.812590	42419.240566	3880.832702	22015.229710
1.535000	0.000411	-0.000274	-0.002954	0.001103	6127.623473	42669.106033	3887.047217	22105.195875
2.035500	-0.000984	-0.000891	-0.000623	0.000523	6121.653598	42665.669064	3893.516513	22130.771417
2.536000	-0.002790	-0.000236	-0.003682	0.006773	6063.346585	42157.653774	3872.979694	21856.608031
3.036500	0.000688	-0.000558	0.002743	-0.001776	6150.801373	42907.019772	3906.232238	22232.648187
3.536000	-0.000789	0.000299	-0.000215	0.000589	6122.602685	42768.559256	3894.280305	22127.868484
4.037000	-0.002256	0.000233	-0.002102	0.000226	6114.540411	42795.768484	3890.884700	22143.916324
4.536500	0.000957	-0.000038	-0.004668	0.001624	6127.801442	42643.085844	3882.108380	22082.194963
5.037000	-0.002577	0.000253	0.002196	0.000397	6110.953160	42781.880274	3900.104206	22136.339702
5.534500	0.000600	0.000431	-0.001108	0.000286	6134.983010	42808.443997	3892.963159	22141.248981
6.035000	-0.000190	-0.000195	0.001757	0.000267	6129.334389	42752.795538	3899.412987	22142.094276
6.538000	-0.000862	-0.000659	0.001983	-0.000310	6128.648896	42763.174159	3901.217816	22167.651106
7.035500	-0.001799	-0.000463	-0.003697	0.000184	6118.182110	42735.910785	3887.438279	22145.783756
7.535500	0.001625	-0.000550	0.002101	0.000068	6144.121301	42738.548805	3900.630293	22150.899778
8.036500	0.001341	0.000346	-0.002503	0.000515	6138.749910	42779.688321	3889.351607	22131.140323
8.536000	0.000000	0.000642	0.001018	0.000579	6128.441331	42800.843728	3897.057575	22128.294755
9.036500	-0.000501	0.000229	-0.001776	0.000354	6126.419784	42783.644197	3891.324443	22138.239922
9.536500	0.000235	-0.000399	-0.003157	-0.000277	6136.446785	42784.004386	3889.657926	22166.189492
10.037500	0.000528	0.000000	0.005846	0.000218	6134.958157	42775.127534	3908.740474	22144.254488
10.535000	0.000140	-0.000541	0.000359	-0.000576	6137.944997	42798.424119	3898.169843	22179.426410
11.037500	-0.000000	-0.000707	-0.000396	-0.001091	6140.689340	42830.385555	3897.629261	22202.225269
11.535500	-0.002461	0.000438	0.000000	0.000000	6114.697728	42835.317224	3896.075598	22153.913252
12.038500	-0.001320	-0.000167	-0.000519	-0.000188	6124.401745	42797.114099	3895.335768	22162.233344
12.535500	-0.004853	-0.000694	-0.000003	0.001662	6085.281615	42579.753255	3892.360144	22080.538032
13.036500	0.001945	0.000468	-0.000784	-0.002186	6163.115491	43039.258008	3899.215992	22250.865314
13.536500	0.001568	0.000250	0.001288	-0.000865	6150.566633	42897.493898	3900.899413	22192.200090
14.036500	0.000320	0.000558	-0.000953	-0.000412	6138.055376	42884.145303	3894.865212	22172.128126
14.537000	0.000920	0.000188	-0.001014	0.002224	6123.140594	42608.868332	3888.862271	22055.764318
15.038000	0.001744	0.000450	0.000989	-0.000284	6147.587847	42862.492999	3898.926130	22166.485061
15.565000	-0.000803	0.000191	0.001896	-0.000913	6133.489689	42896.429791	3902.374943	22194.336656
16.035000	-0.001055	-0.000023	0.000765	-0.001232	6133.985552	42906.189456	3900.552074	22208.504449
16.536000	-0.001957	-0.000014	-0.005092	0.003224	6094.926540	42499.312686	3877.658569	22011.800008
17.036000	-0.000223	0.000391	-0.003735	-0.000843	6137.234454	42908.365735	3889.629679	22191.221114
17.537000	0.002303	0.000935	0.004008	-0.003469	6175.282964	43200.957522	3912.936915	22307.983972
18.036500	-0.000032	0.000483	0.000566	-0.000435	6135.639203	42879.387200	3898.314852	22173.146237
18.539000	-0.000859	0.000792	0.002168	0.002008	6111.735444	42683.785758	3896.432784	22065.285406
19.037000	0.000147	-0.000017	-0.004602	0.000173	6132.501569	42777.807375	3885.459746	22146.277949
19.537500	0.001328	-0.000667	0.000403	-0.000196	6143.881719	42751.993475	3897.416792	22162.585080
20.034500	-0.000216	0.000444	0.004159	0.000568	6126.948059	42783.791085	3904.137770	22128.802970
20.537500	0.000101	-0.000720	0.003931	0.000495	6129.800310	42683.921935	3903.788933	22132.023157
21.035500	-0.002724	-0.000321	-0.001451	0.000146	6111.714297	42752.345626	3892.510179	22147.445468
21.535000	0.000462	-0.000088	0.000733	0.000278	6134.031255	42761.594130	3897.093948	22141.609499
22.036000	-0.000496	0.000455	0.002312	0.000507	6125.343915	42790.362696	3900.119388	22131.506165
22.536000	-0.000595	-0.000300	0.001943	0.001144	6119.963977	42662.978785	3897.865107	22103.384328
23.036500	-0.002581	-0.000262	-0.000807	0.000722	6108.569647	42705.058519	3892.662711	22122.010404
23.536500	-0.000666	-0.000158	0.003214	0.000493	6124.200702	42735.522214	3902.177794	22132.125494
24.037000	-0.001702	0.000489	-0.001835	0.000869	6113.895384	42760.270836	3890.048162	22115.495030
24.537500	-0.003873	-0.000304	-0.004674	0.000884	6098.004143	42686.349693	3883.727335	22114.845046
25.037500	-0.001267	-0.000135	0.005176	0.000850	6117.209258	42704.949222	3905.796403	22116.359336
25.535000	0.000368	-0.000265	-0.000598	0.000773	6129.716514	42700.069665	3893.014250	22119.744189
26.038000	-0.002943	-0.000068	-0.000651	0.000553	6107.158887	42738.183964	3893.385930	22129.449642
26.536000	-0.000355	0.000610	0.002642	0.001659	6117.959525	42699.085026	3898.275552	22080.661601
27.036000	-0.001911	0.000318	0.007009	0.001133	6110.445439	42720.498046	3909.300507	22103.838905
27.536500	-0.000887	0.000019	0.000286	0.000149	6125.099640	42783.294536	3896.383638	22147.335975
28.036500	0.000038	-0.000388	-0.000596	-0.003384	6157.865349	43070.730054	3902.328276	22304.182325
28.536500	0.001249	0.000650	0.005811	0.000626	6137.254069	42797.285286	3907.737600	22126.224307
29.037000	0.001372	-0.000018	-0.003871	-0.000560	6146.881850	42844.895320	3888.701632	22178.704295
29.537500	-0.000046	0.000214	0.001553	-0.000545	6136.348412	42864.829240	3900.776644	22178.040264
30.037500	-0.000761	0.000666	0.006185	-0.000309	6129.374459	42884.661500	3910.703688	22167.591700
30.535000	-0.002343	0.000024	-0.004801	0.004225	6084.894994	42411.791178	3876.103408	21967.899526
31.036000	-0.001381	0.000326	-0.002479	0.000446	6119.324977	42784.138896	3889.559498	22134.201570
31.535500	-0.003678	0.001010	-0.000989	0.002362	6088.709524	42671.319135	3888.612155	22049.688117
32.036000	-0.002455	0.000780	0.000645	-0.000746	6120.182708	42935.307628	3899.190447	22186.931827
32.540000	-0.002861	-0.000340	-0.004271	-0.000496	6115.399327	42809.499461	3887.672697	22175.888476
33.036500	-0.000995	0.000600	-0.000342	-0.000402	6128.343453	42887.121447	3896.209487	22171.696951
33.537000	-0.001148	-0.000009	-0.001336	-0.000766	6129.886528	42864.665598	3894.801573	22187.839781
34.037500	0.000001	0.000476	0.006691	-0.001151	6141.138315	42944.516617	3913.766912	22204.881690
34.537500	0.002221	0.000736	0.001780	-0.000822	6155.074067	42938.261635	3901.911376	22190.317673
35.035000	-0.002445	-0.000535	-0.004720	0.000325	6112.446184	42716.349853	3884.862514	22139.545636
35.535500	-0.000480	0.000088	0.005251	0.000712	6123.960874	42737.971762	3906.276719	22122.450905
36.038500	-0.001179	-0.000030	-0.002147	0.000904	6117.459512	42709.638807	3889.279326	22113.983749
36.536000	-0.002531	-0.000258	0.001094	0.000753	6108.706459	42702.548070	3896.837824	22120.631689
37.036000	-0.000654	0.000025	0.000181	0.000724	6122.600560	42731.121407	3894.862733	22121.911710
37.537000	-0.000843	0.000842	0.003941	0.001370	6116.501136	42746.768743	3901.839922	22093.387905
38.037000	-0.000955	0.000975	-0.002158	0.001520	6114.596638	42745.238647	3887.886905	22086.804244
38.536500	-0.003107	-0.000119	0.001239	0.001273	6100.741767	42667.781914	3895.999789	22097.695842
39.037500	0.000179	0.000317	0.001990	0.000639	6129.320999	42765.671113	3899.100815	22125.680630
39.535000	0.000324	0.000357	0.000472	0.001351	6125.171084	42704.109641	3894.112385	22094.254616
40.038000	-0.002822	-0.000642	-0.000593	0.000464	6108.691834	42693.904166	3893.716365	22133.406690
40.536000	-0.002060	-0.000705	-0.001011	0.000218	6116.026716	42710.565528	3893.330484	22144.250638
41.036000	-0.000441	-0.000002	-0.002334	0.000728	6124.130888	42728.295557	3889.254315	22121.731494
41.536500	-0.000514	0.000462	-0.002090	0.000932	6122.102721	42752.088013	3889.343568	22112.728031
42.036500	-0.001087	0.000309	0.002997	0.000723	6119.439160	42757.156720	3901.172440	22121.936647
42.536500	-0.001728	-0.000310	0.001229	0.000852	6113.826607	42688.706112	3896.917541	22116.246023
43.037000	0.000511	0.000004	-0.004210	0.001270	6127.129092	42679.238338	3883.899989	22097.803709
43.537500	-0.000482	0.000501	0.002915	0.001452	6118.536171	42708.040339	3899.351602	22089.766858
44.036000	-0.001312	-0.000299	-0.007538	0.000452	6119.779733	42726.285887	3878.374214	22133.908735
44.540500	-0.000781	0.000739	-0.001847	0.001652	6114.898276	42711.535354	3888.283441	22080.955398
45.036000	-0.000972	0.000177	-0.000719	-0.001600	6137.294337	42958.395947	3898.048658	22224.844039
45.573500	0.000026	0.000885	0.004649	-0.000554	6136.939782	42927.240144	3907.777347	22178.416845
46.036000	0.001712	0.001269	-0.000984	-0.000280	6147.329194	42937.434120	3894.502845	22166.319408
46.536500	-0.002697	-0.000289	-0.001264	0.003842	6085.111551	42418.190100	3884.727799	21984.701995
47.036500	0.000544	-0.000052	-0.003672	-0.001121	6144.911836	42893.269221	3890.387463	22203.557241
47.537000	0.001646	-0.000026	0.001692	-0.000877	6151.232116	42873.199527	3901.834809	22192.727644
48.040000	0.001421	0.000578	-0.001354	0.001411	6132.759926	42718.847851	3889.913758	22091.580536
48.537000	-0.002207	-0.000262	-0.002817	0.001725	6103.993485	42613.370360	3885.972906	22077.754940
49.035500	0.000562	0.000469	0.000361	-0.000506	6140.523180	42884.606531	3898.016347	22176.302443
49.535000	0.000448	-0.000354	-0.002491	-0.001328	6145.731819	42884.517816	3893.478040	22212.757219
50.035000	0.000958	0.000574	-0.000507	-0.000121	6140.608508	42858.908117	3895.214738	22159.283309
50.536000	0.000023	-0.000792	-0.002322	0.002785	6112.498607	42468.530403	3884.723221	22031.090261
51.036000	0.001132	0.000825	-0.001096	0.000227	6139.327643	42849.992885	3893.122817	22143.868161
51.536000	0.012220	-0.005659	0.003931	0.019703	6078.295359	40536.423652	3861.443990	21301.744078
52.036500	0.019097	-0.017736	-0.008810	0.383783	4323.789913	18774.010214	3318.299017	10881.032233
52.539500	-0.001358	-0.020159	-0.021022	-0.070998	6686.411078	47739.993628	4014.491151	25566.049770
53.037000	-0.004336	-0.030384	-0.010057	-0.123558	7138.423709	52323.162588	4186.085547	28476.777174
53.534500	-0.023266	-0.034881	-0.026262	-0.162391	7334.880509	56382.826653	4253.527255	30865.250290
54.035000	-0.019823	-0.056394	-0.026877	-0.239659	8230.634696	63698.508682	4509.958871	36302.709731
54.535000	-0.005054	-0.067749	-0.017050	-0.257672	8644.746943	64636.634647	4614.882787	37715.545593
55.035500	0.005254	-0.058054	-0.009854	-0.240499	8555.434100	63584.076317	4576.506048	36367.342954
55.536000	0.003619	-0.032755	-0.011815	-0.187932	7897.619012	59895.763522	4381.653009	32556.720144
56.036500	-0.000690	-0.022756	-0.011201	-0.149104	7429.699231	56240.174236	4258.964516	30023.878223
56.536500	-0.002769	-0.015273	-0.008579	-0.137221	7287.946728	55703.291778	4230.823308	29292.901941
57.037000	-0.001394	-0.008780	-0.013843	-0.127553	7205.882847	55319.181938	4186.693589	28712.776849
57.537000	-0.004184	-0.005561	-0.016387	-0.109621	7007.528071	53575.748418	4128.592744	27670.347671
58.037000	0.001325	-0.006422	-0.013994	-0.123257	7190.441174	55086.092294	4173.838707	28459.064023
58.535000	-0.001509	-0.003952	-0.018446	-0.113193	7066.326006	54182.843520	4132.791011	27874.549744
59.035500	0.007190	-0.005461	-0.003456	-0.127050	7285.826167	55659.622751	4215.733528	28682.914158
59.535500	0.010486	-0.002281	-0.007724	-0.098207	7038.071239	52636.813706	4120.990610	27028.863936
60.036000	0.010002	0.000856	-0.005347	-0.069992	6776.594103	49850.592030	4051.916640	25513.724971
60.536500	0.013301	0.001500	-0.000979	-0.053334	6660.638642	48153.593437	4020.475535	24664.308744
61.036500	0.011132	0.003544	-0.000806	-0.039755	6528.460311	46969.539442	3987.179560	23995.603213
61.537000	0.010447	0.003352	0.003339	-0.020386	6366.935830	45032.095274	3950.593604	23077.251599
62.037000	0.013497	0.004069	0.000823	0.003095	6209.864286	42884.601367	3891.010016	22017.501187
62.540000	0.014230	0.004757	0.001005	0.014976	6127.219163	41869.191686	3865.336608	21502.676986
63.037000	0.011384	0.013025	0.000947	0.034343	5968.753906	40887.833385	3824.210090	20693.163858
63.535000	0.010441	0.015562	-0.001149	0.036217	5949.222744	40945.731311	3816.026646	20616.703708
64.035500	0.010535	0.017325	-0.004148	0.035206	5956.870185	41189.069936	3811.959497	20657.929514
64.538500	0.010925	0.017631	0.002624	0.026444	6020.929478	41995.355721	3844.255318	21018.986782
65.035500	0.012204	0.020002	-0.005710	0.022092	6061.020435	42603.925676	3835.864810	21201.029413
65.536000	0.013527	0.021786	0.003862	0.017905	6100.755404	43152.541891	3865.180256	21377.921705
66.036500	0.009109	0.021412	-0.000006	0.017441	6072.190006	43160.870942	3857.841079	21397.643286
66.539500	0.011090	0.022115	0.000982	0.010006	6140.636967	43920.916515	3876.107316	21716.305815
67.040000	0.010461	0.022309	0.004770	0.006281	6163.479483	44292.068089	3892.703197	21878.058137
67.892500	0.007344	0.022371	-0.001667	0.000919	6180.136801	44811.263640	3890.310827	22113.290658
68.339500	0.007797	0.022997	-0.007909	0.003399	6165.090890	44633.032733	3871.118215	22004.113351
68.535500	0.008432	0.021928	-0.001249	-0.000787	6200.989589	44933.133802	3895.041550	22188.746888
69.035500	0.010867	0.021961	0.008782	-0.007208	6267.986758	45561.333811	3932.491001	22475.448784
69.536000	0.012569	0.022155	0.000908	-0.009432	6298.132782	45799.060946	3919.471056	22575.753483
70.036000	0.007165	0.023160	0.000105	-0.005815	6229.272469	45542.205396	3909.401638	22412.871152
70.536500	0.006906	0.022697	-0.002466	-0.006855	6235.177619	45598.824852	3905.937884	22459.561012
71.039500	0.010218	0.023096	0.000451	-0.010473	6288.037993	45994.841888	3920.807361	22622.838897
71.534000	0.009380	0.023338	-0.002592	-0.009801	6276.448993	45952.382116	3912.327600	22592.430872
72.037000	0.004172	0.022217	-0.000219	-0.005213	6202.235374	45391.172054	3907.305741	22385.918728
72.534500	0.007595	0.022986	-0.006982	-0.004611	6223.430612	45407.406100	3890.788819	22358.972413
73.035000	0.010525	0.022371	0.002190	-0.007235	6265.577553	45604.141486	3917.378464	22476.652161
73.535500	0.006021	0.022701	0.001029	-0.006286	6224.192786	45543.402457	3912.567577	22434.006855
74.036000	0.006159	0.022321	0.001446	0.000468	6174.683492	44850.011745	3898.265035	22133.241214
74.536000	0.005475	0.022602	-0.001838	0.001837	6159.474187	44745.241944	3887.895168	22072.833479
75.036000	0.009561	0.023055	0.002467	-0.000135	6204.563352	44979.057295	3901.909500	22159.878663
75.539000	0.008067	0.023006	0.002115	0.001560	6180.749268	44810.763538	3897.316866	22085.036735
76.037000	0.005070	0.024112	-0.001333	0.010043	6096.439526	44106.210748	3870.972379	21714.740360
76.536500	0.009153	0.023543	0.003503	0.006170	6154.633196	44420.227219	3890.132011	21882.891161
77.037500	0.010315	0.023419	-0.001662	0.007734	6151.660833	44259.483815	3875.294154	21814.792706
77.535000	0.008721	0.022996	0.004663	0.009039	6130.351610	44095.459138	3886.339697	21758.155250
78.035500	0.007216	0.022213	0.003356	0.015666	6071.339439	43399.907621	3868.940414	21473.225376
78.535500	0.010867	0.023844	0.003670	0.012754	6118.885341	43825.033892	3875.977558	21597.914088
79.036000	0.008827	0.023087	0.000044	0.013175	6100.973740	43714.340641	3867.156396	21579.829015
79.536000	0.010295	0.022585	0.001688	0.014077	6105.083535	43582.811010	3868.767915	21541.145417
80.036500	0.005050	0.022994	-0.000134	0.020331	6022.615591	43040.075360	3851.382386	21275.242412
80.536500	0.007798	0.023184	0.005165	0.020069	6043.989539	43081.783899	3863.319447	21286.302550
81.037000	0.012733	0.023188	0.000335	0.017304	6099.357095	43338.294110	3858.869120	21403.466201
81.537500	0.012650	0.024607	0.005422	0.019157	6085.340658	43297.984965	3865.849234	21324.870363
82.037500	0.009390	0.024728	0.002408	0.025976	6013.394887	42680.968734	3844.788221	21038.485733
82.535000	0.009123	0.023698	0.007931	0.022947	6032.947392	42864.059954	3863.077972	21165.142173
83.035500	0.012043	0.023566	0.006764	0.020903	6068.399735	43040.051081	3864.974241	21251.117752
83.535500	0.012116	0.024298	0.006287	0.021249	6066.427547	43075.630468	3863.193081	21236.499347
84.035500	0.007059	0.024231	0.001471	0.028235	5981.167829	42429.709403	3838.042748	20944.565139
84.536000	0.010831	0.024548	0.008969	0.023156	6043.605042	42923.034383	3864.869581	21156.373156
85.036500	0.013075	0.025074	0.005517	0.024312	6051.372002	42865.120691	3854.952316	21107.955259
85.537000	0.014957	0.024288	0.001620	0.025094	6059.240693	42721.343066	3844.987471	21075.270822
86.037000	0.007066	0.022055	0.001058	0.030193	5967.585000	42055.980839	3833.074148	20863.600542
86.537000	0.009994	0.022675	0.006599	0.028691	5998.535542	42247.436469	3847.918322	20925.701638
87.035000	0.012574	0.024432	0.004479	0.027492	6025.179939	42515.608934	3845.964129	20975.399649
87.534500	0.014033	0.024492	0.004738	0.028483	6028.501126	42430.889453	3844.411963	20934.292875
88.035000	0.008742	0.022744	0.006264	0.033417	5956.846469	41828.566022	3837.227331	20731.050408
88.535500	0.016093	0.023237	0.008705	0.029288	6037.410853	42244.226131	3851.131289	20900.977470
89.036500	0.014110	0.024120	0.012690	0.030749	6013.014442	42191.940007	3856.527238	20840.647128
89.539000	0.014629	0.024563	0.010983	0.031240	6013.216621	42187.665269	3851.824831	20820.438450
90.036500	0.012859	0.023470	0.001241	0.036040	5967.204160	41659.226524	3821.308468	20623.911692
90.537000	0.017881	0.024270	0.011728	0.031888	6031.644640	42102.804229	3852.032654	20793.776156
91.037000	0.015556	0.025034	0.013477	0.032943	6007.743202	42076.561017	3853.513899	20750.447748
91.535000	0.015143	0.024443	0.014612	0.032949	6004.791986	42022.870976	3855.931745	20750.204726
92.035000	0.017019	0.023986	0.012278	0.032986	6017.758246	41978.445096	3850.864493	20748.701869
92.535500	0.017685	0.025145	0.016712	0.034191	6013.953746	41974.363114	3857.770829	20699.345215
93.035500	0.014655	0.025606	0.013026	0.033821	5995.235403	42048.994839	3850.677414	20714.486270
93.536000	0.016582	0.025556	0.014990	0.034544	6003.696749	41979.548827	3853.326217	20684.925434
94.039000	0.018405	0.026024	0.012480	0.034959	6013.619991	41984.351882	3847.097277	20668.000206
94.536000	0.013236	0.025220	0.011901	0.038768	5950.906930	41572.167250	3837.826061	20513.184030
95.036500	0.018087	0.025614	0.015634	0.034378	6015.469943	41999.673727	3855.060952	20691.718062
95.537000	0.017909	0.025711	0.017661	0.034756	6011.551556	41974.487005	3858.597142	20676.276442
96.034500	0.014845	0.025303	0.006324	0.040258	5951.737981	41447.388271	3823.095119	20453.012908
96.538000	0.016673	0.025680	0.012091	0.038028	5979.923329	41679.058271	3839.785969	20543.177904
97.035500	0.018239	0.025150	0.008208	0.034161	6018.080093	41977.518301	3839.751266	20700.583993
