sample name	sample
index	647
start time	 03-19-2021  03:59:39 PM


Wavelength (nm)	Absorbance
494.344910	-0.291945
494.563924	-0.291945
494.782919	-0.291945
495.001897	-0.705052
495.220856	-0.323920
495.439797	-0.362923
495.658719	-1.110668
495.877624	-0.829093
496.096510	-1.476765
496.315378	-0.477586
496.534227	-0.088556
496.753059	0.246409
496.971872	-0.058072
497.190667	0.010906
497.409444	0.011098
497.628203	0.009034
497.846943	0.008294
498.065665	0.008196
498.284369	0.008679
498.503055	0.007615
498.721723	0.007010
498.940372	0.006472
499.159003	0.005566
499.377616	0.005193
499.596210	0.005044
499.814787	0.005783
500.033345	0.005346
500.251885	0.003797
500.470406	0.005085
500.688910	0.004525
500.907395	0.005178
501.125862	0.005861
501.344311	0.004739
501.562742	0.004383
501.781154	0.003984
501.999548	0.003826
502.217924	0.004714
502.436282	0.003790
502.654621	0.005083
502.872942	0.004461
503.091245	0.004007
503.309530	0.004756
503.527797	0.004886
503.746045	0.005313
503.964275	0.006206
504.182487	0.006422
504.400681	0.006063
504.618856	0.005799
504.837013	0.006390
505.055152	0.006259
505.273273	0.006304
505.491376	0.006262
505.709460	0.005830
505.927526	0.004354
506.145574	0.004658
506.363604	0.004987
506.581615	0.005295
506.799608	0.004669
507.017583	0.004461
507.235540	0.004127
507.453478	0.003998
507.671399	0.004012
507.889301	0.004848
508.107185	0.004442
508.325050	0.004523
508.542898	0.003828
508.760727	0.004488
508.978538	0.004679
509.196330	0.005225
509.414105	0.006449
509.631861	0.005842
509.849599	0.005292
510.067319	0.004836
510.285021	0.003960
510.502704	0.003930
510.720369	0.003619
510.938016	0.003783
511.155645	0.003249
511.373255	0.002179
511.590848	0.002972
511.808422	0.003454
512.025977	0.003605
512.243515	0.004507
512.461034	0.003938
512.678536	0.003833
512.896018	0.004157
513.113483	0.004651
513.330930	0.004427
513.548358	0.004137
513.765768	0.004093
513.983160	0.003985
514.200533	0.003548
514.417889	0.003939
514.635226	0.004416
514.852545	0.004315
515.069845	0.003908
515.287128	0.004530
515.504392	0.004718
515.721638	0.004828
515.938866	0.005383
516.156075	0.005681
516.373267	0.006076
516.590440	0.005831
516.807594	0.005574
517.024731	0.005696
517.241850	0.005100
517.458950	0.004937
517.676032	0.004958
517.893095	0.003949
518.110141	0.003587
518.327168	0.003788
518.544177	0.003480
518.761168	0.003408
518.978141	0.002877
519.195095	0.003324
519.412031	0.002819
519.628949	0.002647
519.845849	0.003135
520.062731	0.002649
520.279594	0.002314
520.496439	0.002258
520.713266	0.002210
520.930074	0.002609
521.146865	0.002702
521.363637	0.003486
521.580391	0.003064
521.797127	0.002948
522.013844	0.003201
522.230543	0.003409
522.447224	0.003153
522.663887	0.003481
522.880532	0.003162
523.097158	0.002942
523.313766	0.002154
523.530356	0.002469
523.746928	0.002225
523.963481	0.001868
524.180017	0.001571
524.396534	0.001892
524.613032	0.001344
524.829513	0.001105
525.045975	0.001367
525.262420	0.001679
525.478845	0.002018
525.695253	0.002963
525.911643	0.003938
526.128014	0.004240
526.344367	0.004306
526.560702	0.004894
526.777018	0.005878
526.993316	0.005623
527.209597	0.006278
527.425858	0.005896
527.642102	0.005237
527.858328	0.004824
528.074535	0.004264
528.290724	0.004330
528.506894	0.003702
528.723047	0.003106
528.939181	0.003113
529.155297	0.002074
529.371395	0.001879
529.587475	0.002129
529.803536	0.002175
530.019579	0.002425
530.235604	0.002692
530.451611	0.002999
530.667600	0.002989
530.883570	0.002881
531.099522	0.003249
531.315456	0.003614
531.531372	0.003211
531.747269	0.003730
531.963148	0.003977
532.179009	0.003184
532.394852	0.003308
532.610676	0.002964
532.826482	0.003133
533.042271	0.003164
533.258040	0.002884
533.473792	0.002903
533.689525	0.002653
533.905240	0.002498
534.120937	0.002763
534.336616	0.002645
534.552277	0.003236
534.767919	0.003156
534.983543	0.003325
535.199149	0.003413
535.414736	0.003879
535.630306	0.003559
535.845857	0.003429
536.061390	0.003670
536.276904	0.003658
536.492401	0.003218
536.707879	0.003238
536.923339	0.003271
537.138781	0.003769
537.354204	0.003720
537.569610	0.003699
537.784997	0.003557
538.000366	0.002953
538.215716	0.003008
538.431049	0.003523
538.646363	0.003531
538.861659	0.003641
539.076937	0.003144
539.292196	0.002740
539.507438	0.002876
539.722661	0.002759
539.937866	0.002981
540.153052	0.002651
540.368221	0.002680
540.583371	0.002997
540.798503	0.002772
541.013617	0.002723
541.228712	0.002860
541.443789	0.002868
541.658848	0.003359
541.873889	0.003891
542.088912	0.003892
542.303916	0.003545
542.518902	0.003572
542.733870	0.003416
542.948820	0.003660
543.163752	0.003587
543.378665	0.003277
543.593560	0.003098
543.808437	0.002973
544.023295	0.003340
544.238136	0.003517
544.452958	0.003409
544.667762	0.003513
544.882548	0.003221
545.097315	0.003460
545.312064	0.003533
545.526795	0.003784
545.741508	0.003897
545.956203	0.003478
546.170879	0.003708
546.385537	0.003365
546.600177	0.003428
546.814799	0.003703
547.029402	0.003761
547.243988	0.004008
547.458555	0.003885
547.673103	0.003860
547.887634	0.003902
548.102146	0.004029
548.316640	0.004236
548.531116	0.004375
548.745574	0.004642
548.960013	0.004486
549.174435	0.004100
549.388838	0.004157
549.603222	0.004037
549.817589	0.004326
550.031937	0.004118
550.246267	0.004052
550.460579	0.003854
550.674873	0.003472
550.889148	0.003611
551.103405	0.003456
551.317644	0.003159
551.531865	0.002859
551.746068	0.002797
551.960252	0.002751
552.174418	0.002620
552.388566	0.002574
552.602696	0.002628
552.816807	0.002426
553.030900	0.002891
553.244975	0.003102
553.459032	0.003488
553.673070	0.003555
553.887091	0.003391
554.101093	0.003697
554.315077	0.003909
554.529042	0.004000
554.742990	0.003926
554.956919	0.003686
555.170830	0.003512
555.384722	0.003320
555.598597	0.003186
555.812453	0.003240
556.026291	0.003091
556.240111	0.002894
556.453913	0.002811
556.667696	0.002993
556.881461	0.003174
557.095208	0.003224
557.308937	0.003452
557.522647	0.003503
557.736339	0.003588
557.950013	0.003862
558.163669	0.003868
558.377307	0.003482
558.590926	0.003241
558.804527	0.003214
559.018110	0.003191
559.231675	0.002948
559.445221	0.002905
559.658749	0.002930
559.872259	0.002785
560.085751	0.003027
560.299225	0.003646
560.512680	0.003555
560.726117	0.003835
560.939536	0.004023
561.152937	0.004108
561.366319	0.004176
561.579683	0.004023
561.793029	0.003944
562.006357	0.003862
562.219667	0.003586
562.432958	0.003853
562.646231	0.003468
562.859486	0.003444
563.072723	0.003590
563.285941	0.003575
563.499141	0.003615
563.712323	0.003896
563.925487	0.003758
564.138632	0.004023
564.351760	0.004165
564.564869	0.004480
564.777960	0.004580
564.991032	0.004501
565.204087	0.004477
565.417123	0.004773
565.630141	0.004544
565.843140	0.004499
566.056122	0.004183
566.269085	0.004042
566.482030	0.004187
566.694957	0.004173
566.907866	0.004223
567.120756	0.004303
567.333628	0.004043
567.546482	0.004094
567.759318	0.004237
567.972135	0.004487
568.184935	0.004765
568.397716	0.004522
568.610478	0.004431
568.823223	0.004360
569.035949	0.004395
569.248657	0.004484
569.461347	0.004611
569.674019	0.005045
569.886672	0.004681
570.099308	0.004642
570.311925	0.004746
570.524523	0.004720
570.737104	0.004779
570.949666	0.004869
571.162210	0.004692
571.374736	0.004425
571.587244	0.004053
571.799733	0.004223
572.012205	0.003966
572.224658	0.004132
572.437092	0.004223
572.649509	0.004289
572.861907	0.004290
573.074287	0.004603
573.286649	0.004702
573.498993	0.004948
573.711318	0.005172
573.923625	0.005420
574.135914	0.005289
574.348185	0.005404
574.560438	0.005379
574.772672	0.005503
574.984888	0.005473
575.197086	0.005845
575.409266	0.005807
575.621427	0.005895
575.833570	0.005856
576.045695	0.005772
576.257802	0.005694
576.469890	0.005996
576.681961	0.005915
576.894013	0.005747
577.106046	0.005448
577.318062	0.005342
577.530059	0.005137
577.742039	0.005185
577.954000	0.005460
578.165942	0.005498
578.377867	0.005240
578.589773	0.005154
578.801661	0.005359
579.013531	0.005525
579.225382	0.005686
579.437216	0.005676
579.649031	0.005771
579.860828	0.005614
580.072606	0.005524
580.284367	0.005626
580.496109	0.005500
580.707833	0.005587
580.919539	0.005509
581.131227	0.005344
581.342896	0.005443
581.554547	0.005287
581.766180	0.005440
581.977795	0.005661
582.189391	0.005555
582.400969	0.005720
582.612529	0.005198
582.824071	0.005249
583.035595	0.005321
583.247100	0.005516
583.458587	0.005722
583.670056	0.005315
583.881506	0.004954
584.092939	0.004993
584.304353	0.005010
584.515749	0.005354
584.727127	0.005126
584.938486	0.005078
585.149828	0.005098
585.361151	0.004882
585.572456	0.005299
585.783742	0.005490
585.995011	0.005547
586.206261	0.005527
586.417493	0.005607
586.628706	0.005609
586.839902	0.005646
587.051079	0.005515
587.262238	0.005463
587.473379	0.005202
587.684502	0.005296
587.895606	0.005330
588.106692	0.005426
588.317760	0.005743
588.528810	0.005988
588.739841	0.005950
588.950855	0.005912
589.161850	0.005905
589.372827	0.005961
589.583785	0.005826
589.794726	0.005751
590.005648	0.005893
590.216552	0.005481
590.427437	0.005466
590.638305	0.005602
590.849154	0.005447
591.059985	0.005577
591.270798	0.005849
591.481592	0.006117
591.692369	0.006132
591.903127	0.005845
592.113867	0.006024
592.324588	0.006117
592.535292	0.006137
592.745977	0.006429
592.956644	0.006269
593.167293	0.006024
593.377923	0.005984
593.588536	0.005973
593.799130	0.005860
594.009706	0.005950
594.220263	0.005722
594.430803	0.005620
594.641324	0.005411
594.851827	0.005776
595.062312	0.005935
595.272778	0.005842
595.483227	0.005872
595.693657	0.006227
595.904069	0.006052
596.114462	0.006252
596.324838	0.006198
596.535195	0.006140
596.745534	0.006235
596.955855	0.006224
597.166157	0.006240
597.376441	0.006563
597.586707	0.006545
597.796955	0.006534
598.007185	0.006470
598.217396	0.006454
598.427589	0.006784
598.637764	0.006667
598.847921	0.006528
599.058060	0.006601
599.268180	0.006231
599.478282	0.006256
599.688366	0.006491
599.898431	0.006402
600.108479	0.006582
600.318508	0.006620
600.528519	0.006520
600.738511	0.006316
600.948486	0.006101
601.158442	0.006184
601.368380	0.005957
601.578300	0.005739
601.788202	0.005960
601.998085	0.005873
602.207950	0.005918
602.417797	0.006093
602.627626	0.006502
602.837436	0.006753
603.047228	0.006606
603.257002	0.006798
603.466758	0.007288
603.676496	0.007554
603.886215	0.007573
604.095916	0.007380
604.305599	0.007113
604.515264	0.007128
604.724910	0.007104
604.934538	0.007300
605.144148	0.007393
605.353740	0.007002
605.563314	0.006593
605.772869	0.006616
605.982406	0.006847
606.191925	0.007113
606.401425	0.007173
606.610908	0.007057
606.820372	0.006869
607.029818	0.006850
607.239246	0.006815
607.448655	0.006833
607.658047	0.006722
607.867420	0.006527
608.076775	0.006249
608.286111	0.006053
608.495430	0.006243
608.704730	0.006404
608.914012	0.006398
609.123275	0.006426
609.332521	0.006396
609.541748	0.006455
609.750957	0.006381
609.960148	0.006700
610.169321	0.006921
610.378475	0.006660
610.587611	0.006595
610.796729	0.006381
611.005829	0.006379
611.214910	0.006549
611.423974	0.006637
611.633019	0.006610
611.842045	0.006544
612.051054	0.006411
612.260044	0.006583
612.469017	0.006792
612.677970	0.006944
612.886906	0.006869
613.095824	0.006711
613.304723	0.006711
613.513604	0.006816
613.722467	0.006588
613.931311	0.006653
614.140138	0.006639
614.348946	0.006517
614.557736	0.006610
614.766507	0.006712
614.975261	0.006939
615.183996	0.006742
615.392713	0.006803
615.601412	0.006898
615.810092	0.006890
616.018754	0.007158
616.227399	0.006913
616.436024	0.006824
616.644632	0.006856
616.853222	0.006786
617.061793	0.007030
617.270346	0.007091
617.478880	0.007237
617.687397	0.007117
617.895895	0.006937
618.104375	0.007157
618.312837	0.007323
618.521281	0.007385
618.729706	0.007311
618.938113	0.007475
619.146502	0.007458
619.354873	0.007422
619.563226	0.007491
619.771560	0.007606
619.979876	0.007779
620.188174	0.007797
620.396453	0.007784
620.604715	0.008064
620.812958	0.007979
621.021183	0.008135
621.229390	0.008250
621.437578	0.008210
621.645748	0.008225
621.853900	0.008129
622.062034	0.008097
622.270150	0.008151
622.478247	0.007937
622.686326	0.007823
622.894387	0.007525
623.102430	0.007416
623.310454	0.007702
623.518461	0.007602
623.726449	0.007526
623.934418	0.007436
624.142370	0.007293
624.350303	0.007541
624.558218	0.007488
624.766115	0.007536
624.973994	0.007374
625.181855	0.007195
625.389697	0.007183
625.597521	0.007181
625.805327	0.007210
626.013114	0.007304
626.220883	0.006896
626.428634	0.007111
626.636367	0.007269
626.844082	0.007522
627.051778	0.007637
627.259457	0.007692
627.467117	0.007953
627.674758	0.007828
627.882382	0.007751
628.089987	0.007913
628.297574	0.007897
628.505143	0.007762
628.712694	0.007631
628.920226	0.007597
629.127740	0.007416
629.335236	0.007110
629.542714	0.007038
629.750174	0.007027
629.957615	0.006946
630.165038	0.006846
630.372443	0.006762
630.579829	0.006741
630.787198	0.006853
630.994548	0.006960
631.201880	0.007321
631.409194	0.007582
631.616489	0.007683
631.823766	0.007838
632.031025	0.007826
632.238266	0.007983
632.445489	0.008112
632.652693	0.008147
632.859879	0.008027
633.067047	0.007801
633.274197	0.007689
633.481329	0.007793
633.688442	0.007707
633.895537	0.007851
634.102614	0.007780
634.309672	0.007737
634.516713	0.007580
634.723735	0.007714
634.930739	0.007834
635.137724	0.007807
635.344692	0.007715
635.551641	0.007804
635.758572	0.007827
635.965485	0.008185
636.172379	0.008269
636.379256	0.008284
636.586114	0.008339
636.792954	0.008239
636.999775	0.008259
637.206579	0.008245
637.413364	0.008236
637.620131	0.008230
637.826880	0.008066
638.033610	0.008099
638.240323	0.008057
638.447017	0.008039
638.653692	0.007976
638.860350	0.008210
639.066990	0.008239
639.273611	0.008267
639.480214	0.008128
639.686798	0.008155
639.893365	0.008262
640.099913	0.008132
640.306443	0.008044
640.512955	0.007978
640.719449	0.007810
640.925924	0.007948
641.132381	0.007937
641.338820	0.007969
641.545241	0.007899
641.751644	0.007746
641.958028	0.007908
642.164394	0.007991
642.370742	0.008252
642.577071	0.008333
642.783383	0.008363
642.989676	0.008403
643.195951	0.008244
643.402207	0.008374
643.608446	0.008348
643.814666	0.008333
644.020868	0.008361
644.227052	0.008198
644.433218	0.008204
644.639365	0.007999
644.845494	0.008085
645.051605	0.008200
645.257698	0.008162
645.463772	0.008280
645.669828	0.008414
645.875866	0.008498
646.081886	0.008623
646.287888	0.008603
646.493871	0.008675
646.699836	0.008650
646.905783	0.008814
647.111712	0.008778
647.317622	0.008869
647.523514	0.008775
647.729388	0.008738
647.935244	0.008922
648.141082	0.009028
648.346901	0.009130
648.552702	0.009146
648.758485	0.009075
648.964250	0.009046
649.169996	0.008935
649.375724	0.009012
649.581434	0.009015
649.787126	0.008874
649.992800	0.008771
650.198455	0.008719
650.404092	0.008672
650.609711	0.008742
650.815311	0.008739
651.020894	0.008934
651.226458	0.008949
651.432004	0.009055
651.637532	0.009125
651.843041	0.009086
652.048532	0.009087
652.254006	0.009144
652.459460	0.009120
652.664897	0.009287
652.870315	0.009056
653.075716	0.008986
653.281097	0.008921
653.486461	0.008976
653.691807	0.009187
653.897134	0.009224
654.102443	0.009260
654.307734	0.009290
654.513006	0.009182
654.718261	0.009185
654.923497	0.008960
655.128715	0.008911
655.333915	0.008755
655.539096	0.008557
655.744259	0.008487
655.949404	0.008333
656.154531	0.008364
656.359640	0.008477
656.564730	0.008612
656.769802	0.008843
656.974856	0.008858
657.179892	0.009016
657.384909	0.009128
657.589908	0.009371
657.794889	0.009861
657.999852	0.009824
658.204797	0.009764
658.409723	0.009746
658.614631	0.009835
658.819521	0.009997
659.024393	0.010026
659.229246	0.010145
659.434081	0.009877
659.638898	0.009557
659.843697	0.009627
660.048478	0.009670
660.253240	0.009618
660.457984	0.009673
660.662710	0.009535
660.867417	0.009586
661.072107	0.009584
661.276778	0.009655
661.481431	0.009568
661.686066	0.009476
661.890682	0.009538
662.095281	0.009589
662.299861	0.009594
662.504422	0.009552
662.708966	0.009476
662.913491	0.009472
663.117999	0.009619
663.322488	0.009669
663.526958	0.009811
663.731411	0.009817
663.935845	0.009807
664.140261	0.009639
664.344659	0.009894
664.549038	0.009929
664.753400	0.009905
664.957743	0.009824
665.162068	0.009728
665.366375	0.009765
665.570663	0.009565
665.774933	0.009577
665.979185	0.009624
666.183419	0.009282
666.387635	0.009260
666.591832	0.009398
666.796011	0.009459
667.000172	0.009593
667.204315	0.009448
667.408439	0.009700
667.612545	0.009825
667.816634	0.009875
668.020703	0.010148
668.224755	0.010131
668.428788	0.009883
668.632803	0.009848
668.836800	0.009752
669.040779	0.009710
669.244739	0.009647
669.448681	0.009503
669.652605	0.009620
669.856511	0.009639
670.060399	0.009609
670.264268	0.009708
670.468119	0.009811
670.671952	0.009974
670.875767	0.010050
671.079563	0.009950
671.283341	0.010145
671.487101	0.010156
671.690843	0.010084
671.894567	0.010249
672.098272	0.010365
672.301959	0.010507
672.505628	0.010600
672.709278	0.010838
672.912911	0.010968
673.116525	0.010858
673.320121	0.010795
673.523699	0.011002
673.727258	0.010940
673.930799	0.010827
674.134322	0.010771
674.337827	0.010587
674.541314	0.010365
674.744782	0.010440
674.948232	0.010515
675.151664	0.010384
675.355078	0.010335
675.558474	0.010382
675.761851	0.010451
675.965210	0.010382
676.168551	0.010508
676.371873	0.010524
676.575178	0.010458
676.778464	0.010373
676.981732	0.010622
677.184981	0.010633
677.388213	0.010479
677.591426	0.010400
677.794621	0.010282
677.997798	0.010185
678.200956	0.010254
678.404097	0.010260
678.607219	0.010354
678.810323	0.010296
679.013408	0.010275
679.216476	0.010504
679.419525	0.010489
679.622556	0.010689
679.825569	0.010904
680.028563	0.010989
680.231540	0.011087
680.434498	0.011089
680.637438	0.011131
680.840359	0.011192
681.043263	0.011165
681.246148	0.011207
681.449015	0.011142
681.651864	0.011111
681.854694	0.010937
682.057506	0.010862
682.260301	0.010777
682.463076	0.010782
682.665834	0.010802
682.868573	0.010733
683.071295	0.010904
683.273998	0.010867
683.476682	0.010735
683.679349	0.010973
683.881997	0.010776
684.084627	0.010837
684.287239	0.010761
684.489833	0.010750
684.692408	0.010814
684.894965	0.010732
685.097504	0.010784
685.300025	0.010842
685.502527	0.010651
685.705012	0.010815
685.907478	0.010851
686.109925	0.011040
686.312355	0.010960
686.514766	0.010957
686.717159	0.011079
686.919534	0.011171
687.121891	0.011461
687.324230	0.011584
687.526550	0.011419
687.728852	0.011414
687.931136	0.011323
688.133401	0.011397
688.335649	0.011159
688.537878	0.011050
688.740089	0.010962
688.942281	0.010764
689.144456	0.010707
689.346612	0.010679
689.548750	0.010612
689.750870	0.010507
689.952971	0.010354
690.155055	0.010647
690.357120	0.010517
690.559167	0.010454
690.761195	0.010495
690.963206	0.010644
691.165198	0.010951
691.367172	0.010889
691.569128	0.011015
691.771065	0.011167
691.972984	0.011199
692.174885	0.011312
692.376768	0.011513
692.578633	0.011568
692.780479	0.011281
692.982308	0.011179
693.184118	0.011367
693.385909	0.011369
693.587683	0.011262
693.789438	0.011208
693.991175	0.011304
694.192894	0.011176
694.394595	0.011140
694.596277	0.011372
694.797941	0.011519
694.999587	0.011495
695.201215	0.011458
695.402824	0.011586
695.604416	0.011595
695.805989	0.011657
696.007543	0.011717
696.209080	0.011685
696.410598	0.011788
696.612099	0.011710
696.813580	0.011726
697.015044	0.011897
697.216490	0.011843
697.417917	0.011845
697.619326	0.011773
697.820717	0.011727
698.022089	0.011680
698.223444	0.011602
698.424780	0.011686
698.626098	0.011770
698.827397	0.011560
699.028679	0.011678
699.229942	0.011621
699.431187	0.011662
699.632414	0.011663
699.833622	0.011815
700.034813	0.012028
700.235985	0.012067
700.437139	0.011972
700.638274	0.012123
700.839392	0.012144
701.040491	0.012308
701.241572	0.012316
701.442635	0.012324
701.643679	0.012246
701.844706	0.012035
702.045714	0.011823
702.246704	0.011912
702.447675	0.011878
702.648629	0.011877
702.849564	0.011708
703.050481	0.011802
703.251380	0.011857
703.452260	0.011801
703.653122	0.011963
703.853966	0.012062
704.054792	0.011996
704.255600	0.012021
704.456389	0.011888
704.657160	0.012001
704.857913	0.011971
705.058648	0.011962
705.259365	0.012039
705.460063	0.011917
705.660743	0.012128
705.861405	0.012213
706.062048	0.012180
706.262674	0.012370
706.463281	0.012272
706.663870	0.012048
706.864441	0.012079
707.064993	0.012112
707.265527	0.012010
707.466043	0.011841
707.666541	0.011844
707.867021	0.011870
708.067482	0.011722
708.267925	0.011717
708.468350	0.011840
708.668757	0.011930
708.869145	0.011921
709.069516	0.012008
709.269868	0.012140
709.470201	0.012138
709.670517	0.012152
709.870814	0.012217
710.071093	0.012328
710.271354	0.012526
710.471597	0.012490
710.671821	0.012473
710.872028	0.012394
711.072216	0.012307
711.272385	0.012238
711.472537	0.012456
711.672670	0.012411
711.872785	0.012374
712.072882	0.012285
712.272961	0.012210
712.473021	0.012184
712.673063	0.012288
712.873087	0.012384
713.073093	0.012406
713.273081	0.012232
713.473050	0.012313
713.673001	0.012313
713.872934	0.012381
714.072849	0.012371
714.272745	0.012246
714.472623	0.012328
714.672483	0.012186
714.872325	0.012306
715.072148	0.012358
715.271954	0.012369
715.471741	0.012457
715.671509	0.012464
715.871260	0.012538
716.070992	0.012675
716.270707	0.012562
716.470403	0.012565
716.670080	0.012345
716.869740	0.012264
717.069381	0.012269
717.269004	0.012097
717.468609	0.012004
717.668195	0.011887
717.867764	0.011836
718.067314	0.011876
718.266846	0.011973
718.466360	0.012007
718.665855	0.011979
718.865332	0.011892
719.064791	0.011990
719.264232	0.011895
719.463655	0.011970
719.663059	0.011901
719.862445	0.011737
720.061813	0.011714
720.261163	0.011729
720.460494	0.011587
720.659807	0.011431
720.859102	0.011427
721.058379	0.011434
721.257638	0.011404
721.456878	0.011467
721.656100	0.011617
721.855304	0.011442
722.054490	0.011455
722.253657	0.011374
722.452806	0.011439
722.651937	0.011325
722.851050	0.011223
723.050145	0.011071
723.249221	0.010916
723.448279	0.010958
723.647319	0.010914
723.846340	0.010970
724.045344	0.011118
724.244329	0.011232
724.443296	0.011466
724.642245	0.011632
724.841175	0.011827
725.040088	0.011904
725.238982	0.011872
725.437857	0.012022
725.636715	0.011983
725.835554	0.012165
726.034376	0.012128
726.233179	0.012010
726.431963	0.012074
726.630730	0.012152
726.829478	0.012286
727.028208	0.012293
727.226920	0.012308
727.425614	0.012393
727.624289	0.012225
727.822946	0.012367
728.021585	0.012254
728.220206	0.012174
728.418808	0.011943
728.617392	0.011914
728.815958	0.011869
729.014506	0.011732
729.213036	0.011692
729.411547	0.011811
729.610040	0.011609
729.808515	0.011643
730.006972	0.011392
730.205410	0.011628
730.403831	0.011597
730.602233	0.011680
730.800616	0.011661
730.998982	0.011582
731.197329	0.011423
731.395658	0.011443
731.593969	0.011319
731.792262	0.011463
731.990536	0.011227
732.188793	0.011177
732.387031	0.010985
732.585250	0.011106
732.783452	0.010964
732.981635	0.010919
733.179800	0.010827
733.377947	0.011033
733.576076	0.011042
733.774186	0.011092
733.972278	0.011135
734.170352	0.011046
734.368408	0.010948
734.566446	0.010910
734.764465	0.010854
734.962466	0.010803
735.160449	0.010527
735.358413	0.010563
735.556360	0.010596
735.754288	0.010401
735.952198	0.010360
736.150090	0.010356
736.347963	0.010433
736.545818	0.010441
736.743655	0.010563
736.941474	0.010698
737.139275	0.010586
737.337057	0.010551
737.534821	0.010775
737.732567	0.010871
737.930295	0.010844
738.128005	0.010829
738.325696	0.011112
738.523369	0.011073
738.721024	0.011087
738.918660	0.011260
739.116279	0.011362
739.313879	0.011369
739.511461	0.011437
739.709024	0.011411
739.906570	0.011514
740.104097	0.011334
740.301606	0.011426
740.499097	0.011508
740.696569	0.011551
740.894024	0.011372
741.091460	0.011319
741.288878	0.011261
741.486277	0.011382
741.683659	0.011366
741.881022	0.011362
742.078367	0.011223
742.275694	0.011141
742.473002	0.010996
742.670293	0.011029
742.867565	0.010851
743.064819	0.010862
743.262054	0.010744
743.459272	0.010664
743.656471	0.010644
743.853652	0.010674
744.050815	0.010585
744.247959	0.010546
744.445085	0.010516
744.642194	0.010688
744.839283	0.010614
745.036355	0.010784
745.233408	0.010843
745.430444	0.010885
745.627461	0.010884
745.824459	0.010869
746.021440	0.010820
746.218402	0.010707
746.415346	0.010676
746.612272	0.010632
746.809180	0.010413
747.006069	0.010413
747.202940	0.010477
747.399793	0.010526
747.596628	0.010667
747.793444	0.010664
747.990243	0.010810
748.187023	0.010824
748.383784	0.010822
748.580528	0.010880
748.777253	0.010750
748.973960	0.010604
749.170649	0.010452
749.367320	0.010484
749.563973	0.010524
749.760607	0.010550
749.957223	0.010479
750.153821	0.010584
750.350400	0.010671
750.546962	0.010744
750.743505	0.010806
750.940030	0.010941
751.136536	0.010963
751.333025	0.010956
751.529495	0.010981
751.725947	0.011185
751.922381	0.011292
752.118796	0.011126
752.315194	0.011128
752.511573	0.011170
752.707934	0.011044
752.904276	0.011070
753.100601	0.011097
753.296907	0.011095
753.493195	0.010960
753.689465	0.010858
753.885716	0.010924
754.081949	0.010962
754.278164	0.010886
754.474361	0.010962
754.670540	0.010620
754.866700	0.010621
755.062843	0.010668
755.258967	0.010649
755.455072	0.010694
755.651160	0.010728
755.847229	0.010579
756.043280	0.010524
756.239313	0.010523
756.435328	0.010599
756.631324	0.010692
756.827302	0.010678
757.023262	0.010692
757.219204	0.010630
757.415127	0.010734
757.611033	0.010968
757.806920	0.011088
758.002788	0.011121
758.198639	0.011289
758.394471	0.011209
758.590286	0.011329
758.786081	0.011384
758.981859	0.011498
759.177619	0.011421
759.373360	0.011247
759.569083	0.011411
759.764788	0.011384
759.960474	0.011464
760.156143	0.011275
760.351793	0.011063
760.547425	0.010931
760.743038	0.010935
760.938634	0.010937
761.134211	0.010914
761.329770	0.010803
761.525311	0.010698
761.720833	0.010505
761.916338	0.010548
762.111824	0.010546
762.307292	0.010685
762.502741	0.010764
762.698173	0.010786
762.893586	0.010803
763.088981	0.010800
763.284358	0.010915
763.479716	0.010974
763.675057	0.011086
763.870379	0.011029
764.065683	0.010923
764.260968	0.010809
764.456236	0.010959
764.651485	0.011117
764.846716	0.010959
765.041929	0.011056
765.237123	0.011077
765.432299	0.011212
765.627457	0.011421
765.822597	0.011406
766.017719	0.011377
766.212822	0.011204
766.407907	0.011154
766.602974	0.011254
766.798023	0.011147
766.993054	0.011155
767.188066	0.011260
767.383060	0.011059
767.578036	0.011172
767.772993	0.011052
767.967933	0.011190
768.162854	0.011174
768.357757	0.011270
768.552642	0.011273
768.747508	0.011304
768.942356	0.011109
769.137186	0.011039
769.331998	0.011191
769.526792	0.011476
769.721567	0.011423
769.916324	0.011422
770.111063	0.011291
770.305784	0.011241
770.500486	0.011245
770.695171	0.011298
770.889837	0.011285
771.084484	0.011033
771.279114	0.010767
771.473725	0.010680
771.668318	0.010721
771.862893	0.010867
772.057450	0.010944
772.251988	0.010996
772.446509	0.011020
772.641011	0.011225
772.835494	0.011419
773.029960	0.011608
773.224407	0.011522
773.418836	0.011508
773.613247	0.011333
773.807640	0.011387
774.002014	0.011310
774.196370	0.011241
774.390708	0.011287
774.585028	0.011261
774.779330	0.011331
774.973613	0.011341
775.167878	0.011509
775.362125	0.011577
775.556354	0.011657
775.750564	0.011544
775.944756	0.011669
776.138930	0.011511
776.333086	0.011394
776.527223	0.011244
776.721343	0.011340
776.915444	0.011159
777.109526	0.011173
777.303591	0.011118
777.497637	0.011392
777.691666	0.011253
777.885676	0.011323
778.079667	0.011453
778.273641	0.011429
778.467596	0.011450
778.661533	0.011600
778.855452	0.011544
779.049352	0.011455
779.243235	0.011409
779.437099	0.011307
779.630945	0.011337
779.824773	0.011316
780.018582	0.011447
780.212373	0.011523
780.406146	0.011482
780.599901	0.011568
780.793638	0.011680
780.987356	0.011604
781.181056	0.011638
781.374738	0.011567
781.568402	0.011545
781.762047	0.011544
781.955674	0.011305
782.149283	0.011045
782.342874	0.010990
782.536447	0.010907
782.730001	0.010871
782.923537	0.010868
783.117055	0.011036
783.310555	0.011005
783.504036	0.011094
783.697499	0.011145
783.890944	0.011286
784.084371	0.011391
784.277780	0.011462
784.471170	0.011423
784.664542	0.011493
784.857896	0.011469
785.051231	0.011477
785.244549	0.011314
785.437848	0.011477
785.631129	0.011704
785.824392	0.011608
786.017636	0.011445
786.210863	0.011591
786.404071	0.011617
786.597260	0.011463
786.790432	0.011385
786.983585	0.011480
787.176721	0.011421
787.369838	0.011017
787.562936	0.011125
787.756017	0.011241
787.949079	0.011241
788.142123	0.011407
788.335149	0.011458
788.528156	0.011528
788.721146	0.011514
788.914117	0.011515
789.107070	0.011891
789.300005	0.011889
789.492921	0.012014
789.685819	0.011949
789.878699	0.011881
790.071561	0.012091
790.264405	0.012120
790.457230	0.012125
790.650037	0.012181
790.842826	0.012096
791.035597	0.012113
791.228349	0.012063
791.421084	0.012188
791.613800	0.012131
791.806497	0.012124
791.999177	0.012127
792.191838	0.012108
792.384481	0.012204
792.577106	0.012323
792.769713	0.012298
792.962301	0.012300
793.154871	0.012273
793.347423	0.012442
793.539957	0.012356
793.732473	0.012281
793.924970	0.012320
794.117449	0.012318
794.309910	0.012142
794.502353	0.012028
794.694777	0.011992
794.887183	0.011933
795.079571	0.011981
795.271941	0.011918
795.464293	0.012144
795.656626	0.012233
795.848941	0.012282
796.041238	0.012332
796.233516	0.012411
796.425777	0.012475
796.618019	0.012510
796.810243	0.012394
797.002449	0.012543
797.194636	0.012437
797.386805	0.012361
797.578956	0.012303
797.771089	0.012314
797.963204	0.012316
798.155300	0.012324
798.347378	0.012424
798.539438	0.012207
798.731480	0.012194
798.923503	0.012087
799.115509	0.012012
799.307496	0.011851
799.499465	0.011711
799.691415	0.011936
799.883348	0.011799
800.075262	0.011865
800.267158	0.011872
800.459035	0.011783
800.650895	0.011951
800.842736	0.012065
801.034559	0.012329
801.226364	0.012430
801.418150	0.012354
801.609919	0.012642
801.801669	0.012423
801.993401	0.012599
802.185114	0.012535
802.376810	0.012464
802.568487	0.012527
802.760146	0.012420
802.951787	0.012464
803.143409	0.012166
803.335014	0.012062
803.526600	0.012046
803.718168	0.012056
803.909717	0.012152
804.101249	0.012148
804.292762	0.012140
804.484257	0.012025
804.675734	0.011986
804.867192	0.012179
805.058632	0.012053
805.250054	0.012079
805.441458	0.012022
805.632844	0.012157
805.824211	0.012235
806.015561	0.012074
806.206891	0.012139
806.398204	0.012235
806.589499	0.012141
806.780775	0.012226
806.972033	0.012323
807.163273	0.012473
807.354495	0.012365
807.545698	0.012318
807.736883	0.012272
807.928050	0.012267
808.119199	0.012305
808.310329	0.012447
808.501441	0.012461
808.692535	0.012447
808.883611	0.012226
809.074669	0.012255
809.265708	0.012271
809.456729	0.012477
809.647732	0.012570
809.838717	0.012611
810.029683	0.012778
810.220632	0.012700
810.411562	0.012777
810.602474	0.012881
810.793367	0.012685
810.984242	0.012607
811.175100	0.012606
811.365938	0.012693
811.556759	0.012542
811.747562	0.012049
811.938346	0.012305
812.129112	0.012317
812.319860	0.012390
812.510589	0.012535
812.701300	0.012669
812.891994	0.012706
813.082668	0.012651
813.273325	0.012852
813.463964	0.013124
813.654584	0.012960
813.845186	0.012777
814.035769	0.012823
814.226335	0.012945
814.416882	0.012914
814.607411	0.012695
814.797922	0.012655
814.988415	0.012483
815.178889	0.012601
815.369345	0.012701
815.559783	0.012818
815.750203	0.012770
815.940605	0.012710
816.130988	0.012667
816.321353	0.012720
816.511700	0.012770
816.702028	0.012809
816.892339	0.012850
817.082631	0.012839
817.272905	0.012826
817.463161	0.012892
817.653398	0.012850
817.843617	0.013002
818.033819	0.012869
818.224001	0.013040
818.414166	0.013057
818.604312	0.013095
818.794440	0.013021
818.984550	0.013017
819.174642	0.013094
819.364716	0.013002
819.554771	0.012912
819.744808	0.013141
819.934827	0.012837
820.124827	0.012894
820.314810	0.012789
820.504774	0.012735
820.694720	0.012664
820.884647	0.012493
821.074557	0.012583
821.264448	0.012437
821.454321	0.012436
821.644176	0.012533
821.834012	0.012276
822.023831	0.012226
822.213631	0.012086
822.403413	0.011928
822.593176	0.011876
822.782922	0.011959
822.972649	0.011965
823.162358	0.011949
823.352049	0.012012
823.541721	0.011991
823.731376	0.011937
823.921012	0.012306
824.110629	0.012494
824.300229	0.012579
824.489811	0.012481
824.679374	0.012483
824.868919	0.012472
825.058445	0.012139
825.247954	0.012213
825.437444	0.012279
825.626916	0.012111
825.816370	0.012020
826.005806	0.011785
826.195223	0.011781
826.384622	0.011969
826.574003	0.012000
826.763366	0.012135
826.952711	0.012283
827.142037	0.012304
827.331345	0.012236
827.520635	0.012500
827.709906	0.012913
827.899160	0.012884
828.088395	0.012953
828.277612	0.012958
828.466810	0.013083
828.655991	0.013041
828.845153	0.013029
829.034297	0.013101
829.223423	0.013064
829.412531	0.012820
829.601620	0.012986
829.790691	0.012843
829.979744	0.012767
830.168779	0.012576
830.357795	0.012350
830.546793	0.012395
830.735773	0.012271
830.924735	0.012159
831.113679	0.012284
831.302604	0.012204
831.491511	0.012370
831.680400	0.012445
831.869271	0.012600
832.058123	0.012808
832.246957	0.012751
832.435773	0.012758
832.624571	0.012950
832.813351	0.012643
833.002112	0.012669
833.190855	0.012431
833.379580	0.012361
833.568287	0.012610
833.756975	0.012669
833.945645	0.012661
834.134297	0.012707
834.322931	0.012608
834.511547	0.012834
834.700144	0.012681
834.888723	0.012524
835.077284	0.012466
835.265826	0.012222
835.454351	0.012191
835.642857	0.012254
835.831345	0.012327
836.019815	0.012136
836.208266	0.012226
836.396699	0.012345
836.585114	0.012422
836.773511	0.012534
836.961890	0.012444
837.150250	0.012357
837.338592	0.012332
837.526916	0.012266
837.715222	0.012542
837.903510	0.012564
838.091779	0.012660
838.280030	0.012819
838.468263	0.012922
838.656477	0.012954
838.844674	0.013034
839.032852	0.013088
839.221012	0.013157
839.409153	0.013042
839.597277	0.012917
839.785382	0.012931
839.973469	0.012882
840.161538	0.012751
840.349589	0.012729
840.537621	0.012846
840.725635	0.012814
840.913631	0.012785
841.101609	0.012577
841.289568	0.012539
841.477509	0.012494
841.665432	0.012634
841.853337	0.012718
842.041224	0.012816
842.229092	0.012888
842.416942	0.012885
842.604774	0.012942
842.792588	0.013198
842.980383	0.013271
843.168160	0.013371
843.355919	0.013416
843.543660	0.013375
843.731382	0.013358
843.919087	0.013435
844.106773	0.013483
844.294441	0.013624
844.482090	0.013744
844.669722	0.013714
844.857335	0.013488
845.044930	0.013223
845.232507	0.013368
845.420065	0.013513
845.607605	0.013663
845.795127	0.013810
845.982631	0.013713
846.170117	0.013762
846.357584	0.013961
846.545033	0.014082
846.732464	0.014275
846.919877	0.014187
847.107272	0.014420
847.294648	0.014080
847.482006	0.013978
847.669346	0.014117
847.856667	0.013914
848.043971	0.013821
848.231256	0.014108
848.418523	0.014365
848.605771	0.014371
848.793002	0.014312
848.980214	0.014450
849.167408	0.014646
849.354584	0.014644
849.541742	0.014853
849.728881	0.015030
849.916002	0.014875
850.103105	0.014716
850.290190	0.014806
850.477256	0.014723
850.664304	0.014817
850.851334	0.014929
851.038346	0.014791
851.225340	0.014701
851.412315	0.014627
851.599272	0.014634
851.786211	0.014747
851.973132	0.014807
852.160034	0.014917
852.346918	0.015090
852.533784	0.014873
852.720632	0.015333
852.907462	0.015563
853.094273	0.015615
853.281066	0.015530
853.467841	0.015222
853.654598	0.015166
853.841336	0.014992
854.028056	0.014961
854.214758	0.015042
854.401442	0.014750
854.588107	0.014692
854.774755	0.014835
854.961384	0.015000
855.147995	0.015389
855.334587	0.015327
855.521162	0.015562
855.707718	0.015687
855.894256	0.015683
856.080775	0.015591
856.267277	0.015508
856.453760	0.015477
856.640225	0.015573
856.826672	0.015553
857.013101	0.015857
857.199511	0.015712
857.385903	0.015484
857.572277	0.015445
857.758633	0.015656
857.944970	0.015941
858.131290	0.015652
858.317591	0.015611
858.503873	0.015610
858.690138	0.015545
858.876384	0.015685
859.062612	0.015673
859.248822	0.015765
859.435014	0.015984
859.621188	0.015957
859.807343	0.016207
859.993480	0.016267
860.179599	0.016287
860.365699	0.016260
860.551781	0.016312
860.737846	0.016539
860.923891	0.016528
861.109919	0.016258
861.295929	0.016077
861.481920	0.016165
861.667893	0.016236
861.853848	0.016154
862.039784	0.016208
862.225702	0.016115
862.411603	0.016076
862.597484	0.016329
862.783348	0.016306
862.969193	0.016420
863.155021	0.016234
863.340830	0.016376
863.526620	0.016518
863.712393	0.016711
863.898147	0.016620
864.083883	0.016801
864.269601	0.016551
864.455301	0.016776
864.640982	0.016732
864.826645	0.016814
865.012290	0.016674
865.197917	0.016843
865.383526	0.016827
865.569116	0.017271
865.754688	0.017031
865.940242	0.017045
866.125777	0.016890
866.311295	0.017021
866.496794	0.017101
866.682275	0.017213
866.867737	0.016975
867.053182	0.016853
867.238608	0.016818
867.424016	0.016901
867.609406	0.017023
867.794778	0.017234
867.980131	0.017471
868.165466	0.017608
868.350783	0.017449
868.536082	0.017480
868.721362	0.017473
868.906625	0.017558
869.091869	0.017437
869.277094	0.017274
869.462302	0.017285
869.647491	0.017029
869.832662	0.017012
870.017815	0.017133
870.202950	0.017275
870.388066	0.017720
870.573165	0.017408
870.758245	0.017601
870.943306	0.018025
871.128350	0.018281
871.313375	0.018449
871.498382	0.018425
871.683371	0.018625
871.868342	0.018616
872.053294	0.018312
872.238229	0.018518
872.423144	0.018635
872.608042	0.018748
872.792922	0.018419
872.977783	0.018377
873.162626	0.018820
873.347451	0.018602
873.532258	0.018782
873.717046	0.018974
873.901816	0.019069
874.086568	0.018972
874.271302	0.019052
874.456017	0.019171
874.640715	0.019044
874.825394	0.018712
875.010055	0.018870
875.194697	0.018803
875.379322	0.018602
875.563928	0.018437
875.748516	0.018752
875.933085	0.018575
876.117637	0.018501
876.302170	0.018677
876.486685	0.018642
876.671182	0.018548
876.855661	0.018394
877.040121	0.018356
877.224563	0.018419
877.408987	0.018217
877.593393	0.017884
877.777780	0.017879
877.962150	0.017759
878.146501	0.017786
878.330833	0.017819
878.515148	0.017853
878.699444	0.017913
878.883722	0.017853
879.067982	0.017620
879.252224	0.017779
879.436447	0.017813
879.620653	0.018018
879.804840	0.018093
879.989008	0.017918
880.173159	0.018281
880.357291	0.018101
880.541405	0.018212
880.725501	0.018264
880.909579	0.018082
881.093638	0.018236
881.277680	0.018352
881.461703	0.018390
881.645707	0.018405
881.829694	0.018105
882.013662	0.018055
882.197612	0.017825
882.381544	0.017855
882.565458	0.017987
882.749353	0.017592
882.933230	0.017599
883.117089	0.017568
883.300930	0.017699
883.484753	0.017841
883.668557	0.018131
883.852343	0.018255
884.036111	0.018386
884.219861	0.018532
884.403592	0.018477
884.587305	0.018229
884.771000	0.018288
884.954677	0.018378
885.138335	0.018199
885.321976	0.017996
885.505598	0.018006
885.689201	0.018162
885.872787	0.018197
886.056354	0.018710
886.239904	0.018684
886.423434	0.018573
886.606947	0.018456
886.790442	0.018679
886.973918	0.018825
887.157376	0.018721
887.340816	0.018625
887.524237	0.018595
887.707641	0.018516
887.891026	0.018558
888.074393	0.018662
888.257741	0.018606
888.441072	0.018206
888.624384	0.018053
888.807678	0.018269
888.990954	0.018230
889.174211	0.017973
889.357451	0.017933
889.540672	0.018000
889.723875	0.017857
889.907059	0.018039
890.090226	0.018402
890.273374	0.018613
890.456504	0.018173
890.639616	0.017996
890.822709	0.018386
891.005785	0.018174
891.188842	0.017984
891.371881	0.018057
891.554901	0.018147
891.737904	0.017786
891.920888	0.017781
892.103854	0.018113
892.286802	0.018006
892.469731	0.017842
892.652643	0.017749
892.835536	0.017761
893.018410	0.017584
893.201267	0.017416
893.384106	0.017448
893.566926	0.017275
893.749728	0.017078
893.932511	0.017665
894.115277	0.017602
894.298024	0.017755
894.480753	0.017862
894.663464	0.017969
894.846157	0.018042
895.028831	0.018267
895.211487	0.018572
895.394125	0.018433
895.576745	0.018221
895.759346	0.018192
895.941930	0.017958
896.124495	0.017959
896.307041	0.018149
896.489570	0.017922
896.672080	0.017767
896.854573	0.017468
897.037046	0.017918
897.219502	0.017904
897.401940	0.017692
897.584359	0.017833
897.766760	0.017810
897.949143	0.017578
898.131507	0.017460
898.313854	0.017363
898.496182	0.017616
898.678492	0.017395
898.860783	0.017271
899.043057	0.017570
899.225312	0.017432
899.407549	0.017209
899.589768	0.017295
899.771968	0.017425
899.954151	0.017565
900.136315	0.017439
900.318461	0.017262
900.500588	0.017033
900.682698	0.016884
900.864789	0.017143
901.046862	0.016991
901.228917	0.016795
901.410953	0.016667
901.592971	0.016566
901.774972	0.016413
901.956953	0.016348
902.138917	0.016541
902.320862	0.016700
902.502790	0.016614
902.684699	0.016905
902.866589	0.017005
903.048462	0.017193
903.230316	0.017156
903.412152	0.017251
903.593970	0.017647
903.775770	0.017294
903.957551	0.017228
904.139314	0.017279
904.321059	0.017213
904.502786	0.017429
904.684494	0.017633
904.866185	0.017679
905.047857	0.017833
905.229510	0.018146
905.411146	0.018444
905.592763	0.018345
905.774363	0.018203
905.955943	0.018507
906.137506	0.018344
906.319051	0.018267
906.500577	0.018155
906.682085	0.017954
906.863575	0.017365
907.045046	0.016970
907.226500	0.017135
907.407935	0.017168
907.589352	0.016729
907.770750	0.016505
907.952131	0.015960
908.133493	0.016089
908.314837	0.016091
908.496163	0.016022
908.677470	0.016334
908.858760	0.016016
909.040031	0.016277
909.221284	0.015993
909.402518	0.016017
909.583735	0.016509
909.764933	0.016422
909.946113	0.016211
910.127275	0.015994
910.308418	0.015780
910.489544	0.015817
910.670651	0.015571
910.851740	0.016067
911.032810	0.016329
911.213863	0.016081
911.394897	0.015693
911.575913	0.015556
911.756911	0.015945
911.937890	0.015767
912.118851	0.015668
912.299794	0.015579
912.480719	0.015316
912.661626	0.014977
912.842514	0.014802
913.023384	0.015292
913.204236	0.015209
913.385070	0.014995
913.565886	0.015014
913.746683	0.014607
913.927462	0.014221
914.108223	0.014021
914.288965	0.014116
914.469690	0.014140
914.650396	0.014008
914.831084	0.014334
915.011754	0.013952
915.192405	0.013704
915.373038	0.014085
915.553653	0.014132
915.734250	0.014060
915.914829	0.014028
916.095389	0.013979
916.275931	0.013950
916.456455	0.013645
916.636961	0.013900
916.817448	0.014214
916.997917	0.014015
917.178368	0.014065
917.358801	0.014308
917.539216	0.014257
917.719612	0.014417
917.899990	0.014452
918.080350	0.014256
918.260692	0.014184
918.441015	0.014336
918.621320	0.014308
918.801607	0.014367
918.981876	0.014078
919.162127	0.013516
919.342359	0.013335
919.522573	0.013254
919.702769	0.013509
919.882947	0.013059
920.063106	0.012321
920.243247	0.012381
920.423370	0.011835
920.603475	0.011915
920.783562	0.012285
920.963630	0.012302
921.143680	0.012072
921.323712	0.011379
921.503725	0.011547
921.683721	0.011302
921.863698	0.011193
922.043657	0.011830
922.223598	0.011756
922.403520	0.011516
922.583424	0.011524
922.763311	0.011672
922.943178	0.011838
923.123028	0.012165
923.302859	0.012834
923.482673	0.012663
923.662467	0.012427
923.842244	0.012416
924.022003	0.012067
924.201743	0.011766
924.381465	0.011304
924.561169	0.011672
924.740854	0.011349
924.920522	0.010991
925.100171	0.010789
925.279802	0.010690
925.459414	0.009896
925.639009	0.009906
925.818585	0.009442
925.998143	0.009204
926.177683	0.008871
926.357205	0.009209
926.536708	0.009495
926.716193	0.009284
926.895660	0.009071
927.075109	0.009624
927.254539	0.009190
927.433951	0.009300
927.613345	0.009173
927.792721	0.009350
927.972079	0.008278
928.151418	0.007663
928.330739	0.007466
928.510042	0.007650
928.689327	0.007329
928.868593	0.007718
929.047841	0.007821
929.227071	0.007886
929.406283	0.007152
929.585476	0.007243
929.764652	0.007138
929.943809	0.007002
930.122948	0.006579
930.302068	0.006601
930.481171	0.006762
930.660255	0.006413
930.839321	0.006430
931.018369	0.006201
931.197398	0.006666
931.376409	0.006233
931.555402	0.006257
931.734377	0.006055
931.913334	0.005526
932.092272	0.004955
932.271192	0.004830
932.450094	0.004656
932.628978	0.005222
932.807844	0.004975
932.986691	0.005330
933.165520	0.005233
933.344331	0.004764
933.523123	0.004523
933.701898	0.004206
933.880654	0.003993
934.059392	0.003775
934.238111	0.003514
934.416813	0.003161
934.595496	0.003119
934.774161	0.003471
934.952808	0.003360
935.131437	0.004050
935.310047	0.004423
935.488639	0.004465
935.667213	0.003965
935.845769	0.004149
936.024306	0.004291
936.202825	0.004717
936.381326	0.003582
936.559809	0.003994
936.738274	0.003323
936.916720	0.003192
937.095148	0.003111
937.273558	0.003255
937.451950	0.003322
937.630323	0.003339
937.808678	0.002252
937.987015	0.003067
938.165334	0.002779
938.343635	0.002550
938.521917	0.002529
938.700181	0.002053
938.878427	0.002023
939.056655	0.001748
939.234864	0.001025
939.413055	0.001400
939.591228	0.000887
939.769383	0.000630
939.947519	0.000946
940.125638	0.000812
940.303738	0.000432
940.481820	0.000104
940.659883	-0.000351
940.837929	-0.000190
941.015956	-0.000097
941.193965	0.000234
941.371955	0.000602
941.549928	-0.000065
941.727882	-0.000433
941.905818	0.000258
942.083736	-0.000062
942.261636	0.000022
942.439517	-0.000176
942.617380	-0.000897
942.795225	-0.001596
942.973052	-0.002243
943.150860	-0.001887
943.328651	-0.001406
943.506423	-0.001106
943.684176	-0.000300
943.861912	-0.000750
944.039629	-0.000831
944.217328	-0.000429
944.395009	-0.000808
944.572672	-0.001463
944.750317	-0.001078
944.927943	-0.001379
945.105551	-0.002399
945.283141	-0.002295
945.460712	-0.002721
945.638265	-0.002571
945.815801	-0.002884
945.993317	-0.002938
946.170816	-0.001235
946.348297	-0.000910
946.525759	-0.002325
946.703203	-0.002022
946.880629	-0.003079
947.058036	-0.002440
947.235425	-0.002546
947.412797	-0.002554
947.590149	-0.000828
947.767484	-0.002259
947.944800	-0.002956
948.122099	-0.002565
948.299379	-0.002969
948.476640	-0.001934
948.653884	-0.002576
948.831109	-0.002867
949.008316	-0.002473
949.185505	-0.002915
949.362676	-0.001662
949.539828	-0.001934
949.716962	-0.001265
949.894078	-0.001380
950.071176	-0.002373
950.248256	-0.003546
950.425317	-0.003277
950.602360	-0.003693
950.779385	-0.003946
950.956391	-0.004780
951.133380	-0.004040
951.310350	-0.004131
951.487302	-0.003882
951.664235	-0.003783
951.841151	-0.003076
952.018048	-0.002837
952.194927	-0.002368
952.371788	-0.004238
952.548631	-0.004986
952.725455	-0.006687
952.902261	-0.007818
953.079049	-0.008221
953.255819	-0.008670
953.432570	-0.008776
953.609303	-0.008951
953.786018	-0.008903
953.962715	-0.006343
954.139394	-0.004561
954.316054	-0.002757
954.492696	-0.002569
954.669320	-0.001697
954.845926	-0.000934
955.022513	-0.000113
955.199083	0.000489
955.375634	-0.000651
955.552166	-0.001298
955.728681	-0.003478
955.905177	-0.003956
956.081655	-0.003636
956.258115	-0.003407
956.434557	-0.002936
956.610980	-0.001361
956.787385	-0.001795
956.963772	-0.000557
957.140141	-0.000708
957.316492	0.000096
957.492824	0.000066
957.669138	0.001120
957.845434	0.000543
958.021712	-0.000434
958.197971	-0.002196
958.374212	-0.000628
958.550435	-0.001081
958.726640	-0.001536
958.902826	-0.001771
959.078995	-0.000300
959.255145	-0.001385
959.431277	-0.000180
959.607390	0.001329
959.783486	0.002024
959.959563	-0.000491
960.135622	0.000524
960.311662	0.000630
960.487685	0.002033
960.663689	0.002278
960.839675	0.003952
961.015643	0.003219
961.191593	0.002064
961.367524	0.000942
961.543437	0.002867
961.719332	0.003207
961.895209	0.002609
962.071067	0.002178
962.246907	0.001461
962.422730	0.002325
962.598533	0.001190
962.774319	0.002011
962.950086	0.002293
963.125835	0.002380
963.301566	0.002114
963.477279	0.002425
963.652973	0.001163
963.828650	-0.000120
964.004308	-0.000030
964.179947	0.002308
964.355569	0.001270
964.531172	0.002065
964.706757	-0.000837
964.882324	-0.000857
965.057873	-0.000545
965.233403	0.000841
965.408916	0.002119
965.584410	0.001514
965.759885	-0.000727
965.935343	0.001527
966.110782	0.000956
966.286203	0.002746
966.461606	0.003460
966.636991	0.005485
966.812357	0.004959
966.987705	0.005195
967.163035	0.003565
967.338347	0.006147
967.513641	0.003218
967.688916	0.004906
967.864173	0.005086
968.039412	0.003624
968.214632	0.003595
968.389835	0.005160
968.565019	0.003162
968.740185	0.005141
968.915333	0.004438
969.090462	0.006062
969.265573	0.004709
969.440667	0.004857
969.615741	0.004621
969.790798	0.003950
969.965836	0.000665
970.140856	0.000285
970.315858	-0.001704
970.490842	-0.002636
970.665808	-0.002418
970.840755	-0.001267
971.015684	-0.001300
971.190595	0.001276
971.365487	0.000519
971.540362	0.002275
971.715218	0.004036
971.890056	0.006359
972.064875	0.007568
972.239677	0.008834
972.414460	0.007407
972.589225	0.006883
972.763972	0.005452
972.938700	0.006899
973.113411	0.007825
973.288103	0.007040
973.462777	0.007590
973.637432	0.007508
973.812070	0.005281
973.986689	0.005453
974.161290	0.005808
974.335873	0.007419
974.510437	0.006081
974.684984	0.004237
974.859512	0.004498
975.034022	0.003107
975.208513	0.004206
975.382987	0.004386
975.557442	0.005725
975.731879	0.005240
975.906298	0.003976
976.080698	0.004785
976.255080	0.005096
976.429445	0.007308
976.603790	0.007518
976.778118	0.006087
976.952427	0.006572
977.126719	0.008002
977.300992	0.008755
977.475246	0.009644
977.649483	0.010069
977.823701	0.011982
977.997901	0.010058
978.172083	0.010533
978.346247	0.010937
978.520392	0.013299
978.694519	0.011337
978.868628	0.010522
979.042719	0.008876
979.216791	0.008507
979.390845	0.007822
979.564882	0.008082
979.738899	0.008368
979.912899	0.007306
980.086880	0.004790
980.260843	0.004925
980.434788	0.005594
980.608715	0.005598
980.782623	0.004148
980.956514	0.005454
981.130386	0.005202
981.304240	0.004101
981.478075	0.004890
981.651892	0.006625
981.825692	0.005686
981.999472	0.006141
982.173235	0.005930
982.346980	0.007679
982.520706	0.007804
982.694414	0.007663
982.868104	0.005651
983.041775	0.006141
983.215428	0.006111
983.389064	0.007382
983.562680	0.006575
983.736279	0.006293
983.909860	0.005345
984.083422	0.004899
984.256966	0.005223
984.430491	0.006333
984.603999	0.006479
984.777488	0.004796
984.950959	0.003892
985.124412	0.004023
985.297847	0.005258
985.471263	0.004614
985.644661	0.004206
985.818041	0.003368
985.991403	0.003550
986.164747	0.002866
986.338072	0.003911
986.511379	0.004517
986.684668	0.005489
986.857938	0.004351
987.031191	0.004370
987.204425	0.004221
987.377641	0.003363
987.550839	0.004140
987.724018	0.002795
987.897179	0.002465
988.070322	0.001459
988.243447	0.000504
988.416554	0.002388
988.589642	0.003671
988.762712	0.005075
988.935764	0.004349
989.108798	0.004597
989.281813	0.005229
989.454811	0.005282
989.627790	0.007369
989.800751	0.008178
989.973693	0.007252
990.146617	0.006297
990.319524	0.004720
990.492412	0.008298
990.665281	0.006747
990.838133	0.008257
991.010966	0.007130
991.183781	0.006130
991.356578	0.005155
991.529356	0.005556
991.702117	0.006585
991.874859	0.006843
992.047583	0.005959
992.220288	0.007309
992.392976	0.007538
992.565645	0.009963
992.738296	0.008951
992.910929	0.009968
993.083543	0.007823
993.256139	0.006949
993.428718	0.006132
993.601277	0.006502
993.773819	0.005484
993.946342	0.003680
994.118848	0.002815
994.291335	0.003368
994.463803	0.003718
994.636254	0.006503
994.808686	0.005590
994.981100	0.005712
995.153496	0.004551
995.325874	0.004777
995.498233	0.006424
995.670574	0.005187
995.842897	0.007157
996.015202	0.006870
996.187488	0.005197
996.359757	0.005467
996.532007	0.005668
996.704239	0.005598
996.876452	0.005930
997.048648	0.005359
997.220825	0.006384
997.392984	0.004607
997.565124	0.004325
997.737247	0.004256
997.909351	0.004716
998.081437	0.005293
998.253505	0.005975
998.425554	0.004212
998.597586	0.004548
998.769599	0.003955
998.941594	0.003843
999.113571	0.003274
999.285529	0.002085
999.457469	0.003438
999.629391	0.003122
999.801295	0.003320
999.973181	0.005162
1000.145048	0.003499
1000.316897	0.004384
1000.488728	0.004806
1000.660541	0.004896
1000.832335	0.005706
1001.004111	0.004086
1001.175869	0.003273
1001.347609	0.002576
1001.519331	0.002647
1001.691034	0.003904
1001.862719	0.004095
1002.034386	0.004928
1002.206035	0.005513
1002.377665	0.005054
1002.549277	0.005075
1002.720871	0.006099
1002.892447	0.006866
1003.064004	0.007421
1003.235544	0.007225
1003.407065	0.004899
1003.578568	0.004561
1003.750052	0.004829
1003.921519	0.005636
1004.092967	0.006220
1004.264397	0.005301
1004.435809	0.005276
1004.607202	0.004861
1004.778577	0.006280
1004.949934	0.008176
1005.121273	0.008283
1005.292594	0.007290
1005.463896	0.007337
1005.635180	0.006932
1005.806446	0.007385
1005.977694	0.007006
1006.148923	0.007689
1006.320135	0.005551
1006.491328	0.004672
1006.662503	0.003613
1006.833659	0.003658
1007.004798	0.003702
1007.175918	0.003448
1007.347020	0.003668
1007.518103	0.003450
1007.689169	0.002331
1007.860216	0.003149
1008.031245	0.004790
1008.202256	0.005059
1008.373248	0.004450
1008.544223	0.004360
1008.715179	0.005495
1008.886117	0.007221
1009.057036	0.008555
1009.227938	0.008377
1009.398821	0.009010
1009.569686	0.008707
1009.740533	0.009830
1009.911361	0.010648
1010.082172	0.011197
1010.252964	0.011388
1010.423738	0.009492
1010.594493	0.008338
1010.765231	0.009345
1010.935950	0.008973
1011.106651	0.008115
1011.277334	0.007200
1011.447998	0.007567
1011.618645	0.006920
1011.789273	0.008272
1011.959882	0.008727
1012.130474	0.008457
1012.301048	0.008428
1012.471603	0.008904
1012.642140	0.009663
1012.812658	0.009577
1012.983159	0.009271
1013.153641	0.010904
1013.324105	0.009275
1013.494551	0.009618
1013.664979	0.009016
1013.835388	0.007383
1014.005779	0.006679
1014.176152	0.004613
1014.346507	0.005553
1014.516843	0.004707
1014.687162	0.003535
1014.857462	0.004099
1015.027744	0.003824
1015.198007	0.004453
1015.368252	0.004780
1015.538480	0.004457
1015.708689	0.006487
1015.878879	0.005362
1016.049052	0.005756
1016.219206	0.004518
1016.389342	0.003559
1016.559460	0.002824
1016.729559	0.003736
1016.899641	0.003637
1017.069704	0.003461
1017.239749	0.002299
1017.409775	0.002945
1017.579784	0.002897
1017.749774	0.003334
1017.919746	0.003530
1018.089700	0.003072
1018.259635	0.002284
1018.429553	0.002788
1018.599452	0.001418
1018.769333	0.001849
1018.939195	0.002147
1019.109040	0.003335
1019.278866	0.003254
1019.448674	0.003420
1019.618464	0.002930
1019.788235	0.002686
1019.957989	0.004328
1020.127724	0.005733
1020.297441	0.005773
1020.467139	0.004347
1020.636820	0.004610
1020.806482	0.004097
1020.976126	0.004093
1021.145752	0.004563
1021.315359	0.004315
1021.484948	0.004286
1021.654519	0.004127
1021.824072	0.004814
1021.993607	0.004886
1022.163123	0.004941
1022.332621	0.005829
1022.502101	0.005469
1022.671563	0.006387
1022.841007	0.005003
1023.010432	0.003049
1023.179839	0.002730
1023.349228	0.002304
1023.518598	0.003412
1023.687951	0.002682
1023.857285	0.002497
1024.026601	0.002907
1024.195899	0.001776
1024.365178	0.003596
1024.534439	0.003668
1024.703682	0.004575
1024.872907	0.005083
1025.042114	0.004220
1025.211302	0.005363
1025.380472	0.006595
1025.549624	0.005131
1025.718758	0.004943
1025.887873	0.004084
1026.056970	0.004649
1026.226049	0.005031
1026.395110	0.004445
1026.564153	0.005307
1026.733177	0.004289
1026.902183	0.004154
1027.071171	0.005625
1027.240141	0.007249
1027.409092	0.008284
1027.578026	0.009298
1027.746940	0.008654
1027.915837	0.009214
1028.084716	0.009017
1028.253576	0.008684
1028.422418	0.008716
1028.591242	0.008508
1028.760048	0.007292
1028.928835	0.007057
1029.097604	0.005270
1029.266355	0.006014
1029.435088	0.005310
1029.603803	0.005464
1029.772499	0.006045
1029.941177	0.004611
1030.109837	0.005064
1030.278478	0.005660
1030.447102	0.005457
1030.615707	0.006175
1030.784294	0.006750
1030.952863	0.006776
1031.121413	0.006248
1031.289945	0.004298
1031.458460	0.004810
1031.626955	0.005618
1031.795433	0.004471
1031.963892	0.004483
1032.132334	0.005556
1032.300756	0.006516
1032.469161	0.006585
1032.637548	0.006306
1032.805916	0.007339
1032.974266	0.008108
1033.142598	0.005465
1033.310911	0.006140
1033.479207	0.006706
1033.647484	0.004568
1033.815743	0.002047
1033.983983	0.000139
1034.152206	0.001024
1034.320410	-0.000117
1034.488596	-0.000704
1034.656764	-0.000494
1034.824914	0.000367
1034.993045	0.001210
1035.161158	0.001893
1035.329253	0.002991
1035.497330	0.004451
1035.665388	0.003196
1035.833428	0.003001
1036.001450	0.003101
1036.169454	0.005462
1036.337440	0.005169
1036.505407	0.004031
1036.673356	0.004775
1036.841287	0.003506
1037.009200	0.003515
1037.177094	0.004697
1037.344970	0.005820
1037.512828	0.006085
1037.680668	0.004708
1037.848489	0.005607
1038.016293	0.005815
1038.184078	0.005400
1038.351845	0.006378
1038.519593	0.006269
1038.687324	0.004743
1038.855036	0.005254
1039.022730	0.004944
1039.190406	0.004073
1039.358063	0.004301
1039.525702	0.002527
1039.693323	0.001710
1039.860926	0.001539
1040.028511	0.003954
1040.196077	0.005686
1040.363625	0.005731
1040.531155	0.005552
1040.698667	0.007217
1040.866161	0.007233
1041.033636	0.009965
1041.201093	0.010937
1041.368532	0.011213
1041.535952	0.008024
1041.703355	0.006670
1041.870739	0.006860
1042.038105	0.007018
1042.205452	0.007450
1042.372782	0.006720
1042.540093	0.006058
1042.707386	0.005598
1042.874661	0.005116
1043.041918	0.007096
1043.209156	0.007591
1043.376376	0.006914
1043.543578	0.005955
1043.710762	0.003739
1043.877927	0.004634
1044.045074	0.003712
1044.212203	0.003868
1044.379314	0.005048
1044.546407	0.004570
1044.713481	0.006058
1044.880537	0.006178
1045.047575	0.006715
1045.214595	0.007765
1045.381596	0.006572
1045.548579	0.008487
1045.715544	0.008904
1045.882491	0.006880
1046.049420	0.006062
1046.216330	0.004641
1046.383222	0.004297
1046.550096	0.003544
1046.716951	0.004518
1046.883789	0.004334
1047.050608	0.002551
1047.217409	0.003553
1047.384192	0.004326
1047.550956	0.004732
1047.717703	0.005250
1047.884431	0.006829
1048.051140	0.009356
1048.217832	0.007556
1048.384505	0.008050
1048.551161	0.007985
1048.717798	0.006868
1048.884416	0.007408
1049.051017	0.008139
1049.217599	0.007237
1049.384163	0.007677
1049.550709	0.005368
1049.717237	0.005465
1049.883746	0.005362
1050.050237	0.004408
1050.216710	0.004715
1050.383165	0.003993
1050.549601	0.003097
1050.716019	0.002717
1050.882420	0.000111
1051.048801	0.001084
1051.215165	0.001769
1051.381510	0.002266
1051.547837	0.002946
1051.714146	0.003233
1051.880437	0.001888
1052.046709	0.002128
1052.212964	0.003681
1052.379200	0.005691
1052.545417	0.005126
1052.711617	0.006139
1052.877798	0.003976
1053.043961	0.004690
1053.210106	0.003298
1053.376233	0.004894
1053.542341	0.004909
1053.708432	0.004884
1053.874504	0.003572
1054.040557	0.002553
1054.206593	-0.000169
1054.372610	0.000037
1054.538609	0.000205
1054.704590	0.000158
1054.870553	0.000572
1055.036497	0.001347
1055.202424	0.001182
1055.368331	0.001544
1055.534221	0.003339
1055.700093	0.004951
1055.865946	0.006123
1056.031781	0.006477
1056.197598	0.007639
1056.363397	0.007234
1056.529177	0.005453
1056.694939	0.004040
1056.860683	0.003730
1057.026409	0.002884
1057.192116	0.002579
1057.357806	0.002147
1057.523477	0.001235
1057.689130	0.002650
1057.854764	0.002535
1058.020381	0.004268
1058.185979	0.004311
1058.351559	0.004308
1058.517120	0.004581
1058.682664	0.005021
1058.848189	0.004481
1059.013696	0.005036
1059.179185	0.002642
1059.344656	0.002026
1059.510108	0.001894
1059.675542	0.003519
1059.840958	0.003768
1060.006356	0.003173
1060.171735	0.002853
1060.337096	0.004599
1060.502439	0.004548
1060.667764	0.005106
1060.833071	0.005416
1060.998359	0.004865
1061.163629	0.003308
1061.328881	0.002508
1061.494115	0.003524
1061.659330	0.004014
1061.824527	0.002499
1061.989706	0.003242
1062.154867	0.003935
1062.320010	0.003824
1062.485134	0.003679
1062.650240	0.004935
1062.815328	0.005572
1062.980398	0.005898
1063.145449	0.004520
1063.310482	0.004955
1063.475497	0.004621
1063.640494	0.004412
1063.805473	0.004499
1063.970433	0.004926
1064.135375	0.004851
1064.300299	0.004425
1064.465204	0.004327
1064.630092	0.006241
1064.794961	0.005151
1064.959812	0.004320
1065.124645	0.003338
1065.289459	0.003398
1065.454256	0.003162
1065.619034	0.003427
1065.783793	0.002681
1065.948535	0.002629
1066.113258	0.002202
1066.277964	0.005189
1066.442651	0.006124
1066.607319	0.009165
1066.771970	0.008556
1066.936602	0.008896
1067.101216	0.007120
1067.265812	0.010574
1067.430389	0.011345
1067.594949	0.010283
1067.759490	0.008444
1067.924013	0.007518
1068.088518	0.004555
1068.253004	0.005741
1068.417472	0.004805
1068.581922	0.005164
1068.746354	0.002181
1068.910768	0.001832
1069.075163	0.002564
1069.239540	0.001653
1069.403899	0.001105
1069.568240	0.000785
1069.732562	0.002807
1069.896866	0.004391
1070.061152	0.004046
1070.225420	0.004776
1070.389670	0.005573
1070.553901	0.007277
1070.718114	0.009461
1070.882309	0.009716
1071.046486	0.011158
1071.210644	0.011378
1071.374784	0.011207
1071.538906	0.011595
1071.703010	0.011463
1071.867096	0.010028
1072.031163	0.007454
1072.195212	0.004746
1072.359243	0.004531
1072.523256	0.005022
1072.687250	0.003924
1072.851226	0.002324
1073.015184	0.002399
1073.179124	0.003898
1073.343045	0.003755
1073.506949	0.002828
1073.670834	0.004516
1073.834701	0.003714
1073.998549	0.003091
1074.162380	0.001723
1074.326192	0.003060
1074.489986	0.004006
1074.653761	0.001416
1074.817519	-0.000027
1074.981258	0.001335
1075.144979	-0.000900
1075.308682	0.000905
1075.472367	0.002491
1075.636033	0.001625
1075.799681	0.000910
1075.963311	-0.000670
1076.126923	0.001079
1076.290516	0.001318
1076.454092	-0.000167
1076.617649	0.002312
1076.781187	0.003060
1076.944708	0.001798
1077.108210	0.003879
1077.271695	0.003628
1077.435160	0.005958
1077.598608	0.004562
1077.762038	0.005480
1077.925449	0.006433
1078.088842	0.005286
1078.252217	0.003829
1078.415573	0.001557
1078.578912	0.002740
1078.742232	0.001484
1078.905534	0.001309
1079.068817	0.001978
1079.232083	0.004922
1079.395330	0.008905
1079.558559	0.008763
1079.721770	0.010140
1079.884962	0.010549
1080.048136	0.005292
1080.211293	0.006870
1080.374430	0.003542
1080.537550	0.003047
1080.700651	0.000003
1080.863735	-0.003823
1081.026800	-0.002053
1081.189846	-0.003803
1081.352875	-0.003222
1081.515885	-0.001064
1081.678877	-0.000673
1081.841851	0.001906
1082.004807	0.003798
1082.167744	0.004921
1082.330663	0.005348
1082.493564	0.004855
1082.656447	0.005667
1082.819312	0.007240
1082.982158	0.006466
1083.144986	0.005075
1083.307796	0.005856
1083.470587	0.003368
1083.633361	0.003062
1083.796116	0.004003
1083.958853	0.004915
1084.121571	0.005463
1084.284272	0.004874
1084.446954	0.005642
1084.609618	0.006350
1084.772264	0.003962
1084.934892	0.004372
1085.097501	0.004032
1085.260092	0.002103
1085.422665	0.000404
1085.585220	-0.000425
1085.747756	0.000284
1085.910274	0.000427
1086.072774	0.001464
1086.235256	0.001056
1086.397720	0.002946
1086.560165	0.002157
1086.722592	0.002493
1086.885001	0.001605
1087.047392	0.000794
1087.209764	-0.001845
1087.372119	-0.000484
1087.534455	-0.002892
1087.696772	-0.001748
1087.859072	-0.003044
1088.021353	-0.000727
1088.183616	-0.000843
1088.345861	-0.002190
1088.508088	-0.001987
1088.670296	-0.001648
1088.832486	-0.002328
1088.994658	-0.001384
1089.156812	0.000034
1089.318948	0.001027
1089.481065	-0.000319
1089.643164	-0.000328
1089.805245	0.005368
1089.967308	0.004911
1090.129352	0.005250
1090.291378	0.003328
1090.453386	0.003298
1090.615376	0.002102
1090.777347	0.003566
1090.939301	0.003785
1091.101236	0.003870
1091.263153	-0.000175
1091.425051	0.000573
1091.586932	0.001674
1091.748794	0.002034
1091.910638	0.002621
1092.072463	0.002054
1092.234271	0.001092
1092.396060	0.000311
1092.557831	0.001898
1092.719584	0.000528
1092.881319	-0.001984
1093.043035	-0.000232
1093.204733	-0.000290
1093.366413	0.001447
1093.528075	0.001256
1093.689718	-0.001728
1093.851343	-0.002385
1094.012950	-0.003668
1094.174539	-0.001942
1094.336110	0.002889
1094.497662	0.001876
1094.659196	0.002757
1094.820712	0.001361
1094.982210	0.002472
1095.143689	0.003342
1095.305151	0.004956
1095.466594	0.005575
1095.628018	0.006551
1095.789425	0.005855
1095.950813	0.004393
1096.112183	0.004222
1096.273535	0.004631
1096.434869	0.001552
1096.596184	0.002958
1096.757482	0.001597
1096.918761	0.000677
1097.080021	0.000253
1097.241264	-0.001270
1097.402488	-0.000141
1097.563694	-0.000913
1097.724882	-0.002302
1097.886052	-0.000992
1098.047203	-0.002054
1098.208336	-0.002202
1098.369451	-0.002579
1098.530548	-0.003838
1098.691627	-0.005744
1098.852687	-0.007260
1099.013729	-0.006434
1099.174753	-0.003805
1099.335758	-0.002139
1099.496746	-0.000142
1099.657715	0.001264
1099.818666	0.002820
1099.979599	0.001177
1100.140513	0.003620
1100.301409	0.003798
1100.462287	0.007173
1100.623147	0.003512
1100.783989	0.002144
1100.944812	-0.002822
1101.105617	-0.005614
1101.266404	-0.003145
1101.427173	-0.000558
1101.587923	0.002041
1101.748656	0.003300
1101.909370	0.000746
1102.070066	0.002645
1102.230743	0.001435
1102.391403	0.006728
1102.552044	0.011127
1102.712667	0.003582
1102.873271	0.006417
1103.033858	0.003607
1103.194426	0.003979
1103.354976	0.005069
1103.515508	0.004973
1103.676021	0.007007
1103.836517	0.004284
1103.996994	0.001482
1104.157453	0.006559
1104.317893	0.006520
1104.478316	0.005225
1104.638720	0.005292
1104.799106	0.002494
1104.959474	0.002258
1105.119823	0.002735
1105.280155	0.003850
1105.440468	0.004115
1105.600763	0.003388
1105.761039	0.003325
1105.921298	0.004963
1106.081538	0.003726
1106.241760	0.007738
1106.401964	0.010105
1106.562149	0.010661
1106.722316	0.009822
1106.882465	0.010409
1107.042596	0.010545
1107.202709	0.010909
1107.362803	0.010221
1107.522879	0.008248
1107.682937	0.005112
1107.842977	0.005972
1108.002999	0.003879
1108.163002	0.006589
1108.322987	0.004881
1108.482954	0.005304
1108.642902	0.001865
1108.802833	-0.000054
1108.962745	0.001375
1109.122639	0.000407
1109.282515	-0.001539
1109.442372	-0.002415
1109.602211	-0.003408
1109.762032	-0.000143
1109.921835	0.002026
1110.081620	0.003186
1110.241386	0.008048
1110.401134	0.004456
1110.560864	0.004190
1110.720576	0.003410
1110.880269	0.005909
1111.039945	0.003978
1111.199602	0.004053
1111.359240	0.006144
1111.518861	0.007431
1111.678463	0.002343
1111.838047	0.007257
1111.997613	0.007461
1112.157161	0.008159
1112.316690	0.006506
1112.476202	0.004989
1112.635695	0.004163
1112.795169	-0.000938
1112.954626	-0.002146
1113.114064	-0.002958
1113.273484	-0.005351
1113.432886	-0.006220
1113.592270	-0.009743
1113.751635	-0.007391
1113.910983	-0.007833
1114.070312	-0.007085
1114.229622	-0.006315
1114.388915	-0.003159
1114.548189	0.000585
1114.707445	0.003081
1114.866683	0.006330
1115.025903	0.008547
1115.185104	0.006933
1115.344287	0.010957
1115.503452	0.007689
1115.662599	0.008379
1115.821727	0.004607
1115.980838	0.004000
1116.139930	0.007380
1116.299004	0.001335
1116.458059	-0.001676
1116.617097	-0.002129
1116.776116	-0.001159
1116.935117	0.003065
1117.094099	0.003214
1117.253064	0.002288
1117.412010	0.002281
1117.570938	-0.001120
1117.729848	0.003299
1117.888740	0.003997
1118.047613	0.006156
1118.206468	0.001385
1118.365305	-0.007308
1118.524124	-0.005334
1118.682924	-0.003403
1118.841707	-0.000537
1119.000471	-0.003000
1119.159216	0.000842
1119.317944	-0.000367
1119.476653	-0.001487
1119.635344	0.004549
1119.794017	0.009739
1119.952672	0.009349
1120.111308	0.004735
1120.269927	0.003372
1120.428527	0.001693
1120.587108	0.000009
1120.745672	0.006513
1120.904217	0.003146
1121.062744	-0.002170
1121.221253	-0.002302
1121.379744	-0.001399
1121.538216	0.002900
1121.696671	-0.001329
1121.855107	0.000794
1122.013524	-0.001199
1122.171924	-0.003250
1122.330305	0.001143
1122.488668	0.004969
1122.647013	0.005719
1122.805340	0.000459
1122.963648	0.000259
1123.121938	0.004281
1123.280210	0.007507
1123.438464	0.008451
1123.596700	0.010306
1123.754917	0.011149
1123.913116	0.007780
1124.071297	0.005555
1124.229459	0.005167
1124.387604	0.004826
1124.545730	0.002143
1124.703838	-0.000716
1124.861928	-0.000598
1125.019999	-0.002855
1125.178052	-0.004996
1125.336088	-0.004065
1125.494104	-0.001710
1125.652103	0.000868
1125.810083	-0.001069
1125.968045	0.002936
1126.125989	0.004544
1126.283915	0.003591
1126.441823	-0.001860
1126.599712	-0.003693
1126.757583	-0.000248
1126.915436	0.000913
1127.073270	0.001345
1127.231087	0.004843
1127.388885	0.001875
1127.546665	0.000278
1127.704426	-0.001439
1127.862170	0.006850
1128.019895	0.009437
1128.177602	0.003814
1128.335291	0.005773
1128.492961	0.005633
1128.650614	0.004135
1128.808248	0.002497
1128.965864	0.004813
1129.123461	0.010425
1129.281041	0.003245
1129.438602	0.001765
1129.596145	0.005370
1129.753670	0.002305
1129.911176	0.000074
1130.068665	-0.004008
1130.226135	-0.003438
1130.383587	-0.004986
1130.541020	-0.005355
1130.698436	0.002729
1130.855833	0.004593
1131.013212	0.004146
1131.170573	0.005517
1131.327915	0.008170
1131.485239	0.012406
1131.642545	0.014438
1131.799833	0.012486
1131.957103	0.011988
1132.114354	0.011953
1132.271588	0.015116
1132.428803	0.016702
1132.585999	0.014656
1132.743178	0.010566
1132.900338	0.005609
1133.057480	0.004952
1133.214604	0.003317
1133.371710	0.001227
1133.528797	-0.006337
1133.685866	-0.011629
1133.842917	-0.014277
1133.999950	-0.014195
1134.156964	-0.009585
1134.313960	-0.006694
1134.470938	-0.007253
1134.627898	-0.004743
1134.784840	-0.004276
1134.941763	-0.000734
1135.098668	0.000765
1135.255555	0.002102
1135.412424	0.000377
1135.569274	-0.003658
1135.726107	-0.002663
1135.882921	-0.002745
1136.039716	-0.000499
1136.196494	-0.001880
1136.353253	0.000186
1136.509995	0.000691
1136.666717	-0.001854
1136.823422	-0.001722
1136.980109	-0.005114
1137.136777	-0.000841
1137.293427	-0.001486
1137.450059	-0.003856
1137.606672	-0.001647
1137.763267	-0.003449
1137.919844	-0.005196
1138.076403	-0.002671
1138.232944	0.001670
1138.389466	0.010857
1138.545971	0.012190
1138.702457	0.016722
1138.858924	0.016452
1139.015374	0.011492
1139.171805	0.011934
1139.328218	0.011145
1139.484613	0.010770
1139.640990	0.007284
1139.797348	0.005580
1139.953688	-0.000262
1140.110010	-0.002817
1140.266314	-0.006114
1140.422600	-0.005194
1140.578867	0.002434
1140.735116	0.006545
1140.891347	0.008446
1141.047559	0.009328
1141.203754	0.008401
1141.359930	0.009306
1141.516088	0.010661
1141.672228	0.015272
1141.828349	0.016808
1141.984452	0.006640
1142.140537	0.009074
1142.296604	0.007160
1142.452653	0.007676
1142.608683	0.002405
1142.764695	0.000923
1142.920689	0.004192
1143.076665	0.007518
1143.232622	0.003828
1143.388562	0.004379
1143.544483	-0.000104
1143.700385	-0.000004
1143.856270	-0.002196
1144.012136	0.002079
1144.167985	0.000846
1144.323814	-0.003591
1144.479626	-0.005283
1144.635420	0.001295
1144.791195	-0.004505
1144.946952	-0.005663
1145.102691	-0.007995
1145.258411	-0.009470
1145.414113	-0.010266
1145.569798	-0.003279
1145.725463	-0.001619
1145.881111	-0.005291
1146.036741	-0.005739
1146.192352	-0.001552
1146.347945	-0.001070
1146.503519	0.007361
1146.659076	0.012460
1146.814614	0.010297
1146.970134	0.003506
1147.125636	0.000119
1147.281120	0.007325
1147.436585	0.013653
1147.592032	0.019577
1147.747461	0.025620
1147.902872	0.019135
1148.058265	0.018221
1148.213639	0.020772
1148.368995	0.018096
1148.524333	0.019391
1148.679653	0.016447
1148.834954	0.006736
1148.990237	0.001613
1149.145502	0.005216
1149.300749	0.004803
1149.455977	0.007762
1149.611188	0.008582
1149.766380	0.014760
1149.921553	0.013727
1150.076709	0.010580
1150.231846	0.009899
1150.386966	0.015437
1150.542066	0.006191
1150.697149	0.008370
1150.852214	0.002677
1151.007260	-0.000841
1151.162288	-0.003395
1151.317298	-0.005456
1151.472289	-0.003894
1151.627263	-0.000450
1151.782218	-0.011474
1151.937155	-0.009503
1152.092073	-0.005955
1152.246974	0.000598
1152.401856	0.001872
1152.556720	0.006475
1152.711566	0.002772
1152.866393	0.000752
1153.021203	-0.003840
1153.175994	0.002927
1153.330767	0.000274
1153.485521	-0.003324
1153.640258	-0.002827
1153.794976	0.001511
1153.949676	0.001208
1154.104358	0.007911
1154.259021	0.008512
1154.413667	0.008836
1154.568294	0.001737
1154.722903	-0.002652
1154.877493	-0.001696
1155.032066	-0.008289
1155.186620	-0.009558
1155.341156	-0.006731
1155.495674	-0.003787
1155.650173	-0.005031
1155.804654	-0.009916
1155.959118	0.006302
1156.113562	0.008723
1156.267989	0.003911
1156.422397	0.005902
1156.576788	-0.000052
1156.731160	-0.003658
1156.885513	-0.000073
1157.039849	0.001714
1157.194166	0.003479
1157.348465	-0.003475
1157.502746	0.000190
1157.657009	-0.001423
1157.811253	-0.004281
1157.965479	0.005235
1158.119687	-0.000173
1158.273877	-0.006611
1158.428048	-0.000815
1158.582201	0.001386
1158.736337	-0.012603
1158.890453	-0.009871
1159.044552	-0.009557
1159.198632	-0.008460
1159.352694	-0.011789
1159.506738	-0.011656
1159.660764	-0.009974
1159.814771	-0.018041
1159.968761	-0.017996
1160.122732	-0.005711
1160.276685	-0.014202
1160.430619	-0.001588
1160.584535	0.004158
1160.738434	0.008487
1160.892313	0.006778
1161.046175	0.010807
1161.200019	0.016139
1161.353844	0.024017
1161.507651	0.020092
1161.661440	0.026735
1161.815210	0.018662
1161.968962	0.013019
1162.122697	0.009459
1162.276412	0.007177
1162.430110	-0.007439
1162.583789	-0.010727
1162.737451	-0.012530
1162.891094	-0.004425
1163.044718	-0.011441
1163.198325	-0.010553
1163.351913	-0.010517
1163.505483	-0.010158
1163.659035	0.003275
1163.812569	0.015205
1163.966084	0.014445
1164.119581	0.021660
1164.273060	0.021208
1164.426521	0.032150
1164.579964	0.028529
1164.733388	0.032207
1164.886794	0.031166
1165.040182	0.019303
1165.193551	0.015714
1165.346903	0.016497
1165.500236	-0.002122
1165.653551	-0.004375
1165.806848	-0.015963
1165.960126	-0.017570
1166.113386	-0.020726
1166.266628	-0.024207
1166.419852	-0.025521
1166.573058	-0.024666
1166.726245	-0.022844
1166.879414	-0.022008
1167.032565	-0.028043
1167.185698	-0.019713
1167.338812	-0.016175
1167.491909	-0.021621
1167.644987	-0.013173
1167.798046	-0.009389
1167.951088	-0.012556
1168.104111	-0.017081
1168.257117	-0.006481
1168.410103	0.001241
1168.563072	-0.008551
1168.716023	-0.009455
1168.868955	-0.012555
1169.021869	-0.014435
1169.174765	-0.012303
1169.327642	-0.014694
1169.480501	-0.004296
1169.633343	-0.013652
1169.786165	-0.017628
1169.938970	-0.006921
1170.091757	-0.014348
1170.244525	-0.003480
1170.397275	-0.017360
1170.550007	-0.011205
1170.702720	-0.007356
1170.855415	-0.018043
1171.008092	-0.022192
1171.160751	-0.030802
1171.313392	-0.043674
1171.466014	-0.042508
1171.618619	-0.089777
1171.771205	-0.089777
1171.923772	-0.089777
