sample name	sample
index	694
start time	 03-22-2021  12:35:24 PM


Wavelength (nm)	Absorbance
494.344910	NaN
494.563924	NaN
494.782919	NaN
495.001897	NaN
495.220856	0.293689
495.439797	0.165148
495.658719	0.065405
495.877624	0.035303
496.096510	0.200313
496.315378	0.507788
496.534227	NaN
496.753059	0.549432
496.971872	0.090221
497.190667	0.015560
497.409444	0.020158
497.628203	0.020007
497.846943	0.017420
498.065665	0.017637
498.284369	0.016678
498.503055	0.016617
498.721723	0.017143
498.940372	0.018161
499.159003	0.018471
499.377616	0.018049
499.596210	0.018204
499.814787	0.018754
500.033345	0.018553
500.251885	0.019434
500.470406	0.019396
500.688910	0.019508
500.907395	0.019452
501.125862	0.019838
501.344311	0.019218
501.562742	0.018487
501.781154	0.018165
501.999548	0.018177
502.217924	0.017819
502.436282	0.017226
502.654621	0.016931
502.872942	0.017045
503.091245	0.016297
503.309530	0.016556
503.527797	0.016352
503.746045	0.016532
503.964275	0.016000
504.182487	0.014846
504.400681	0.014868
504.618856	0.014839
504.837013	0.015150
505.055152	0.015236
505.273273	0.015251
505.491376	0.015731
505.709460	0.015913
505.927526	0.015463
506.145574	0.015983
506.363604	0.015941
506.581615	0.015526
506.799608	0.014727
507.017583	0.015678
507.235540	0.015457
507.453478	0.015096
507.671399	0.014637
507.889301	0.016779
508.107185	0.016962
508.325050	0.017319
508.542898	0.017581
508.760727	0.017381
508.978538	0.016254
509.196330	0.016203
509.414105	0.015536
509.631861	0.015596
509.849599	0.014359
510.067319	0.013952
510.285021	0.012809
510.502704	0.012814
510.720369	0.012975
510.938016	0.013193
511.155645	0.013148
511.373255	0.013409
511.590848	0.013738
511.808422	0.013256
512.025977	0.013329
512.243515	0.014332
512.461034	0.014318
512.678536	0.014494
512.896018	0.014490
513.113483	0.014490
513.330930	0.015269
513.548358	0.014629
513.765768	0.014526
513.983160	0.014318
514.200533	0.014313
514.417889	0.014052
514.635226	0.013336
514.852545	0.013080
515.069845	0.013002
515.287128	0.012587
515.504392	0.012828
515.721638	0.013252
515.938866	0.013607
516.156075	0.012485
516.373267	0.012586
516.590440	0.012481
516.807594	0.012179
517.024731	0.012792
517.241850	0.013012
517.458950	0.012282
517.676032	0.012184
517.893095	0.012256
518.110141	0.012529
518.327168	0.012759
518.544177	0.012509
518.761168	0.013880
518.978141	0.013246
519.195095	0.012917
519.412031	0.013735
519.628949	0.013121
519.845849	0.012975
520.062731	0.013911
520.279594	0.013653
520.496439	0.014863
520.713266	0.013839
520.930074	0.014023
521.146865	0.014096
521.363637	0.013950
521.580391	0.014416
521.797127	0.014198
522.013844	0.014197
522.230543	0.014390
522.447224	0.013838
522.663887	0.013264
522.880532	0.013393
523.097158	0.013690
523.313766	0.014015
523.530356	0.014665
523.746928	0.014716
523.963481	0.014251
524.180017	0.014092
524.396534	0.014164
524.613032	0.014898
524.829513	0.014781
525.045975	0.014438
525.262420	0.014374
525.478845	0.013627
525.695253	0.013710
525.911643	0.013676
526.128014	0.014338
526.344367	0.014796
526.560702	0.014574
526.777018	0.014520
526.993316	0.014300
527.209597	0.014185
527.425858	0.013915
527.642102	0.013977
527.858328	0.014028
528.074535	0.013296
528.290724	0.013100
528.506894	0.012730
528.723047	0.012809
528.939181	0.012592
529.155297	0.012275
529.371395	0.012543
529.587475	0.012206
529.803536	0.012294
530.019579	0.012489
530.235604	0.012244
530.451611	0.012923
530.667600	0.012940
530.883570	0.013029
531.099522	0.012785
531.315456	0.012743
531.531372	0.013013
531.747269	0.012781
531.963148	0.012472
532.179009	0.012370
532.394852	0.012323
532.610676	0.011763
532.826482	0.011814
533.042271	0.012112
533.258040	0.012265
533.473792	0.012194
533.689525	0.012046
533.905240	0.012215
534.120937	0.012280
534.336616	0.012213
534.552277	0.012537
534.767919	0.012929
534.983543	0.012781
535.199149	0.012512
535.414736	0.012577
535.630306	0.013094
535.845857	0.013238
536.061390	0.013497
536.276904	0.013386
536.492401	0.013222
536.707879	0.012993
536.923339	0.013066
537.138781	0.013268
537.354204	0.012840
537.569610	0.012542
537.784997	0.011950
538.000366	0.011985
538.215716	0.011880
538.431049	0.012230
538.646363	0.012193
538.861659	0.012305
539.076937	0.012494
539.292196	0.012631
539.507438	0.012854
539.722661	0.013299
539.937866	0.013264
540.153052	0.013591
540.368221	0.013906
540.583371	0.013828
540.798503	0.013437
541.013617	0.013245
541.228712	0.013622
541.443789	0.013665
541.658848	0.013704
541.873889	0.013616
542.088912	0.013276
542.303916	0.013238
542.518902	0.013255
542.733870	0.013317
542.948820	0.013419
543.163752	0.013131
543.378665	0.012929
543.593560	0.013090
543.808437	0.013184
544.023295	0.013655
544.238136	0.013408
544.452958	0.013399
544.667762	0.013788
544.882548	0.013826
545.097315	0.013757
545.312064	0.013604
545.526795	0.013460
545.741508	0.012907
545.956203	0.012718
546.170879	0.012431
546.385537	0.012540
546.600177	0.012209
546.814799	0.012103
547.029402	0.012235
547.243988	0.012313
547.458555	0.012034
547.673103	0.012112
547.887634	0.011502
548.102146	0.011405
548.316640	0.011569
548.531116	0.011705
548.745574	0.011595
548.960013	0.011479
549.174435	0.011360
549.388838	0.011313
549.603222	0.011253
549.817589	0.011422
550.031937	0.011351
550.246267	0.011001
550.460579	0.010832
550.674873	0.010871
550.889148	0.010949
551.103405	0.010725
551.317644	0.010715
551.531865	0.010808
551.746068	0.011187
551.960252	0.011508
552.174418	0.011628
552.388566	0.011749
552.602696	0.011575
552.816807	0.011483
553.030900	0.012022
553.244975	0.012346
553.459032	0.012609
553.673070	0.012467
553.887091	0.012181
554.101093	0.011943
554.315077	0.012387
554.529042	0.012572
554.742990	0.012821
554.956919	0.012606
555.170830	0.012182
555.384722	0.011815
555.598597	0.011727
555.812453	0.011725
556.026291	0.011696
556.240111	0.011202
556.453913	0.011447
556.667696	0.011363
556.881461	0.011172
557.095208	0.011250
557.308937	0.011280
557.522647	0.011517
557.736339	0.011520
557.950013	0.011852
558.163669	0.011900
558.377307	0.011837
558.590926	0.011763
558.804527	0.012194
559.018110	0.012311
559.231675	0.012486
559.445221	0.012147
559.658749	0.012459
559.872259	0.012440
560.085751	0.012347
560.299225	0.012137
560.512680	0.012168
560.726117	0.011883
560.939536	0.011976
561.152937	0.012167
561.366319	0.012083
561.579683	0.011897
561.793029	0.011635
562.006357	0.011974
562.219667	0.011923
562.432958	0.012174
562.646231	0.012157
562.859486	0.012188
563.072723	0.012272
563.285941	0.012428
563.499141	0.012426
563.712323	0.012763
563.925487	0.012910
564.138632	0.012770
564.351760	0.012503
564.564869	0.012406
564.777960	0.012197
564.991032	0.011968
565.204087	0.012236
565.417123	0.012169
565.630141	0.012290
565.843140	0.011704
566.056122	0.011568
566.269085	0.011395
566.482030	0.011465
566.694957	0.011369
566.907866	0.011145
567.120756	0.010793
567.333628	0.010940
567.546482	0.010585
567.759318	0.010737
567.972135	0.010674
568.184935	0.011167
568.397716	0.011311
568.610478	0.011427
568.823223	0.011613
569.035949	0.011707
569.248657	0.011779
569.461347	0.011979
569.674019	0.011843
569.886672	0.012252
570.099308	0.011675
570.311925	0.011594
570.524523	0.011942
570.737104	0.011649
570.949666	0.011900
571.162210	0.011674
571.374736	0.011400
571.587244	0.011406
571.799733	0.011352
572.012205	0.011776
572.224658	0.011883
572.437092	0.011592
572.649509	0.011831
572.861907	0.011792
573.074287	0.011814
573.286649	0.011970
573.498993	0.012146
573.711318	0.012241
573.923625	0.012199
574.135914	0.012316
574.348185	0.012583
574.560438	0.012929
574.772672	0.012780
574.984888	0.013087
575.197086	0.013230
575.409266	0.013153
575.621427	0.013049
575.833570	0.012956
576.045695	0.012651
576.257802	0.012427
576.469890	0.012124
576.681961	0.012176
576.894013	0.011698
577.106046	0.011403
577.318062	0.011258
577.530059	0.011139
577.742039	0.011011
577.954000	0.011095
578.165942	0.010973
578.377867	0.010995
578.589773	0.010852
578.801661	0.011256
579.013531	0.011170
579.225382	0.011496
579.437216	0.011684
579.649031	0.011682
579.860828	0.012005
580.072606	0.011994
580.284367	0.011960
580.496109	0.012059
580.707833	0.011896
580.919539	0.012305
581.131227	0.012203
581.342896	0.012121
581.554547	0.012267
581.766180	0.012061
581.977795	0.012119
582.189391	0.012180
582.400969	0.012363
582.612529	0.012580
582.824071	0.012556
583.035595	0.012463
583.247100	0.012574
583.458587	0.012638
583.670056	0.012443
583.881506	0.012442
584.092939	0.012461
584.304353	0.012192
584.515749	0.012210
584.727127	0.012060
584.938486	0.012232
585.149828	0.011943
585.361151	0.011899
585.572456	0.012266
585.783742	0.012613
585.995011	0.012923
586.206261	0.013121
586.417493	0.012925
586.628706	0.012959
586.839902	0.012964
587.051079	0.013332
587.262238	0.013117
587.473379	0.012637
587.684502	0.012239
587.895606	0.011832
588.106692	0.011811
588.317760	0.011994
588.528810	0.011832
588.739841	0.011860
588.950855	0.011760
589.161850	0.011852
589.372827	0.012209
589.583785	0.012457
589.794726	0.012435
590.005648	0.012064
590.216552	0.011896
590.427437	0.012210
590.638305	0.012129
590.849154	0.012320
591.059985	0.012373
591.270798	0.012293
591.481592	0.012088
591.692369	0.012390
591.903127	0.012675
592.113867	0.012785
592.324588	0.012584
592.535292	0.012606
592.745977	0.012643
592.956644	0.012406
593.167293	0.012302
593.377923	0.012203
593.588536	0.011916
593.799130	0.011860
594.009706	0.011798
594.220263	0.012025
594.430803	0.012000
594.641324	0.011770
594.851827	0.012053
595.062312	0.012151
595.272778	0.012275
595.483227	0.012469
595.693657	0.012653
595.904069	0.012647
596.114462	0.012415
596.324838	0.012689
596.535195	0.012869
596.745534	0.012878
596.955855	0.012975
597.166157	0.013208
597.376441	0.013056
597.586707	0.013130
597.796955	0.013248
598.007185	0.013372
598.217396	0.013323
598.427589	0.013324
598.637764	0.013449
598.847921	0.013388
599.058060	0.013029
599.268180	0.013076
599.478282	0.012625
599.688366	0.012400
599.898431	0.012471
600.108479	0.012217
600.318508	0.012115
600.528519	0.012086
600.738511	0.012112
600.948486	0.012415
601.158442	0.012426
601.368380	0.012646
601.578300	0.012748
601.788202	0.012664
601.998085	0.012673
602.207950	0.012675
602.417797	0.012626
602.627626	0.012550
602.837436	0.012410
603.047228	0.012232
603.257002	0.012284
603.466758	0.012182
603.676496	0.012295
603.886215	0.012277
604.095916	0.012492
604.305599	0.012330
604.515264	0.012332
604.724910	0.012452
604.934538	0.012917
605.144148	0.012951
605.353740	0.013079
605.563314	0.013033
605.772869	0.013348
605.982406	0.013125
606.191925	0.013318
606.401425	0.013531
606.610908	0.013435
606.820372	0.013402
607.029818	0.013568
607.239246	0.013530
607.448655	0.013440
607.658047	0.013153
607.867420	0.013162
608.076775	0.013082
608.286111	0.012973
608.495430	0.013101
608.704730	0.012841
608.914012	0.012502
609.123275	0.012412
609.332521	0.012582
609.541748	0.012955
609.750957	0.012928
609.960148	0.013016
610.169321	0.012799
610.378475	0.012761
610.587611	0.013021
610.796729	0.013346
611.005829	0.013246
611.214910	0.013222
611.423974	0.012893
611.633019	0.012943
611.842045	0.012925
612.051054	0.012936
612.260044	0.013029
612.469017	0.012963
612.677970	0.012842
612.886906	0.013035
613.095824	0.012927
613.304723	0.013005
613.513604	0.012889
613.722467	0.012753
613.931311	0.012771
614.140138	0.012493
614.348946	0.012331
614.557736	0.012327
614.766507	0.012273
614.975261	0.012525
615.183996	0.012561
615.392713	0.012856
615.601412	0.012825
615.810092	0.012817
616.018754	0.013048
616.227399	0.013213
616.436024	0.013141
616.644632	0.013299
616.853222	0.013073
617.061793	0.013189
617.270346	0.013024
617.478880	0.013243
617.687397	0.013513
617.895895	0.013632
618.104375	0.013499
618.312837	0.013788
618.521281	0.013939
618.729706	0.014246
618.938113	0.014413
619.146502	0.014514
619.354873	0.014455
619.563226	0.014242
619.771560	0.014371
619.979876	0.014463
620.188174	0.014358
620.396453	0.014246
620.604715	0.014181
620.812958	0.013920
621.021183	0.013707
621.229390	0.013724
621.437578	0.013913
621.645748	0.013750
621.853900	0.013699
622.062034	0.013688
622.270150	0.013650
622.478247	0.013542
622.686326	0.013392
622.894387	0.013632
623.102430	0.013681
623.310454	0.013625
623.518461	0.013458
623.726449	0.013541
623.934418	0.013431
624.142370	0.013554
624.350303	0.013463
624.558218	0.013513
624.766115	0.013441
624.973994	0.013434
625.181855	0.013307
625.389697	0.013539
625.597521	0.013736
625.805327	0.013745
626.013114	0.013891
626.220883	0.013935
626.428634	0.014166
626.636367	0.014250
626.844082	0.014514
627.051778	0.014854
627.259457	0.014699
627.467117	0.014503
627.674758	0.014837
627.882382	0.014598
628.089987	0.014638
628.297574	0.014761
628.505143	0.014648
628.712694	0.014546
628.920226	0.014501
629.127740	0.014553
629.335236	0.014588
629.542714	0.014385
629.750174	0.014401
629.957615	0.014334
630.165038	0.014117
630.372443	0.014148
630.579829	0.013821
630.787198	0.013637
630.994548	0.013795
631.201880	0.013675
631.409194	0.013705
631.616489	0.013591
631.823766	0.013559
632.031025	0.013622
632.238266	0.013642
632.445489	0.014031
632.652693	0.014250
632.859879	0.014220
633.067047	0.014276
633.274197	0.014141
633.481329	0.014420
633.688442	0.014486
633.895537	0.014423
634.102614	0.014345
634.309672	0.014189
634.516713	0.013975
634.723735	0.013817
634.930739	0.013647
635.137724	0.013738
635.344692	0.013425
635.551641	0.013331
635.758572	0.013401
635.965485	0.013452
636.172379	0.013561
636.379256	0.013742
636.586114	0.013890
636.792954	0.014131
636.999775	0.014076
637.206579	0.014121
637.413364	0.014251
637.620131	0.014214
637.826880	0.014143
638.033610	0.013866
638.240323	0.013806
638.447017	0.013604
638.653692	0.013545
638.860350	0.013434
639.066990	0.013463
639.273611	0.013578
639.480214	0.013614
639.686798	0.013655
639.893365	0.013915
640.099913	0.013917
640.306443	0.014078
640.512955	0.014077
640.719449	0.014249
640.925924	0.014294
641.132381	0.014150
641.338820	0.014051
641.545241	0.014168
641.751644	0.013888
641.958028	0.013756
642.164394	0.013840
642.370742	0.013902
642.577071	0.013868
642.783383	0.013838
642.989676	0.013782
643.195951	0.013793
643.402207	0.013832
643.608446	0.013955
643.814666	0.014095
644.020868	0.014136
644.227052	0.014007
644.433218	0.014117
644.639365	0.014241
644.845494	0.014401
645.051605	0.014493
645.257698	0.014690
645.463772	0.014823
645.669828	0.014915
645.875866	0.014779
646.081886	0.015098
646.287888	0.015131
646.493871	0.015202
646.699836	0.015193
646.905783	0.015337
647.111712	0.015069
647.317622	0.014957
647.523514	0.015026
647.729388	0.014840
647.935244	0.014582
648.141082	0.014734
648.346901	0.014748
648.552702	0.014866
648.758485	0.014736
648.964250	0.014714
649.169996	0.014587
649.375724	0.014401
649.581434	0.014441
649.787126	0.014568
649.992800	0.014252
650.198455	0.014111
650.404092	0.014035
650.609711	0.013849
650.815311	0.013921
651.020894	0.014160
651.226458	0.014191
651.432004	0.014264
651.637532	0.014265
651.843041	0.014308
652.048532	0.014377
652.254006	0.014234
652.459460	0.014456
652.664897	0.014530
652.870315	0.014505
653.075716	0.014371
653.281097	0.014516
653.486461	0.014514
653.691807	0.014721
653.897134	0.014630
654.102443	0.014882
654.307734	0.014810
654.513006	0.014724
654.718261	0.014845
654.923497	0.015074
655.128715	0.015268
655.333915	0.015331
655.539096	0.015252
655.744259	0.015229
655.949404	0.015124
656.154531	0.015208
656.359640	0.015209
656.564730	0.015125
656.769802	0.015187
656.974856	0.014897
657.179892	0.014783
657.384909	0.014557
657.589908	0.014750
657.794889	0.014722
657.999852	0.014765
658.204797	0.014754
658.409723	0.014807
658.614631	0.014730
658.819521	0.014856
659.024393	0.014999
659.229246	0.015061
659.434081	0.015059
659.638898	0.014913
659.843697	0.014723
660.048478	0.014795
660.253240	0.014687
660.457984	0.014795
660.662710	0.014811
660.867417	0.014705
661.072107	0.014982
661.276778	0.014926
661.481431	0.015015
661.686066	0.015015
661.890682	0.014915
662.095281	0.015061
662.299861	0.014797
662.504422	0.014646
662.708966	0.014586
662.913491	0.014548
663.117999	0.014680
663.322488	0.014813
663.526958	0.014904
663.731411	0.014979
663.935845	0.014855
664.140261	0.014963
664.344659	0.015132
664.549038	0.015262
664.753400	0.015157
664.957743	0.015134
665.162068	0.015035
665.366375	0.015115
665.570663	0.015201
665.774933	0.015372
665.979185	0.015488
666.183419	0.015386
666.387635	0.015340
666.591832	0.015384
666.796011	0.015486
667.000172	0.015598
667.204315	0.015576
667.408439	0.015509
667.612545	0.015353
667.816634	0.015254
668.020703	0.015398
668.224755	0.015586
668.428788	0.015565
668.632803	0.015449
668.836800	0.015354
669.040779	0.015355
669.244739	0.015517
669.448681	0.015656
669.652605	0.015707
669.856511	0.015787
670.060399	0.015712
670.264268	0.015924
670.468119	0.016069
670.671952	0.016007
670.875767	0.016236
671.079563	0.016280
671.283341	0.016119
671.487101	0.016235
671.690843	0.016096
671.894567	0.016243
672.098272	0.016385
672.301959	0.016441
672.505628	0.016769
672.709278	0.016658
672.912911	0.016488
673.116525	0.016732
673.320121	0.016625
673.523699	0.016762
673.727258	0.016726
673.930799	0.016428
674.134322	0.016281
674.337827	0.016166
674.541314	0.016202
674.744782	0.016272
674.948232	0.016204
675.151664	0.016329
675.355078	0.016345
675.558474	0.016317
675.761851	0.016371
675.965210	0.016473
676.168551	0.016320
676.371873	0.016401
676.575178	0.016383
676.778464	0.016434
676.981732	0.016380
677.184981	0.016316
677.388213	0.016212
677.591426	0.016152
677.794621	0.016043
677.997798	0.016350
678.200956	0.016261
678.404097	0.016266
678.607219	0.016168
678.810323	0.016081
679.013408	0.016091
679.216476	0.016059
679.419525	0.016147
679.622556	0.016370
679.825569	0.016308
680.028563	0.016394
680.231540	0.016444
680.434498	0.016458
680.637438	0.016498
680.840359	0.016485
681.043263	0.016686
681.246148	0.016658
681.449015	0.016613
681.651864	0.016572
681.854694	0.016527
682.057506	0.016574
682.260301	0.016616
682.463076	0.016789
682.665834	0.016932
682.868573	0.016707
683.071295	0.016789
683.273998	0.016556
683.476682	0.016513
683.679349	0.016485
683.881997	0.016413
684.084627	0.016585
684.287239	0.016549
684.489833	0.016434
684.692408	0.016639
684.894965	0.016650
685.097504	0.016655
685.300025	0.016680
685.502527	0.016789
685.705012	0.016949
685.907478	0.016812
686.109925	0.016709
686.312355	0.016666
686.514766	0.016616
686.717159	0.016638
686.919534	0.016715
687.121891	0.016706
687.324230	0.016653
687.526550	0.016497
687.728852	0.016454
687.931136	0.016451
688.133401	0.016456
688.335649	0.016375
688.537878	0.016088
688.740089	0.016061
688.942281	0.015927
689.144456	0.015897
689.346612	0.015897
689.548750	0.015770
689.750870	0.015800
689.952971	0.015722
690.155055	0.015712
690.357120	0.015831
690.559167	0.015738
690.761195	0.015870
690.963206	0.015895
691.165198	0.015855
691.367172	0.016048
691.569128	0.015935
691.771065	0.016075
691.972984	0.016150
692.174885	0.016358
692.376768	0.016663
692.578633	0.016704
692.780479	0.016836
692.982308	0.016954
693.184118	0.016991
693.385909	0.017241
693.587683	0.017195
693.789438	0.017124
693.991175	0.017127
694.192894	0.017023
694.394595	0.017143
694.596277	0.017052
694.797941	0.017128
694.999587	0.017105
695.201215	0.017007
695.402824	0.017071
695.604416	0.017182
695.805989	0.017254
696.007543	0.017284
696.209080	0.017317
696.410598	0.017281
696.612099	0.017275
696.813580	0.017322
697.015044	0.017466
697.216490	0.017464
697.417917	0.017630
697.619326	0.017656
697.820717	0.017604
698.022089	0.017407
698.223444	0.017543
698.424780	0.017505
698.626098	0.017350
698.827397	0.017359
699.028679	0.017354
699.229942	0.017172
699.431187	0.016931
699.632414	0.016950
699.833622	0.016984
700.034813	0.016848
700.235985	0.016781
700.437139	0.016860
700.638274	0.016814
700.839392	0.016904
701.040491	0.016943
701.241572	0.016981
701.442635	0.017157
701.643679	0.017160
701.844706	0.017265
702.045714	0.017329
702.246704	0.017445
702.447675	0.017504
702.648629	0.017437
702.849564	0.017357
703.050481	0.017368
703.251380	0.017090
703.452260	0.017154
703.653122	0.017077
703.853966	0.016948
704.054792	0.016823
704.255600	0.016785
704.456389	0.016718
704.657160	0.016830
704.857913	0.016833
705.058648	0.017036
705.259365	0.017067
705.460063	0.017074
705.660743	0.017186
705.861405	0.017303
706.062048	0.017184
706.262674	0.017268
706.463281	0.017292
706.663870	0.017275
706.864441	0.017192
707.064993	0.017281
707.265527	0.017459
707.466043	0.017586
707.666541	0.017625
707.867021	0.017574
708.067482	0.017652
708.267925	0.017448
708.468350	0.017472
708.668757	0.017615
708.869145	0.017392
709.069516	0.017060
709.269868	0.016829
709.470201	0.016668
709.670517	0.016735
709.870814	0.016587
710.071093	0.016749
710.271354	0.016741
710.471597	0.016495
710.671821	0.016562
710.872028	0.016738
711.072216	0.016944
711.272385	0.017062
711.472537	0.017165
711.672670	0.017139
711.872785	0.017140
712.072882	0.017258
712.272961	0.017447
712.473021	0.017467
712.673063	0.017309
712.873087	0.017200
713.073093	0.017005
713.273081	0.016921
713.473050	0.017001
713.673001	0.016833
713.872934	0.016671
714.072849	0.016570
714.272745	0.016479
714.472623	0.016594
714.672483	0.016541
714.872325	0.016736
715.072148	0.016604
715.271954	0.016523
715.471741	0.016621
715.671509	0.016707
715.871260	0.016600
716.070992	0.016661
716.270707	0.016700
716.470403	0.016764
716.670080	0.016662
716.869740	0.016701
717.069381	0.016766
717.269004	0.016840
717.468609	0.016936
717.668195	0.016926
717.867764	0.016881
718.067314	0.016864
718.266846	0.016907
718.466360	0.017042
718.665855	0.017314
718.865332	0.017333
719.064791	0.017381
719.264232	0.017301
719.463655	0.017365
719.663059	0.017518
719.862445	0.017540
720.061813	0.017506
720.261163	0.017420
720.460494	0.017280
720.659807	0.017296
720.859102	0.017305
721.058379	0.017386
721.257638	0.017443
721.456878	0.017397
721.656100	0.017266
721.855304	0.017190
722.054490	0.017199
722.253657	0.017101
722.452806	0.017064
722.651937	0.016903
722.851050	0.016711
723.050145	0.016719
723.249221	0.016533
723.448279	0.016502
723.647319	0.016627
723.846340	0.016572
724.045344	0.016637
724.244329	0.016460
724.443296	0.016563
724.642245	0.016536
724.841175	0.016504
725.040088	0.016533
725.238982	0.016635
725.437857	0.016478
725.636715	0.016508
725.835554	0.016361
726.034376	0.016630
726.233179	0.016521
726.431963	0.016591
726.630730	0.016512
726.829478	0.016477
727.028208	0.016434
727.226920	0.016518
727.425614	0.016485
727.624289	0.016468
727.822946	0.016174
728.021585	0.016168
728.220206	0.016217
728.418808	0.016208
728.617392	0.016374
728.815958	0.016474
729.014506	0.016454
729.213036	0.016361
729.411547	0.016443
729.610040	0.016660
729.808515	0.016678
730.006972	0.016728
730.205410	0.016875
730.403831	0.016774
730.602233	0.016689
730.800616	0.016724
730.998982	0.016880
731.197329	0.016942
731.395658	0.016807
731.593969	0.016860
731.792262	0.016696
731.990536	0.016411
732.188793	0.016365
732.387031	0.016342
732.585250	0.016255
732.783452	0.016010
732.981635	0.015914
733.179800	0.015963
733.377947	0.015849
733.576076	0.015774
733.774186	0.015973
733.972278	0.015830
734.170352	0.015761
734.368408	0.015707
734.566446	0.015823
734.764465	0.015805
734.962466	0.015935
735.160449	0.015877
735.358413	0.016060
735.556360	0.015927
735.754288	0.016167
735.952198	0.016143
736.150090	0.016260
736.347963	0.016340
736.545818	0.016338
736.743655	0.016160
736.941474	0.016240
737.139275	0.016178
737.337057	0.016187
737.534821	0.016277
737.732567	0.016288
737.930295	0.016306
738.128005	0.016112
738.325696	0.016056
738.523369	0.016081
738.721024	0.016056
738.918660	0.015952
739.116279	0.015964
739.313879	0.015787
739.511461	0.015797
739.709024	0.015655
739.906570	0.015712
740.104097	0.015761
740.301606	0.015697
740.499097	0.015798
740.696569	0.015820
740.894024	0.015897
741.091460	0.016025
741.288878	0.016094
741.486277	0.016453
741.683659	0.016601
741.881022	0.016740
742.078367	0.016791
742.275694	0.016857
742.473002	0.016908
742.670293	0.016988
742.867565	0.016834
743.064819	0.016770
743.262054	0.016446
743.459272	0.016401
743.656471	0.016502
743.853652	0.016441
744.050815	0.016309
744.247959	0.016401
744.445085	0.016280
744.642194	0.016497
744.839283	0.016704
745.036355	0.016784
745.233408	0.016856
745.430444	0.016696
745.627461	0.016834
745.824459	0.017038
746.021440	0.016990
746.218402	0.017185
746.415346	0.016988
746.612272	0.016923
746.809180	0.016881
747.006069	0.016736
747.202940	0.016795
747.399793	0.016725
747.596628	0.016622
747.793444	0.016757
747.990243	0.016701
748.187023	0.016804
748.383784	0.016843
748.580528	0.016950
748.777253	0.017087
748.973960	0.017258
749.170649	0.017553
749.367320	0.017625
749.563973	0.017634
749.760607	0.017649
749.957223	0.017641
750.153821	0.017745
750.350400	0.017542
750.546962	0.017512
750.743505	0.017324
750.940030	0.017099
751.136536	0.017001
751.333025	0.016923
751.529495	0.016933
751.725947	0.016906
751.922381	0.016668
752.118796	0.016657
752.315194	0.016791
752.511573	0.016766
752.707934	0.016766
752.904276	0.016669
753.100601	0.016693
753.296907	0.016617
753.493195	0.016584
753.689465	0.016335
753.885716	0.016474
754.081949	0.016261
754.278164	0.016382
754.474361	0.016405
754.670540	0.016555
754.866700	0.016312
755.062843	0.016122
755.258967	0.016102
755.455072	0.016477
755.651160	0.016527
755.847229	0.016484
756.043280	0.016236
756.239313	0.016179
756.435328	0.016191
756.631324	0.016278
756.827302	0.016254
757.023262	0.016211
757.219204	0.016346
757.415127	0.016272
757.611033	0.016454
757.806920	0.016639
758.002788	0.016660
758.198639	0.016716
758.394471	0.016682
758.590286	0.016837
758.786081	0.016899
758.981859	0.016412
759.177619	0.016288
759.373360	0.016193
759.569083	0.016360
759.764788	0.016280
759.960474	0.015982
760.156143	0.016185
760.351793	0.016203
760.547425	0.016285
760.743038	0.016483
760.938634	0.016796
761.134211	0.016795
761.329770	0.016492
761.525311	0.016583
761.720833	0.016632
761.916338	0.016497
762.111824	0.016524
762.307292	0.016607
762.502741	0.016574
762.698173	0.016469
762.893586	0.016552
763.088981	0.016696
763.284358	0.016648
763.479716	0.016619
763.675057	0.016754
763.870379	0.016681
764.065683	0.016451
764.260968	0.016574
764.456236	0.016286
764.651485	0.016078
764.846716	0.016059
765.041929	0.016056
765.237123	0.016247
765.432299	0.016158
765.627457	0.016292
765.822597	0.016387
766.017719	0.016464
766.212822	0.016602
766.407907	0.016693
766.602974	0.016505
766.798023	0.016518
766.993054	0.016543
767.188066	0.016504
767.383060	0.016372
767.578036	0.016313
767.772993	0.016280
767.967933	0.016445
768.162854	0.016240
768.357757	0.016492
768.552642	0.016514
768.747508	0.016407
768.942356	0.016582
769.137186	0.016704
769.331998	0.016854
769.526792	0.016806
769.721567	0.016834
769.916324	0.017254
770.111063	0.017119
770.305784	0.017147
770.500486	0.017211
770.695171	0.017042
770.889837	0.016964
771.084484	0.016971
771.279114	0.016992
771.473725	0.016938
771.668318	0.016787
771.862893	0.017074
772.057450	0.017368
772.251988	0.017435
772.446509	0.017444
772.641011	0.017783
772.835494	0.017831
773.029960	0.017867
773.224407	0.017849
773.418836	0.017868
773.613247	0.017654
773.807640	0.017417
774.002014	0.017254
774.196370	0.017285
774.390708	0.016956
774.585028	0.016938
774.779330	0.017081
774.973613	0.017156
775.167878	0.017122
775.362125	0.017194
775.556354	0.017143
775.750564	0.017257
775.944756	0.017396
776.138930	0.017489
776.333086	0.017484
776.527223	0.017242
776.721343	0.017295
776.915444	0.017313
777.109526	0.017342
777.303591	0.017398
777.497637	0.017331
777.691666	0.017336
777.885676	0.017316
778.079667	0.017302
778.273641	0.017337
778.467596	0.017183
778.661533	0.017147
778.855452	0.016972
779.049352	0.016762
779.243235	0.016706
779.437099	0.016695
779.630945	0.016705
779.824773	0.016583
780.018582	0.016812
780.212373	0.016830
780.406146	0.016844
780.599901	0.016892
780.793638	0.017039
780.987356	0.017269
781.181056	0.017269
781.374738	0.017326
781.568402	0.017490
781.762047	0.017293
781.955674	0.017374
782.149283	0.017414
782.342874	0.017552
782.536447	0.017629
782.730001	0.017626
782.923537	0.017543
783.117055	0.017489
783.310555	0.017418
783.504036	0.017629
783.697499	0.017697
783.890944	0.017832
784.084371	0.017737
784.277780	0.017883
784.471170	0.017946
784.664542	0.017987
784.857896	0.018037
785.051231	0.018043
785.244549	0.017839
785.437848	0.017815
785.631129	0.017844
785.824392	0.017901
786.017636	0.017809
786.210863	0.017800
786.404071	0.017846
786.597260	0.017877
786.790432	0.017779
786.983585	0.017794
787.176721	0.017754
787.369838	0.017604
787.562936	0.017504
787.756017	0.017477
787.949079	0.017324
788.142123	0.017237
788.335149	0.017307
788.528156	0.017462
788.721146	0.017427
788.914117	0.017285
789.107070	0.017214
789.300005	0.017412
789.492921	0.017284
789.685819	0.017159
789.878699	0.017009
790.071561	0.016740
790.264405	0.016678
790.457230	0.016758
790.650037	0.016760
790.842826	0.016841
791.035597	0.016747
791.228349	0.016817
791.421084	0.016926
791.613800	0.017082
791.806497	0.017200
791.999177	0.017250
792.191838	0.017335
792.384481	0.017439
792.577106	0.017554
792.769713	0.017663
792.962301	0.017685
793.154871	0.017752
793.347423	0.017667
793.539957	0.017724
793.732473	0.017796
793.924970	0.017674
794.117449	0.017783
794.309910	0.017812
794.502353	0.017698
794.694777	0.017718
794.887183	0.017713
795.079571	0.017909
795.271941	0.018007
795.464293	0.017963
795.656626	0.018105
795.848941	0.018140
796.041238	0.018218
796.233516	0.018202
796.425777	0.018124
796.618019	0.018087
796.810243	0.018183
797.002449	0.018135
797.194636	0.018213
797.386805	0.017794
797.578956	0.017627
797.771089	0.017500
797.963204	0.017646
798.155300	0.017788
798.347378	0.017991
798.539438	0.017856
798.731480	0.017755
798.923503	0.017711
799.115509	0.018183
799.307496	0.018308
799.499465	0.018403
799.691415	0.018361
799.883348	0.018530
800.075262	0.018465
800.267158	0.018595
800.459035	0.018683
800.650895	0.018579
800.842736	0.018592
801.034559	0.018447
801.226364	0.018423
801.418150	0.018301
801.609919	0.017927
801.801669	0.017839
801.993401	0.017681
802.185114	0.017637
802.376810	0.017862
802.568487	0.017599
802.760146	0.017715
802.951787	0.017486
803.143409	0.017375
803.335014	0.017563
803.526600	0.017454
803.718168	0.017392
803.909717	0.017214
804.101249	0.016985
804.292762	0.017024
804.484257	0.016897
804.675734	0.016949
804.867192	0.016995
805.058632	0.016928
805.250054	0.016880
805.441458	0.016990
805.632844	0.017131
805.824211	0.016942
806.015561	0.016914
806.206891	0.016835
806.398204	0.016852
806.589499	0.017048
806.780775	0.016887
806.972033	0.017034
807.163273	0.016965
807.354495	0.016851
807.545698	0.016956
807.736883	0.016868
807.928050	0.016948
808.119199	0.016904
808.310329	0.016914
808.501441	0.017084
808.692535	0.017178
808.883611	0.017166
809.074669	0.017280
809.265708	0.017367
809.456729	0.017560
809.647732	0.017682
809.838717	0.017688
810.029683	0.017434
810.220632	0.017507
810.411562	0.017386
810.602474	0.017345
810.793367	0.017373
810.984242	0.017271
811.175100	0.017243
811.365938	0.017125
811.556759	0.017211
811.747562	0.017438
811.938346	0.017427
812.129112	0.017326
812.319860	0.017254
812.510589	0.017210
812.701300	0.017290
812.891994	0.017301
813.082668	0.017366
813.273325	0.017414
813.463964	0.017501
813.654584	0.017329
813.845186	0.017372
814.035769	0.017424
814.226335	0.017497
814.416882	0.017549
814.607411	0.017473
814.797922	0.017501
814.988415	0.017392
815.178889	0.017212
815.369345	0.017343
815.559783	0.017494
815.750203	0.017604
815.940605	0.017666
816.130988	0.017542
816.321353	0.017481
816.511700	0.017330
816.702028	0.017379
816.892339	0.017326
817.082631	0.017265
817.272905	0.017190
817.463161	0.017020
817.653398	0.016876
817.843617	0.016952
818.033819	0.016918
818.224001	0.016832
818.414166	0.016749
818.604312	0.016713
818.794440	0.016701
818.984550	0.016650
819.174642	0.016699
819.364716	0.016601
819.554771	0.016553
819.744808	0.016671
819.934827	0.016699
820.124827	0.016912
820.314810	0.017007
820.504774	0.017144
820.694720	0.017149
820.884647	0.017121
821.074557	0.017338
821.264448	0.017344
821.454321	0.017475
821.644176	0.017691
821.834012	0.017533
822.023831	0.017547
822.213631	0.017230
822.403413	0.017324
822.593176	0.017610
822.782922	0.017355
822.972649	0.017384
823.162358	0.017284
823.352049	0.017079
823.541721	0.017009
823.731376	0.016825
823.921012	0.016881
824.110629	0.016711
824.300229	0.016476
824.489811	0.016599
824.679374	0.016704
824.868919	0.016705
825.058445	0.016649
825.247954	0.016681
825.437444	0.016902
825.626916	0.017049
825.816370	0.017219
826.005806	0.017049
826.195223	0.016914
826.384622	0.016691
826.574003	0.016667
826.763366	0.017079
826.952711	0.017221
827.142037	0.017252
827.331345	0.017202
827.520635	0.017153
827.709906	0.017569
827.899160	0.017793
828.088395	0.017970
828.277612	0.017946
828.466810	0.017724
828.655991	0.017624
828.845153	0.017493
829.034297	0.017557
829.223423	0.017531
829.412531	0.017370
829.601620	0.017219
829.790691	0.017147
829.979744	0.017241
830.168779	0.017514
830.357795	0.017686
830.546793	0.017829
830.735773	0.017958
830.924735	0.018025
831.113679	0.018004
831.302604	0.018372
831.491511	0.018463
831.680400	0.018271
831.869271	0.018073
832.058123	0.017707
832.246957	0.017526
832.435773	0.017439
832.624571	0.017604
832.813351	0.017658
833.002112	0.017618
833.190855	0.017764
833.379580	0.017859
833.568287	0.017747
833.756975	0.017973
833.945645	0.018255
834.134297	0.018428
834.322931	0.018218
834.511547	0.018171
834.700144	0.017953
834.888723	0.017856
835.077284	0.017848
835.265826	0.017910
835.454351	0.017875
835.642857	0.017652
835.831345	0.017275
836.019815	0.017294
836.208266	0.017375
836.396699	0.017324
836.585114	0.017150
836.773511	0.017225
836.961890	0.017341
837.150250	0.017507
837.338592	0.017422
837.526916	0.017618
837.715222	0.017518
837.903510	0.017279
838.091779	0.017301
838.280030	0.017250
838.468263	0.017085
838.656477	0.016966
838.844674	0.016902
839.032852	0.017200
839.221012	0.017223
839.409153	0.017349
839.597277	0.017680
839.785382	0.017985
839.973469	0.018303
840.161538	0.018390
840.349589	0.018496
840.537621	0.018316
840.725635	0.017936
840.913631	0.017971
841.101609	0.017984
841.289568	0.017736
841.477509	0.017392
841.665432	0.017426
841.853337	0.017675
842.041224	0.017679
842.229092	0.017907
842.416942	0.018291
842.604774	0.018552
842.792588	0.018709
842.980383	0.019067
843.168160	0.019258
843.355919	0.019181
843.543660	0.019306
843.731382	0.019380
843.919087	0.019520
844.106773	0.019529
844.294441	0.019349
844.482090	0.019320
844.669722	0.019234
844.857335	0.019285
845.044930	0.019447
845.232507	0.019363
845.420065	0.019299
845.607605	0.019178
845.795127	0.019255
845.982631	0.019476
846.170117	0.019558
846.357584	0.019579
846.545033	0.019716
846.732464	0.019751
846.919877	0.019829
847.107272	0.020028
847.294648	0.020218
847.482006	0.020193
847.669346	0.019948
847.856667	0.019938
848.043971	0.019747
848.231256	0.019572
848.418523	0.019511
848.605771	0.019448
848.793002	0.019399
848.980214	0.019189
849.167408	0.019167
849.354584	0.019514
849.541742	0.019743
849.728881	0.019896
849.916002	0.020074
850.103105	0.020097
850.290190	0.020042
850.477256	0.019912
850.664304	0.020129
850.851334	0.020055
851.038346	0.019896
851.225340	0.019805
851.412315	0.019937
851.599272	0.019996
851.786211	0.020204
851.973132	0.020136
852.160034	0.020399
852.346918	0.020516
852.533784	0.020664
852.720632	0.020750
852.907462	0.020761
853.094273	0.020729
853.281066	0.020791
853.467841	0.020826
853.654598	0.021194
853.841336	0.021230
854.028056	0.021260
854.214758	0.021473
854.401442	0.021728
854.588107	0.021761
854.774755	0.022155
854.961384	0.022430
855.147995	0.022371
855.334587	0.022431
855.521162	0.022760
855.707718	0.022784
855.894256	0.022888
856.080775	0.022913
856.267277	0.022850
856.453760	0.022588
856.640225	0.022321
856.826672	0.022202
857.013101	0.022294
857.199511	0.022180
857.385903	0.021959
857.572277	0.021560
857.758633	0.021122
857.944970	0.021139
858.131290	0.020951
858.317591	0.020971
858.503873	0.020998
858.690138	0.020710
858.876384	0.020546
859.062612	0.020527
859.248822	0.020473
859.435014	0.020416
859.621188	0.020312
859.807343	0.020328
859.993480	0.019994
860.179599	0.020047
860.365699	0.019905
860.551781	0.019857
860.737846	0.020019
860.923891	0.020179
861.109919	0.020282
861.295929	0.020188
861.481920	0.020401
861.667893	0.020601
861.853848	0.020785
862.039784	0.020967
862.225702	0.021210
862.411603	0.021480
862.597484	0.021748
862.783348	0.022151
862.969193	0.022576
863.155021	0.022626
863.340830	0.022911
863.526620	0.022939
863.712393	0.023264
863.898147	0.023008
864.083883	0.022984
864.269601	0.022960
864.455301	0.023187
864.640982	0.023249
864.826645	0.023495
865.012290	0.023496
865.197917	0.023551
865.383526	0.023437
865.569116	0.023553
865.754688	0.023636
865.940242	0.023762
866.125777	0.023316
866.311295	0.023229
866.496794	0.023097
866.682275	0.023303
866.867737	0.023320
867.053182	0.023418
867.238608	0.023373
867.424016	0.023207
867.609406	0.023001
867.794778	0.023191
867.980131	0.023005
868.165466	0.023020
868.350783	0.022727
868.536082	0.022384
868.721362	0.022299
868.906625	0.022382
869.091869	0.022503
869.277094	0.022674
869.462302	0.022521
869.647491	0.022589
869.832662	0.022519
870.017815	0.022445
870.202950	0.022895
870.388066	0.022863
870.573165	0.022883
870.758245	0.022748
870.943306	0.022422
871.128350	0.022484
871.313375	0.022423
871.498382	0.022505
871.683371	0.022456
871.868342	0.022261
872.053294	0.022201
872.238229	0.022159
872.423144	0.022112
872.608042	0.022226
872.792922	0.022155
872.977783	0.022160
873.162626	0.022204
873.347451	0.022345
873.532258	0.022225
873.717046	0.022362
873.901816	0.022597
874.086568	0.022668
874.271302	0.022805
874.456017	0.022807
874.640715	0.023099
874.825394	0.023124
875.010055	0.023389
875.194697	0.023716
875.379322	0.023610
875.563928	0.023258
875.748516	0.023159
875.933085	0.023202
876.117637	0.023511
876.302170	0.023289
876.486685	0.023188
876.671182	0.022974
876.855661	0.022866
877.040121	0.022723
877.224563	0.022841
877.408987	0.023028
877.593393	0.022978
877.777780	0.022740
877.962150	0.022862
878.146501	0.022851
878.330833	0.023109
878.515148	0.023032
878.699444	0.023381
878.883722	0.023377
879.067982	0.023194
879.252224	0.023164
879.436447	0.023366
879.620653	0.023305
879.804840	0.023329
879.989008	0.023282
880.173159	0.023357
880.357291	0.023391
880.541405	0.023668
880.725501	0.023753
880.909579	0.023813
881.093638	0.023507
881.277680	0.023726
881.461703	0.023552
881.645707	0.023411
881.829694	0.023350
882.013662	0.023244
882.197612	0.023047
882.381544	0.023165
882.565458	0.023326
882.749353	0.023254
882.933230	0.022854
883.117089	0.022815
883.300930	0.022834
883.484753	0.022959
883.668557	0.023099
883.852343	0.023121
884.036111	0.023078
884.219861	0.022828
884.403592	0.023213
884.587305	0.023347
884.771000	0.023591
884.954677	0.023571
885.138335	0.023247
885.321976	0.023227
885.505598	0.023201
885.689201	0.023181
885.872787	0.023094
886.056354	0.023120
886.239904	0.023062
886.423434	0.022999
886.606947	0.022932
886.790442	0.022930
886.973918	0.023039
887.157376	0.023168
887.340816	0.023145
887.524237	0.023206
887.707641	0.023039
887.891026	0.022903
888.074393	0.023065
888.257741	0.022997
888.441072	0.023053
888.624384	0.022541
888.807678	0.021944
888.990954	0.021741
889.174211	0.021619
889.357451	0.021584
889.540672	0.021731
889.723875	0.021406
889.907059	0.021507
890.090226	0.021571
890.273374	0.021678
890.456504	0.021906
890.639616	0.021795
890.822709	0.021757
891.005785	0.021770
891.188842	0.021642
891.371881	0.021739
891.554901	0.021735
891.737904	0.021523
891.920888	0.021467
892.103854	0.021637
892.286802	0.021770
892.469731	0.021819
892.652643	0.021544
892.835536	0.021759
893.018410	0.021591
893.201267	0.021434
893.384106	0.021615
893.566926	0.021699
893.749728	0.021729
893.932511	0.021654
894.115277	0.022005
894.298024	0.022138
894.480753	0.022289
894.663464	0.022185
894.846157	0.022177
895.028831	0.022481
895.211487	0.022630
895.394125	0.022789
895.576745	0.022829
895.759346	0.022824
895.941930	0.023099
896.124495	0.023102
896.307041	0.023335
896.489570	0.023213
896.672080	0.023171
896.854573	0.022873
897.037046	0.022868
897.219502	0.022957
897.401940	0.022578
897.584359	0.022398
897.766760	0.022476
897.949143	0.022689
898.131507	0.022898
898.313854	0.022416
898.496182	0.022500
898.678492	0.022133
898.860783	0.022150
899.043057	0.022127
899.225312	0.022107
899.407549	0.021829
899.589768	0.021608
899.771968	0.021423
899.954151	0.021569
900.136315	0.021516
900.318461	0.021556
900.500588	0.021417
900.682698	0.021616
900.864789	0.021383
901.046862	0.021630
901.228917	0.021607
901.410953	0.021600
901.592971	0.021676
901.774972	0.021805
901.956953	0.021610
902.138917	0.021715
902.320862	0.021514
902.502790	0.021353
902.684699	0.021110
902.866589	0.020882
903.048462	0.020986
903.230316	0.020863
903.412152	0.020620
903.593970	0.020806
903.775770	0.020475
903.957551	0.020609
904.139314	0.020942
904.321059	0.021167
904.502786	0.021289
904.684494	0.021225
904.866185	0.021192
905.047857	0.021043
905.229510	0.020994
905.411146	0.021320
905.592763	0.020999
905.774363	0.020879
905.955943	0.020654
906.137506	0.020419
906.319051	0.020448
906.500577	0.020337
906.682085	0.020313
906.863575	0.020167
907.045046	0.020057
907.226500	0.020130
907.407935	0.019838
907.589352	0.019593
907.770750	0.019319
907.952131	0.019246
908.133493	0.019428
908.314837	0.019729
908.496163	0.019646
908.677470	0.019363
908.858760	0.019623
909.040031	0.020018
909.221284	0.020027
909.402518	0.020698
909.583735	0.020624
909.764933	0.020177
909.946113	0.019920
910.127275	0.019685
910.308418	0.020160
910.489544	0.019736
910.670651	0.019570
910.851740	0.019695
911.032810	0.019095
911.213863	0.019076
911.394897	0.019191
911.575913	0.019082
911.756911	0.019344
911.937890	0.018984
912.118851	0.019314
912.299794	0.019281
912.480719	0.019241
912.661626	0.019261
912.842514	0.019128
913.023384	0.018722
913.204236	0.018701
913.385070	0.018448
913.565886	0.018142
913.746683	0.017673
913.927462	0.017439
914.108223	0.017181
914.288965	0.017037
914.469690	0.016802
914.650396	0.016894
914.831084	0.016591
915.011754	0.016911
915.192405	0.016734
915.373038	0.016813
915.553653	0.016627
915.734250	0.016617
915.914829	0.016900
916.095389	0.017239
916.275931	0.017381
916.456455	0.017604
916.636961	0.017173
916.817448	0.017072
916.997917	0.017292
917.178368	0.017433
917.358801	0.017040
917.539216	0.016986
917.719612	0.016581
917.899990	0.016607
918.080350	0.016432
918.260692	0.016372
918.441015	0.016362
918.621320	0.015974
918.801607	0.015705
918.981876	0.015453
919.162127	0.015145
919.342359	0.014852
919.522573	0.014549
919.702769	0.014011
919.882947	0.013994
920.063106	0.013844
920.243247	0.013359
920.423370	0.013048
920.603475	0.012988
920.783562	0.012723
920.963630	0.012790
921.143680	0.012450
921.323712	0.012720
921.503725	0.012559
921.683721	0.012484
921.863698	0.012507
922.043657	0.012696
922.223598	0.012960
922.403520	0.012970
922.583424	0.012532
922.763311	0.012833
922.943178	0.012585
923.123028	0.012553
923.302859	0.012431
923.482673	0.012504
923.662467	0.012281
923.842244	0.011782
924.022003	0.011453
924.201743	0.011631
924.381465	0.011300
924.561169	0.011033
924.740854	0.010647
924.920522	0.010236
925.100171	0.010005
925.279802	0.009461
925.459414	0.009305
925.639009	0.009429
925.818585	0.009402
925.998143	0.009517
926.177683	0.009543
926.357205	0.009213
926.536708	0.009186
926.716193	0.008983
926.895660	0.009334
927.075109	0.009301
927.254539	0.009391
927.433951	0.008922
927.613345	0.008709
927.792721	0.008858
927.972079	0.008934
928.151418	0.008975
928.330739	0.008445
928.510042	0.008353
928.689327	0.008361
928.868593	0.007685
929.047841	0.007681
929.227071	0.007117
929.406283	0.006507
929.585476	0.006162
929.764652	0.006012
929.943809	0.005844
930.122948	0.004631
930.302068	0.004005
930.481171	0.003986
930.660255	0.003437
930.839321	0.003237
931.018369	0.002797
931.197398	0.002598
931.376409	0.002426
931.555402	0.002548
931.734377	0.003486
931.913334	0.003531
932.092272	0.003301
932.271192	0.003802
932.450094	0.003741
932.628978	0.004030
932.807844	0.003776
932.986691	0.003596
933.165520	0.003454
933.344331	0.003173
933.523123	0.003382
933.701898	0.003521
933.880654	0.003579
934.059392	0.003480
934.238111	0.003400
934.416813	0.003584
934.595496	0.003564
934.774161	0.003621
934.952808	0.003138
935.131437	0.003005
935.310047	0.003123
935.488639	0.002217
935.667213	0.002118
935.845769	0.002201
936.024306	0.002333
936.202825	0.002006
936.381326	0.001388
936.559809	0.001160
936.738274	0.001083
936.916720	0.000153
937.095148	0.000066
937.273558	-0.000620
937.451950	-0.000977
937.630323	-0.001377
937.808678	-0.001213
937.987015	-0.001552
938.165334	-0.001745
938.343635	-0.002638
938.521917	-0.002771
938.700181	-0.003726
938.878427	-0.003836
939.056655	-0.004497
939.234864	-0.004776
939.413055	-0.005608
939.591228	-0.005249
939.769383	-0.004901
939.947519	-0.004658
940.125638	-0.004271
940.303738	-0.003789
940.481820	-0.003727
940.659883	-0.003076
940.837929	-0.003094
941.015956	-0.002666
941.193965	-0.003189
941.371955	-0.004280
941.549928	-0.004399
941.727882	-0.004177
941.905818	-0.003609
942.083736	-0.002965
942.261636	-0.003577
942.439517	-0.003486
942.617380	-0.003898
942.795225	-0.003393
942.973052	-0.002669
943.150860	-0.003009
943.328651	-0.003499
943.506423	-0.003462
943.684176	-0.003759
943.861912	-0.003353
944.039629	-0.003262
944.217328	-0.002670
944.395009	-0.001896
944.572672	-0.001593
944.750317	-0.001186
944.927943	-0.000990
945.105551	-0.001525
945.283141	-0.001578
945.460712	-0.002470
945.638265	-0.002789
945.815801	-0.003217
945.993317	-0.004170
946.170816	-0.005284
946.348297	-0.004610
946.525759	-0.004999
946.703203	-0.005105
946.880629	-0.005090
947.058036	-0.004091
947.235425	-0.003798
947.412797	-0.003616
947.590149	-0.004087
947.767484	-0.003174
947.944800	-0.005234
948.122099	-0.004819
948.299379	-0.004342
948.476640	-0.005180
948.653884	-0.006052
948.831109	-0.005493
949.008316	-0.005785
949.185505	-0.004974
949.362676	-0.005613
949.539828	-0.003673
949.716962	-0.004635
949.894078	-0.004394
950.071176	-0.003681
950.248256	-0.002864
950.425317	-0.005204
950.602360	-0.005388
950.779385	-0.005827
950.956391	-0.004283
951.133380	-0.005326
951.310350	-0.004477
951.487302	-0.004671
951.664235	-0.004997
951.841151	-0.004992
952.018048	-0.004000
952.194927	-0.003259
952.371788	-0.003805
952.548631	-0.004139
952.725455	-0.003723
952.902261	-0.004350
953.079049	-0.004611
953.255819	-0.005180
953.432570	-0.005975
953.609303	-0.005032
953.786018	-0.005461
953.962715	-0.004513
954.139394	-0.005100
954.316054	-0.005147
954.492696	-0.004555
954.669320	-0.004017
954.845926	-0.003119
955.022513	-0.002757
955.199083	-0.002519
955.375634	-0.002214
955.552166	-0.001247
955.728681	-0.001271
955.905177	-0.002249
956.081655	-0.002682
956.258115	-0.003536
956.434557	-0.002563
956.610980	-0.001576
956.787385	-0.001416
956.963772	-0.001190
957.140141	-0.000444
957.316492	-0.000254
957.492824	0.002373
957.669138	0.003316
957.845434	0.002422
958.021712	0.002331
958.197971	0.002292
958.374212	0.003684
958.550435	0.002815
958.726640	0.001336
958.902826	0.002047
959.078995	0.001538
959.255145	0.002598
959.431277	0.004287
959.607390	0.005504
959.783486	0.004956
959.959563	0.004691
960.135622	0.006197
960.311662	0.006510
960.487685	0.006726
960.663689	0.007428
960.839675	0.006983
961.015643	0.008498
961.191593	0.007459
961.367524	0.008146
961.543437	0.008060
961.719332	0.007007
961.895209	0.006819
962.071067	0.005669
962.246907	0.005627
962.422730	0.005682
962.598533	0.005674
962.774319	0.006401
962.950086	0.007641
963.125835	0.007003
963.301566	0.007779
963.477279	0.008034
963.652973	0.009811
963.828650	0.010623
964.004308	0.010670
964.179947	0.009776
964.355569	0.009571
964.531172	0.008824
964.706757	0.010765
964.882324	0.010530
965.057873	0.013246
965.233403	0.013966
965.408916	0.012054
965.584410	0.013193
965.759885	0.013794
965.935343	0.017107
966.110782	0.017390
966.286203	0.016873
966.461606	0.017167
966.636991	0.016845
966.812357	0.018581
966.987705	0.020183
967.163035	0.017597
967.338347	0.017783
967.513641	0.015325
967.688916	0.015041
967.864173	0.014246
968.039412	0.015794
968.214632	0.014713
968.389835	0.012518
968.565019	0.013257
968.740185	0.014521
968.915333	0.015083
969.090462	0.013030
969.265573	0.014038
969.440667	0.014437
969.615741	0.013980
969.790798	0.012879
969.965836	0.010318
970.140856	0.010360
970.315858	0.011780
970.490842	0.009765
970.665808	0.011767
970.840755	0.011274
971.015684	0.010684
971.190595	0.011378
971.365487	0.011218
971.540362	0.015525
971.715218	0.013030
971.890056	0.012067
972.064875	0.013321
972.239677	0.014037
972.414460	0.015105
972.589225	0.015426
972.763972	0.014123
972.938700	0.014246
973.113411	0.014093
973.288103	0.015593
973.462777	0.016183
973.637432	0.016088
973.812070	0.015485
973.986689	0.014182
974.161290	0.016232
974.335873	0.017456
974.510437	0.018340
974.684984	0.017133
974.859512	0.016305
975.034022	0.014827
975.208513	0.014919
975.382987	0.015818
975.557442	0.015222
975.731879	0.012516
975.906298	0.012253
976.080698	0.012453
976.255080	0.011617
976.429445	0.014103
976.603790	0.014962
976.778118	0.014946
976.952427	0.014264
977.126719	0.015742
977.300992	0.014783
977.475246	0.014141
977.649483	0.013118
977.823701	0.013249
977.997901	0.012706
978.172083	0.012437
978.346247	0.013382
978.520392	0.012771
978.694519	0.012718
978.868628	0.014604
979.042719	0.017135
979.216791	0.019236
979.390845	0.017273
979.564882	0.016651
979.738899	0.016731
979.912899	0.015766
980.086880	0.014846
980.260843	0.014773
980.434788	0.015200
980.608715	0.013862
980.782623	0.013236
980.956514	0.016230
981.130386	0.015562
981.304240	0.016262
981.478075	0.017582
981.651892	0.019121
981.825692	0.019660
981.999472	0.017505
982.173235	0.016266
982.346980	0.016024
982.520706	0.014377
982.694414	0.013358
982.868104	0.014068
983.041775	0.013717
983.215428	0.013221
983.389064	0.012472
983.562680	0.013308
983.736279	0.014738
983.909860	0.015658
984.083422	0.017639
984.256966	0.019566
984.430491	0.017513
984.603999	0.015837
984.777488	0.014618
984.950959	0.013665
985.124412	0.014630
985.297847	0.013890
985.471263	0.012731
985.644661	0.011369
985.818041	0.011760
985.991403	0.013227
986.164747	0.016173
986.338072	0.017492
986.511379	0.018805
986.684668	0.018540
986.857938	0.017952
987.031191	0.017199
987.204425	0.017153
987.377641	0.015879
987.550839	0.016343
987.724018	0.016072
987.897179	0.015466
988.070322	0.015316
988.243447	0.017006
988.416554	0.016817
988.589642	0.016678
988.762712	0.016794
988.935764	0.017774
989.108798	0.016458
989.281813	0.015325
989.454811	0.015953
989.627790	0.015768
989.800751	0.014054
989.973693	0.014646
990.146617	0.017640
990.319524	0.018226
990.492412	0.018142
990.665281	0.018224
990.838133	0.016901
991.010966	0.016023
991.183781	0.016554
991.356578	0.017161
991.529356	0.017586
991.702117	0.014609
991.874859	0.013773
992.047583	0.014327
992.220288	0.014922
992.392976	0.016149
992.565645	0.017773
992.738296	0.016678
992.910929	0.016260
993.083543	0.017947
993.256139	0.018692
993.428718	0.019680
993.601277	0.018612
993.773819	0.017684
993.946342	0.017464
994.118848	0.017185
994.291335	0.017358
994.463803	0.017693
994.636254	0.015486
994.808686	0.014925
994.981100	0.014775
995.153496	0.015948
995.325874	0.015773
995.498233	0.015744
995.670574	0.014528
995.842897	0.014707
996.015202	0.014393
996.187488	0.015723
996.359757	0.017839
996.532007	0.016633
996.704239	0.014464
996.876452	0.014706
997.048648	0.013424
997.220825	0.014274
997.392984	0.013111
997.565124	0.013123
997.737247	0.011134
997.909351	0.009854
998.081437	0.010317
998.253505	0.011679
998.425554	0.011700
998.597586	0.012091
998.769599	0.011190
998.941594	0.013781
999.113571	0.013597
999.285529	0.014522
999.457469	0.012751
999.629391	0.013091
999.801295	0.012936
999.973181	0.012089
1000.145048	0.013263
1000.316897	0.014129
1000.488728	0.013306
1000.660541	0.013679
1000.832335	0.012679
1001.004111	0.015116
1001.175869	0.014238
1001.347609	0.014484
1001.519331	0.016788
1001.691034	0.014969
1001.862719	0.013589
1002.034386	0.013153
1002.206035	0.013697
1002.377665	0.015041
1002.549277	0.013886
1002.720871	0.014589
1002.892447	0.014323
1003.064004	0.012161
1003.235544	0.013798
1003.407065	0.016291
1003.578568	0.015243
1003.750052	0.014540
1003.921519	0.011474
1004.092967	0.011722
1004.264397	0.011302
1004.435809	0.011687
1004.607202	0.013432
1004.778577	0.013324
1004.949934	0.011924
1005.121273	0.012915
1005.292594	0.012975
1005.463896	0.015985
1005.635180	0.015052
1005.806446	0.013008
1005.977694	0.011883
1006.148923	0.012510
1006.320135	0.012645
1006.491328	0.012465
1006.662503	0.011776
1006.833659	0.012795
1007.004798	0.012150
1007.175918	0.013640
1007.347020	0.015676
1007.518103	0.016820
1007.689169	0.015510
1007.860216	0.014748
1008.031245	0.012650
1008.202256	0.013387
1008.373248	0.012942
1008.544223	0.012795
1008.715179	0.012716
1008.886117	0.013341
1009.057036	0.012295
1009.227938	0.012762
1009.398821	0.013679
1009.569686	0.015336
1009.740533	0.015013
1009.911361	0.014210
1010.082172	0.014511
1010.252964	0.014513
1010.423738	0.012639
1010.594493	0.014137
1010.765231	0.012942
1010.935950	0.011908
1011.106651	0.011924
1011.277334	0.011061
1011.447998	0.011222
1011.618645	0.011143
1011.789273	0.011141
1011.959882	0.011163
1012.130474	0.010032
1012.301048	0.009888
1012.471603	0.010140
1012.642140	0.009350
1012.812658	0.009407
1012.983159	0.009723
1013.153641	0.010656
1013.324105	0.010451
1013.494551	0.012192
1013.664979	0.012444
1013.835388	0.013210
1014.005779	0.012675
1014.176152	0.012730
1014.346507	0.012162
1014.516843	0.011177
1014.687162	0.010801
1014.857462	0.009709
1015.027744	0.009759
1015.198007	0.008416
1015.368252	0.007940
1015.538480	0.007861
1015.708689	0.008794
1015.878879	0.010735
1016.049052	0.009921
1016.219206	0.008883
1016.389342	0.008131
1016.559460	0.008645
1016.729559	0.008044
1016.899641	0.006710
1017.069704	0.007091
1017.239749	0.007299
1017.409775	0.006386
1017.579784	0.006729
1017.749774	0.007347
1017.919746	0.007627
1018.089700	0.006104
1018.259635	0.008060
1018.429553	0.009654
1018.599452	0.009646
1018.769333	0.008587
1018.939195	0.008211
1019.109040	0.009323
1019.278866	0.008228
1019.448674	0.009550
1019.618464	0.010630
1019.788235	0.010878
1019.957989	0.010735
1020.127724	0.010466
1020.297441	0.010981
1020.467139	0.010601
1020.636820	0.011590
1020.806482	0.011286
1020.976126	0.010970
1021.145752	0.011263
1021.315359	0.009871
1021.484948	0.011194
1021.654519	0.011204
1021.824072	0.010074
1021.993607	0.011290
1022.163123	0.010586
1022.332621	0.011815
1022.502101	0.011442
1022.671563	0.011482
1022.841007	0.010819
1023.010432	0.010241
1023.179839	0.011526
1023.349228	0.011708
1023.518598	0.011991
1023.687951	0.009745
1023.857285	0.009283
1024.026601	0.009155
1024.195899	0.007864
1024.365178	0.008496
1024.534439	0.007361
1024.703682	0.005576
1024.872907	0.006154
1025.042114	0.005213
1025.211302	0.005886
1025.380472	0.005703
1025.549624	0.006760
1025.718758	0.006218
1025.887873	0.006625
1026.056970	0.006823
1026.226049	0.008116
1026.395110	0.008526
1026.564153	0.008776
1026.733177	0.010207
1026.902183	0.010460
1027.071171	0.010252
1027.240141	0.011808
1027.409092	0.011783
1027.578026	0.011867
1027.746940	0.011818
1027.915837	0.011151
1028.084716	0.011495
1028.253576	0.011560
1028.422418	0.012219
1028.591242	0.011738
1028.760048	0.011039
1028.928835	0.010021
1029.097604	0.010517
1029.266355	0.010463
1029.435088	0.009753
1029.603803	0.010488
1029.772499	0.008880
1029.941177	0.007803
1030.109837	0.006329
1030.278478	0.006902
1030.447102	0.007578
1030.615707	0.007747
1030.784294	0.007992
1030.952863	0.008218
1031.121413	0.007251
1031.289945	0.008703
1031.458460	0.008576
1031.626955	0.009460
1031.795433	0.009265
1031.963892	0.008791
1032.132334	0.006769
1032.300756	0.006641
1032.469161	0.007660
1032.637548	0.006595
1032.805916	0.005835
1032.974266	0.006928
1033.142598	0.008662
1033.310911	0.009452
1033.479207	0.010413
1033.647484	0.011894
1033.815743	0.012303
1033.983983	0.012458
1034.152206	0.014331
1034.320410	0.013818
1034.488596	0.014150
1034.656764	0.012481
1034.824914	0.012633
1034.993045	0.013199
1035.161158	0.014221
1035.329253	0.012487
1035.497330	0.012058
1035.665388	0.011913
1035.833428	0.012556
1036.001450	0.011292
1036.169454	0.012266
1036.337440	0.010843
1036.505407	0.010789
1036.673356	0.009940
1036.841287	0.011082
1037.009200	0.012555
1037.177094	0.011671
1037.344970	0.012264
1037.512828	0.012952
1037.680668	0.012368
1037.848489	0.014041
1038.016293	0.012299
1038.184078	0.011973
1038.351845	0.011914
1038.519593	0.011402
1038.687324	0.011429
1038.855036	0.010083
1039.022730	0.008744
1039.190406	0.008381
1039.358063	0.007000
1039.525702	0.007579
1039.693323	0.007210
1039.860926	0.006134
1040.028511	0.005972
1040.196077	0.006223
1040.363625	0.006610
1040.531155	0.007943
1040.698667	0.008360
1040.866161	0.007544
1041.033636	0.006402
1041.201093	0.006348
1041.368532	0.006896
1041.535952	0.005369
1041.703355	0.004496
1041.870739	0.005390
1042.038105	0.005229
1042.205452	0.005274
1042.372782	0.005320
1042.540093	0.006211
1042.707386	0.005932
1042.874661	0.006482
1043.041918	0.008505
1043.209156	0.008679
1043.376376	0.007773
1043.543578	0.008208
1043.710762	0.008959
1043.877927	0.010231
1044.045074	0.010241
1044.212203	0.011310
1044.379314	0.010549
1044.546407	0.008382
1044.713481	0.008461
1044.880537	0.008699
1045.047575	0.007860
1045.214595	0.007937
1045.381596	0.007469
1045.548579	0.008627
1045.715544	0.007770
1045.882491	0.007737
1046.049420	0.008447
1046.216330	0.007740
1046.383222	0.006996
1046.550096	0.008119
1046.716951	0.006214
1046.883789	0.005721
1047.050608	0.005756
1047.217409	0.006326
1047.384192	0.005607
1047.550956	0.007066
1047.717703	0.008655
1047.884431	0.009563
1048.051140	0.009208
1048.217832	0.009973
1048.384505	0.009709
1048.551161	0.008428
1048.717798	0.007719
1048.884416	0.009339
1049.051017	0.007103
1049.217599	0.007343
1049.384163	0.007164
1049.550709	0.006435
1049.717237	0.007155
1049.883746	0.009038
1050.050237	0.010488
1050.216710	0.010037
1050.383165	0.008741
1050.549601	0.009519
1050.716019	0.007853
1050.882420	0.007713
1051.048801	0.007401
1051.215165	0.004310
1051.381510	0.002102
1051.547837	0.001644
1051.714146	0.001691
1051.880437	0.002658
1052.046709	0.003090
1052.212964	0.003696
1052.379200	0.001333
1052.545417	0.002399
1052.711617	0.004865
1052.877798	0.005547
1053.043961	0.004221
1053.210106	0.005128
1053.376233	0.004489
1053.542341	0.004944
1053.708432	0.004105
1053.874504	0.007004
1054.040557	0.005842
1054.206593	0.004420
1054.372610	0.003058
1054.538609	0.004423
1054.704590	0.004528
1054.870553	0.005044
1055.036497	0.003953
1055.202424	0.003733
1055.368331	0.004002
1055.534221	0.003065
1055.700093	0.003510
1055.865946	0.006559
1056.031781	0.006465
1056.197598	0.005356
1056.363397	0.005073
1056.529177	0.005663
1056.694939	0.006559
1056.860683	0.004405
1057.026409	0.006025
1057.192116	0.006606
1057.357806	0.005213
1057.523477	0.006206
1057.689130	0.006936
1057.854764	0.007013
1058.020381	0.006215
1058.185979	0.004677
1058.351559	0.006133
1058.517120	0.006056
1058.682664	0.006106
1058.848189	0.005379
1059.013696	0.003464
1059.179185	0.002495
1059.344656	0.001700
1059.510108	0.001941
1059.675542	0.002431
1059.840958	0.003363
1060.006356	0.003031
1060.171735	0.002897
1060.337096	0.002850
1060.502439	0.003853
1060.667764	0.004288
1060.833071	0.004410
1060.998359	0.003945
1061.163629	0.005779
1061.328881	0.003510
1061.494115	0.003261
1061.659330	0.003592
1061.824527	0.004304
1061.989706	0.004234
1062.154867	0.004944
1062.320010	0.005541
1062.485134	0.006650
1062.650240	0.006416
1062.815328	0.006900
1062.980398	0.006989
1063.145449	0.005970
1063.310482	0.005699
1063.475497	0.005799
1063.640494	0.006396
1063.805473	0.007792
1063.970433	0.006332
1064.135375	0.005854
1064.300299	0.005411
1064.465204	0.006230
1064.630092	0.007603
1064.794961	0.007054
1064.959812	0.006587
1065.124645	0.005259
1065.289459	0.003806
1065.454256	0.006531
1065.619034	0.005883
1065.783793	0.006139
1065.948535	0.005544
1066.113258	0.004770
1066.277964	0.004427
1066.442651	0.004733
1066.607319	0.004644
1066.771970	0.003837
1066.936602	0.003458
1067.101216	0.004494
1067.265812	0.005066
1067.430389	0.005525
1067.594949	0.005489
1067.759490	0.006867
1067.924013	0.007039
1068.088518	0.006961
1068.253004	0.007757
1068.417472	0.006313
1068.581922	0.007039
1068.746354	0.007863
1068.910768	0.006789
1069.075163	0.008876
1069.239540	0.008932
1069.403899	0.007671
1069.568240	0.009416
1069.732562	0.008075
1069.896866	0.007490
1070.061152	0.007525
1070.225420	0.007282
1070.389670	0.006366
1070.553901	0.004724
1070.718114	0.002949
1070.882309	0.003814
1071.046486	0.004674
1071.210644	0.006967
1071.374784	0.007920
1071.538906	0.007729
1071.703010	0.008220
1071.867096	0.010180
1072.031163	0.011196
1072.195212	0.012985
1072.359243	0.012702
1072.523256	0.011146
1072.687250	0.009545
1072.851226	0.009514
1073.015184	0.010469
1073.179124	0.009392
1073.343045	0.007535
1073.506949	0.004859
1073.670834	0.003475
1073.834701	0.003996
1073.998549	0.002752
1074.162380	0.004081
1074.326192	0.004381
1074.489986	0.000916
1074.653761	0.001198
1074.817519	0.001590
1074.981258	0.003692
1075.144979	0.004274
1075.308682	0.004323
1075.472367	0.006049
1075.636033	0.004972
1075.799681	0.004473
1075.963311	0.006040
1076.126923	0.005781
1076.290516	0.007023
1076.454092	0.007209
1076.617649	0.008484
1076.781187	0.005352
1076.944708	0.006160
1077.108210	0.004365
1077.271695	0.002784
1077.435160	0.001251
1077.598608	0.003069
1077.762038	0.003186
1077.925449	0.002505
1078.088842	0.000540
1078.252217	0.002256
1078.415573	0.001610
1078.578912	0.003696
1078.742232	0.005106
1078.905534	0.006760
1079.068817	0.006575
1079.232083	0.005923
1079.395330	0.005378
1079.558559	0.005384
1079.721770	0.006198
1079.884962	0.004465
1080.048136	0.006299
1080.211293	0.005077
1080.374430	0.005612
1080.537550	0.004009
1080.700651	0.003659
1080.863735	0.004779
1081.026800	0.007697
1081.189846	0.007796
1081.352875	0.008943
1081.515885	0.008814
1081.678877	0.010252
1081.841851	0.011391
1082.004807	0.011464
1082.167744	0.012877
1082.330663	0.013454
1082.493564	0.011103
1082.656447	0.012060
1082.819312	0.011918
1082.982158	0.010943
1083.144986	0.012217
1083.307796	0.010905
1083.470587	0.010880
1083.633361	0.009306
1083.796116	0.008436
1083.958853	0.010313
1084.121571	0.009325
1084.284272	0.008263
1084.446954	0.008070
1084.609618	0.007459
1084.772264	0.006435
1084.934892	0.006596
1085.097501	0.008757
1085.260092	0.009290
1085.422665	0.008212
1085.585220	0.009536
1085.747756	0.011832
1085.910274	0.009810
1086.072774	0.007226
1086.235256	0.005713
1086.397720	0.002999
1086.560165	0.001447
1086.722592	0.000635
1086.885001	-0.002008
1087.047392	-0.002870
1087.209764	-0.004893
1087.372119	-0.003838
1087.534455	-0.001550
1087.696772	0.001589
1087.859072	0.004708
1088.021353	0.006606
1088.183616	0.006377
1088.345861	0.004749
1088.508088	0.002745
1088.670296	0.004128
1088.832486	0.005087
1088.994658	0.003725
1089.156812	0.001926
1089.318948	0.001394
1089.481065	-0.002457
1089.643164	-0.001258
1089.805245	0.000942
1089.967308	0.003418
1090.129352	0.003015
1090.291378	0.002957
1090.453386	0.003855
1090.615376	0.002976
1090.777347	0.001564
1090.939301	0.004417
1091.101236	0.004483
1091.263153	0.005332
1091.425051	0.006313
1091.586932	0.006578
1091.748794	0.003289
1091.910638	0.001946
1092.072463	0.002690
1092.234271	0.002889
1092.396060	0.001777
1092.557831	0.000085
1092.719584	-0.001500
1092.881319	-0.004962
1093.043035	-0.005394
1093.204733	-0.004078
1093.366413	-0.001831
1093.528075	-0.003469
1093.689718	-0.003044
1093.851343	-0.003717
1094.012950	-0.003785
1094.174539	-0.000970
1094.336110	0.000825
1094.497662	0.000358
1094.659196	0.002029
1094.820712	-0.000411
1094.982210	0.001775
1095.143689	0.001927
1095.305151	0.003364
1095.466594	0.004336
1095.628018	0.002763
1095.789425	0.001207
1095.950813	0.000906
1096.112183	-0.000922
1096.273535	0.000234
1096.434869	0.001064
1096.596184	0.000121
1096.757482	0.001004
1096.918761	0.000324
1097.080021	0.001792
1097.241264	0.003172
1097.402488	0.003796
1097.563694	0.005952
1097.724882	0.007753
1097.886052	0.008344
1098.047203	0.009491
1098.208336	0.004798
1098.369451	0.004714
1098.530548	0.005874
1098.691627	0.003207
1098.852687	0.005423
1099.013729	0.003340
1099.174753	-0.000382
1099.335758	0.000229
1099.496746	-0.001468
1099.657715	0.003388
1099.818666	0.002718
1099.979599	0.000683
1100.140513	0.005402
1100.301409	0.001501
1100.462287	0.004650
1100.623147	0.006330
1100.783989	0.003667
1100.944812	0.007361
1101.105617	0.003073
1101.266404	0.003840
1101.427173	0.001193
1101.587923	-0.000498
1101.748656	-0.001670
1101.909370	-0.002706
1102.070066	-0.002695
1102.230743	-0.002883
1102.391403	-0.007879
1102.552044	-0.004330
1102.712667	-0.005028
1102.873271	-0.002834
1103.033858	-0.003672
1103.194426	-0.000787
1103.354976	-0.001935
1103.515508	0.000148
1103.676021	-0.000178
1103.836517	0.002246
1103.996994	0.003300
1104.157453	0.005547
1104.317893	0.003384
1104.478316	0.004379
1104.638720	0.008702
1104.799106	0.007743
1104.959474	0.003929
1105.119823	0.004596
1105.280155	0.005262
1105.440468	0.004573
1105.600763	0.004321
1105.761039	0.007694
1105.921298	0.006763
1106.081538	0.002095
1106.241760	0.005243
1106.401964	0.005639
1106.562149	0.005521
1106.722316	0.004758
1106.882465	0.003487
1107.042596	0.005427
1107.202709	0.003932
1107.362803	0.003258
1107.522879	0.004715
1107.682937	0.003517
1107.842977	0.006445
1108.002999	0.009825
1108.163002	0.010005
1108.322987	0.007396
1108.482954	0.002200
1108.642902	0.003684
1108.802833	0.006216
1108.962745	0.003101
1109.122639	0.004609
1109.282515	0.006695
1109.442372	0.002880
1109.602211	0.004898
1109.762032	0.008600
1109.921835	0.010641
1110.081620	0.010053
1110.241386	0.005147
1110.401134	0.005139
1110.560864	0.002345
1110.720576	-0.000064
1110.880269	0.001406
1111.039945	0.002179
1111.199602	0.002721
1111.359240	0.003142
1111.518861	0.004478
1111.678463	0.008408
1111.838047	0.011441
1111.997613	0.012058
1112.157161	0.013612
1112.316690	0.012882
1112.476202	0.012011
1112.635695	0.010364
1112.795169	0.010548
1112.954626	0.008040
1113.114064	0.006800
1113.273484	0.007282
1113.432886	0.008495
1113.592270	0.004804
1113.751635	0.009318
1113.910983	0.008970
1114.070312	0.008384
1114.229622	0.008735
1114.388915	0.008870
1114.548189	0.007477
1114.707445	0.006694
1114.866683	0.007415
1115.025903	0.009984
1115.185104	0.005116
1115.344287	0.004245
1115.503452	0.003249
1115.662599	0.002240
1115.821727	0.004095
1115.980838	0.004491
1116.139930	0.001424
1116.299004	-0.003621
1116.458059	-0.005697
1116.617097	-0.002579
1116.776116	-0.000454
1116.935117	0.001213
1117.094099	-0.002027
1117.253064	-0.006281
1117.412010	-0.007056
1117.570938	-0.003551
1117.729848	-0.002201
1117.888740	-0.001519
1118.047613	-0.005744
1118.206468	-0.007694
1118.365305	-0.010934
1118.524124	-0.006065
1118.682924	-0.000851
1118.841707	0.005838
1119.000471	0.001770
1119.159216	0.002982
1119.317944	0.002533
1119.476653	0.006549
1119.635344	0.005695
1119.794017	0.005942
1119.952672	0.004384
1120.111308	0.002027
1120.269927	-0.001299
1120.428527	-0.000920
1120.587108	0.002564
1120.745672	0.004974
1120.904217	0.000372
1121.062744	0.001621
1121.221253	0.003744
1121.379744	-0.000148
1121.538216	0.003252
1121.696671	0.000871
1121.855107	0.000078
1122.013524	-0.002198
1122.171924	-0.007074
1122.330305	-0.005917
1122.488668	-0.006782
1122.647013	-0.004952
1122.805340	0.002212
1122.963648	0.001626
1123.121938	0.004942
1123.280210	0.007416
1123.438464	0.009027
1123.596700	0.013453
1123.754917	0.013709
1123.913116	0.016328
1124.071297	0.016399
1124.229459	0.013759
1124.387604	0.007711
1124.545730	0.001834
1124.703838	0.000239
1124.861928	0.000865
1125.019999	0.001759
1125.178052	-0.001418
1125.336088	-0.006334
1125.494104	-0.008533
1125.652103	-0.015399
1125.810083	-0.009547
1125.968045	-0.007532
1126.125989	-0.005965
1126.283915	-0.009388
1126.441823	-0.011594
1126.599712	-0.005281
1126.757583	-0.002600
1126.915436	-0.003010
1127.073270	0.002177
1127.231087	0.001943
1127.388885	0.004331
1127.546665	0.005599
1127.704426	0.003723
1127.862170	0.001669
1128.019895	-0.002126
1128.177602	0.000295
1128.335291	-0.000075
1128.492961	0.001283
1128.650614	-0.001349
1128.808248	-0.003239
1128.965864	-0.003305
1129.123461	-0.001856
1129.281041	0.000194
1129.438602	0.006197
1129.596145	0.005458
1129.753670	0.007907
1129.911176	0.006651
1130.068665	0.003869
1130.226135	0.002823
1130.383587	0.002386
1130.541020	0.000581
1130.698436	-0.000552
1130.855833	-0.002788
1131.013212	-0.005274
1131.170573	-0.009263
1131.327915	-0.003730
1131.485239	-0.001753
1131.642545	-0.003848
1131.799833	-0.004984
1131.957103	0.000354
1132.114354	0.002714
1132.271588	0.001635
1132.428803	0.001704
1132.585999	0.005594
1132.743178	-0.004985
1132.900338	-0.006831
1133.057480	-0.001082
1133.214604	-0.001181
1133.371710	-0.003559
1133.528797	-0.005032
1133.685866	-0.008472
1133.842917	-0.008737
1133.999950	-0.013400
1134.156964	-0.007858
1134.313960	-0.002226
1134.470938	-0.001533
1134.627898	-0.004737
1134.784840	-0.009192
1134.941763	-0.004804
1135.098668	-0.002503
1135.255555	0.003840
1135.412424	0.005336
1135.569274	0.008891
1135.726107	0.000581
1135.882921	0.000786
1136.039716	0.001130
1136.196494	0.003347
1136.353253	-0.000731
1136.509995	-0.000250
1136.666717	-0.007128
1136.823422	-0.007612
1136.980109	-0.009682
1137.136777	-0.003113
1137.293427	-0.007795
1137.450059	-0.004744
1137.606672	-0.003728
1137.763267	-0.003745
1137.919844	-0.004153
1138.076403	-0.004102
1138.232944	-0.002162
1138.389466	-0.006195
1138.545971	-0.007939
1138.702457	-0.005142
1138.858924	-0.003300
1139.015374	0.001940
1139.171805	0.003575
1139.328218	0.006060
1139.484613	0.006493
1139.640990	0.015340
1139.797348	0.012487
1139.953688	0.015943
1140.110010	0.015200
1140.266314	0.011399
1140.422600	0.004891
1140.578867	0.007340
1140.735116	0.008244
1140.891347	0.012615
1141.047559	0.001139
1141.203754	0.007178
1141.359930	0.004103
1141.516088	0.005861
1141.672228	0.009545
1141.828349	0.009694
1141.984452	-0.001411
1142.140537	0.001254
1142.296604	0.003292
1142.452653	0.004000
1142.608683	-0.000806
1142.764695	0.002808
1142.920689	-0.004004
1143.076665	-0.005666
1143.232622	-0.004346
1143.388562	0.005546
1143.544483	-0.001576
1143.700385	-0.007393
1143.856270	-0.001784
1144.012136	0.002586
1144.167985	-0.003712
1144.323814	0.002314
1144.479626	0.004315
1144.635420	0.006325
1144.791195	-0.004170
1144.946952	0.001493
1145.102691	-0.002621
1145.258411	-0.003230
1145.414113	-0.003034
1145.569798	-0.001372
1145.725463	-0.004546
1145.881111	-0.002207
1146.036741	-0.007569
1146.192352	-0.001240
1146.347945	-0.007263
1146.503519	-0.002467
1146.659076	-0.003088
1146.814614	0.001309
1146.970134	0.004043
1147.125636	0.009480
1147.281120	-0.002385
1147.436585	0.002717
1147.592032	0.000463
1147.747461	0.005971
1147.902872	0.008931
1148.058265	0.015811
1148.213639	0.011458
1148.368995	0.014343
1148.524333	0.017183
1148.679653	0.022476
1148.834954	0.018654
1148.990237	0.025264
1149.145502	0.020072
1149.300749	0.019235
1149.455977	0.016118
1149.611188	0.019350
1149.766380	0.013846
1149.921553	0.007110
1150.076709	0.016959
1150.231846	0.022455
1150.386966	0.017682
1150.542066	0.020202
1150.697149	0.017034
1150.852214	0.014641
1151.007260	0.006980
1151.162288	0.009602
1151.317298	0.009725
1151.472289	0.007100
1151.627263	0.002639
1151.782218	0.005569
1151.937155	0.002624
1152.092073	0.001178
1152.246974	0.004140
1152.401856	0.016286
1152.556720	0.019663
1152.711566	0.023520
1152.866393	0.021142
1153.021203	0.018608
1153.175994	0.023525
1153.330767	0.026289
1153.485521	0.029996
1153.640258	0.019677
1153.794976	0.009026
1153.949676	0.005737
1154.104358	0.009994
1154.259021	0.006579
1154.413667	0.008780
1154.568294	0.005158
1154.722903	0.004193
1154.877493	0.000122
1155.032066	0.011019
1155.186620	0.014827
1155.341156	0.011319
1155.495674	0.003886
1155.650173	0.002763
1155.804654	-0.000594
1155.959118	0.003208
1156.113562	0.002357
1156.267989	0.007803
1156.422397	-0.003864
1156.576788	0.001881
1156.731160	0.011891
1156.885513	0.011895
1157.039849	0.014436
1157.194166	0.017800
1157.348465	0.008757
1157.502746	0.012976
1157.657009	0.008105
1157.811253	0.013393
1157.965479	0.013740
1158.119687	0.001120
1158.273877	0.003530
1158.428048	0.007570
1158.582201	0.012091
1158.736337	0.009831
1158.890453	0.011034
1159.044552	0.015618
1159.198632	0.017049
1159.352694	0.007496
1159.506738	0.022444
1159.660764	0.018991
1159.814771	0.018920
1159.968761	0.010512
1160.122732	0.014336
1160.276685	0.013375
1160.430619	0.013783
1160.584535	0.023582
1160.738434	0.018170
1160.892313	0.003957
1161.046175	0.005578
1161.200019	-0.000874
1161.353844	-0.001661
1161.507651	0.003530
1161.661440	0.002111
1161.815210	-0.002935
1161.968962	-0.016110
1162.122697	-0.005747
1162.276412	0.002264
1162.430110	-0.001750
1162.583789	-0.007970
1162.737451	-0.005642
1162.891094	-0.012437
1163.044718	-0.018043
1163.198325	-0.005892
1163.351913	0.000442
1163.505483	-0.005143
1163.659035	-0.007376
1163.812569	0.002666
1163.966084	0.019511
1164.119581	0.029044
1164.273060	0.029037
1164.426521	0.027653
1164.579964	0.019453
1164.733388	0.021538
1164.886794	0.021436
1165.040182	0.015067
1165.193551	0.006181
1165.346903	-0.001536
1165.500236	-0.008842
1165.653551	-0.002297
1165.806848	-0.003997
1165.960126	-0.003911
1166.113386	-0.001984
1166.266628	0.002250
1166.419852	-0.001132
1166.573058	0.001557
1166.726245	0.003082
1166.879414	-0.002204
1167.032565	-0.006386
1167.185698	-0.001113
1167.338812	-0.004445
1167.491909	-0.015924
1167.644987	-0.020809
1167.798046	-0.016454
1167.951088	-0.012000
1168.104111	-0.016432
1168.257117	-0.010056
1168.410103	-0.001203
1168.563072	-0.005565
1168.716023	-0.014208
1168.868955	-0.006444
1169.021869	0.000693
1169.174765	0.006942
1169.327642	-0.005340
1169.480501	0.001594
1169.633343	-0.000622
1169.786165	-0.020842
1169.938970	-0.019727
1170.091757	-0.013219
1170.244525	-0.014019
1170.397275	-0.025993
1170.550007	-0.023688
1170.702720	-0.025283
1170.855415	-0.037961
1171.008092	-0.032343
1171.160751	-0.019389
1171.313392	-0.014323
1171.466014	-0.076401
1171.618619	0.010456
1171.771205	0.010456
1171.923772	0.010456
