sample name	sample
index	956
start time	 04-12-2021  03:53:10 PM
880	0.240772
Peak Time (s)	122.538
Peak Height 	0.2408
calc peak height	120,123
Baseline Time (s)	8.535
Baseline Value 	-0.007034
subtract baseline	10,4
Abs	0.177835
Peak Time (s)	122.037
Peak Height 	0.1778
calc peak height	120,123
Baseline Time (s)	10.036
Baseline Value 	0.002356
subtract baseline	10,3
PK_550	0.093524
Peak Time (s)	122.037
Peak Height 	0.09352
calc peak height	120,123
Baseline Time (s)	9.536
Baseline Value 	3.1932E-4
subtract baseline	10,2
PK_880	0.156528
Peak Time (s)	122.037
Peak Height 	0.1565
calc peak height	120,123
Baseline Time (s)	8.535
Baseline Value 	0.0035
subtract baseline	10,1


Time (s)	A880-A510	A880-A775	A880-A975	A880	I510	I775	I975	I880	
0.035500	-0.002206	-0.000064	-0.004800	0.002757	7110.794058	42941.017740	3923.015664	23059.057033
0.535500	-0.002481	0.000693	0.003538	0.005261	7083.876135	42780.489560	3937.556290	22943.085923
1.036000	-0.004152	0.000026	-0.002184	0.007872	7042.745081	42481.286025	3916.845630	22822.929099
1.536500	-0.001776	0.000228	0.003244	0.002443	7118.024441	42996.749329	3943.909807	23073.608113
2.036500	-0.002013	0.000168	0.000739	0.002089	7119.166073	43023.857904	3938.494252	23090.090733
2.534500	-0.004133	-0.000790	0.002572	0.000676	7112.292913	43065.831399	3946.677987	23155.912174
3.036500	-0.003081	0.000261	-0.000339	0.005483	7075.945140	42720.644623	3927.319554	22932.854001
3.537500	-0.000991	0.000419	0.003372	0.000206	7147.552167	43221.141218	3949.895465	23177.860895
4.034500	-0.001551	0.000136	0.003290	0.000362	7140.534240	43180.535861	3949.293430	23170.569019
4.535000	0.000076	-0.000250	-0.001151	0.000079	7159.267208	43171.030897	3938.797937	23183.796794
5.036000	-0.002761	-0.000653	0.003324	0.001483	7117.787775	43004.075743	3946.539141	23118.301373
5.536000	-0.000394	-0.000415	0.001418	-0.000305	7158.422817	43191.280896	3946.240121	23201.755227
6.036000	0.000032	0.000003	0.000755	0.000229	7157.354508	43180.453701	3943.215662	23176.754981
6.536500	-0.000366	-0.000428	0.003686	-0.000262	7158.271282	43186.026666	3951.880471	23199.706829
7.037000	-0.001491	0.000202	0.004585	0.000065	7144.030876	43214.117279	3953.336686	23184.437179
7.537000	-0.001573	-0.000319	0.002130	-0.000392	7147.702962	43208.207251	3948.262687	23205.793282
8.037500	-0.000043	0.000712	0.002834	0.000371	7155.225399	43232.971986	3948.112273	23170.129542
8.535000	0.000000	0.000140	-0.001310	0.000000	7159.295222	43214.367018	3938.594556	23187.475536
9.038000	0.000543	-0.000195	0.004002	-0.000197	7166.572791	43201.635274	3952.520307	23196.682671
9.535500	-0.000853	0.000000	0.001594	0.000355	7147.437688	43168.585067	3945.016738	23170.908237
10.036000	-0.002657	-0.000146	0.000000	-0.000174	7134.963882	43203.964025	3942.328791	23195.605154
10.536000	-0.001510	0.000182	-0.002370	0.000286	7141.684222	43191.814323	3935.219297	23174.111734
11.036500	0.000287	-0.000617	-0.000057	-0.000106	7163.154813	43154.113460	3942.011954	23192.410080
11.536500	0.000627	0.000590	0.000845	0.000624	7159.319531	43198.230202	3942.445999	23158.329210
12.037000	-0.000278	0.000016	0.006874	-0.000067	7157.217202	43209.080139	3959.518823	23190.597334
12.534500	-0.000997	0.000076	0.003335	-0.000195	7151.425345	43226.545633	3950.820498	23196.594777
13.035000	-0.000993	-0.000245	0.004581	-0.002305	7172.203872	43392.630719	3959.376448	23295.471668
13.538000	0.000437	0.000119	0.001286	0.000596	7157.737325	43157.257349	3943.631512	23159.650260
14.038000	-0.000453	0.000233	0.003837	0.000691	7148.069177	43159.077723	3949.845734	23155.225253
14.535500	-0.002319	0.000537	0.006843	0.002358	7113.571652	43033.064934	3953.249241	23077.581498
15.035500	0.000088	0.000539	-0.001075	0.001197	7148.409058	43140.568356	3936.181444	23131.632355
15.536000	0.000553	0.000690	0.007504	0.001458	7150.413510	43130.364272	3957.230510	23119.470512
16.037000	-0.001780	0.000148	0.003155	0.000672	7135.262408	43152.883129	3948.163587	23156.091002
16.534500	-0.000453	0.000821	0.002973	0.001630	7138.868484	43126.604486	3945.278353	23111.449302
17.037500	0.000754	0.000697	-0.001681	0.000805	7158.789428	43191.406178	3935.645907	23149.887954
17.534500	0.000994	0.000221	0.007927	0.000736	7161.830222	43153.715844	3960.158280	23153.100235
18.035500	0.000150	0.000494	0.004495	0.000351	7157.317995	43214.629172	3952.381150	23171.070552
18.535000	-0.000785	-0.000782	0.000587	0.000975	7142.031810	43038.955571	3940.912769	23141.953798
19.035500	-0.002616	0.000529	-0.001779	0.001935	7114.805925	43071.420624	3932.572973	23097.267793
19.535000	-0.005030	-0.000536	-0.004614	0.001554	7095.069225	43008.312669	3926.461310	23114.978453
20.036000	-0.001732	0.000383	0.002844	0.002296	7119.891389	43024.648321	3943.271778	23080.480186
20.536000	-0.003969	0.000507	0.001085	0.002550	7095.704964	43012.612621	3938.205215	23068.651128
21.037000	-0.002618	-0.000593	-0.002000	0.001742	7116.659632	42985.770924	3932.502276	23106.234556
21.537000	-0.002298	0.000705	-0.003662	0.002434	7113.041549	43041.657220	3926.639834	23074.064377
22.037500	-0.001599	0.000271	0.006287	0.002022	7123.854243	43039.638028	3952.688830	23093.220023
22.534500	0.000685	-0.000301	0.009632	0.002248	7143.952020	42965.991216	3960.652349	23082.672522
23.035000	-0.001781	0.000199	0.006158	0.002367	7118.719915	43001.119539	3951.481748	23077.152783
23.535000	-0.000281	0.000268	-0.000568	0.002546	7131.599512	42990.940779	3934.071724	23068.834470
24.035500	-0.000628	0.000510	0.002658	0.002483	7128.830663	43019.101284	3942.330667	23071.763388
24.536000	-0.001762	0.000658	0.002047	0.002257	7119.974099	43053.606366	3941.362961	23082.280482
25.036000	-0.000305	0.000596	0.005461	0.002201	7134.735417	43053.094290	3950.135821	23084.889192
25.536500	-0.001598	-0.000086	-0.000645	0.001898	7125.073397	43018.116481	3935.502464	23098.986298
26.038500	0.000828	0.000427	0.000275	0.002307	7144.781094	43027.678464	3936.781826	23079.940419
26.534000	-0.002160	0.000738	0.005300	0.002578	7112.976281	43031.291948	3948.769908	23067.349478
27.034000	-0.001026	-0.000047	0.002229	0.002041	7129.264617	43008.527563	3942.364182	23092.330751
27.537500	-0.000779	0.000344	0.002166	0.002512	7127.071475	43001.109340	3941.019373	23070.434699
28.035000	0.001708	0.000474	0.003731	-0.001268	7188.639692	43363.071150	3954.556472	23246.813544
28.535000	-0.001696	0.000445	0.001571	0.000785	7134.979693	43169.880767	3943.871265	23150.807670
29.035500	0.000023	0.000089	-0.001465	0.001234	7147.410711	43095.515554	3935.112004	23129.895948
29.536000	-0.000468	0.001383	0.004859	0.001656	7138.466151	43176.101985	3949.990141	23110.223668
30.036500	-0.001776	0.000051	0.006810	0.000839	7133.663106	43128.448719	3957.037200	23148.285258
30.537000	0.000437	0.000004	-0.000018	0.001193	7151.869972	43091.403122	3938.843536	23131.793434
31.037000	0.000794	0.000322	0.005063	0.001470	7152.658728	43095.261713	3950.980759	23118.894351
31.543000	-0.002255	-0.000118	0.003128	0.000550	7131.823876	43139.668111	3948.406491	23161.808670
32.040500	-0.001938	-0.000462	0.000540	0.002207	7118.746842	42954.963262	3937.697323	23084.593830
32.559500	-0.000117	0.000460	0.001628	0.001142	7146.934660	43138.247330	3943.114599	23134.160931
33.035500	-0.000889	0.000240	0.005212	0.001532	7135.565380	43081.967812	3951.200974	23116.019966
33.538500	-0.000575	0.000402	0.001442	0.000790	7145.901135	43165.502812	3943.534443	23150.588111
34.035500	-0.001483	-0.000048	0.001094	0.001254	7132.481601	43081.076595	3941.488277	23128.973948
34.536000	-0.001150	-0.000211	0.000125	0.000992	7138.301324	43090.216608	3939.708993	23141.193784
35.036500	0.000163	0.000886	0.003302	-0.000491	7165.723954	43329.118593	3951.487687	23210.410780
35.536500	-0.001258	-0.000380	-0.002058	0.002265	7124.807184	42957.186692	3931.053651	23081.897134
36.037000	-0.001243	0.000144	0.004365	0.002223	7125.366438	43009.267022	3947.299714	23083.850055
36.540000	-0.000904	0.000690	0.005265	0.002399	7126.949436	43043.431122	3949.134083	23075.659885
37.035000	0.000037	0.000316	0.001382	0.002284	7137.266464	43019.552807	3939.620566	23081.018479
37.535000	-0.002404	0.000655	0.005062	0.002985	7106.651554	42986.173686	3947.134497	23048.437968
38.035500	-0.000339	0.000235	0.004786	0.002386	7132.588076	43002.611072	3947.952994	23076.259119
38.535500	-0.002093	-0.000597	0.002702	0.001743	7121.756706	42985.282413	3944.309510	23106.188837
39.036000	-0.000505	-0.000115	0.001262	0.002010	7134.650929	43005.040148	3940.006894	23093.764243
39.536000	-0.000946	-0.000085	0.003257	0.002597	7124.610291	42953.746445	3943.554205	23066.454912
40.036500	-0.002644	0.000122	0.000905	0.001968	7114.201512	43030.804646	3939.215147	23095.701375
40.536500	-0.001345	-0.000522	0.003204	0.001744	7129.041390	42992.065659	3945.575721	23106.135412
41.037000	0.001284	0.000395	0.000318	0.002605	7146.329160	42997.183933	3936.144039	23066.088321
41.537500	-0.000363	-0.000182	0.000396	0.001949	7136.632801	43004.501265	3937.984104	23096.578977
42.035000	-0.002010	0.000108	0.007226	0.001950	7120.549411	43031.217368	3955.263992	23096.555393
42.535500	-0.003387	-0.000199	-0.001961	0.001728	7109.323366	43023.388729	3932.637146	23106.892874
43.035500	-0.002244	-0.000359	0.003910	0.001832	7119.427246	42999.060778	3947.139299	23102.066226
43.535500	-0.001275	0.000322	0.002776	0.002338	7123.936558	43015.107139	3942.995738	23078.521454
44.036000	-0.001656	0.000237	0.004198	0.002382	7119.798303	43003.312627	3946.477464	23076.486621
44.539000	-0.003526	-0.000156	0.006159	0.001991	7105.413724	43003.062540	3952.441708	23094.657006
45.036500	-0.003559	-0.000757	0.004441	0.001314	7111.674862	43010.117113	3949.798173	23126.171487
45.537000	-0.000539	-0.000349	0.004192	0.000344	7150.626756	43137.283237	3951.627428	23171.400055
46.037000	0.001885	0.000897	0.005179	0.001810	7160.034323	43117.013828	3950.412979	23103.081146
46.556500	-0.005158	-0.001597	0.002630	0.004566	7064.780510	42634.580736	3937.022784	22975.207404
47.034500	-0.001232	0.000691	0.002284	0.001262	7134.859334	43148.580834	3944.468944	23128.590448
47.538000	-0.001561	0.000235	0.000460	0.001044	7133.762861	43126.563378	3940.419147	23138.733367
48.035500	-0.000171	-0.000119	0.001494	0.001087	7146.944394	43089.877787	3942.915952	23136.733186
48.536000	-0.002922	0.000327	-0.001189	0.007008	7062.801010	42587.305769	3921.432393	22862.588207
49.036000	0.000323	0.001080	0.000746	0.003031	7132.764613	43021.070213	3936.147636	23046.319120
49.536500	-0.002327	0.000527	0.003932	0.003093	7106.354461	42964.407562	3944.004173	23043.429904
50.036500	-0.000332	0.000015	0.001169	0.001161	7144.643393	43095.399134	3941.908947	23133.284200
50.540000	-0.002739	-0.000480	0.000399	0.005910	7075.132420	42613.899997	3928.091764	22913.148001
51.037500	-0.001453	0.000051	0.002972	0.000793	7137.273529	43132.782765	3947.394304	23150.442522
51.534000	0.000175	0.000228	0.000945	-0.000851	7169.393816	43301.500066	3946.426598	23227.295003
52.035000	-0.000146	0.000164	0.003290	-0.000598	7163.742082	43272.105842	3951.729609	23215.445163
52.535500	-0.012003	-0.004042	0.004586	0.009357	6954.439974	41979.337284	3929.936271	22754.893577
53.035500	-0.055556	-0.006923	0.002638	0.165347	5457.527617	30029.840660	3599.994043	16761.302674
53.536000	-0.048732	-0.012478	-0.008789	-0.085060	7531.695767	50518.636331	4151.955599	27578.454393
54.036500	-0.036393	-0.094643	-0.014360	-0.286428	10481.897066	65534.606906	4894.884168	42140.644785
54.539500	-0.022550	-0.145793	-0.005645	-0.337581	11707.361265	65535.000000	5197.462217	47046.702956
55.039500	-0.018417	-0.134730	-0.007675	-0.326518	11567.783130	65535.000000	5127.679230	45936.135500
55.537000	-0.026439	-0.111169	-0.009317	-0.302956	10959.184788	65535.000000	4999.133769	43663.152178
56.037500	-0.018687	-0.084308	-0.004523	-0.276080	10611.581209	65532.693605	4892.474515	41216.486080
56.535000	-0.012067	-0.074917	-0.013088	-0.266503	10559.213636	65506.032434	4808.821379	40380.668886
57.035000	-0.002520	-0.068982	-0.008841	-0.258932	10594.182072	65270.858942	4793.865643	39732.789612
57.535500	0.002942	-0.053558	-0.007281	-0.237282	10312.333287	64384.115084	4705.891178	37941.285606
58.035500	-0.003985	-0.033138	-0.005385	-0.202592	9634.166363	62399.061597	4570.744427	35250.524356
58.535500	-0.010044	-0.018404	-0.008128	-0.158527	8899.127741	58518.394338	4394.697535	32128.442304
59.036500	-0.006412	-0.014229	-0.003269	-0.136145	8645.251304	56237.955696	4333.519625	30659.851551
59.537000	-0.004209	-0.010570	-0.006208	-0.110736	8345.855255	53636.207403	4239.635225	29081.909561
60.037000	-0.002249	-0.007812	0.001474	-0.092493	8145.109703	51861.716902	4206.195378	28004.558335
60.537500	-0.004533	-0.005972	-0.002891	-0.067402	7824.152349	49313.338030	4117.110385	26594.833501
61.034500	-0.006041	-0.006339	0.004507	-0.054632	7664.600303	47932.662743	4101.508805	25908.042989
61.535000	-0.003187	-0.003740	0.004144	-0.033450	7467.336614	46049.511384	4040.826015	24812.402895
62.035500	-0.004142	-0.004003	0.007633	-0.017446	7292.081327	44466.052292	4006.934392	24019.364383
62.536000	-0.003491	-0.003900	-0.000079	-0.012435	7248.114968	43999.840282	3973.467416	23776.987103
63.036000	-0.002580	-0.002528	0.007692	-0.010020	7233.048898	43901.325407	3987.436665	23661.165559
63.536500	0.000647	-0.001500	0.004928	-0.005203	7217.173864	43545.825124	3967.714815	23432.060245
64.036500	0.005116	-0.000768	0.013636	-0.004384	7253.688538	43537.708715	3988.244559	23393.386217
64.537000	0.004008	-0.000869	0.011943	0.002038	7178.692388	42933.009491	3967.130735	23092.437479
65.037000	0.009148	0.001691	0.011338	0.010219	7148.783525	42419.217202	3944.712227	22715.488857
65.535000	0.011483	0.002569	0.017835	0.009436	7179.460146	42570.433687	3963.259151	22751.289074
66.035000	0.015766	0.006322	0.019905	0.016765	7149.483988	42245.634991	3949.829278	22418.942115
66.538000	0.015031	0.005208	0.022717	0.018431	7126.008748	41995.085602	3952.740436	22344.166489
67.035500	0.018585	0.008569	0.026272	0.023562	7110.655813	41836.381075	3948.738579	22115.727673
67.535500	0.024234	0.009031	0.025987	0.019798	7203.122545	42216.465440	3957.596338	22283.074415
68.041500	0.033726	0.012699	0.034288	0.014703	7350.417985	43016.230115	3992.362730	22511.896549
68.553000	0.031992	0.014036	0.030577	0.022611	7252.498882	42414.997561	3962.147193	22157.886119
69.039000	0.037675	0.015448	0.035427	0.023164	7304.323012	42493.085280	3973.228041	22133.363645
69.539000	0.040164	0.016320	0.044290	0.025604	7304.828608	42350.691117	3989.995974	22025.564206
70.034000	0.041263	0.017180	0.047579	0.028331	7288.310128	42181.710783	3991.475343	21905.783329
70.536500	0.039303	0.017555	0.047744	0.036871	7183.261385	41451.525460	3969.629932	21535.552165
71.035500	0.042378	0.018215	0.048098	0.033816	7244.280379	41781.998836	3978.469513	21667.145318
71.538500	0.046948	0.020867	0.048872	0.036982	7258.367469	41736.097096	3972.258906	21530.771993
72.036000	0.046960	0.020690	0.054948	0.038351	7244.757022	41598.411213	3984.514903	21472.134111
72.536000	0.045952	0.022630	0.049970	0.046623	7152.702405	41039.386403	3950.355124	21121.578777
73.036000	0.050182	0.023877	0.060947	0.043752	7222.959495	41402.006940	3986.081873	21242.492521
73.539500	0.051506	0.025134	0.061761	0.046311	7210.651405	41286.941026	3981.513889	21134.669053
74.037000	0.053888	0.026041	0.059555	0.048482	7212.755464	41175.629569	3970.145726	21043.723942
74.537000	0.050558	0.026455	0.061008	0.056450	7101.771086	40516.928438	3953.433686	20713.720506
75.037500	0.059284	0.027857	0.063972	0.053231	7219.202723	40918.484033	3969.288463	20846.312005
75.540500	0.061131	0.028681	0.069218	0.055163	7218.346277	40821.850343	3977.880028	20766.607694
76.035000	0.064000	0.031264	0.069669	0.058623	7212.467808	40745.505855	3970.076906	20624.773232
76.535000	0.059403	0.032018	0.068167	0.067075	7084.549523	40081.937764	3944.645885	20283.020842
77.035500	0.066219	0.033027	0.073872	0.064547	7175.758613	40385.378757	3965.636648	20384.537215
77.536000	0.070986	0.035128	0.079672	0.068619	7182.627376	40216.007343	3970.097338	20221.323127
78.039000	0.068764	0.034963	0.078592	0.070962	7137.752594	40001.569633	3961.283836	20128.080975
78.539000	0.068563	0.036522	0.079332	0.079760	7050.646333	39389.415565	3940.811862	19782.401651
79.037000	0.074782	0.038363	0.079500	0.079238	7115.724922	39588.135224	3942.550883	19802.720991
79.542000	0.077081	0.038897	0.084484	0.081971	7111.503909	39403.233773	3948.238726	19696.641507
80.035000	0.078241	0.040299	0.090720	0.085306	7090.424435	39241.479017	3955.614860	19568.095792
80.534500	0.078204	0.042185	0.088847	0.094767	6999.574595	38614.344067	3927.075377	19208.739348
81.035500	0.082749	0.042813	0.088594	0.093079	7058.962763	38804.922908	3930.647251	19272.271019
81.536000	0.083653	0.043672	0.093052	0.096382	7036.003002	38603.865122	3933.533622	19148.183344
82.036000	0.086246	0.045935	0.097015	0.101128	7015.507091	38400.781058	3931.575969	18971.489950
82.536000	0.083373	0.047142	0.094340	0.109319	6911.757741	37835.613088	3904.796542	18671.081544
83.036500	0.089317	0.048357	0.099716	0.108487	6974.978672	38000.280085	3920.013067	18701.330203
83.536500	0.091321	0.048280	0.101528	0.110578	6974.168966	37825.944683	3919.325153	18625.412927
84.040000	0.091956	0.048927	0.100978	0.113357	6954.052414	37655.209930	3911.141330	18525.041183
84.534500	0.090937	0.050413	0.105089	0.122494	6860.148538	37049.688045	3898.908176	18199.608045
85.035000	0.095608	0.052839	0.108579	0.121306	6914.050096	37334.392507	3910.291435	18241.515381
85.535000	0.096137	0.052460	0.104882	0.122969	6903.570316	37173.270915	3897.258942	18182.872474
86.035500	0.097985	0.054499	0.108752	0.126503	6888.019549	37055.725808	3898.070227	18058.954698
86.535500	0.095318	0.054938	0.104776	0.134262	6793.202803	36486.138922	3870.069965	17790.401770
87.036000	0.102513	0.055898	0.116142	0.131725	6881.630740	36756.980992	3903.326417	17877.657462
87.536000	0.101177	0.056987	0.117556	0.134926	6840.161683	36593.079821	3898.989993	17767.610672
88.036500	0.101677	0.058109	0.117459	0.138302	6814.094870	36419.096570	3890.618041	17652.437121
88.537000	0.103216	0.059912	0.114493	0.145588	6762.522674	35999.577065	3866.288684	17406.885587
89.037000	0.105876	0.059760	0.124078	0.143482	6805.245718	36148.524875	3894.079919	17477.450769
89.543000	0.107571	0.060864	0.127990	0.146094	6796.986650	36033.427009	3897.215132	17389.968362
90.035000	0.107808	0.062324	0.127566	0.149435	6769.174040	35890.620307	3888.157522	17278.887161
90.535000	0.108118	0.063356	0.124894	0.157914	6696.900196	35331.012172	3861.785167	17000.730874
91.035000	0.111641	0.063144	0.123710	0.153754	6764.829357	35626.473060	3868.755590	17136.495999
91.535500	0.112016	0.064806	0.126790	0.156629	6742.593478	35535.394482	3869.238023	17042.511845
92.039000	0.114025	0.066413	0.131470	0.160191	6728.841179	35389.178258	3871.869681	16926.937921
92.538500	0.112558	0.066094	0.129276	0.165883	6666.101141	34943.639150	3853.442289	16744.205658
93.037000	0.113796	0.066000	0.128443	0.163165	6700.650594	35137.405661	3857.818701	16831.177627
93.536500	0.116961	0.067672	0.134943	0.166344	6700.525739	35026.005873	3865.569820	16729.508021
94.037500	0.117239	0.068954	0.135156	0.170231	6668.993117	34834.294060	3856.994488	16606.198804
94.535500	0.119705	0.068776	0.137618	0.171405	6680.253501	34735.260993	3859.993558	16569.194698
95.035500	0.120551	0.069434	0.140977	0.173769	6667.027303	34610.723148	3862.314852	16494.934652
95.535500	0.119034	0.070061	0.145070	0.175346	6640.228751	34541.657191	3868.209827	16445.642581
96.035500	0.122748	0.070983	0.138753	0.177605	6652.804783	34444.636158	3848.255970	16375.324721
96.540500	0.121127	0.072281	0.140764	0.180727	6611.940238	34312.730681	3845.700482	16278.738172
97.036000	0.125217	0.073409	0.146883	0.182856	6628.784222	34240.573461	3854.911141	16213.279145
97.536000	0.124417	0.073106	0.141524	0.184036	6611.784206	34133.988907	3839.860505	16177.152404
98.037000	0.125081	0.074323	0.151328	0.186652	6595.098478	34033.774728	3856.418068	16097.367807
98.542000	0.126460	0.073918	0.146144	0.186900	6604.754915	33987.123624	3843.880849	16089.826264
99.037000	0.127265	0.075263	0.147685	0.189816	6586.744942	33875.147508	3840.731435	16001.494200
99.534500	0.128414	0.076396	0.150782	0.191398	6583.062579	33843.223536	3844.201060	15953.839447
100.035000	0.130828	0.077474	0.152774	0.193593	6584.920930	33763.903472	3843.733964	15887.976015
100.535000	0.128564	0.076759	0.151221	0.198746	6522.378279	33350.720395	3828.475885	15734.714044
101.035500	0.130718	0.077606	0.148206	0.196220	6561.720154	33587.563289	3827.369488	15809.612192
101.536000	0.132413	0.078365	0.152993	0.197492	6565.300636	33551.436430	3835.333163	15771.846324
102.036500	0.133252	0.077854	0.155882	0.198406	6564.664897	33451.270501	3839.833754	15744.766450
102.536500	0.134808	0.080087	0.151297	0.202908	6539.824106	33292.412383	3819.290101	15612.209695
103.037000	0.134919	0.080321	0.148530	0.202256	6546.242363	33354.384032	3814.570878	15631.332584
103.537000	0.135349	0.080972	0.151835	0.204210	6533.433420	33263.363517	3817.582719	15574.134840
104.037500	0.134366	0.079706	0.156860	0.204233	6525.007401	33173.539313	3828.815254	15573.453181
104.535500	0.135172	0.081350	0.152748	0.209582	6487.197929	32917.096119	3807.676487	15418.239581
105.035000	0.136842	0.082665	0.157451	0.208026	6514.004979	33115.687273	3821.610208	15463.199106
105.538000	0.137998	0.081856	0.162654	0.208328	6521.137188	33038.667140	3832.663479	15454.459783
106.035500	0.139285	0.083005	0.153880	0.210776	6511.444089	32948.855460	3807.536902	15383.834623
106.536500	0.138376	0.083289	0.158009	0.215473	6465.010520	32645.810875	3806.283756	15249.465358
107.037000	0.140406	0.083611	0.162583	0.212457	6506.785564	32874.810464	3823.185664	15335.601778
107.536500	0.140933	0.084221	0.163396	0.213744	6500.457873	32828.199808	3822.120871	15298.777286
108.037000	0.139601	0.084711	0.161096	0.215005	6478.973003	32775.281361	3814.164409	15262.807591
108.537000	0.142036	0.084776	0.161011	0.217813	6475.888087	32587.601558	3807.744637	15183.063487
109.035000	0.140527	0.083868	0.164585	0.215716	6480.746717	32668.827728	3820.364207	15242.560503
109.535500	0.143778	0.085369	0.163558	0.217316	6494.420358	32662.055468	3814.497926	15197.147266
110.035500	0.145622	0.086614	0.166640	0.219921	6488.109070	32569.220072	3815.561651	15123.557688
110.538500	0.143000	0.086616	0.164081	0.221862	6450.516600	32437.355539	3805.584498	15069.004512
111.036000	0.143740	0.087820	0.162308	0.221167	6462.298293	32566.468179	3803.210306	15088.518210
111.536000	0.147072	0.087405	0.166455	0.221673	6485.615129	32503.806803	3811.254077	15074.317806
112.036500	0.147660	0.087217	0.163079	0.223070	6478.919444	32396.232318	3800.722968	15035.196053
112.537500	0.147956	0.089669	0.170546	0.225378	6462.330606	32405.972665	3812.110290	14970.819086
113.037500	0.145961	0.088445	0.165847	0.225328	6446.382051	32326.587525	3801.842896	14972.235164
113.534500	0.150629	0.088498	0.167085	0.226036	6478.948891	32282.346619	3803.007373	14952.556087
114.038000	0.151422	0.088767	0.168576	0.226939	6478.044519	32239.567839	3804.303484	14927.504670
114.537500	0.150246	0.089546	0.171489	0.227501	6463.710979	32254.222405	3809.495449	14911.937495
115.038000	0.151679	0.089820	0.175134	0.228520	6467.119322	32203.970323	3815.325960	14883.752006
115.535500	0.150153	0.089940	0.170577	0.228887	6451.569445	32187.381068	3804.418661	14873.638536
116.036000	0.152873	0.090594	0.170773	0.230871	6457.606120	32098.064802	3800.488259	14819.016628
116.539000	0.151705	0.090179	0.171071	0.230614	6450.131165	32087.491557	3801.707578	14826.088617
117.036000	0.151442	0.090759	0.170115	0.231741	6438.757537	32050.867252	3797.143279	14795.164075
117.537000	0.151521	0.090578	0.173337	0.231835	6438.635893	32032.456451	3804.005135	14792.581593
118.037500	0.151936	0.090330	0.165669	0.232441	6437.074141	31975.318162	3785.958735	14775.977327
118.537500	0.150919	0.092419	0.168247	0.235678	6402.512386	31898.832059	3784.536929	14687.749884
119.035000	0.153314	0.092081	0.175940	0.234968	6427.711833	31923.604173	3802.840055	14707.051357
119.537500	0.153031	0.091820	0.178735	0.235320	6422.539163	31882.725217	3808.225555	14697.461623
120.036000	0.154137	0.092502	0.169768	0.236492	6422.002983	31850.153194	3786.062500	14665.647509
120.536000	0.153860	0.092622	0.175359	0.238421	6404.112231	31730.130231	3794.008823	14613.485957
121.036500	0.154477	0.093170	0.172543	0.237861	6413.651669	31803.599997	3789.106410	14628.607217
121.536500	0.153463	0.092991	0.172637	0.237728	6406.509579	31800.547405	3789.597485	14632.193069
122.037000	0.156528	0.093524	0.177835	0.239345	6418.251794	31728.664644	3797.395116	14588.571315
122.537500	0.155853	0.093522	0.176929	0.240772	6401.214870	31634.218897	3792.307294	14550.189548
123.037500	0.154761	0.093845	0.172969	0.239593	6401.923832	31733.521295	3786.277827	14581.891312
123.537000	0.153709	0.094338	0.174037	0.240819	6383.548730	31685.007684	3785.935823	14548.925016
124.035500	0.158030	0.094767	0.169703	0.243036	6400.510503	31567.049067	3771.891367	14489.578133
124.535500	0.154832	0.094498	0.174349	0.243525	6370.844335	31517.207400	3780.779405	14476.538183
125.036000	0.157172	0.093822	0.177216	0.241946	6402.388716	31576.613338	3790.381193	14518.723314
125.538500	0.155317	0.094859	0.179197	0.243392	6375.805586	31549.722642	3791.541986	14480.086764
126.036500	0.157027	0.093970	0.175313	0.243570	6388.116294	31479.520142	3782.754564	14475.322233
126.536500	0.155143	0.093865	0.180702	0.245051	6361.122036	31375.623577	3791.206301	14435.886711
127.034000	0.157397	0.095577	0.174490	0.245287	6377.287444	31472.324229	3777.302412	14429.627083
127.536500	0.156793	0.094570	0.179365	0.245165	6373.420788	31414.332955	3788.061552	14432.875039
128.037500	0.157504	0.095801	0.174086	0.246135	6371.341779	31431.407388	3774.627324	14407.120066
128.535000	0.156690	0.093886	0.172181	0.246276	6363.697056	31297.063625	3770.271741	14403.393345
129.035000	0.157629	0.094231	0.177882	0.245610	6376.550468	31362.975549	3783.893875	14421.035785
129.536000	0.158304	0.094926	0.168291	0.246129	6377.800798	31374.542716	3762.353062	14407.268992
130.036000	0.157275	0.095580	0.172126	0.248511	6350.525702	31261.722514	3765.417045	14344.282777
130.539000	0.157649	0.095217	0.181413	0.247997	6357.608453	31271.588948	3786.364756	14357.855094
131.036500	0.159351	0.096246	0.181055	0.249160	6361.908371	31262.848987	3783.081384	14327.181127
131.539500	0.156822	0.095712	0.176688	0.248707	6345.359702	31257.576720	3774.690877	14339.120128
132.037500	0.156701	0.096807	0.183740	0.251323	6323.652198	31158.695962	3784.207096	14270.370312
132.534500	0.159674	0.096049	0.182151	0.250296	6355.419510	31176.207581	3782.995815	14297.317741
