sample name	sample
index	1034
start time	 04-19-2021  01:46:40 PM
880	-0.019348
Peak Time (s)	101.037
Peak Height 	-0.01935
calc peak height	100,103
Baseline Time (s)	8.536
Baseline Value 	-0.003876
subtract baseline	10,4
Abs	-0.014150
Peak Time (s)	101.538
Peak Height 	-0.01415
calc peak height	100,103
Baseline Time (s)	11.535
Baseline Value 	0.001092
subtract baseline	10,3
PK_550	-0.000406
Peak Time (s)	100.039
Peak Height 	-4.0647E-4
calc peak height	100,103
Baseline Time (s)	9.039
Baseline Value 	5.3458E-5
subtract baseline	10,2
PK_880	-0.016003
Peak Time (s)	100.537
Peak Height 	-0.016
calc peak height	100,103
Baseline Time (s)	9.537
Baseline Value 	0.001402
subtract baseline	10,1


Time (s)	A880-A510	A880-A775	A880-A975	A880	I510	I775	I975	I880	
0.039500	0.000470	-0.000228	0.001701	0.002253	6579.805228	45917.780372	3983.343214	24315.539448
0.537000	-0.001351	0.000049	-0.002848	0.003548	6553.667959	45817.225798	3968.654274	24251.819440
1.037500	-0.002185	0.000488	-0.003292	0.004131	6541.854794	45803.110207	3966.093897	24223.244080
1.537000	-0.005148	-0.000355	-0.007179	0.006466	6497.995504	45490.954906	3950.708471	24108.994095
2.035500	0.000642	0.000119	-0.000058	0.001558	6587.108638	46020.837778	3980.653992	24349.784826
2.535500	-0.000560	-0.000357	0.000847	0.000322	6587.391353	46096.225148	3986.071355	24410.871813
3.036000	0.001546	0.000864	0.004314	-0.000284	6610.341084	46277.881689	3996.453100	24440.884308
3.536000	-0.003573	-0.000098	-0.001366	0.004285	6529.040168	45730.306052	3970.517785	24215.700338
4.036500	0.000835	-0.000299	0.002799	0.000399	6598.522039	46094.316369	3990.838209	24407.053891
4.539500	-0.000367	0.000481	0.000146	0.001093	6582.530253	46102.905744	3982.345452	24372.773464
5.037000	0.000555	0.000463	-0.000084	0.001208	6589.326435	46089.645974	3981.473316	24367.072705
5.534500	-0.000577	-0.000005	-0.001944	0.000664	6584.359897	46097.134365	3978.150800	24393.925985
6.037500	0.000117	0.000733	0.002688	0.001251	6585.267777	46112.232965	3988.386263	24364.950666
6.535000	0.000859	0.000452	0.000805	0.000791	6595.416372	46130.004431	3984.777344	24387.682023
7.035500	-0.001734	0.000371	0.004057	0.000185	6578.656877	46182.101405	3994.593720	24417.639680
7.535000	0.000686	0.000357	0.002093	0.000238	6598.621202	46175.466439	3989.449540	24415.003359
8.036000	-0.002412	0.000174	-0.000172	0.000416	6571.020455	46139.562880	3983.251774	24406.197193
8.536000	-0.001539	-0.000261	0.002826	0.000000	6581.857853	46137.699420	3991.924708	24426.801163
9.039000	-0.000642	0.000000	-0.000370	-0.000153	6590.713626	46178.858035	3984.190561	24434.388128
9.536500	0.000000	-0.000603	0.000918	-0.000348	6597.776812	46138.222666	3987.950720	24444.015012
10.037000	-0.000673	-0.000139	-0.002500	0.000098	6588.324876	46140.082171	3978.176948	24421.940704
10.537000	0.001148	0.000567	-0.001809	0.000150	6603.286447	46205.176321	3979.790498	24419.393776
11.035000	0.000414	0.000134	0.001920	0.000007	6598.282507	46176.328708	3989.599954	24426.473975
11.535000	0.000557	0.000124	0.000000	-0.000201	6601.246125	46195.913352	3985.248950	24436.736913
12.035500	0.002179	0.000411	0.003599	-0.000245	6615.381587	46228.864699	3994.523092	24438.948833
12.536000	0.001115	0.000120	0.003543	-0.000472	6608.272847	46222.587268	3994.959995	24450.201303
13.036000	-0.000068	-0.000058	0.004679	-0.002721	6617.326303	46429.115222	4003.649368	24561.965666
13.539000	-0.003885	0.000099	-0.003728	0.004947	6520.962381	45684.456882	3962.979651	24183.244785
14.036500	0.000518	0.000109	0.002609	-0.000404	6602.642111	46214.682291	3992.401048	24446.822888
14.540000	0.000541	0.000074	0.000480	0.001258	6588.781805	46046.079945	3982.771079	24364.605375
15.037500	-0.001992	-0.000430	0.000872	-0.000444	6581.778453	46165.025728	3988.079117	24448.786492
15.562500	-0.005157	0.000568	-0.000939	0.005728	6504.003078	45653.790524	3967.977927	24145.034476
16.035500	0.000346	0.000675	0.004009	-0.000294	6600.256721	46260.099622	3995.696813	24441.378051
16.535500	0.000071	-0.000100	0.003376	-0.000677	6601.166528	46221.031666	3995.057356	24460.348255
17.035500	0.000394	0.000565	0.002998	-0.000337	6601.018895	46253.299732	3993.220819	24443.473978
17.538000	-0.002986	0.000351	-0.000934	0.003767	6538.212304	45825.461868	3972.893853	24241.087879
18.039000	-0.001341	-0.001218	-0.000200	-0.001085	6592.678007	46150.436255	3986.985647	24480.596725
18.536500	-0.001202	0.000162	0.003256	0.000421	6581.146915	46137.855171	3991.946501	24405.943463
19.037000	-0.000480	0.000134	0.000063	0.000708	6584.808575	46106.601699	3983.107299	24391.752506
19.537000	-0.004230	-0.000253	-0.002504	0.002324	6539.871638	45908.269842	3972.577842	24312.044590
20.035000	-0.000602	0.000340	0.002373	0.000892	6582.238397	46108.750897	3988.499340	24382.671797
20.535000	0.000083	-0.000215	-0.002713	0.000326	6592.787694	46109.869588	3977.067090	24410.655507
21.035500	0.001096	0.000436	-0.001383	0.000588	6599.128923	46148.513194	3979.756759	24397.688917
21.535500	-0.001373	-0.000361	0.000335	0.001644	6569.429058	45964.813107	3981.428836	24345.531428
22.036000	-0.001016	0.000769	0.001830	0.001265	6575.615095	46114.402341	3986.173760	24364.269580
22.539000	-0.003391	-0.000480	-0.001041	0.000176	6564.822955	46098.492046	3981.661824	24418.092759
23.036000	-0.002095	0.000589	0.001455	0.000870	6569.867212	46135.730052	3986.223645	24383.770761
23.537000	-0.001773	0.000749	0.001683	0.003314	6552.101613	45909.450497	3980.617103	24263.329825
24.037000	0.000094	0.000363	-0.001186	0.000933	6587.761076	46107.052179	3979.386061	24380.670623
24.538000	-0.001197	-0.000572	-0.001426	0.000815	6577.876026	46026.018345	3979.077039	24386.480577
25.037500	0.001985	0.000074	0.001239	0.000861	6604.346258	46085.516037	3985.698694	24384.211024
25.583000	-0.000911	0.000657	0.000538	0.003022	6561.751874	45929.214970	3978.465158	24277.686313
26.035500	-0.000572	0.000258	-0.003495	0.000853	6582.815586	46104.524976	3973.780190	24384.619698
26.538000	-0.000456	0.000139	0.004285	0.001005	6582.515331	46077.651839	3993.080251	24377.084983
27.036000	0.000446	0.000327	-0.000617	0.000637	6593.232568	46132.841103	3981.570161	24395.306533
27.536000	-0.003818	-0.000415	-0.002539	0.004081	6528.693420	45719.054451	3968.096186	24225.678926
28.037000	0.001099	-0.000015	-0.000238	-0.002994	6629.586813	46460.726045	3991.744841	24575.567013
28.536500	0.000705	0.001000	-0.001993	0.000058	6600.302918	46257.321727	3979.555031	24423.906471
29.048000	-0.001761	0.000727	-0.004079	-0.000396	6583.317725	46275.339820	3975.446862	24446.395532
29.537500	-0.001219	-0.000729	-0.000139	-0.000278	6586.899590	46118.891259	3985.094939	24440.592978
30.035000	-0.000527	0.000124	-0.000946	-0.000505	6594.651085	46226.225215	3983.623987	24451.816601
30.534500	0.000168	0.000415	0.001814	-0.000242	6598.308941	46228.958450	3989.962545	24438.801977
31.035500	-0.002171	-0.000495	0.005283	-0.001269	6587.224945	46240.634510	4001.467747	24489.747525
31.538500	-0.000268	-0.000218	0.002958	0.001759	6577.751912	45967.593767	3987.781973	24339.896574
32.035500	-0.001779	0.000576	-0.000947	0.002417	6559.553148	45981.092289	3976.251674	24307.453983
32.594500	-0.000669	0.000374	0.004717	-0.000657	6594.738834	46266.153993	3998.438777	24459.345633
33.037000	0.002627	0.001518	0.002029	0.000316	6614.422124	46283.251040	3989.087844	24411.160646
33.536000	0.002423	0.001291	0.001264	0.001433	6603.209617	46149.470165	3984.312125	24355.940528
34.037000	0.000267	-0.000060	0.003246	-0.000708	6603.088319	46228.078292	3994.805742	24461.901887
34.537500	0.000074	0.000653	0.003445	-0.000030	6595.719147	46231.613535	3993.580260	24428.291113
35.035000	0.000408	0.000747	0.003401	0.001819	6582.939700	46057.246419	3988.755532	24336.927461
35.535500	-0.001773	0.000611	0.003036	0.003705	6548.844805	45857.238641	3983.048393	24244.143827
36.041000	-0.001390	0.000233	0.003929	0.001402	6571.317548	46047.545605	3991.159487	24357.480327
36.536000	-0.001775	-0.000049	0.000007	0.001417	6567.959305	46018.174050	3981.172712	24356.744282
37.036000	-0.001189	-0.000143	-0.001900	0.001754	6570.054273	45975.496528	3975.523187	24340.137458
37.539000	-0.002895	0.000142	0.002338	0.003774	6538.913015	45804.130789	3981.108694	24240.737947
38.037000	-0.000986	0.000300	0.003308	0.001787	6571.486722	46016.122045	3988.601521	24338.515691
38.537000	-0.000933	-0.000734	-0.001045	0.000885	6579.507295	46003.032327	3979.861798	24383.007226
39.034500	0.000281	0.000181	-0.000829	0.001204	6587.048013	46062.159541	3979.603866	24367.285527
39.534500	0.000551	0.000853	0.001440	0.001318	6588.363661	46117.392603	3985.049030	24361.623117
40.038000	-0.001950	0.000085	0.000955	0.000986	6570.113958	46074.136262	3984.662770	24378.037305
40.538000	-0.000305	-0.000322	0.000737	0.000817	6585.372622	46050.613156	3984.538125	24386.398847
41.035500	-0.002928	-0.000367	-0.004033	0.000312	6567.568780	46096.255525	3973.788676	24411.373827
41.536000	-0.002737	0.000316	-0.002827	0.003062	6546.161086	45891.570888	3969.920329	24275.720967
42.035500	-0.001074	-0.000166	0.004259	0.001125	6576.301082	46035.449534	3992.707435	24371.151338
42.536000	-0.001015	-0.000375	0.002244	0.000757	6579.894114	46051.262032	3988.515418	24389.349875
43.039500	0.000636	0.000028	-0.002223	0.001044	6591.397242	46062.779375	3976.495490	24375.174201
43.537000	-0.001264	0.000206	-0.000068	0.003639	6553.644738	45823.864537	3975.388851	24247.391271
44.039000	-0.000170	-0.000116	0.002070	0.001121	6583.941210	46040.838825	3987.147697	24371.348969
44.536000	-0.001617	-0.000069	0.003810	0.001323	6570.078334	46025.426562	3991.058512	24361.374260
45.038000	0.001003	0.000726	0.003001	-0.001318	6614.505723	46367.241426	3995.738660	24492.169373
45.536000	-0.002319	-0.000834	-0.002526	0.003641	6544.817967	45721.144853	3969.228284	24247.279372
46.035500	-0.002185	-0.000658	-0.001143	-0.000735	6582.608911	46171.346464	3983.707165	24463.238488
46.540000	-0.002391	-0.000173	0.000538	-0.001243	6585.151322	46270.177435	3989.263132	24488.459768
47.036000	-0.000094	0.000065	-0.000238	-0.000702	6599.977167	46239.893038	3985.917481	24461.585346
47.536500	-0.002618	-0.000015	0.003164	0.004095	6538.548776	45757.121857	3982.386472	24225.015163
48.037000	-0.002018	-0.000233	-0.000484	-0.000544	6582.406287	46194.561218	3984.892969	24453.747509
48.543500	0.000435	0.000581	0.000958	-0.000731	6604.704865	46294.280807	3989.028044	24463.048587
49.035000	-0.000251	0.000496	0.000441	0.001457	6580.440226	46068.292556	3982.170387	24354.797190
49.538000	-0.003078	0.000121	0.003679	0.003059	6543.346484	45872.652680	3986.312227	24275.878202
50.046000	-0.000593	0.000261	0.005274	-0.001033	6598.563592	46292.444996	4000.837533	24478.028350
50.535500	0.000255	0.000604	0.007274	-0.001169	6606.892177	46340.196646	4006.339123	24484.767224
51.036000	0.001013	0.000824	0.003309	-0.001021	6612.064451	46347.369323	3995.766460	24477.422167
51.536000	-0.002036	0.000121	0.002569	0.003158	6551.210778	45862.786429	3983.248469	24270.989224
52.036500	0.000167	0.000169	0.001359	0.011039	6504.107873	45096.759252	3960.487132	23887.109818
52.537000	-0.000459	-0.006307	0.006455	0.035913	6300.007091	42165.214730	3912.582897	22720.144315
53.037000	0.005789	-0.008453	-0.013591	0.284879	4854.992187	24968.814757	3437.853209	14082.376225
53.537500	-0.026965	-0.019312	-0.029634	-0.073129	7006.421420	51857.703623	4100.641920	28370.422996
54.037500	-0.026747	-0.040992	-0.029625	-0.175289	8091.425641	61804.331714	4423.208994	35119.111297
54.535500	-0.009900	-0.098001	-0.008620	-0.259013	9437.690936	65535.000000	4842.835409	41964.484238
55.035500	-0.003506	-0.073642	-0.002643	-0.232999	9150.014918	65297.198139	4754.536362	39694.615429
55.536000	0.003051	-0.039846	0.000623	-0.183962	8569.948624	63148.891184	4567.473690	35768.479857
56.036500	-0.009919	-0.023302	-0.006026	-0.146919	7955.916687	60375.899449	4406.395754	33083.128907
56.536500	-0.008179	-0.017996	-0.004464	-0.135941	7850.035807	59631.417989	4373.753352	32330.305368
57.036000	0.000211	-0.015640	0.000333	-0.131838	7898.889649	59404.155938	4376.134067	32053.786155
57.537000	-0.000259	-0.008934	-0.002456	-0.093375	7472.397917	55427.049981	4240.968312	29584.790515
58.037000	-0.002514	-0.005744	-0.003067	-0.076502	7276.463809	53801.111872	4187.441837	28568.829313
58.538000	-0.004674	-0.003193	-0.004683	-0.035589	6865.596709	49506.294531	4065.892431	26263.143599
59.035000	-0.004453	-0.002916	-0.009593	-0.028604	6804.694122	48793.553388	4033.972508	25890.762778
59.535500	-0.006809	-0.004641	-0.009914	-0.043201	6915.601027	50171.052596	4072.386894	26675.832513
60.035500	-0.006816	-0.004076	-0.015770	-0.024536	6747.674989	48245.638636	4007.175041	25676.637234
60.535500	-0.011181	-0.001828	-0.014578	-0.029799	6755.591311	49034.942054	4023.987162	25954.084246
61.036000	-0.011352	-0.001280	-0.015502	-0.031678	6770.681838	49292.936309	4026.494864	26053.911801
61.536500	-0.010486	-0.000346	-0.010271	-0.018206	6660.656775	47975.588503	4005.029482	25347.423920
62.036000	-0.009993	-0.000940	-0.017989	-0.016780	6652.639265	47766.838400	3981.681878	25273.882437
62.537500	-0.005760	-0.000299	-0.012642	-0.015578	6678.742738	47709.090000	3992.203743	25212.122520
63.036500	-0.003629	-0.001325	-0.012115	-0.016910	6708.798048	47740.651915	3996.955880	25280.585429
63.535000	-0.004809	-0.001118	-0.014866	-0.017996	6707.978461	47873.985789	3992.698415	25336.553897
64.035000	-0.009762	-0.001297	-0.014100	-0.023239	6710.507531	48400.347059	4008.140716	25608.801774
64.535500	-0.009183	-0.000991	-0.013601	-0.017223	6663.412531	47807.334901	3993.955537	25296.713122
65.035500	-0.012153	-0.001659	-0.014588	-0.005746	6541.096325	46571.707982	3962.564696	24713.183746
65.536000	-0.011774	-0.001453	-0.015188	-0.000722	6502.621469	46091.000635	3948.693427	24462.575061
66.036500	-0.012038	-0.002366	-0.015108	-0.016674	6634.226860	47609.340565	3988.714891	25268.466119
66.537000	-0.013038	-0.001390	-0.013975	-0.004579	6524.044282	46481.722882	3961.190452	24654.706949
67.037000	-0.013187	-0.002796	-0.015512	0.006331	6433.559175	45266.031549	3930.770020	24115.592581
67.537500	-0.014648	-0.001713	-0.016562	0.004319	6438.013643	45568.258434	3933.089282	24213.998948
68.037500	-0.014656	-0.003217	-0.017954	-0.007113	6531.647008	46552.556020	3957.614446	24781.879389
68.534500	-0.013204	-0.005539	-0.018015	-0.025801	6702.847096	48225.062579	4004.644204	25743.031162
69.035500	-0.019306	-0.006951	-0.019350	-0.026600	6656.996893	48161.255669	4003.262816	25785.067093
69.538500	-0.012574	-0.000338	-0.021977	-0.019658	6655.188593	48127.055020	3978.880337	25422.507754
70.042500	-0.016159	-0.001659	-0.023615	-0.031595	6727.624447	49243.753423	4005.145486	26049.522499
70.536000	-0.017855	-0.000735	-0.020593	-0.036050	6751.850794	49819.920160	4024.605652	26287.941372
71.036500	-0.019469	-0.002353	-0.021422	-0.041588	6786.584985	50244.452361	4037.036111	26587.791932
71.539500	-0.016671	-0.002443	-0.016815	-0.049413	6882.213957	51093.441376	4070.505722	27018.057168
72.042000	-0.017128	-0.001719	-0.023191	-0.051598	6897.986025	51416.683389	4059.115026	27139.582723
72.540000	-0.018402	-0.002793	-0.021864	-0.053311	6902.007576	51487.884206	4067.365104	27235.274225
73.037500	-0.020154	-0.002374	-0.021148	-0.050382	6859.368428	51208.476986	4061.354795	27071.865667
73.540000	-0.018141	-0.002300	-0.021871	-0.053309	6904.382789	51542.775482	4067.341658	27235.194243
74.035500	-0.020493	-0.001280	-0.018218	-0.053512	6884.735172	51679.639050	4077.892374	27246.553289
74.538000	-0.019778	-0.001305	-0.022853	-0.054963	6904.534670	51839.694595	4069.172790	27327.936787
75.036000	-0.021898	-0.002277	-0.024916	-0.053645	6873.156153	51582.880756	4059.986938	27253.979351
75.536500	-0.020452	-0.001891	-0.024342	-0.057008	6917.115050	52004.089147	4070.690477	27443.135427
76.036500	-0.019958	-0.001601	-0.026576	-0.057321	6924.536200	52072.187091	4065.454478	27460.794167
76.539500	-0.021858	-0.002017	-0.020673	-0.057535	6909.036966	52049.269794	4082.206041	27472.879750
77.037000	-0.020956	-0.002113	-0.025008	-0.057549	6917.460959	52040.089717	4070.351021	27473.699207
77.540000	-0.024659	-0.002274	-0.025821	-0.052117	6834.356486	51412.665239	4053.421623	27168.564176
78.035000	-0.021680	-0.001691	-0.020748	-0.055571	6892.696208	51864.801739	4076.598965	27362.148086
78.535500	-0.020736	-0.000861	-0.021708	-0.053902	6886.079428	51770.408342	4069.401579	27268.394228
79.035500	-0.022452	-0.001605	-0.021514	-0.049535	6830.985496	51199.894497	4058.071734	27024.843326
79.535500	-0.022591	-0.001222	-0.024957	-0.045652	6794.971971	50812.969189	4038.439739	26810.267079
80.036000	-0.019897	-0.001959	-0.026202	-0.051597	6872.732673	51389.786779	4050.996496	27139.530176
80.536500	-0.019313	-0.001171	-0.022879	-0.049663	6860.475424	51262.328179	4054.732693	27031.928612
81.039500	-0.021131	-0.001015	-0.017750	-0.044669	6799.227867	50727.637436	4055.097763	26756.276444
81.539500	-0.022217	-0.000727	-0.020077	-0.042764	6772.634806	50550.242338	4043.745299	26651.943229
82.037000	-0.018844	-0.001121	-0.020151	-0.047185	6842.310852	50993.194733	4055.406629	26894.753518
82.535000	-0.020947	-0.001164	-0.026223	-0.046786	6819.806833	50944.379783	4038.089853	26872.729444
83.035000	-0.025821	-0.001136	-0.025214	-0.041142	6726.616959	50328.387302	4025.843752	26563.501612
83.535500	-0.025104	-0.001252	-0.024470	-0.038743	6711.917105	50055.139208	4021.503197	26433.295354
84.036000	-0.022513	-0.001866	-0.024821	-0.044889	6788.875314	50658.344628	4036.775994	26768.354176
84.536000	-0.019993	-0.001733	-0.021090	-0.044026	6803.643649	50578.322350	4044.409922	26721.021586
85.036500	-0.025427	-0.001784	-0.027833	-0.038437	6706.441759	49964.486335	4011.936266	26416.746499
85.542000	-0.020711	-0.002094	-0.022749	-0.042511	6783.759563	50373.291915	4035.963143	26638.159893
86.036500	-0.020822	-0.003023	-0.024359	-0.042040	6778.580322	50220.731371	4030.458471	26612.425465
86.540000	-0.020483	-0.002062	-0.021292	-0.040345	6766.572685	50140.983752	4034.084225	26520.161716
87.037500	-0.023313	-0.001340	-0.028699	-0.034448	6690.145270	49582.603972	3999.400924	26201.901063
87.535500	-0.020207	-0.001949	-0.022199	-0.038053	6748.775612	49905.064833	4025.648187	26395.941390
88.035500	-0.018535	-0.002069	-0.022509	-0.037525	6758.872131	49835.158600	4023.449214	26367.451274
88.536000	-0.023241	-0.003637	-0.024773	-0.037945	6721.223335	49711.571298	4018.622697	26390.148430
89.036000	-0.023180	-0.002847	-0.027035	-0.031046	6661.912490	49059.105265	3994.949838	26020.294114
89.536500	-0.022411	-0.002319	-0.014626	-0.035344	6705.772670	49573.813381	4038.503671	26250.022728
90.039000	-0.020926	-0.001581	-0.022539	-0.034264	6709.292676	49537.118214	4014.851263	26192.066139
90.542000	-0.020685	-0.002523	-0.020981	-0.034846	6716.476517	49498.599395	4020.434962	26223.285051
91.037000	-0.022434	-0.002410	-0.021403	-0.028517	6646.597352	48837.723340	4002.911792	25886.163121
91.537000	-0.020830	-0.001805	-0.022493	-0.033105	6700.051962	49389.219770	4011.957835	26130.072617
92.035000	-0.018783	-0.001355	-0.020544	-0.032264	6710.547404	49347.462616	4014.836838	26085.171712
92.535000	-0.018801	-0.000304	-0.017956	-0.031288	6701.880716	49355.385500	4019.038702	26033.141581
93.035500	-0.022037	-0.001124	-0.021238	-0.026118	6629.487700	48720.523645	3997.173617	25759.689571
93.535000	-0.016589	-0.000534	-0.019193	-0.030757	6716.534226	49274.208751	4014.430972	26004.906760
94.036000	-0.017554	-0.000638	-0.025439	-0.030753	6708.081675	49262.672328	3998.284903	26004.692434
94.539000	-0.018464	-0.000666	-0.017245	-0.030493	6697.904077	49232.019684	4018.820673	25990.874628
95.036500	-0.021285	-0.000389	-0.021973	-0.023951	6617.434360	48569.968139	3989.763606	25646.011447
95.540000	-0.022150	-0.000590	-0.026053	-0.023907	6609.716858	48544.304569	3979.317843	25643.708838
96.037000	-0.018148	0.000177	-0.017104	-0.028279	6681.452397	49086.439391	4013.419990	25873.602714
96.537500	-0.018903	-0.000483	-0.025146	-0.029074	6681.807298	49100.758231	3994.738798	25915.673327
97.035000	-0.019820	0.000082	-0.021270	-0.028044	6664.999728	49051.405130	4002.038383	25861.208021
97.534500	-0.023612	-0.001199	-0.019315	-0.022905	6588.867084	48375.710573	3993.872894	25591.359942
98.035500	-0.018680	-0.000336	-0.023284	-0.027281	6668.245616	48926.363137	3994.914912	25820.936980
98.536000	-0.018206	0.000368	-0.020782	-0.025980	6661.124178	48863.265729	3997.988654	25752.442002
99.038500	-0.020828	-0.000905	-0.023833	-0.020997	6596.267433	48207.265826	3977.578374	25491.966480
99.536000	-0.016118	-0.000234	-0.014022	-0.025839	6677.909959	48784.781675	4015.088830	25745.000900
100.039000	-0.019886	-0.000406	-0.021712	-0.025191	6639.944949	48698.482899	3993.590777	25711.015416
100.536500	-0.016003	-0.000718	-0.021813	-0.024927	6671.022668	48637.815337	3992.657774	25697.115941
101.036500	-0.023201	-0.001058	-0.018509	-0.019348	6562.427979	48020.237645	3986.868507	25406.477213
101.537500	-0.017287	-0.000527	-0.014150	-0.024305	6654.624793	48592.672025	4010.771789	25664.554922
102.040500	-0.017862	-0.000948	-0.017198	-0.024295	6649.600546	48547.375838	4002.868741	25664.008869
102.534500	-0.019932	-0.001328	-0.016464	-0.024194	6631.032010	48497.032532	4004.498747	25658.734114
103.036000	-0.022703	-0.000895	-0.026482	-0.017939	6554.802723	47891.130682	3963.306713	25333.606894
103.538500	-0.018407	-0.000934	-0.022643	-0.023438	6637.599135	48459.124356	3986.755517	25619.184012
104.036500	-0.019523	-0.000852	-0.017157	-0.023153	6625.641004	48437.824916	4000.035871	25604.304178
104.536500	-0.019180	-0.001235	-0.021800	-0.022976	6627.058237	48379.287326	3987.724652	25595.054777
105.036500	-0.017556	-0.000683	-0.020269	-0.022669	6638.299598	48404.957304	3990.836712	25579.042740
105.537000	-0.022514	-0.001517	-0.023057	-0.016739	6546.368997	47703.321788	3968.851715	25271.816923
106.037500	-0.018481	-0.001022	-0.019603	-0.021366	6619.300467	48233.543023	3989.215657	25511.166585
106.535000	-0.019585	-0.000629	-0.019769	-0.020625	6603.638136	48197.301777	3986.910130	25472.659257
107.035000	-0.021458	-0.001547	-0.026895	-0.016593	6553.964954	47685.223514	3958.949478	25264.303892
107.535500	-0.020981	-0.000949	-0.022843	-0.014608	6541.380868	47542.691929	3964.074189	25162.404537
108.038500	-0.014873	-0.001081	-0.014752	-0.019778	6636.524995	48062.369967	3997.548825	25428.742445
108.535500	-0.017443	-0.000529	-0.016130	-0.019565	6612.817584	48097.590227	3993.477992	25417.692747
109.036500	-0.022510	-0.001609	-0.024374	-0.014412	6527.040015	47454.876882	3959.787874	25152.342050
109.536000	-0.021412	-0.001124	-0.026481	-0.013944	6532.273952	47456.679733	3953.433307	25128.427836
110.037000	-0.017711	-0.001143	-0.018651	-0.019177	6607.247522	47993.623313	3986.073920	25397.598374
110.537000	-0.019120	-0.001194	-0.016712	-0.019472	6597.808532	48018.882967	3991.752880	25412.851572
111.037500	-0.015165	-0.000657	-0.018945	-0.018921	6626.717714	48017.492106	3984.679897	25384.358149
111.631500	-0.019700	-0.001258	-0.019817	-0.018156	6581.811705	47876.130940	3980.541294	25344.831540
112.035000	-0.017997	-0.001074	-0.020029	-0.019066	6603.886414	47989.313418	3982.302108	25391.854935
112.544000	-0.016876	-0.000922	-0.016367	-0.018575	6609.226529	47954.157849	3990.347823	25366.466522
113.036000	-0.021146	-0.000257	-0.022567	-0.012633	6523.605041	47411.303181	3959.857521	25061.482495
113.535500	-0.021541	0.000458	-0.021780	-0.011830	6513.693162	47402.384195	3959.819358	25020.624670
114.036500	-0.014752	-0.000973	-0.023660	-0.018330	6625.197959	47923.611005	3971.320428	25353.827784
114.544500	-0.016844	-0.000334	-0.018685	-0.017683	6601.935323	47922.779114	3982.204884	25320.425472
115.037000	-0.021656	-0.000569	-0.025030	-0.012765	6520.467160	47392.873995	3954.101460	25068.210027
