sample name	sample
index	780
start time	 03-31-2021  01:45:24 PM


Wavelength (nm)	Absorbance
494.344910	NaN
494.563924	NaN
494.782919	NaN
495.001897	-0.073138
495.220856	1.019315
495.439797	0.261354
495.658719	0.020715
495.877624	-0.021083
496.096510	-0.064768
496.315378	-0.083949
496.534227	-0.122539
496.753059	-0.256568
496.971872	-0.235892
497.190667	-0.013580
497.409444	0.008386
497.628203	0.009377
497.846943	0.011992
498.065665	0.012705
498.284369	0.013099
498.503055	0.014353
498.721723	0.014787
498.940372	0.015292
499.159003	0.016142
499.377616	0.014827
499.596210	0.015636
499.814787	0.015290
500.033345	0.015617
500.251885	0.015889
500.470406	0.015408
500.688910	0.015632
500.907395	0.015858
501.125862	0.014963
501.344311	0.015765
501.562742	0.015978
501.781154	0.016695
501.999548	0.017745
502.217924	0.016990
502.436282	0.017480
502.654621	0.017411
502.872942	0.016437
503.091245	0.016934
503.309530	0.017096
503.527797	0.016396
503.746045	0.015250
503.964275	0.013993
504.182487	0.013581
504.400681	0.013351
504.618856	0.013284
504.837013	0.013589
505.055152	0.013068
505.273273	0.012633
505.491376	0.012888
505.709460	0.012104
505.927526	0.012031
506.145574	0.012730
506.363604	0.012669
506.581615	0.012873
506.799608	0.013106
507.017583	0.012735
507.235540	0.012718
507.453478	0.012806
507.671399	0.013903
507.889301	0.013873
508.107185	0.013323
508.325050	0.013719
508.542898	0.012953
508.760727	0.012889
508.978538	0.013521
509.196330	0.012921
509.414105	0.012916
509.631861	0.012042
509.849599	0.012290
510.067319	0.012490
510.285021	0.011941
510.502704	0.012613
510.720369	0.012386
510.938016	0.012367
511.155645	0.013284
511.373255	0.012895
511.590848	0.013765
511.808422	0.014339
512.025977	0.014565
512.243515	0.014593
512.461034	0.014097
512.678536	0.014270
512.896018	0.014094
513.113483	0.014123
513.330930	0.014241
513.548358	0.013796
513.765768	0.013032
513.983160	0.012913
514.200533	0.013198
514.417889	0.013070
514.635226	0.013379
514.852545	0.014060
515.069845	0.013520
515.287128	0.013760
515.504392	0.013957
515.721638	0.014013
515.938866	0.014042
516.156075	0.013399
516.373267	0.013859
516.590440	0.013736
516.807594	0.013294
517.024731	0.013192
517.241850	0.012926
517.458950	0.012582
517.676032	0.012937
517.893095	0.012834
518.110141	0.012849
518.327168	0.013162
518.544177	0.012792
518.761168	0.012334
518.978141	0.012055
519.195095	0.011480
519.412031	0.011183
519.628949	0.010923
519.845849	0.011274
520.062731	0.011379
520.279594	0.010574
520.496439	0.010474
520.713266	0.010757
520.930074	0.011463
521.146865	0.011952
521.363637	0.012701
521.580391	0.012672
521.797127	0.011509
522.013844	0.012551
522.230543	0.012522
522.447224	0.013053
522.663887	0.013420
522.880532	0.013575
523.097158	0.014056
523.313766	0.013524
523.530356	0.013356
523.746928	0.013897
523.963481	0.012356
524.180017	0.011981
524.396534	0.011847
524.613032	0.011300
524.829513	0.010709
525.045975	0.010331
525.262420	0.010112
525.478845	0.010137
525.695253	0.010662
525.911643	0.011606
526.128014	0.012055
526.344367	0.011902
526.560702	0.012028
526.777018	0.012522
526.993316	0.012980
527.209597	0.013259
527.425858	0.013329
527.642102	0.013383
527.858328	0.013692
528.074535	0.013590
528.290724	0.013528
528.506894	0.013862
528.723047	0.013530
528.939181	0.013455
529.155297	0.013901
529.371395	0.014115
529.587475	0.013876
529.803536	0.013390
530.019579	0.013689
530.235604	0.013815
530.451611	0.013592
530.667600	0.013915
530.883570	0.013862
531.099522	0.013714
531.315456	0.013961
531.531372	0.013900
531.747269	0.013897
531.963148	0.014310
532.179009	0.014494
532.394852	0.014229
532.610676	0.013806
532.826482	0.013440
533.042271	0.013495
533.258040	0.013093
533.473792	0.013366
533.689525	0.013614
533.905240	0.013076
534.120937	0.013204
534.336616	0.013596
534.552277	0.013746
534.767919	0.013792
534.983543	0.013802
535.199149	0.014071
535.414736	0.014067
535.630306	0.013746
535.845857	0.014242
536.061390	0.013926
536.276904	0.013847
536.492401	0.013965
536.707879	0.014299
536.923339	0.013975
537.138781	0.013905
537.354204	0.014518
537.569610	0.014530
537.784997	0.014051
538.000366	0.014438
538.215716	0.014621
538.431049	0.014639
538.646363	0.014963
538.861659	0.015650
539.076937	0.015527
539.292196	0.015038
539.507438	0.015412
539.722661	0.016160
539.937866	0.016162
540.153052	0.016249
540.368221	0.016551
540.583371	0.016395
540.798503	0.015747
541.013617	0.015983
541.228712	0.016114
541.443789	0.016233
541.658848	0.016190
541.873889	0.016451
542.088912	0.016473
542.303916	0.016498
542.518902	0.016400
542.733870	0.016687
542.948820	0.016881
543.163752	0.017035
543.378665	0.016815
543.593560	0.016391
543.808437	0.016262
544.023295	0.016254
544.238136	0.016132
544.452958	0.015783
544.667762	0.016023
544.882548	0.015718
545.097315	0.015471
545.312064	0.015389
545.526795	0.015402
545.741508	0.015291
545.956203	0.015346
546.170879	0.015446
546.385537	0.015803
546.600177	0.015633
546.814799	0.015868
547.029402	0.015953
547.243988	0.016025
547.458555	0.016437
547.673103	0.016572
547.887634	0.016422
548.102146	0.016318
548.316640	0.016248
548.531116	0.016720
548.745574	0.017079
548.960013	0.017047
549.174435	0.017126
549.388838	0.017053
549.603222	0.016709
549.817589	0.016637
550.031937	0.016899
550.246267	0.016865
550.460579	0.016936
550.674873	0.016388
550.889148	0.016345
551.103405	0.016850
551.317644	0.016793
551.531865	0.017196
551.746068	0.017373
551.960252	0.017782
552.174418	0.018086
552.388566	0.017745
552.602696	0.018143
552.816807	0.018500
553.030900	0.018438
553.244975	0.018481
553.459032	0.018614
553.673070	0.018886
553.887091	0.018500
554.101093	0.018378
554.315077	0.018683
554.529042	0.018849
554.742990	0.018471
554.956919	0.018590
555.170830	0.018912
555.384722	0.018731
555.598597	0.018545
555.812453	0.018482
556.026291	0.018842
556.240111	0.018885
556.453913	0.018512
556.667696	0.018866
556.881461	0.018757
557.095208	0.018734
557.308937	0.018983
557.522647	0.018934
557.736339	0.019094
557.950013	0.019268
558.163669	0.019346
558.377307	0.019715
558.590926	0.019670
558.804527	0.019604
559.018110	0.019625
559.231675	0.019094
559.445221	0.019368
559.658749	0.019539
559.872259	0.019275
560.085751	0.019146
560.299225	0.018974
560.512680	0.019136
560.726117	0.019085
560.939536	0.019147
561.152937	0.019700
561.366319	0.019694
561.579683	0.020081
561.793029	0.020183
562.006357	0.020223
562.219667	0.020347
562.432958	0.020177
562.646231	0.020268
562.859486	0.020148
563.072723	0.020230
563.285941	0.020354
563.499141	0.020083
563.712323	0.020083
563.925487	0.020263
564.138632	0.020156
564.351760	0.020045
564.564869	0.020161
564.777960	0.020192
564.991032	0.020133
565.204087	0.020274
565.417123	0.020184
565.630141	0.020038
565.843140	0.020191
566.056122	0.020307
566.269085	0.020760
566.482030	0.020807
566.694957	0.021212
566.907866	0.021272
567.120756	0.021172
567.333628	0.021089
567.546482	0.021653
567.759318	0.021403
567.972135	0.021651
568.184935	0.021539
568.397716	0.021611
568.610478	0.021240
568.823223	0.021127
569.035949	0.021115
569.248657	0.021207
569.461347	0.020860
569.674019	0.020974
569.886672	0.020956
570.099308	0.021093
570.311925	0.020656
570.524523	0.020749
570.737104	0.020998
570.949666	0.021191
571.162210	0.021156
571.374736	0.021268
571.587244	0.021235
571.799733	0.021133
572.012205	0.020914
572.224658	0.021232
572.437092	0.021455
572.649509	0.021568
572.861907	0.021676
573.074287	0.021805
573.286649	0.022009
573.498993	0.022032
573.711318	0.022284
573.923625	0.022599
574.135914	0.023074
574.348185	0.023060
574.560438	0.022733
574.772672	0.022910
574.984888	0.023002
575.197086	0.022750
575.409266	0.022768
575.621427	0.022829
575.833570	0.022933
576.045695	0.022746
576.257802	0.022905
576.469890	0.023393
576.681961	0.023056
576.894013	0.023143
577.106046	0.023135
577.318062	0.023109
577.530059	0.022733
577.742039	0.022587
577.954000	0.022734
578.165942	0.022436
578.377867	0.022183
578.589773	0.022151
578.801661	0.022069
579.013531	0.022136
579.225382	0.021929
579.437216	0.022213
579.649031	0.022265
579.860828	0.022339
580.072606	0.022555
580.284367	0.022682
580.496109	0.022907
580.707833	0.022737
580.919539	0.023035
581.131227	0.023325
581.342896	0.023557
581.554547	0.023718
581.766180	0.023427
581.977795	0.023780
582.189391	0.023548
582.400969	0.023603
582.612529	0.024114
582.824071	0.023868
583.035595	0.023808
583.247100	0.023939
583.458587	0.024145
583.670056	0.024209
583.881506	0.023830
584.092939	0.024092
584.304353	0.024444
584.515749	0.024285
584.727127	0.024389
584.938486	0.024615
585.149828	0.024395
585.361151	0.024165
585.572456	0.024451
585.783742	0.024648
585.995011	0.024485
586.206261	0.023974
586.417493	0.023971
586.628706	0.024178
586.839902	0.024232
587.051079	0.024180
587.262238	0.024128
587.473379	0.023935
587.684502	0.023414
587.895606	0.023745
588.106692	0.023986
588.317760	0.023905
588.528810	0.023692
588.739841	0.023818
588.950855	0.024198
589.161850	0.024361
589.372827	0.024432
589.583785	0.024698
589.794726	0.024469
590.005648	0.024286
590.216552	0.024266
590.427437	0.024429
590.638305	0.024226
590.849154	0.024140
591.059985	0.024052
591.270798	0.023941
591.481592	0.024030
591.692369	0.024207
591.903127	0.024305
592.113867	0.024582
592.324588	0.024716
592.535292	0.024667
592.745977	0.024310
592.956644	0.024688
593.167293	0.025111
593.377923	0.025427
593.588536	0.025260
593.799130	0.025298
594.009706	0.025101
594.220263	0.024953
594.430803	0.025199
594.641324	0.025329
594.851827	0.025040
595.062312	0.024712
595.272778	0.024392
595.483227	0.024653
595.693657	0.024779
595.904069	0.024933
596.114462	0.025035
596.324838	0.025084
596.535195	0.025075
596.745534	0.024994
596.955855	0.025127
597.166157	0.025199
597.376441	0.025094
597.586707	0.025404
597.796955	0.025554
598.007185	0.025451
598.217396	0.025435
598.427589	0.025460
598.637764	0.025686
598.847921	0.025581
599.058060	0.025742
599.268180	0.025854
599.478282	0.025784
599.688366	0.025656
599.898431	0.025875
600.108479	0.026047
600.318508	0.026069
600.528519	0.026293
600.738511	0.026617
600.948486	0.026881
601.158442	0.027251
601.368380	0.027072
601.578300	0.027360
601.788202	0.027543
601.998085	0.027501
602.207950	0.027617
602.417797	0.027401
602.627626	0.027431
602.837436	0.027236
603.047228	0.027081
603.257002	0.026877
603.466758	0.026592
603.676496	0.026509
603.886215	0.026678
604.095916	0.026764
604.305599	0.027015
604.515264	0.027236
604.724910	0.027645
604.934538	0.027661
605.144148	0.027959
605.353740	0.028153
605.563314	0.028082
605.772869	0.028160
605.982406	0.028391
606.191925	0.028373
606.401425	0.027820
606.610908	0.027613
606.820372	0.027740
607.029818	0.027684
607.239246	0.027794
607.448655	0.027830
607.658047	0.027760
607.867420	0.027673
608.076775	0.027208
608.286111	0.027415
608.495430	0.027217
608.704730	0.027224
608.914012	0.027471
609.123275	0.027325
609.332521	0.027543
609.541748	0.027479
609.750957	0.027615
609.960148	0.027995
610.169321	0.027990
610.378475	0.028111
610.587611	0.027872
610.796729	0.028038
611.005829	0.027895
611.214910	0.027759
611.423974	0.027859
611.633019	0.027834
611.842045	0.028029
612.051054	0.027986
612.260044	0.027759
612.469017	0.027751
612.677970	0.027591
612.886906	0.027944
613.095824	0.027959
613.304723	0.027901
613.513604	0.027813
613.722467	0.027740
613.931311	0.027822
614.140138	0.028360
614.348946	0.028302
614.557736	0.028228
614.766507	0.028311
614.975261	0.028363
615.183996	0.028334
615.392713	0.028528
615.601412	0.028284
615.810092	0.028536
616.018754	0.028359
616.227399	0.028564
616.436024	0.028706
616.644632	0.028665
616.853222	0.028735
617.061793	0.028881
617.270346	0.028853
617.478880	0.029155
617.687397	0.029148
617.895895	0.029223
618.104375	0.029377
618.312837	0.029342
618.521281	0.029412
618.729706	0.029337
618.938113	0.029596
619.146502	0.029480
619.354873	0.029666
619.563226	0.029708
619.771560	0.029520
619.979876	0.029558
620.188174	0.029644
620.396453	0.029632
620.604715	0.029894
620.812958	0.029626
621.021183	0.029924
621.229390	0.029915
621.437578	0.030011
621.645748	0.030475
621.853900	0.030866
622.062034	0.030913
622.270150	0.031187
622.478247	0.031282
622.686326	0.031741
622.894387	0.031833
623.102430	0.031743
623.310454	0.031708
623.518461	0.031686
623.726449	0.031587
623.934418	0.031785
624.142370	0.031628
624.350303	0.031686
624.558218	0.031507
624.766115	0.031561
624.973994	0.031840
625.181855	0.031985
625.389697	0.031917
625.597521	0.031958
625.805327	0.031741
626.013114	0.031866
626.220883	0.031852
626.428634	0.031797
626.636367	0.031590
626.844082	0.031530
627.051778	0.031418
627.259457	0.031523
627.467117	0.031488
627.674758	0.031703
627.882382	0.031488
628.089987	0.031386
628.297574	0.031503
628.505143	0.031569
628.712694	0.031436
628.920226	0.031724
629.127740	0.032006
629.335236	0.031761
629.542714	0.031757
629.750174	0.032039
629.957615	0.032158
630.165038	0.031983
630.372443	0.032180
630.579829	0.032456
630.787198	0.032354
630.994548	0.032288
631.201880	0.032735
631.409194	0.033011
631.616489	0.033091
631.823766	0.033133
632.031025	0.033684
632.238266	0.033779
632.445489	0.033791
632.652693	0.033900
632.859879	0.034023
633.067047	0.033942
633.274197	0.033827
633.481329	0.033864
633.688442	0.034038
633.895537	0.033807
634.102614	0.033753
634.309672	0.033558
634.516713	0.033603
634.723735	0.033413
634.930739	0.033412
635.137724	0.033422
635.344692	0.033408
635.551641	0.033217
635.758572	0.033202
635.965485	0.033259
636.172379	0.033456
636.379256	0.033495
636.586114	0.033396
636.792954	0.033407
636.999775	0.033532
637.206579	0.033504
637.413364	0.033568
637.620131	0.033510
637.826880	0.033496
638.033610	0.033273
638.240323	0.033298
638.447017	0.033656
638.653692	0.033511
638.860350	0.033477
639.066990	0.033537
639.273611	0.033573
639.480214	0.033638
639.686798	0.033464
639.893365	0.033682
640.099913	0.033618
640.306443	0.033634
640.512955	0.033922
640.719449	0.033872
640.925924	0.033858
641.132381	0.033908
641.338820	0.034071
641.545241	0.034380
641.751644	0.034432
641.958028	0.034604
642.164394	0.034573
642.370742	0.034711
642.577071	0.034902
642.783383	0.035201
642.989676	0.035274
643.195951	0.035276
643.402207	0.035263
643.608446	0.035378
643.814666	0.035355
644.020868	0.035288
644.227052	0.035169
644.433218	0.034862
644.639365	0.034504
644.845494	0.034582
645.051605	0.034580
645.257698	0.034531
645.463772	0.034644
645.669828	0.034769
645.875866	0.034852
646.081886	0.034832
646.287888	0.035100
646.493871	0.035232
646.699836	0.035306
646.905783	0.035523
647.111712	0.035621
647.317622	0.035718
647.523514	0.035887
647.729388	0.035914
647.935244	0.036092
648.141082	0.036173
648.346901	0.036221
648.552702	0.036280
648.758485	0.036312
648.964250	0.036460
649.169996	0.036473
649.375724	0.036345
649.581434	0.036648
649.787126	0.036747
649.992800	0.036869
650.198455	0.036953
650.404092	0.036956
650.609711	0.036975
650.815311	0.036965
651.020894	0.036947
651.226458	0.037178
651.432004	0.037079
651.637532	0.037069
651.843041	0.036957
652.048532	0.036975
652.254006	0.037102
652.459460	0.037011
652.664897	0.036939
652.870315	0.036823
653.075716	0.036576
653.281097	0.036517
653.486461	0.036376
653.691807	0.036464
653.897134	0.036821
654.102443	0.036788
654.307734	0.036912
654.513006	0.036935
654.718261	0.037150
654.923497	0.037170
655.128715	0.037137
655.333915	0.037313
655.539096	0.037433
655.744259	0.037248
655.949404	0.037306
656.154531	0.037289
656.359640	0.037539
656.564730	0.037624
656.769802	0.037664
656.974856	0.037769
657.179892	0.037731
657.384909	0.037810
657.589908	0.037838
657.794889	0.037913
657.999852	0.038010
658.204797	0.037996
658.409723	0.038087
658.614631	0.038349
658.819521	0.038307
659.024393	0.038516
659.229246	0.038372
659.434081	0.038427
659.638898	0.038446
659.843697	0.038517
660.048478	0.038602
660.253240	0.038525
660.457984	0.038342
660.662710	0.038420
660.867417	0.038219
661.072107	0.038351
661.276778	0.038052
661.481431	0.038001
661.686066	0.037976
661.890682	0.037886
662.095281	0.037947
662.299861	0.038192
662.504422	0.038317
662.708966	0.038495
662.913491	0.038496
663.117999	0.038907
663.322488	0.039123
663.526958	0.039180
663.731411	0.039389
663.935845	0.039399
664.140261	0.039220
664.344659	0.039180
664.549038	0.039241
664.753400	0.039349
664.957743	0.039370
665.162068	0.039006
665.366375	0.039168
665.570663	0.039288
665.774933	0.039335
665.979185	0.039607
666.183419	0.039777
666.387635	0.039830
666.591832	0.039929
666.796011	0.040010
667.000172	0.040300
667.204315	0.040133
667.408439	0.040049
667.612545	0.040203
667.816634	0.040056
668.020703	0.039860
668.224755	0.039830
668.428788	0.039765
668.632803	0.039706
668.836800	0.039847
669.040779	0.040078
669.244739	0.040025
669.448681	0.039938
669.652605	0.039996
669.856511	0.040095
670.060399	0.040081
670.264268	0.040187
670.468119	0.040306
670.671952	0.040242
670.875767	0.040313
671.079563	0.040379
671.283341	0.040549
671.487101	0.040847
671.690843	0.041092
671.894567	0.041294
672.098272	0.041330
672.301959	0.041263
672.505628	0.041328
672.709278	0.041221
672.912911	0.041306
673.116525	0.041143
673.320121	0.040952
673.523699	0.040921
673.727258	0.040887
673.930799	0.040879
674.134322	0.040968
674.337827	0.041085
674.541314	0.041216
674.744782	0.041265
674.948232	0.041312
675.151664	0.041384
675.355078	0.041378
675.558474	0.041311
675.761851	0.041428
675.965210	0.041575
676.168551	0.041568
676.371873	0.041788
676.575178	0.041879
676.778464	0.042101
676.981732	0.042198
677.184981	0.042525
677.388213	0.042685
677.591426	0.042703
677.794621	0.042643
677.997798	0.042758
678.200956	0.042548
678.404097	0.042548
678.607219	0.042682
678.810323	0.042755
679.013408	0.042588
679.216476	0.042613
679.419525	0.042799
679.622556	0.042941
679.825569	0.042988
680.028563	0.043124
680.231540	0.043214
680.434498	0.043154
680.637438	0.043106
680.840359	0.043042
681.043263	0.043096
681.246148	0.043070
681.449015	0.043239
681.651864	0.043162
681.854694	0.042948
682.057506	0.043069
682.260301	0.043132
682.463076	0.043285
682.665834	0.043502
682.868573	0.043499
683.071295	0.043734
683.273998	0.043713
683.476682	0.043860
683.679349	0.044137
683.881997	0.044063
684.084627	0.044141
684.287239	0.044139
684.489833	0.044042
684.692408	0.044201
684.894965	0.043909
685.097504	0.043881
685.300025	0.043892
685.502527	0.043948
685.705012	0.043859
685.907478	0.043894
686.109925	0.044035
686.312355	0.044138
686.514766	0.043984
686.717159	0.043994
686.919534	0.044049
687.121891	0.043964
687.324230	0.044115
687.526550	0.044093
687.728852	0.044048
687.931136	0.044028
688.133401	0.044056
688.335649	0.044174
688.537878	0.044350
688.740089	0.044404
688.942281	0.044646
689.144456	0.044614
689.346612	0.044783
689.548750	0.044924
689.750870	0.044840
689.952971	0.044839
690.155055	0.044887
690.357120	0.044940
690.559167	0.045044
690.761195	0.045206
690.963206	0.045096
691.165198	0.045315
691.367172	0.045332
691.569128	0.045579
691.771065	0.045851
691.972984	0.045936
692.174885	0.046121
692.376768	0.046140
692.578633	0.045844
692.780479	0.046080
692.982308	0.046104
693.184118	0.046169
693.385909	0.045979
693.587683	0.045874
693.789438	0.045868
693.991175	0.045851
694.192894	0.045932
694.394595	0.046302
694.596277	0.046196
694.797941	0.046203
694.999587	0.046195
695.201215	0.046476
695.402824	0.046530
695.604416	0.046702
695.805989	0.046910
696.007543	0.046958
696.209080	0.046843
696.410598	0.046836
696.612099	0.046924
696.813580	0.046921
697.015044	0.046958
697.216490	0.047192
697.417917	0.047424
697.619326	0.047200
697.820717	0.047226
698.022089	0.047339
698.223444	0.047691
698.424780	0.047664
698.626098	0.047647
698.827397	0.047634
699.028679	0.047439
699.229942	0.047242
699.431187	0.047433
699.632414	0.047532
699.833622	0.047499
700.034813	0.047294
700.235985	0.047347
700.437139	0.047654
700.638274	0.047574
700.839392	0.047791
701.040491	0.047906
701.241572	0.047803
701.442635	0.047813
701.643679	0.047937
701.844706	0.048031
702.045714	0.048236
702.246704	0.048279
702.447675	0.048363
702.648629	0.048317
702.849564	0.048317
703.050481	0.048446
703.251380	0.048301
703.452260	0.048308
703.653122	0.048460
703.853966	0.048159
704.054792	0.048040
704.255600	0.048094
704.456389	0.048284
704.657160	0.048258
704.857913	0.048195
705.058648	0.048234
705.259365	0.048169
705.460063	0.048042
705.660743	0.048026
705.861405	0.047951
706.062048	0.047884
706.262674	0.047687
706.463281	0.047733
706.663870	0.047750
706.864441	0.047837
707.064993	0.047953
707.265527	0.047952
707.466043	0.048222
707.666541	0.048255
707.867021	0.048283
708.067482	0.048322
708.267925	0.048305
708.468350	0.048130
708.668757	0.048278
708.869145	0.048189
709.069516	0.048207
709.269868	0.048262
709.470201	0.048401
709.670517	0.048439
709.870814	0.048312
710.071093	0.048350
710.271354	0.048401
710.471597	0.048251
710.671821	0.048394
710.872028	0.048418
711.072216	0.048294
711.272385	0.048304
711.472537	0.048330
711.672670	0.048553
711.872785	0.048738
712.072882	0.049062
712.272961	0.049127
712.473021	0.049145
712.673063	0.049317
712.873087	0.049302
713.073093	0.049332
713.273081	0.049425
713.473050	0.049408
713.673001	0.049312
713.872934	0.049156
714.072849	0.049111
714.272745	0.049049
714.472623	0.048740
714.672483	0.048934
714.872325	0.048849
715.072148	0.048831
715.271954	0.048785
715.471741	0.048852
715.671509	0.048747
715.871260	0.048845
716.070992	0.048937
716.270707	0.049135
716.470403	0.049133
716.670080	0.049236
716.869740	0.049227
717.069381	0.049111
717.269004	0.049080
717.468609	0.049209
717.668195	0.049116
717.867764	0.049040
718.067314	0.048883
718.266846	0.048702
718.466360	0.048418
718.665855	0.048556
718.865332	0.048606
719.064791	0.048558
719.264232	0.048694
719.463655	0.048883
719.663059	0.048801
719.862445	0.049143
720.061813	0.049284
720.261163	0.049649
720.460494	0.049398
720.659807	0.049464
720.859102	0.049469
721.058379	0.049218
721.257638	0.049097
721.456878	0.049183
721.656100	0.048971
721.855304	0.048916
722.054490	0.048813
722.253657	0.048947
722.452806	0.048937
722.651937	0.049001
722.851050	0.049248
723.050145	0.049167
723.249221	0.049153
723.448279	0.049186
723.647319	0.049051
723.846340	0.048972
724.045344	0.048939
724.244329	0.049031
724.443296	0.049064
724.642245	0.048903
724.841175	0.048879
725.040088	0.048762
725.238982	0.048866
725.437857	0.048990
725.636715	0.048827
725.835554	0.048829
726.034376	0.048579
726.233179	0.048297
726.431963	0.048172
726.630730	0.048201
726.829478	0.048368
727.028208	0.048263
727.226920	0.048324
727.425614	0.048579
727.624289	0.048496
727.822946	0.048631
728.021585	0.048823
728.220206	0.049055
728.418808	0.049352
728.617392	0.049340
728.815958	0.049283
729.014506	0.049311
729.213036	0.049138
729.411547	0.049205
729.610040	0.049325
729.808515	0.049469
730.006972	0.049262
730.205410	0.049024
730.403831	0.049036
730.602233	0.049154
730.800616	0.049194
730.998982	0.049411
731.197329	0.049467
731.395658	0.049511
731.593969	0.049363
731.792262	0.049589
731.990536	0.049441
732.188793	0.049270
732.387031	0.049126
732.585250	0.048901
732.783452	0.048617
732.981635	0.048780
733.179800	0.048655
733.377947	0.048646
733.576076	0.048348
733.774186	0.048357
733.972278	0.048472
734.170352	0.048518
734.368408	0.048567
734.566446	0.048762
734.764465	0.048398
734.962466	0.048382
735.160449	0.048257
735.358413	0.048464
735.556360	0.048539
735.754288	0.048393
735.952198	0.048315
736.150090	0.048259
736.347963	0.048307
736.545818	0.048237
736.743655	0.048267
736.941474	0.048237
737.139275	0.048130
737.337057	0.048012
737.534821	0.048104
737.732567	0.048020
737.930295	0.047791
738.128005	0.047547
738.325696	0.047730
738.523369	0.047544
738.721024	0.047478
738.918660	0.047419
739.116279	0.047669
739.313879	0.047610
739.511461	0.047719
739.709024	0.048093
739.906570	0.048383
740.104097	0.048420
740.301606	0.048543
740.499097	0.048620
740.696569	0.048828
740.894024	0.048763
741.091460	0.048902
741.288878	0.049176
741.486277	0.049129
741.683659	0.049110
741.881022	0.049208
742.078367	0.049308
742.275694	0.049308
742.473002	0.049397
742.670293	0.049321
742.867565	0.049394
743.064819	0.049136
743.262054	0.049058
743.459272	0.049037
743.656471	0.049104
743.853652	0.049177
744.050815	0.049437
744.247959	0.049372
744.445085	0.049533
744.642194	0.049521
744.839283	0.049547
745.036355	0.049736
745.233408	0.049907
745.430444	0.049748
745.627461	0.049788
745.824459	0.049748
746.021440	0.049709
746.218402	0.049613
746.415346	0.049598
746.612272	0.049613
746.809180	0.049342
747.006069	0.049101
747.202940	0.049224
747.399793	0.049086
747.596628	0.048912
747.793444	0.048852
747.990243	0.048940
748.187023	0.048995
748.383784	0.048974
748.580528	0.049089
748.777253	0.049107
748.973960	0.049030
749.170649	0.048943
749.367320	0.048949
749.563973	0.048927
749.760607	0.048842
749.957223	0.048782
750.153821	0.048799
750.350400	0.049007
750.546962	0.048907
750.743505	0.048955
750.940030	0.049088
751.136536	0.049112
751.333025	0.049304
751.529495	0.049329
751.725947	0.049227
751.922381	0.049221
752.118796	0.049272
752.315194	0.049286
752.511573	0.049214
752.707934	0.049029
752.904276	0.049020
753.100601	0.049081
753.296907	0.048965
753.493195	0.049149
753.689465	0.049360
753.885716	0.049282
754.081949	0.049530
754.278164	0.049663
754.474361	0.049912
754.670540	0.049911
754.866700	0.050014
755.062843	0.050372
755.258967	0.050255
755.455072	0.050139
755.651160	0.050227
755.847229	0.050086
756.043280	0.050042
756.239313	0.049970
756.435328	0.050325
756.631324	0.050012
756.827302	0.049829
757.023262	0.049867
757.219204	0.050085
757.415127	0.049944
757.611033	0.049907
757.806920	0.049854
758.002788	0.050035
758.198639	0.049991
758.394471	0.050093
758.590286	0.050232
758.786081	0.050207
758.981859	0.050056
759.177619	0.050013
759.373360	0.050156
759.569083	0.050176
759.764788	0.049966
759.960474	0.049706
760.156143	0.049669
760.351793	0.049607
760.547425	0.049542
760.743038	0.049513
760.938634	0.049581
761.134211	0.049606
761.329770	0.049613
761.525311	0.049741
761.720833	0.049726
761.916338	0.049688
762.111824	0.049806
762.307292	0.050015
762.502741	0.050055
762.698173	0.050211
762.893586	0.049952
763.088981	0.050035
763.284358	0.050033
763.479716	0.050083
763.675057	0.050228
763.870379	0.049851
764.065683	0.049826
764.260968	0.049700
764.456236	0.049751
764.651485	0.049804
764.846716	0.049664
765.041929	0.049676
765.237123	0.049626
765.432299	0.049438
765.627457	0.049582
765.822597	0.049526
766.017719	0.049714
766.212822	0.049535
766.407907	0.049659
766.602974	0.049678
766.798023	0.049512
766.993054	0.049582
767.188066	0.049753
767.383060	0.049816
767.578036	0.049678
767.772993	0.049613
767.967933	0.049404
768.162854	0.049327
768.357757	0.049282
768.552642	0.049345
768.747508	0.049386
768.942356	0.049251
769.137186	0.049252
769.331998	0.049348
769.526792	0.049138
769.721567	0.049147
769.916324	0.049201
770.111063	0.049220
770.305784	0.049112
770.500486	0.049092
770.695171	0.049075
770.889837	0.049106
771.084484	0.049170
771.279114	0.049259
771.473725	0.049310
771.668318	0.049062
771.862893	0.048965
772.057450	0.048917
772.251988	0.048716
772.446509	0.048600
772.641011	0.048320
772.835494	0.048200
773.029960	0.048041
773.224407	0.047911
773.418836	0.047943
773.613247	0.048195
773.807640	0.048252
774.002014	0.048428
774.196370	0.048552
774.390708	0.048615
774.585028	0.048538
774.779330	0.048710
774.973613	0.048891
775.167878	0.048965
775.362125	0.048663
775.556354	0.048844
775.750564	0.048964
775.944756	0.048955
776.138930	0.048933
776.333086	0.049294
776.527223	0.049432
776.721343	0.049458
776.915444	0.049647
777.109526	0.049918
777.303591	0.050038
777.497637	0.049991
777.691666	0.050010
777.885676	0.050105
778.079667	0.050069
778.273641	0.049926
778.467596	0.050125
778.661533	0.050076
778.855452	0.050035
779.049352	0.049975
779.243235	0.049996
779.437099	0.050033
779.630945	0.050132
779.824773	0.049986
780.018582	0.049984
780.212373	0.049831
780.406146	0.049855
780.599901	0.049890
780.793638	0.049938
780.987356	0.049962
781.181056	0.049862
781.374738	0.049908
781.568402	0.049973
781.762047	0.050144
781.955674	0.050219
782.149283	0.050328
782.342874	0.050413
782.536447	0.050352
782.730001	0.050295
782.923537	0.050615
783.117055	0.050791
783.310555	0.050894
783.504036	0.050818
783.697499	0.050658
783.890944	0.050418
784.084371	0.050339
784.277780	0.050379
784.471170	0.050338
784.664542	0.050244
784.857896	0.050137
785.051231	0.050096
785.244549	0.050049
785.437848	0.050356
785.631129	0.050657
785.824392	0.050760
786.017636	0.050627
786.210863	0.050718
786.404071	0.050596
786.597260	0.050527
786.790432	0.050419
786.983585	0.050285
787.176721	0.050404
787.369838	0.050267
787.562936	0.050029
787.756017	0.049868
787.949079	0.049788
788.142123	0.050038
788.335149	0.050149
788.528156	0.050162
788.721146	0.050464
788.914117	0.050219
789.107070	0.050192
789.300005	0.050435
789.492921	0.050736
789.685819	0.051114
789.878699	0.051033
790.071561	0.051040
790.264405	0.050931
790.457230	0.050809
790.650037	0.050792
790.842826	0.050863
791.035597	0.050820
791.228349	0.050769
791.421084	0.050257
791.613800	0.050181
791.806497	0.049933
791.999177	0.050071
792.191838	0.050067
792.384481	0.050229
792.577106	0.050256
792.769713	0.050370
792.962301	0.050434
793.154871	0.050769
793.347423	0.050835
793.539957	0.051206
793.732473	0.051386
793.924970	0.051476
794.117449	0.051497
794.309910	0.051575
794.502353	0.051629
794.694777	0.051798
794.887183	0.051839
795.079571	0.051852
795.271941	0.051948
795.464293	0.051923
795.656626	0.052102
795.848941	0.052135
796.041238	0.052254
796.233516	0.052202
796.425777	0.052122
796.618019	0.052408
796.810243	0.052550
797.002449	0.052535
797.194636	0.052486
797.386805	0.052569
797.578956	0.052563
797.771089	0.052546
797.963204	0.052534
798.155300	0.052744
798.347378	0.052585
798.539438	0.052553
798.731480	0.052300
798.923503	0.052472
799.115509	0.052474
799.307496	0.052371
799.499465	0.052356
799.691415	0.052316
799.883348	0.052362
800.075262	0.052542
800.267158	0.052708
800.459035	0.052894
800.650895	0.052865
800.842736	0.052739
801.034559	0.052842
801.226364	0.052814
801.418150	0.052801
801.609919	0.052561
801.801669	0.052615
801.993401	0.052547
802.185114	0.052758
802.376810	0.052924
802.568487	0.053147
802.760146	0.053321
802.951787	0.053347
803.143409	0.053565
803.335014	0.053817
803.526600	0.053654
803.718168	0.053693
803.909717	0.053595
804.101249	0.053567
804.292762	0.053315
804.484257	0.053270
804.675734	0.053633
804.867192	0.053681
805.058632	0.053410
805.250054	0.053492
805.441458	0.053436
805.632844	0.053254
805.824211	0.053158
806.015561	0.053250
806.206891	0.053167
806.398204	0.052779
806.589499	0.052634
806.780775	0.052724
806.972033	0.052535
807.163273	0.052627
807.354495	0.052771
807.545698	0.052528
807.736883	0.052668
807.928050	0.052678
808.119199	0.052869
808.310329	0.052946
808.501441	0.053027
808.692535	0.053148
808.883611	0.053369
809.074669	0.053469
809.265708	0.053769
809.456729	0.053760
809.647732	0.053963
809.838717	0.054009
810.029683	0.054321
810.220632	0.054238
810.411562	0.054440
810.602474	0.054367
810.793367	0.054354
810.984242	0.054453
811.175100	0.054381
811.365938	0.054180
811.556759	0.054005
811.747562	0.053812
811.938346	0.053878
812.129112	0.053553
812.319860	0.053624
812.510589	0.053705
812.701300	0.053648
812.891994	0.053794
813.082668	0.053997
813.273325	0.054155
813.463964	0.054084
813.654584	0.053912
813.845186	0.053763
814.035769	0.053467
814.226335	0.053329
814.416882	0.053302
814.607411	0.053246
814.797922	0.053100
814.988415	0.053122
815.178889	0.053330
815.369345	0.053621
815.559783	0.053957
815.750203	0.054214
815.940605	0.054425
816.130988	0.054554
816.321353	0.054551
816.511700	0.054741
816.702028	0.054852
816.892339	0.054993
817.082631	0.055170
817.272905	0.055354
817.463161	0.055342
817.653398	0.055130
817.843617	0.055058
818.033819	0.055131
818.224001	0.054958
818.414166	0.054688
818.604312	0.054447
818.794440	0.054135
818.984550	0.053963
819.174642	0.053928
819.364716	0.053785
819.554771	0.053816
819.744808	0.053821
819.934827	0.054023
820.124827	0.054351
820.314810	0.054139
820.504774	0.054357
820.694720	0.054272
820.884647	0.054164
821.074557	0.054399
821.264448	0.054358
821.454321	0.054573
821.644176	0.054418
821.834012	0.054348
822.023831	0.054635
822.213631	0.054567
822.403413	0.054640
822.593176	0.054653
822.782922	0.054744
822.972649	0.054908
823.162358	0.054541
823.352049	0.054633
823.541721	0.054449
823.731376	0.054409
823.921012	0.054312
824.110629	0.054365
824.300229	0.054294
824.489811	0.054211
824.679374	0.054260
824.868919	0.054449
825.058445	0.054272
825.247954	0.054340
825.437444	0.054464
825.626916	0.054553
825.816370	0.054562
826.005806	0.054767
826.195223	0.054817
826.384622	0.054710
826.574003	0.054754
826.763366	0.054907
826.952711	0.055231
827.142037	0.055306
827.331345	0.055377
827.520635	0.055250
827.709906	0.055258
827.899160	0.055304
828.088395	0.055510
828.277612	0.055637
828.466810	0.055900
828.655991	0.055656
828.845153	0.055682
829.034297	0.055531
829.223423	0.055911
829.412531	0.055900
829.601620	0.056072
829.790691	0.055933
829.979744	0.055801
830.168779	0.055697
830.357795	0.055929
830.546793	0.055843
830.735773	0.056184
830.924735	0.056226
831.113679	0.056474
831.302604	0.056323
831.491511	0.056222
831.680400	0.056208
831.869271	0.056328
832.058123	0.056316
832.246957	0.056387
832.435773	0.056151
832.624571	0.056058
832.813351	0.055939
833.002112	0.056037
833.190855	0.056293
833.379580	0.056380
833.568287	0.056285
833.756975	0.056121
833.945645	0.056246
834.134297	0.056475
834.322931	0.056382
834.511547	0.056529
834.700144	0.056483
834.888723	0.056581
835.077284	0.056646
835.265826	0.056494
835.454351	0.056596
835.642857	0.056429
835.831345	0.056012
836.019815	0.055972
836.208266	0.055764
836.396699	0.055833
836.585114	0.055806
836.773511	0.055960
836.961890	0.056201
837.150250	0.055858
837.338592	0.055728
837.526916	0.056064
837.715222	0.056014
837.903510	0.056107
838.091779	0.056014
838.280030	0.055896
838.468263	0.056005
838.656477	0.055796
838.844674	0.056096
839.032852	0.056030
839.221012	0.055946
839.409153	0.056048
839.597277	0.056150
839.785382	0.056255
839.973469	0.055987
840.161538	0.055618
840.349589	0.055605
840.537621	0.055618
840.725635	0.055940
840.913631	0.056126
841.101609	0.056208
841.289568	0.056199
841.477509	0.056183
841.665432	0.056410
841.853337	0.056452
842.041224	0.056454
842.229092	0.056486
842.416942	0.056457
842.604774	0.056267
842.792588	0.056473
842.980383	0.056484
843.168160	0.056533
843.355919	0.056548
843.543660	0.056671
843.731382	0.056974
843.919087	0.057015
844.106773	0.057061
844.294441	0.057488
844.482090	0.057581
844.669722	0.057860
844.857335	0.057694
845.044930	0.057736
845.232507	0.057600
845.420065	0.057243
845.607605	0.057379
845.795127	0.057568
845.982631	0.057338
846.170117	0.057187
846.357584	0.056989
846.545033	0.057302
846.732464	0.057631
846.919877	0.057861
847.107272	0.058225
847.294648	0.058395
847.482006	0.058392
847.669346	0.058384
847.856667	0.058408
848.043971	0.058482
848.231256	0.058376
848.418523	0.058324
848.605771	0.058456
848.793002	0.058638
848.980214	0.058326
849.167408	0.058247
849.354584	0.058100
849.541742	0.058269
849.728881	0.057990
849.916002	0.058022
850.103105	0.057991
850.290190	0.057907
850.477256	0.057688
850.664304	0.057653
850.851334	0.057455
851.038346	0.057979
851.225340	0.057633
851.412315	0.057820
851.599272	0.058067
851.786211	0.057958
851.973132	0.058207
852.160034	0.058058
852.346918	0.058143
852.533784	0.058652
852.720632	0.058373
852.907462	0.058585
853.094273	0.058457
853.281066	0.058367
853.467841	0.058511
853.654598	0.058101
853.841336	0.058288
854.028056	0.058581
854.214758	0.058278
854.401442	0.058515
854.588107	0.058403
854.774755	0.058616
854.961384	0.058677
855.147995	0.058512
855.334587	0.058576
855.521162	0.058566
855.707718	0.058240
855.894256	0.058104
856.080775	0.057957
856.267277	0.058030
856.453760	0.057930
856.640225	0.058008
856.826672	0.057972
857.013101	0.058123
857.199511	0.058199
857.385903	0.058169
857.572277	0.058423
857.758633	0.058564
857.944970	0.058876
858.131290	0.059141
858.317591	0.059319
858.503873	0.059515
858.690138	0.059454
858.876384	0.059638
859.062612	0.059831
859.248822	0.059534
859.435014	0.059475
859.621188	0.058935
859.807343	0.058592
859.993480	0.058014
860.179599	0.058340
860.365699	0.058434
860.551781	0.057904
860.737846	0.057949
860.923891	0.058030
861.109919	0.057974
861.295929	0.058324
861.481920	0.058280
861.667893	0.058394
861.853848	0.057934
862.039784	0.057696
862.225702	0.057820
862.411603	0.057701
862.597484	0.057727
862.783348	0.057452
862.969193	0.057253
863.155021	0.057291
863.340830	0.057364
863.526620	0.057212
863.712393	0.057081
863.898147	0.057037
864.083883	0.056939
864.269601	0.057089
864.455301	0.057141
864.640982	0.057153
864.826645	0.057217
865.012290	0.057118
865.197917	0.057247
865.383526	0.057375
865.569116	0.057261
865.754688	0.057127
865.940242	0.056595
866.125777	0.056492
866.311295	0.056197
866.496794	0.056112
866.682275	0.055998
866.867737	0.056064
867.053182	0.056278
867.238608	0.056367
867.424016	0.056615
867.609406	0.056889
867.794778	0.057034
867.980131	0.056971
868.165466	0.056944
868.350783	0.056911
868.536082	0.056430
868.721362	0.056322
868.906625	0.056454
869.091869	0.056541
869.277094	0.056653
869.462302	0.056865
869.647491	0.057201
869.832662	0.057069
870.017815	0.057253
870.202950	0.057717
870.388066	0.057573
870.573165	0.057706
870.758245	0.057719
870.943306	0.057737
871.128350	0.057612
871.313375	0.057854
871.498382	0.058097
871.683371	0.058158
871.868342	0.058079
872.053294	0.058150
872.238229	0.057758
872.423144	0.057495
872.608042	0.057444
872.792922	0.057430
872.977783	0.057122
873.162626	0.057193
873.347451	0.056958
873.532258	0.056904
873.717046	0.056518
873.901816	0.056482
874.086568	0.056212
874.271302	0.056136
874.456017	0.055956
874.640715	0.055910
874.825394	0.055744
875.010055	0.055861
875.194697	0.055779
875.379322	0.056166
875.563928	0.056440
875.748516	0.056881
875.933085	0.056764
876.117637	0.056657
876.302170	0.056302
876.486685	0.056249
876.671182	0.056005
876.855661	0.056035
877.040121	0.055940
877.224563	0.055869
877.408987	0.055665
877.593393	0.055356
877.777780	0.055574
877.962150	0.055533
878.146501	0.055440
878.330833	0.055409
878.515148	0.055373
878.699444	0.055126
878.883722	0.055040
879.067982	0.054901
879.252224	0.055185
879.436447	0.054819
879.620653	0.055243
879.804840	0.054945
879.989008	0.055026
880.173159	0.055100
880.357291	0.055154
880.541405	0.055148
880.725501	0.055261
880.909579	0.055024
881.093638	0.055478
881.277680	0.055446
881.461703	0.055767
881.645707	0.055981
881.829694	0.055818
882.013662	0.055973
882.197612	0.056135
882.381544	0.055764
882.565458	0.056081
882.749353	0.055824
882.933230	0.055725
883.117089	0.055971
883.300930	0.055635
883.484753	0.055674
883.668557	0.055751
883.852343	0.055500
884.036111	0.055814
884.219861	0.055649
884.403592	0.055560
884.587305	0.055635
884.771000	0.055444
884.954677	0.055327
885.138335	0.055245
885.321976	0.055072
885.505598	0.054985
885.689201	0.054687
885.872787	0.054542
886.056354	0.054352
886.239904	0.054295
886.423434	0.054274
886.606947	0.054585
886.790442	0.054390
886.973918	0.054453
887.157376	0.054435
887.340816	0.054640
887.524237	0.054952
887.707641	0.055253
887.891026	0.054719
888.074393	0.054504
888.257741	0.054295
888.441072	0.054357
888.624384	0.054035
888.807678	0.053867
888.990954	0.053876
889.174211	0.053632
889.357451	0.052952
889.540672	0.053280
889.723875	0.053012
889.907059	0.052973
890.090226	0.052866
890.273374	0.052905
890.456504	0.052834
890.639616	0.052660
890.822709	0.052487
891.005785	0.052638
891.188842	0.052668
891.371881	0.052850
891.554901	0.052373
891.737904	0.052461
891.920888	0.052128
892.103854	0.052391
892.286802	0.052395
892.469731	0.052422
892.652643	0.052518
892.835536	0.052286
893.018410	0.052232
893.201267	0.052736
893.384106	0.052593
893.566926	0.052904
893.749728	0.052831
893.932511	0.052988
894.115277	0.052913
894.298024	0.053041
894.480753	0.052972
894.663464	0.053033
894.846157	0.052581
895.028831	0.052598
895.211487	0.052571
895.394125	0.052471
895.576745	0.052389
895.759346	0.052339
895.941930	0.051886
896.124495	0.052019
896.307041	0.051554
896.489570	0.051746
896.672080	0.051588
896.854573	0.051675
897.037046	0.051209
897.219502	0.050944
897.401940	0.050829
897.584359	0.050687
897.766760	0.050203
897.949143	0.050358
898.131507	0.050015
898.313854	0.049970
898.496182	0.049684
898.678492	0.049969
898.860783	0.049558
899.043057	0.049539
899.225312	0.049667
899.407549	0.049762
899.589768	0.049818
899.771968	0.050142
899.954151	0.049989
900.136315	0.049643
900.318461	0.049609
900.500588	0.049541
900.682698	0.049343
900.864789	0.049687
901.046862	0.049571
901.228917	0.049109
901.410953	0.048838
901.592971	0.048636
901.774972	0.048882
901.956953	0.048985
902.138917	0.049320
902.320862	0.049359
902.502790	0.049002
902.684699	0.048940
902.866589	0.049092
903.048462	0.048972
903.230316	0.048944
903.412152	0.048822
903.593970	0.048230
903.775770	0.047840
903.957551	0.047511
904.139314	0.047329
904.321059	0.047195
904.502786	0.047031
904.684494	0.047001
904.866185	0.047049
905.047857	0.047024
905.229510	0.046923
905.411146	0.047003
905.592763	0.047320
905.774363	0.047482
905.955943	0.047501
906.137506	0.047457
906.319051	0.047209
906.500577	0.046897
906.682085	0.046527
906.863575	0.046736
907.045046	0.046174
907.226500	0.045623
907.407935	0.045414
907.589352	0.045317
907.770750	0.045469
907.952131	0.045458
908.133493	0.045285
908.314837	0.045443
908.496163	0.045005
908.677470	0.045309
908.858760	0.045369
909.040031	0.045019
909.221284	0.044883
909.402518	0.044350
909.583735	0.044054
909.764933	0.044103
909.946113	0.043591
910.127275	0.043938
910.308418	0.043812
910.489544	0.043516
910.670651	0.043466
910.851740	0.043487
911.032810	0.043547
911.213863	0.043604
911.394897	0.043503
911.575913	0.043735
911.756911	0.043138
911.937890	0.042956
912.118851	0.043095
912.299794	0.042898
912.480719	0.042665
912.661626	0.042388
912.842514	0.041882
913.023384	0.041619
913.204236	0.041266
913.385070	0.041591
913.565886	0.041544
913.746683	0.041339
913.927462	0.041146
914.108223	0.040839
914.288965	0.040590
914.469690	0.040948
914.650396	0.041012
914.831084	0.040570
915.011754	0.040426
915.192405	0.040557
915.373038	0.040740
915.553653	0.040827
915.734250	0.040926
915.914829	0.041235
916.095389	0.041048
916.275931	0.040691
916.456455	0.041024
916.636961	0.040849
916.817448	0.040641
916.997917	0.040327
917.178368	0.040203
917.358801	0.039751
917.539216	0.039292
917.719612	0.038901
917.899990	0.038875
918.080350	0.038648
918.260692	0.038035
918.441015	0.037417
918.621320	0.037053
918.801607	0.037491
918.981876	0.037995
919.162127	0.037957
919.342359	0.037814
919.522573	0.037421
919.702769	0.037424
919.882947	0.037413
920.063106	0.037509
920.243247	0.037419
920.423370	0.036402
920.603475	0.036084
920.783562	0.035350
920.963630	0.035535
921.143680	0.035996
921.323712	0.035568
921.503725	0.035344
921.683721	0.035078
921.863698	0.034885
922.043657	0.034477
922.223598	0.034228
922.403520	0.034753
922.583424	0.034405
922.763311	0.033987
922.943178	0.033598
923.123028	0.033453
923.302859	0.033286
923.482673	0.033119
923.662467	0.033460
923.842244	0.033373
924.022003	0.032804
924.201743	0.032366
924.381465	0.032309
924.561169	0.032559
924.740854	0.032795
924.920522	0.032792
925.100171	0.032329
925.279802	0.032585
925.459414	0.031707
925.639009	0.031996
925.818585	0.032368
925.998143	0.031852
926.177683	0.031312
926.357205	0.030501
926.536708	0.030245
926.716193	0.030078
926.895660	0.029712
927.075109	0.029478
927.254539	0.028677
927.433951	0.028131
927.613345	0.028069
927.792721	0.028279
927.972079	0.028230
928.151418	0.027441
928.330739	0.027720
928.510042	0.026999
928.689327	0.027278
928.868593	0.027217
929.047841	0.026751
929.227071	0.026709
929.406283	0.026300
929.585476	0.026181
929.764652	0.026510
929.943809	0.025767
930.122948	0.025481
930.302068	0.025041
930.481171	0.025159
930.660255	0.025613
930.839321	0.024810
931.018369	0.024760
931.197398	0.024592
931.376409	0.024426
931.555402	0.024801
931.734377	0.024443
931.913334	0.024535
932.092272	0.023962
932.271192	0.023100
932.450094	0.023666
932.628978	0.023873
932.807844	0.023708
932.986691	0.023414
933.165520	0.023187
933.344331	0.023468
933.523123	0.023396
933.701898	0.023256
933.880654	0.023965
934.059392	0.023395
934.238111	0.022363
934.416813	0.022050
934.595496	0.022058
934.774161	0.021697
934.952808	0.021309
935.131437	0.021241
935.310047	0.021362
935.488639	0.020609
935.667213	0.020141
935.845769	0.020439
936.024306	0.020654
936.202825	0.020453
936.381326	0.020786
936.559809	0.021361
936.738274	0.021196
936.916720	0.021125
937.095148	0.020909
937.273558	0.021458
937.451950	0.021335
937.630323	0.020942
937.808678	0.020600
937.987015	0.019737
938.165334	0.019020
938.343635	0.018544
938.521917	0.018422
938.700181	0.018438
938.878427	0.017762
939.056655	0.016736
939.234864	0.016637
939.413055	0.016098
939.591228	0.016004
939.769383	0.015018
939.947519	0.014558
940.125638	0.014566
940.303738	0.014455
940.481820	0.014673
940.659883	0.015389
940.837929	0.014820
941.015956	0.015091
941.193965	0.014439
941.371955	0.014731
941.549928	0.013601
941.727882	0.012143
941.905818	0.011583
942.083736	0.011285
942.261636	0.011383
942.439517	0.011968
942.617380	0.012285
942.795225	0.012896
942.973052	0.012349
943.150860	0.013401
943.328651	0.014166
943.506423	0.013087
943.684176	0.012489
943.861912	0.011040
944.039629	0.010150
944.217328	0.009054
944.395009	0.008273
944.572672	0.008449
944.750317	0.008565
944.927943	0.007611
945.105551	0.007871
945.283141	0.008293
945.460712	0.008148
945.638265	0.007382
945.815801	0.008314
945.993317	0.007979
946.170816	0.008152
946.348297	0.008274
946.525759	0.008765
946.703203	0.008084
946.880629	0.007232
947.058036	0.006978
947.235425	0.007478
947.412797	0.007129
947.590149	0.006582
947.767484	0.005453
947.944800	0.004282
948.122099	0.003781
948.299379	0.004715
948.476640	0.003944
948.653884	0.004165
948.831109	0.003102
949.008316	0.001816
949.185505	0.001498
949.362676	0.002383
949.539828	0.002377
949.716962	0.002856
949.894078	0.001783
950.071176	0.002173
950.248256	0.001257
950.425317	0.001717
950.602360	0.002195
950.779385	0.002763
950.956391	0.002646
951.133380	0.002971
951.310350	0.001566
951.487302	0.002909
951.664235	0.002330
951.841151	0.004017
952.018048	0.003988
952.194927	0.003487
952.371788	0.004096
952.548631	0.004059
952.725455	0.004301
952.902261	0.004349
953.079049	0.003764
953.255819	0.003396
953.432570	0.003028
953.609303	0.003586
953.786018	0.003520
953.962715	0.002869
954.139394	0.001614
954.316054	-0.000168
954.492696	0.002079
954.669320	0.001750
954.845926	0.002992
955.022513	0.003547
955.199083	0.002824
955.375634	0.004060
955.552166	0.004791
955.728681	0.005934
955.905177	0.007206
956.081655	0.006016
956.258115	0.006381
956.434557	0.005916
956.610980	0.005081
956.787385	0.005745
956.963772	0.005653
957.140141	0.005227
957.316492	0.004105
957.492824	0.004042
957.669138	0.003080
957.845434	0.002664
958.021712	0.003418
958.197971	0.003705
958.374212	0.003059
958.550435	0.001063
958.726640	0.002382
958.902826	0.003633
959.078995	0.005005
959.255145	0.006614
959.431277	0.006569
959.607390	0.006337
959.783486	0.006969
959.959563	0.008237
960.135622	0.011266
960.311662	0.011405
960.487685	0.011664
960.663689	0.010470
960.839675	0.009762
961.015643	0.009886
961.191593	0.010721
961.367524	0.010685
961.543437	0.010565
961.719332	0.009255
961.895209	0.010171
962.071067	0.010598
962.246907	0.012159
962.422730	0.012003
962.598533	0.014054
962.774319	0.014210
962.950086	0.014589
963.125835	0.016394
963.301566	0.015291
963.477279	0.013682
963.652973	0.015225
963.828650	0.013909
964.004308	0.014404
964.179947	0.015284
964.355569	0.014245
964.531172	0.013342
964.706757	0.013299
964.882324	0.014316
965.057873	0.013415
965.233403	0.011114
965.408916	0.011647
965.584410	0.013286
965.759885	0.012937
965.935343	0.013732
966.110782	0.015606
966.286203	0.013601
966.461606	0.014159
966.636991	0.014765
966.812357	0.014982
966.987705	0.016212
967.163035	0.016533
967.338347	0.015440
967.513641	0.014926
967.688916	0.012425
967.864173	0.011271
968.039412	0.011998
968.214632	0.012761
968.389835	0.013041
968.565019	0.010226
968.740185	0.009764
968.915333	0.009818
969.090462	0.010394
969.265573	0.013180
969.440667	0.014499
969.615741	0.014598
969.790798	0.014878
969.965836	0.015372
970.140856	0.017303
970.315858	0.017470
970.490842	0.018181
970.665808	0.018723
970.840755	0.016079
971.015684	0.015690
971.190595	0.015861
971.365487	0.014644
971.540362	0.012038
971.715218	0.012007
971.890056	0.012048
972.064875	0.011293
972.239677	0.009724
972.414460	0.009722
972.589225	0.009808
972.763972	0.007394
972.938700	0.007835
973.113411	0.009303
973.288103	0.010077
973.462777	0.009418
973.637432	0.009613
973.812070	0.011752
973.986689	0.012143
974.161290	0.012931
974.335873	0.014385
974.510437	0.015163
974.684984	0.014761
974.859512	0.014387
975.034022	0.014398
975.208513	0.014664
975.382987	0.012032
975.557442	0.012224
975.731879	0.011738
975.906298	0.012136
976.080698	0.009743
976.255080	0.011525
976.429445	0.010577
976.603790	0.009985
976.778118	0.008953
976.952427	0.010895
977.126719	0.011111
977.300992	0.011087
977.475246	0.010826
977.649483	0.011053
977.823701	0.009943
977.997901	0.007965
978.172083	0.009273
978.346247	0.009942
978.520392	0.010379
978.694519	0.011783
978.868628	0.012381
979.042719	0.010958
979.216791	0.014259
979.390845	0.015164
979.564882	0.017808
979.738899	0.017146
979.912899	0.016110
980.086880	0.015951
980.260843	0.012717
980.434788	0.013325
980.608715	0.014584
980.782623	0.011950
980.956514	0.011858
981.130386	0.011521
981.304240	0.010443
981.478075	0.009650
981.651892	0.012371
981.825692	0.012765
981.999472	0.011290
982.173235	0.011377
982.346980	0.010998
982.520706	0.011258
982.694414	0.012576
982.868104	0.012616
983.041775	0.013193
983.215428	0.008052
983.389064	0.009072
983.562680	0.009645
983.736279	0.009293
983.909860	0.011710
984.083422	0.011015
984.256966	0.009072
984.430491	0.009162
984.603999	0.010229
984.777488	0.011630
984.950959	0.010252
985.124412	0.009648
985.297847	0.011187
985.471263	0.009883
985.644661	0.008802
985.818041	0.008850
985.991403	0.010128
986.164747	0.010288
986.338072	0.010546
986.511379	0.011793
986.684668	0.012732
986.857938	0.011899
987.031191	0.011800
987.204425	0.014379
987.377641	0.014001
987.550839	0.012449
987.724018	0.012620
987.897179	0.013875
988.070322	0.014296
988.243447	0.013373
988.416554	0.011771
988.589642	0.011796
988.762712	0.010056
988.935764	0.010302
989.108798	0.010968
989.281813	0.009848
989.454811	0.006297
989.627790	0.005401
989.800751	0.005840
989.973693	0.007026
990.146617	0.008292
990.319524	0.007450
990.492412	0.008224
990.665281	0.007718
990.838133	0.007008
991.010966	0.011471
991.183781	0.012380
991.356578	0.012076
991.529356	0.011635
991.702117	0.009517
991.874859	0.008317
992.047583	0.006730
992.220288	0.007742
992.392976	0.008327
992.565645	0.006594
992.738296	0.005729
992.910929	0.006094
993.083543	0.005116
993.256139	0.007099
993.428718	0.008160
993.601277	0.010857
993.773819	0.010230
993.946342	0.010008
994.118848	0.007508
994.291335	0.008174
994.463803	0.007324
994.636254	0.009947
994.808686	0.008633
994.981100	0.008318
995.153496	0.006044
995.325874	0.006068
995.498233	0.007202
995.670574	0.010163
995.842897	0.010460
996.015202	0.010428
996.187488	0.008628
996.359757	0.008761
996.532007	0.009045
996.704239	0.009598
996.876452	0.008199
997.048648	0.007980
997.220825	0.006601
997.392984	0.007088
997.565124	0.006851
997.737247	0.007031
997.909351	0.006257
998.081437	0.006917
998.253505	0.006654
998.425554	0.007155
998.597586	0.006063
998.769599	0.007238
998.941594	0.006760
999.113571	0.007546
999.285529	0.006572
999.457469	0.007377
999.629391	0.006796
999.801295	0.006310
999.973181	0.006523
1000.145048	0.007197
1000.316897	0.006284
1000.488728	0.006965
1000.660541	0.005523
1000.832335	0.006311
1001.004111	0.006048
1001.175869	0.006637
1001.347609	0.007063
1001.519331	0.006307
1001.691034	0.004889
1001.862719	0.004638
1002.034386	0.003366
1002.206035	0.004184
1002.377665	0.003948
1002.549277	0.003968
1002.720871	0.004792
1002.892447	0.005305
1003.064004	0.006176
1003.235544	0.007131
1003.407065	0.006483
1003.578568	0.006104
1003.750052	0.005947
1003.921519	0.005776
1004.092967	0.005350
1004.264397	0.004911
1004.435809	0.003740
1004.607202	0.003748
1004.778577	0.003494
1004.949934	0.004169
1005.121273	0.004460
1005.292594	0.003644
1005.463896	0.003916
1005.635180	0.005827
1005.806446	0.004985
1005.977694	0.006035
1006.148923	0.006797
1006.320135	0.007304
1006.491328	0.006865
1006.662503	0.005865
1006.833659	0.007222
1007.004798	0.006170
1007.175918	0.005125
1007.347020	0.006565
1007.518103	0.006404
1007.689169	0.006401
1007.860216	0.007077
1008.031245	0.007932
1008.202256	0.009226
1008.373248	0.009123
1008.544223	0.010173
1008.715179	0.010127
1008.886117	0.008721
1009.057036	0.007931
1009.227938	0.007191
1009.398821	0.006748
1009.569686	0.004565
1009.740533	0.004509
1009.911361	0.003599
1010.082172	0.002971
1010.252964	0.001645
1010.423738	0.000727
1010.594493	0.000805
1010.765231	0.001498
1010.935950	-0.000163
1011.106651	0.002709
1011.277334	0.003319
1011.447998	0.003222
1011.618645	0.005058
1011.789273	0.005612
1011.959882	0.006230
1012.130474	0.006329
1012.301048	0.005982
1012.471603	0.007345
1012.642140	0.005053
1012.812658	0.003919
1012.983159	0.005766
1013.153641	0.005310
1013.324105	0.004995
1013.494551	0.004732
1013.664979	0.004091
1013.835388	0.003150
1014.005779	0.002727
1014.176152	0.003252
1014.346507	0.003351
1014.516843	0.001308
1014.687162	-0.000047
1014.857462	-0.000088
1015.027744	-0.001614
1015.198007	-0.001790
1015.368252	-0.001136
1015.538480	-0.000251
1015.708689	0.000508
1015.878879	0.001319
1016.049052	0.002003
1016.219206	0.001783
1016.389342	0.002985
1016.559460	0.003122
1016.729559	0.002306
1016.899641	0.002148
1017.069704	0.000789
1017.239749	0.001201
1017.409775	0.001088
1017.579784	0.001686
1017.749774	0.001770
1017.919746	0.000220
1018.089700	0.001490
1018.259635	0.002663
1018.429553	0.002768
1018.599452	0.004400
1018.769333	0.003057
1018.939195	0.001008
1019.109040	0.001030
1019.278866	0.000607
1019.448674	-0.000084
1019.618464	0.001246
1019.788235	0.001030
1019.957989	0.000555
1020.127724	0.000236
1020.297441	0.000345
1020.467139	0.000125
1020.636820	-0.000588
1020.806482	0.000211
1020.976126	0.002774
1021.145752	0.003300
1021.315359	0.002586
1021.484948	0.002294
1021.654519	0.001463
1021.824072	0.002045
1021.993607	0.005488
1022.163123	0.004315
1022.332621	0.004981
1022.502101	0.003569
1022.671563	0.001475
1022.841007	0.002550
1023.010432	0.002055
1023.179839	0.002518
1023.349228	0.001666
1023.518598	-0.000665
1023.687951	0.000456
1023.857285	-0.000730
1024.026601	0.000228
1024.195899	0.000494
1024.365178	0.001587
1024.534439	0.003605
1024.703682	0.003878
1024.872907	0.004868
1025.042114	0.006174
1025.211302	0.006142
1025.380472	0.005965
1025.549624	0.004640
1025.718758	0.005568
1025.887873	0.004850
1026.056970	0.002340
1026.226049	0.000563
1026.395110	-0.000448
1026.564153	-0.000939
1026.733177	-0.001435
1026.902183	-0.000936
1027.071171	-0.001154
1027.240141	-0.002575
1027.409092	-0.002122
1027.578026	-0.001978
1027.746940	-0.001957
1027.915837	-0.001377
1028.084716	-0.002265
1028.253576	-0.000493
1028.422418	-0.000574
1028.591242	0.000611
1028.760048	0.000863
1028.928835	-0.000394
1029.097604	-0.000247
1029.266355	0.000157
1029.435088	-0.000566
1029.603803	-0.001605
1029.772499	-0.002175
1029.941177	-0.001677
1030.109837	-0.002521
1030.278478	-0.001899
1030.447102	-0.001511
1030.615707	-0.000555
1030.784294	-0.000954
1030.952863	-0.000304
1031.121413	0.002175
1031.289945	0.000893
1031.458460	-0.000081
1031.626955	0.000228
1031.795433	-0.000366
1031.963892	-0.000536
1032.132334	0.000785
1032.300756	0.000527
1032.469161	0.000599
1032.637548	-0.000661
1032.805916	-0.000121
1032.974266	0.000420
1033.142598	0.000171
1033.310911	0.000335
1033.479207	0.001191
1033.647484	-0.001192
1033.815743	0.000984
1033.983983	0.001061
1034.152206	0.000499
1034.320410	-0.000310
1034.488596	-0.001232
1034.656764	-0.001193
1034.824914	-0.001566
1034.993045	-0.002651
1035.161158	-0.002403
1035.329253	-0.003904
1035.497330	-0.004729
1035.665388	-0.004546
1035.833428	-0.004148
1036.001450	-0.003217
1036.169454	-0.003748
1036.337440	-0.002626
1036.505407	-0.000604
1036.673356	-0.000131
1036.841287	0.000510
1037.009200	0.001064
1037.177094	0.001793
1037.344970	0.002299
1037.512828	0.002910
1037.680668	0.004589
1037.848489	0.005375
1038.016293	0.003849
1038.184078	0.003660
1038.351845	0.003076
1038.519593	0.002100
1038.687324	0.001087
1038.855036	0.000490
1039.022730	0.000470
1039.190406	-0.001682
1039.358063	-0.002159
1039.525702	-0.002924
1039.693323	-0.002865
1039.860926	-0.003228
1040.028511	-0.002608
1040.196077	-0.001410
1040.363625	-0.000822
1040.531155	-0.002015
1040.698667	-0.000688
1040.866161	-0.001443
1041.033636	0.000363
1041.201093	0.002073
1041.368532	0.003497
1041.535952	0.003511
1041.703355	0.002446
1041.870739	-0.000063
1042.038105	-0.000410
1042.205452	-0.001357
1042.372782	-0.001252
1042.540093	-0.002617
1042.707386	-0.002448
1042.874661	-0.001497
1043.041918	-0.002506
1043.209156	-0.000895
1043.376376	0.002534
1043.543578	0.003947
1043.710762	0.004518
1043.877927	0.004273
1044.045074	0.005122
1044.212203	0.003726
1044.379314	0.000065
1044.546407	0.001949
1044.713481	0.000360
1044.880537	-0.002168
1045.047575	-0.002123
1045.214595	-0.002850
1045.381596	-0.001257
1045.548579	-0.001434
1045.715544	-0.002360
1045.882491	0.000007
1046.049420	-0.000533
1046.216330	0.000258
1046.383222	0.001928
1046.550096	0.001726
1046.716951	0.003149
1046.883789	0.001169
1047.050608	0.001677
1047.217409	0.002810
1047.384192	0.003771
1047.550956	0.003932
1047.717703	0.003121
1047.884431	0.002957
1048.051140	0.002345
1048.217832	0.001518
1048.384505	0.001698
1048.551161	0.000801
1048.717798	0.000911
1048.884416	-0.001399
1049.051017	-0.000844
1049.217599	0.000167
1049.384163	-0.000198
1049.550709	0.000101
1049.717237	-0.000518
1049.883746	0.001547
1050.050237	0.001321
1050.216710	0.000969
1050.383165	0.001815
1050.549601	0.000406
1050.716019	0.000381
1050.882420	0.001197
1051.048801	0.001232
1051.215165	0.000432
1051.381510	-0.002167
1051.547837	-0.003048
1051.714146	-0.002236
1051.880437	-0.001788
1052.046709	-0.001177
1052.212964	-0.001902
1052.379200	-0.002210
1052.545417	-0.003195
1052.711617	-0.001509
1052.877798	-0.000454
1053.043961	0.002135
1053.210106	0.000046
1053.376233	-0.000032
1053.542341	-0.000602
1053.708432	-0.000656
1053.874504	-0.000060
1054.040557	0.000788
1054.206593	0.001409
1054.372610	0.000601
1054.538609	0.001013
1054.704590	0.004132
1054.870553	0.004423
1055.036497	0.003000
1055.202424	0.002068
1055.368331	0.001553
1055.534221	0.000684
1055.700093	-0.001696
1055.865946	-0.003357
1056.031781	-0.003710
1056.197598	-0.005123
1056.363397	-0.006901
1056.529177	-0.004507
1056.694939	-0.003197
1056.860683	-0.004130
1057.026409	-0.003778
1057.192116	-0.002179
1057.357806	0.000503
1057.523477	-0.001670
1057.689130	-0.001541
1057.854764	-0.000144
1058.020381	-0.001324
1058.185979	-0.002159
1058.351559	-0.000116
1058.517120	-0.000000
1058.682664	0.000976
1058.848189	-0.000560
1059.013696	0.000498
1059.179185	0.000559
1059.344656	0.001662
1059.510108	0.001097
1059.675542	0.002036
1059.840958	0.000169
1060.006356	-0.001440
1060.171735	-0.002862
1060.337096	-0.001987
1060.502439	-0.003490
1060.667764	-0.002848
1060.833071	-0.003094
1060.998359	-0.001927
1061.163629	-0.003177
1061.328881	-0.002087
1061.494115	-0.000500
1061.659330	-0.000965
1061.824527	-0.000607
1061.989706	0.001565
1062.154867	0.001001
1062.320010	0.000555
1062.485134	-0.000097
1062.650240	0.000641
1062.815328	0.000001
1062.980398	0.000898
1063.145449	0.000158
1063.310482	0.001009
1063.475497	-0.000356
1063.640494	-0.000293
1063.805473	0.000170
1063.970433	0.000104
1064.135375	0.000526
1064.300299	0.000153
1064.465204	-0.000187
1064.630092	0.002090
1064.794961	0.000413
1064.959812	-0.000612
1065.124645	-0.000358
1065.289459	-0.000946
1065.454256	-0.001159
1065.619034	-0.001011
1065.783793	0.000752
1065.948535	-0.000852
1066.113258	-0.001653
1066.277964	0.000515
1066.442651	0.001819
1066.607319	0.002045
1066.771970	0.003895
1066.936602	0.003949
1067.101216	0.003436
1067.265812	0.002440
1067.430389	0.003505
1067.594949	0.005377
1067.759490	0.003053
1067.924013	0.001892
1068.088518	0.001155
1068.253004	-0.000073
1068.417472	-0.000566
1068.581922	-0.002404
1068.746354	-0.002972
1068.910768	-0.001952
1069.075163	-0.003529
1069.239540	-0.001431
1069.403899	-0.000724
1069.568240	-0.002277
1069.732562	-0.003716
1069.896866	-0.001406
1070.061152	-0.000372
1070.225420	0.000177
1070.389670	0.000877
1070.553901	0.002351
1070.718114	0.000427
1070.882309	0.000566
1071.046486	0.000767
1071.210644	0.001295
1071.374784	-0.000068
1071.538906	0.000843
1071.703010	0.000061
1071.867096	-0.003342
1072.031163	-0.006582
1072.195212	-0.006345
1072.359243	-0.005410
1072.523256	-0.005023
1072.687250	-0.005852
1072.851226	-0.004431
1073.015184	-0.005149
1073.179124	-0.004673
1073.343045	-0.001047
1073.506949	0.000388
1073.670834	0.002417
1073.834701	0.000704
1073.998549	0.002211
1074.162380	0.003693
1074.326192	0.004201
1074.489986	0.006355
1074.653761	0.007742
1074.817519	0.007215
1074.981258	0.006054
1075.144979	0.005401
1075.308682	0.007057
1075.472367	0.005790
1075.636033	0.004910
1075.799681	0.003309
1075.963311	0.002287
1076.126923	0.001639
1076.290516	-0.000013
1076.454092	0.000509
1076.617649	-0.000453
1076.781187	0.000661
1076.944708	-0.000247
1077.108210	0.000577
1077.271695	-0.000094
1077.435160	0.000708
1077.598608	0.001355
1077.762038	0.003318
1077.925449	0.004949
1078.088842	0.004511
1078.252217	0.003029
1078.415573	0.007176
1078.578912	0.006726
1078.742232	0.007867
1078.905534	0.006587
1079.068817	0.006878
1079.232083	0.006990
1079.395330	0.006407
1079.558559	0.005191
1079.721770	0.004794
1079.884962	0.001438
1080.048136	0.000728
1080.211293	-0.000883
1080.374430	-0.001353
1080.537550	-0.003888
1080.700651	-0.007245
1080.863735	-0.007308
1081.026800	-0.005251
1081.189846	-0.006103
1081.352875	-0.006193
1081.515885	-0.005201
1081.678877	-0.004320
1081.841851	-0.002271
1082.004807	-0.001528
1082.167744	0.000897
1082.330663	0.001424
1082.493564	0.002905
1082.656447	0.004169
1082.819312	0.006672
1082.982158	0.004961
1083.144986	0.005440
1083.307796	0.001957
1083.470587	0.000974
1083.633361	-0.000633
1083.796116	0.000133
1083.958853	-0.001309
1084.121571	-0.000596
1084.284272	-0.002855
1084.446954	-0.001084
1084.609618	0.001392
1084.772264	0.002268
1084.934892	0.003363
1085.097501	0.002143
1085.260092	-0.000312
1085.422665	-0.000537
1085.585220	-0.002181
1085.747756	-0.001908
1085.910274	-0.004332
1086.072774	-0.004778
1086.235256	-0.003371
1086.397720	-0.003675
1086.560165	-0.000822
1086.722592	-0.001306
1086.885001	-0.002720
1087.047392	-0.002019
1087.209764	-0.001715
1087.372119	-0.000340
1087.534455	-0.003637
1087.696772	-0.002751
1087.859072	-0.001962
1088.021353	-0.000224
1088.183616	0.003808
1088.345861	0.006563
1088.508088	0.006968
1088.670296	0.005043
1088.832486	0.006702
1088.994658	0.007481
1089.156812	0.005213
1089.318948	0.003441
1089.481065	0.000831
1089.643164	-0.003098
1089.805245	-0.005818
1089.967308	-0.002718
1090.129352	-0.000223
1090.291378	-0.000810
1090.453386	-0.000176
1090.615376	0.001093
1090.777347	0.003661
1090.939301	0.002623
1091.101236	0.003913
1091.263153	0.006645
1091.425051	0.000757
1091.586932	-0.000515
1091.748794	-0.000145
1091.910638	0.001965
1092.072463	0.002184
1092.234271	0.001644
1092.396060	0.002050
1092.557831	0.004503
1092.719584	0.003376
1092.881319	0.003445
1093.043035	0.003660
1093.204733	0.004390
1093.366413	0.001924
1093.528075	0.001593
1093.689718	0.001355
1093.851343	0.000213
1094.012950	0.000895
1094.174539	-0.000290
1094.336110	0.001274
1094.497662	0.003143
1094.659196	0.000023
1094.820712	0.000179
1094.982210	-0.000103
1095.143689	0.000217
1095.305151	0.006776
1095.466594	0.003879
1095.628018	0.005656
1095.789425	0.008788
1095.950813	0.006884
1096.112183	0.007773
1096.273535	0.008410
1096.434869	0.006564
1096.596184	0.006568
1096.757482	0.002942
1096.918761	0.002351
1097.080021	0.000941
1097.241264	-0.001744
1097.402488	0.001063
1097.563694	0.002532
1097.724882	0.003405
1097.886052	0.004106
1098.047203	0.002474
1098.208336	0.004078
1098.369451	0.005482
1098.530548	0.006645
1098.691627	0.007868
1098.852687	0.006786
1099.013729	0.003999
1099.174753	0.002345
1099.335758	0.003965
1099.496746	0.007081
1099.657715	0.003089
1099.818666	0.004333
1099.979599	0.001080
1100.140513	-0.000473
1100.301409	-0.001234
1100.462287	0.001193
1100.623147	-0.000104
1100.783989	-0.001177
1100.944812	-0.003197
1101.105617	-0.001849
1101.266404	-0.003028
1101.427173	0.003123
1101.587923	0.003136
1101.748656	0.003197
1101.909370	0.002529
1102.070066	0.003970
1102.230743	0.005090
1102.391403	0.006432
1102.552044	0.008176
1102.712667	0.005515
1102.873271	0.001337
1103.033858	0.003466
1103.194426	0.003037
1103.354976	0.004650
1103.515508	0.004428
1103.676021	0.004372
1103.836517	0.002766
1103.996994	0.002596
1104.157453	0.009399
1104.317893	0.011817
1104.478316	0.008474
1104.638720	0.007449
1104.799106	0.004418
1104.959474	0.005263
1105.119823	0.005374
1105.280155	0.005819
1105.440468	0.008020
1105.600763	0.002485
1105.761039	0.000718
1105.921298	0.005302
1106.081538	0.006331
1106.241760	0.010945
1106.401964	0.009025
1106.562149	0.009557
1106.722316	0.011475
1106.882465	0.008013
1107.042596	0.009167
1107.202709	0.010129
1107.362803	0.004141
1107.522879	0.005195
1107.682937	0.002160
1107.842977	0.003941
1108.002999	0.003960
1108.163002	0.003098
1108.322987	0.003542
1108.482954	0.002706
1108.642902	-0.000141
1108.802833	0.003599
1108.962745	0.000214
1109.122639	-0.001294
1109.282515	-0.002025
1109.442372	-0.005112
1109.602211	-0.006452
1109.762032	-0.005489
1109.921835	-0.008141
1110.081620	-0.005075
1110.241386	-0.005289
1110.401134	-0.002253
1110.560864	-0.002784
1110.720576	-0.003080
1110.880269	0.000795
1111.039945	0.002557
1111.199602	0.002114
1111.359240	0.006371
1111.518861	0.007494
1111.678463	0.009340
1111.838047	0.006424
1111.997613	0.008346
1112.157161	0.011831
1112.316690	0.012642
1112.476202	0.012026
1112.635695	0.012386
1112.795169	0.010487
1112.954626	0.009242
1113.114064	0.006071
1113.273484	0.007207
1113.432886	0.007702
1113.592270	0.003735
1113.751635	0.001745
1113.910983	0.000059
1114.070312	-0.001595
1114.229622	-0.004664
1114.388915	-0.002866
1114.548189	-0.001401
1114.707445	0.000732
1114.866683	0.001681
1115.025903	0.007173
1115.185104	0.005375
1115.344287	0.005354
1115.503452	0.010399
1115.662599	0.013781
1115.821727	0.013108
1115.980838	0.012722
1116.139930	0.011083
1116.299004	0.011756
1116.458059	0.003474
1116.617097	0.006101
1116.776116	0.007075
1116.935117	-0.001678
1117.094099	-0.004916
1117.253064	-0.009992
1117.412010	-0.009348
1117.570938	-0.009395
1117.729848	-0.011294
1117.888740	-0.007887
1118.047613	-0.007322
1118.206468	-0.006022
1118.365305	-0.000423
1118.524124	0.005582
1118.682924	0.005299
1118.841707	0.003617
1119.000471	0.003733
1119.159216	0.004306
1119.317944	0.005878
1119.476653	0.005663
1119.635344	0.001160
1119.794017	0.003623
1119.952672	0.001027
1120.111308	0.003939
1120.269927	0.004381
1120.428527	0.005095
1120.587108	0.004986
1120.745672	0.006608
1120.904217	0.007042
1121.062744	0.008315
1121.221253	0.004810
1121.379744	0.006845
1121.538216	0.007653
1121.696671	0.006107
1121.855107	0.001157
1122.013524	0.000534
1122.171924	-0.000824
1122.330305	-0.003506
1122.488668	-0.002539
1122.647013	-0.003933
1122.805340	-0.001631
1122.963648	-0.001064
1123.121938	0.003079
1123.280210	0.006273
1123.438464	0.009212
1123.596700	0.007546
1123.754917	0.011488
1123.913116	0.013147
1124.071297	0.014987
1124.229459	0.014137
1124.387604	0.013455
1124.545730	0.014555
1124.703838	0.017138
1124.861928	0.012608
1125.019999	0.012937
1125.178052	0.009266
1125.336088	0.011418
1125.494104	0.015682
1125.652103	0.011455
1125.810083	0.014676
1125.968045	0.015071
1126.125989	0.014331
1126.283915	0.016079
1126.441823	0.013713
1126.599712	0.011163
1126.757583	0.008998
1126.915436	0.002480
1127.073270	0.001981
1127.231087	-0.002050
1127.388885	-0.004833
1127.546665	-0.009268
1127.704426	-0.009421
1127.862170	-0.003052
1128.019895	0.001868
1128.177602	0.003330
1128.335291	0.007766
1128.492961	0.009166
1128.650614	0.010797
1128.808248	0.009047
1128.965864	0.015299
1129.123461	0.017731
1129.281041	0.014203
1129.438602	0.012537
1129.596145	0.011204
1129.753670	0.008513
1129.911176	0.007229
1130.068665	0.005511
1130.226135	0.011263
1130.383587	0.006057
1130.541020	0.004125
1130.698436	0.008631
1130.855833	0.007834
1131.013212	0.007676
1131.170573	0.009895
1131.327915	0.009949
1131.485239	0.010791
1131.642545	0.008471
1131.799833	0.014836
1131.957103	0.015802
1132.114354	0.010007
1132.271588	0.011344
1132.428803	0.008663
1132.585999	0.008139
1132.743178	0.008811
1132.900338	0.010858
1133.057480	0.009812
1133.214604	0.007737
1133.371710	0.004500
1133.528797	0.007334
1133.685866	0.005340
1133.842917	0.005956
1133.999950	0.001731
1134.156964	0.000558
1134.313960	-0.000735
1134.470938	-0.000997
1134.627898	0.000083
1134.784840	0.002066
1134.941763	0.000349
1135.098668	0.004095
1135.255555	0.008144
1135.412424	0.015689
1135.569274	0.014738
1135.726107	0.019234
1135.882921	0.019845
1136.039716	0.020527
1136.196494	0.019907
1136.353253	0.020391
1136.509995	0.017596
1136.666717	0.013598
1136.823422	0.007524
1136.980109	0.013030
1137.136777	0.011176
1137.293427	0.012619
1137.450059	0.012092
1137.606672	0.015137
1137.763267	0.015842
1137.919844	0.017206
1138.076403	0.018363
1138.232944	0.023567
1138.389466	0.026199
1138.545971	0.022635
1138.702457	0.020456
1138.858924	0.016184
1139.015374	0.013784
1139.171805	0.016735
1139.328218	0.011617
1139.484613	0.011711
1139.640990	0.005874
1139.797348	0.002361
1139.953688	0.004603
1140.110010	0.003778
1140.266314	0.007143
1140.422600	0.009230
1140.578867	0.003958
1140.735116	0.007292
1140.891347	0.003948
1141.047559	0.005190
1141.203754	0.003999
1141.359930	0.008017
1141.516088	0.009678
1141.672228	0.005365
1141.828349	0.002939
1141.984452	0.002961
1142.140537	0.005021
1142.296604	0.008643
1142.452653	0.008526
1142.608683	0.008205
1142.764695	0.005518
1142.920689	0.004907
1143.076665	0.008818
1143.232622	0.009704
1143.388562	0.011854
1143.544483	0.010148
1143.700385	0.011880
1143.856270	0.012778
1144.012136	0.011552
1144.167985	0.003023
1144.323814	0.003717
1144.479626	0.003726
1144.635420	0.006895
1144.791195	0.007532
1144.946952	0.009160
1145.102691	0.007454
1145.258411	0.012376
1145.414113	0.013590
1145.569798	0.018671
1145.725463	0.014819
1145.881111	0.010927
1146.036741	0.009406
1146.192352	0.005210
1146.347945	0.006396
1146.503519	0.007131
1146.659076	0.003804
1146.814614	0.007181
1146.970134	0.010120
1147.125636	0.013763
1147.281120	0.015981
1147.436585	0.013414
1147.592032	0.017582
1147.747461	0.020834
1147.902872	0.014307
1148.058265	0.008118
1148.213639	0.007045
1148.368995	0.010284
1148.524333	0.010359
1148.679653	0.012192
1148.834954	0.018311
1148.990237	0.014915
1149.145502	0.012653
1149.300749	0.020462
1149.455977	0.024787
1149.611188	0.019158
1149.766380	0.009895
1149.921553	0.010889
1150.076709	0.007906
1150.231846	0.001790
1150.386966	0.000608
1150.542066	-0.002837
1150.697149	-0.005585
1150.852214	-0.002096
1151.007260	-0.004349
1151.162288	-0.002762
1151.317298	-0.000052
1151.472289	0.003951
1151.627263	0.010408
1151.782218	0.013539
1151.937155	0.016523
1152.092073	0.015225
1152.246974	0.015422
1152.401856	0.016646
1152.556720	0.020978
1152.711566	0.023077
1152.866393	0.021270
1153.021203	0.019292
1153.175994	0.024442
1153.330767	0.024380
1153.485521	0.032736
1153.640258	0.030462
1153.794976	0.041725
1153.949676	0.044514
1154.104358	0.036274
1154.259021	0.038178
1154.413667	0.034169
1154.568294	0.030909
1154.722903	0.028573
1154.877493	0.024600
1155.032066	0.025380
1155.186620	0.016895
1155.341156	0.010213
1155.495674	0.012187
1155.650173	0.009851
1155.804654	0.010210
1155.959118	0.002486
1156.113562	0.005030
1156.267989	0.003378
1156.422397	0.007873
1156.576788	0.011563
1156.731160	0.016667
1156.885513	0.016440
1157.039849	0.025815
1157.194166	0.024993
1157.348465	0.033583
1157.502746	0.029293
1157.657009	0.031503
1157.811253	0.019315
1157.965479	0.014959
1158.119687	0.015470
1158.273877	0.010546
1158.428048	-0.005994
1158.582201	-0.000794
1158.736337	-0.007789
1158.890453	-0.003193
1159.044552	-0.013157
1159.198632	-0.001044
1159.352694	0.009579
1159.506738	0.005133
1159.660764	0.010400
1159.814771	0.022255
1159.968761	0.011786
1160.122732	0.016828
1160.276685	0.013726
1160.430619	0.023610
1160.584535	0.015461
1160.738434	0.008313
1160.892313	0.009039
1161.046175	0.011349
1161.200019	0.006891
1161.353844	0.018589
1161.507651	0.013999
1161.661440	0.015931
1161.815210	0.020155
1161.968962	0.024757
1162.122697	0.025903
1162.276412	0.031984
1162.430110	0.021637
1162.583789	0.017704
1162.737451	0.015855
1162.891094	0.025723
1163.044718	0.020533
1163.198325	0.016380
1163.351913	0.015730
1163.505483	0.009944
1163.659035	0.005648
1163.812569	0.009181
1163.966084	0.020834
1164.119581	0.022871
1164.273060	0.013150
1164.426521	0.014812
1164.579964	0.008490
1164.733388	0.007708
1164.886794	0.014194
1165.040182	0.008950
1165.193551	0.010114
1165.346903	0.007472
1165.500236	0.000724
1165.653551	0.005486
1165.806848	0.004581
1165.960126	0.011431
1166.113386	0.011873
1166.266628	0.009567
1166.419852	0.011336
1166.573058	0.019019
1166.726245	0.019212
1166.879414	0.021738
1167.032565	0.018070
1167.185698	0.023130
1167.338812	0.026092
1167.491909	0.020473
1167.644987	0.021593
1167.798046	0.024144
1167.951088	0.010057
1168.104111	0.016529
1168.257117	0.010576
1168.410103	0.009576
1168.563072	0.007142
1168.716023	0.005242
1168.868955	0.004424
1169.021869	0.001063
1169.174765	0.003306
1169.327642	0.014792
1169.480501	-0.000751
1169.633343	0.013830
1169.786165	0.011064
1169.938970	0.022163
1170.091757	0.019715
1170.244525	0.018743
1170.397275	0.018111
1170.550007	0.017827
1170.702720	0.015484
1170.855415	0.017374
1171.008092	0.010697
1171.160751	0.021888
1171.313392	0.013632
1171.466014	-0.016899
1171.618619	0.040026
1171.771205	0.040026
1171.923772	0.040026
