sample name	sample
index	953
start time	 04-12-2021  03:40:56 PM
880	0.039781
Peak Time (s)	122.537
Peak Height 	0.03978
calc peak height	120,123
Baseline Time (s)	10.536
Baseline Value 	-0.004004
subtract baseline	10,4
Abs	0.045820
Peak Time (s)	122.037
Peak Height 	0.04582
calc peak height	120,123
Baseline Time (s)	8.534
Baseline Value 	0.003968
subtract baseline	10,3
PK_550	0.022853
Peak Time (s)	121.036
Peak Height 	0.02285
calc peak height	120,123
Baseline Time (s)	10.536
Baseline Value 	1.1475E-4
subtract baseline	10,2
PK_880	0.035118
Peak Time (s)	121.036
Peak Height 	0.03512
calc peak height	120,123
Baseline Time (s)	9.537
Baseline Value 	0.001308
subtract baseline	10,1


Time (s)	A880-A510	A880-A775	A880-A975	A880	I510	I775	I975	I880	
0.035000	-0.004061	-0.000767	-0.005212	0.007105	7024.341026	42403.478716	3913.310937	22843.842776
0.535500	-0.001843	0.000543	-0.003664	0.004920	7066.455061	42722.057054	3922.506636	22944.445628
1.035500	-0.000472	0.000169	-0.007998	0.004156	7087.035559	42757.778771	3913.709590	22979.758509
1.536000	0.001195	0.000895	-0.004403	0.002832	7116.035652	42946.012801	3925.850342	23041.090535
2.036000	-0.004833	-0.000222	-0.001215	0.006240	7025.227562	42531.742052	3925.305250	22883.613095
2.536500	-0.001609	-0.000465	-0.000012	0.001330	7103.386891	42959.097118	3940.580991	23110.898858
3.037000	0.001242	0.000042	-0.003324	-0.000669	7150.697707	43190.413409	3937.282213	23204.181924
3.537000	0.000328	-0.000226	-0.001213	0.000689	7128.469141	43040.194838	3939.172319	23140.775334
4.037500	-0.001382	0.000159	-0.000969	0.005686	7063.520841	42616.874493	3927.291306	22909.098155
4.535500	0.001110	-0.000426	0.001193	0.000899	7134.055903	43002.426702	3944.705014	23130.990733
5.035000	0.001303	0.001141	-0.001117	0.001390	7131.144559	43101.644651	3937.654048	23108.106715
5.535500	-0.001087	-0.000526	-0.002092	0.000053	7120.871356	43071.148344	3938.561488	23170.427639
6.035500	0.000974	-0.000198	-0.003352	0.000559	7136.050522	43054.793722	3934.136482	23146.843854
6.536500	-0.001012	0.000097	-0.000445	0.000686	7115.438057	43070.213895	3941.111950	23140.893939
7.036000	-0.001878	0.000330	-0.002856	0.000729	7106.612818	43087.808150	3934.950315	23138.899051
7.536500	-0.001456	0.000422	-0.002549	0.000930	7108.751166	43077.703219	3935.217042	23129.523369
8.037000	0.000338	0.000647	-0.003509	0.001006	7125.476817	43091.488120	3932.624666	23125.985258
8.534500	0.000376	0.000226	0.000000	0.000322	7132.513569	43115.728730	3943.149836	23157.869851
9.035000	-0.000388	0.000404	-0.000013	0.000305	7125.235012	43133.855917	3943.159837	23158.679562
9.536500	0.000000	0.000353	0.003610	0.000646	7125.685271	43097.510813	3951.469268	23142.754214
10.035500	-0.001185	-0.000494	0.001801	-0.000325	7123.600580	43108.999959	3949.341371	23188.073868
10.535500	0.000633	0.000000	-0.002123	0.000000	7138.180767	43124.659049	3938.616641	23172.912091
11.036000	0.000893	-0.000268	-0.004774	-0.000573	7146.331334	43152.795146	3933.410027	23199.667725
11.535500	-0.000022	-0.000354	0.000607	-0.000489	7136.558194	43137.194173	3946.732538	23195.776076
12.039500	0.000110	0.000109	0.003130	-0.000732	7140.229192	43202.545131	3953.754654	23207.139422
12.536500	-0.002796	0.000000	-0.005385	0.004660	7059.806907	42696.204079	3918.898699	22956.479656
13.037000	0.002139	0.000791	-0.002437	-0.001073	7163.478043	43297.318163	3940.526664	23223.086362
13.535500	-0.001117	-0.000204	-0.001093	0.000226	7118.894079	43084.900890	3940.636953	23162.351805
14.037500	-0.001544	0.000248	-0.000634	0.000340	7113.641071	43116.185893	3941.507367	23157.061401
14.535000	-0.001322	0.000027	-0.002055	0.004551	7075.023524	42708.589696	3927.413249	22961.485192
15.035500	0.001318	0.000217	0.000322	0.001447	7130.724488	43011.038726	3941.125101	23105.437898
15.538000	-0.000424	0.000547	-0.006023	0.001000	7118.116884	43082.874520	3926.378977	23126.290031
16.036500	-0.000725	0.000135	0.000549	0.000354	7121.462232	43104.351665	3944.453538	23156.364467
16.536000	-0.003377	-0.000751	-0.004717	0.005903	7042.332521	42514.226112	3917.480198	22899.109132
17.037000	-0.000815	0.000114	-0.001843	0.000326	7120.872641	43105.121281	3938.501912	23157.716167
17.537000	0.000729	0.000177	0.002070	-0.002426	7162.913206	43366.032500	3955.371578	23286.517927
18.037000	0.001520	-0.000110	0.002070	-0.001968	7166.192198	43296.858767	3954.203572	23265.035575
18.537500	-0.001803	0.000444	-0.002086	0.003479	7080.719973	42845.072715	3930.004868	23011.086854
19.035000	-0.001528	0.000028	-0.004974	0.001506	7102.469425	42988.294044	3927.726781	23102.706429
19.535000	-0.000630	0.000458	0.000679	0.001221	7113.954963	43054.179600	3942.594158	23115.967175
20.035500	-0.000041	0.000324	-0.002171	0.001521	7116.761956	43014.197373	3934.683226	23102.011297
20.536500	-0.002281	0.000042	-0.003122	0.003555	7075.390975	42801.269177	3927.238942	23007.600687
21.036000	-0.000493	0.000908	-0.004135	0.002089	7106.859416	43015.663619	3928.364878	23075.613861
21.536000	-0.000198	0.000222	-0.000118	0.001750	7113.019266	42983.674845	3939.259249	23091.375238
22.036500	0.000028	0.001247	-0.000411	0.002443	7108.477048	43014.246006	3936.781602	23059.143423
22.537000	-0.000825	0.000554	-0.003158	0.003180	7093.054595	42882.602592	3928.080954	23024.938142
23.034500	-0.001360	0.000605	0.002024	0.001673	7102.479949	43026.107078	3944.849265	23094.959372
23.534500	0.000510	0.000869	-0.000621	0.002082	7116.666005	43012.689489	3937.159892	23075.908742
24.035000	0.001117	0.000680	-0.000386	0.002104	7122.367395	42993.297492	3937.697099	23074.914575
24.536000	-0.003603	-0.000115	-0.006311	0.003089	7067.147422	42829.529567	3920.489785	23029.182519
25.036000	-0.001890	0.000686	-0.004684	0.001832	7095.798197	43018.828418	3927.637062	23087.537732
25.536000	0.000322	0.000683	0.000127	0.001747	7118.099838	43026.499054	3939.881355	23091.514632
26.042000	-0.000533	0.000001	-0.001409	0.001301	7114.119345	43004.635226	3937.144193	23112.242830
26.536500	-0.000207	-0.000165	0.000216	0.001437	7115.969741	42976.785691	3940.883919	23105.907429
27.037000	-0.002589	0.000019	-0.007174	0.001696	7090.353484	42969.963645	3921.800992	23093.871178
27.537500	0.000154	0.000264	-0.000827	0.002061	7113.418733	42958.880136	3936.697685	23076.916261
28.035000	-0.001295	-0.000079	-0.000836	-0.000100	7120.339326	43126.620581	3942.105270	23177.573025
28.534500	-0.001148	0.000749	-0.003119	0.006691	7056.127706	42579.087790	3919.478424	22862.838751
29.050000	0.000157	0.001000	-0.004281	0.001697	7116.977921	43060.302782	3928.977808	23093.833486
29.541500	-0.000812	0.000401	0.002101	0.000967	7114.652709	43072.311603	3946.828711	23127.795209
30.081500	-0.000109	0.000336	-0.000437	0.002265	7108.878492	42946.784780	3937.163352	23067.426664
30.538500	-0.001114	0.000119	-0.001657	0.006367	7059.566584	42551.192661	3923.896217	22877.771888
31.037000	0.000262	0.001307	0.002173	0.001632	7118.639725	43094.601576	3945.329891	23096.847387
31.536500	-0.000651	0.000263	-0.000675	0.002670	7099.684123	42902.772207	3935.551007	23048.612197
32.034000	-0.001704	0.000197	-0.002874	0.005389	7063.287386	42647.535889	3923.303341	22922.824667
32.537500	-0.004785	-0.000871	-0.006755	0.005733	7030.518614	42518.802536	3912.891024	22906.970883
33.035000	0.001702	0.000501	0.006298	0.001264	7136.265597	43054.132560	3956.743877	23113.963534
33.539000	0.000517	0.000409	-0.005308	0.000887	7128.384949	43080.530461	3928.435798	23131.540636
34.035500	-0.003393	-0.000447	-0.003926	0.004377	7056.794177	42681.188755	3923.205515	22969.560429
34.535500	-0.002637	0.000737	-0.001457	0.005469	7053.570868	42689.537783	3926.617818	22919.115994
35.039000	-0.001408	0.000128	0.004619	0.002195	7096.949711	42934.046626	3950.098621	23070.658406
35.536000	0.001109	0.000092	-0.006050	0.002047	7122.837170	42944.251607	3923.713717	23077.525545
36.036500	-0.001933	0.000932	-0.003175	0.003110	7083.029225	42923.749671	3928.211382	23028.177430
36.536500	-0.001634	0.000445	-0.003561	0.004306	7074.382845	42769.361007	3924.285180	22972.844329
37.034000	0.000123	-0.000038	-0.002162	0.002065	7113.067934	42930.713771	3933.344288	23076.717552
37.534500	0.000857	0.000868	-0.004637	0.002762	7113.431876	42949.960675	3925.445526	23044.353774
38.035500	0.000816	0.000010	-0.002326	0.002401	7116.541051	42904.254567	3932.096031	23061.099779
38.535000	-0.000875	0.001028	0.001204	0.004405	7080.742157	42813.684531	3935.914045	22968.253424
39.035500	-0.001131	0.000600	-0.001321	0.002558	7096.126022	42944.106165	3934.215373	23053.823422
39.535500	-0.001279	0.000307	0.002377	0.001882	7101.238611	42979.267721	3945.211701	23085.210363
40.036000	-0.001516	0.000334	0.001620	0.001909	7098.669965	42979.257284	3943.232255	23083.940361
40.814000	-0.000151	0.000925	-0.006561	0.002511	7106.075353	42978.300607	3921.300691	23056.007670
41.175000	0.000427	0.000364	0.001948	0.002494	7111.859699	42928.202261	3942.586567	23056.788205
41.537500	-0.001085	0.000625	0.002415	0.002326	7098.807271	42967.693157	3944.186139	23064.572916
42.037000	-0.001272	-0.000112	-0.002390	0.001784	7102.258204	42949.787529	3933.477797	23089.791223
42.537500	-0.000837	0.000492	-0.000816	0.004136	7083.702860	42789.185741	3931.534346	22980.671038
43.038000	-0.002598	0.000063	-0.000450	0.002005	7087.278896	42945.519109	3937.784545	23079.512040
43.649000	-0.000717	0.000348	0.000590	0.002500	7100.692747	42926.200446	3939.153005	23056.504422
44.039000	0.000530	0.000523	-0.002549	0.002122	7116.478994	42977.105011	3932.237287	23074.078819
44.539000	-0.001352	0.000451	-0.000817	0.003875	7081.256450	42809.390732	3932.182737	22992.757285
45.037000	0.000584	-0.000224	-0.005074	0.000225	7135.499914	43083.220409	3930.670249	23162.419276
45.536500	0.000958	0.000763	0.000389	0.001150	7130.114689	43088.843088	3942.043438	23119.268855
46.037000	-0.000295	0.000922	-0.002370	0.001208	7117.338355	43098.278818	3934.968803	23116.594775
46.537000	-0.000940	0.000124	-0.005194	0.005189	7072.554040	42659.117869	3918.063521	22932.029458
47.038000	-0.000848	0.000453	-0.002995	0.001046	7113.542897	43069.913398	3933.810780	23124.140954
47.538000	0.001132	0.000689	0.000957	0.001046	7132.836552	43091.636638	3943.738737	23124.129039
48.038000	0.001705	0.000733	0.002011	0.001975	7129.356319	43010.000419	3944.053834	23080.912896
48.538500	-0.000174	0.000065	-0.001703	0.005222	7079.627552	42650.750347	3926.621346	22930.522812
49.039000	-0.001333	0.000518	-0.002223	0.001239	7106.944694	43058.066261	3935.258665	23115.133971
49.536000	0.001937	0.001467	0.000285	0.002035	7131.035367	43072.244110	3939.554671	23078.121533
50.036500	0.000246	0.000562	-0.000204	0.001372	7121.012763	43049.881425	3939.992022	23108.951438
50.537000	-0.002907	0.000357	-0.002540	0.005417	7051.481237	42659.616908	3924.060385	22921.515707
51.037000	0.001592	0.001028	0.005117	0.001528	7132.613423	43078.456978	3953.059149	23101.689134
51.537000	-0.003405	-0.000721	0.004055	0.009075	7011.854225	42229.193504	3931.364239	22753.541633
52.034500	-0.067505	-0.006047	-0.004992	0.260521	4883.657390	24707.978118	3442.552000	14023.937143
52.535000	-0.061546	-0.010286	-0.011784	-0.013230	6685.458681	43397.766938	3947.619477	23800.220060
53.035500	-0.047316	-0.065568	-0.017606	-0.251446	9676.784562	64571.686579	4725.940451	39077.223932
53.537500	-0.028692	-0.164180	-0.006076	-0.356797	11918.685810	65535.000000	5305.976805	49011.203215
54.036000	-0.025046	-0.144561	-0.011307	-0.337179	11592.698231	65535.000000	5169.269781	46974.197243
54.536000	-0.031004	-0.133857	-0.013567	-0.326474	11265.152062	65535.000000	5100.989590	45900.914514
55.036500	-0.022614	-0.106690	-0.007748	-0.299308	10910.818262	65535.000000	4992.912128	43293.019227
55.537000	-0.009435	-0.095984	-0.010359	-0.288601	10956.596872	65535.000000	4928.128381	42309.204017
56.036500	-0.002957	-0.087498	-0.013426	-0.280116	10919.411429	65535.000000	4873.518867	41546.547516
56.537000	-0.002072	-0.061469	-0.012734	-0.249559	10389.206366	64886.199087	4738.894364	38920.325004
57.034500	-0.005675	-0.037858	-0.009666	-0.213442	9733.856265	63128.955414	4600.321573	36045.374475
57.535000	-0.003716	-0.024515	-0.007339	-0.186231	9347.322680	61238.448767	4502.723596	34031.872301
58.036000	-0.004179	-0.018058	-0.008409	-0.162811	9001.844652	59006.532177	4411.977112	32397.070736
58.535500	-0.002652	-0.013262	-0.007026	-0.140652	8718.319932	56810.637068	4338.906553	30929.391689
59.036000	0.000457	-0.009272	-0.005320	-0.123597	8534.169839	55215.296030	4287.126089	29849.729254
59.536500	-0.001858	-0.008279	-0.010757	-0.106483	8287.270320	53311.706531	4214.292718	28808.083949
60.036500	-0.002559	-0.007433	-0.008798	-0.087596	8049.298315	51263.518721	4162.050855	27705.202729
60.537000	-0.005805	-0.006135	-0.007748	-0.076081	7876.911386	50140.770872	4130.759493	27055.955632
61.037500	-0.001045	-0.004096	-0.004903	-0.062848	7780.571328	48940.640687	4100.433426	26330.756844
61.534000	-0.004304	-0.004457	-0.004848	-0.054014	7646.307269	47977.662828	4075.365065	25858.827860
62.035000	-0.004052	-0.002725	-0.004804	-0.039663	7494.401032	46688.894036	4035.581238	25112.288917
62.535000	-0.001323	-0.002719	-0.006625	-0.031342	7435.509665	45859.871222	4008.162509	24690.615697
63.036000	-0.004575	-0.003536	-0.004130	-0.022167	7307.317806	44884.564692	3990.452191	24234.950225
63.536000	-0.007009	-0.003156	-0.003235	-0.024051	7301.720767	45103.560131	3997.786031	24327.707333
64.036000	-0.001440	-0.002572	-0.002216	-0.018383	7300.723952	44613.324620	3985.541894	24049.804654
64.536500	-0.002004	-0.001542	-0.004030	-0.021667	7328.416401	45028.912841	3989.396642	24210.372035
65.036000	0.000553	-0.001289	-0.003160	-0.024647	7385.363002	45343.156072	3999.564265	24357.154308
65.536500	-0.001086	-0.001654	-0.005213	-0.034000	7465.896605	46229.043833	4019.087916	24824.427926
66.037000	-0.001958	-0.001908	-0.001827	-0.040602	7526.659860	46865.944142	4046.340980	25160.393496
66.535000	0.002243	-0.000542	-0.001105	-0.045259	7622.186606	47478.972471	4061.279812	25400.477242
67.035000	0.008259	0.000425	-0.000908	-0.049033	7730.047974	47967.345200	4072.426554	25596.914029
67.538500	0.011164	0.001105	0.000448	-0.045603	7724.206610	47683.346852	4066.591155	25418.288887
68.036000	0.009732	0.001043	0.002411	-0.044424	7695.228850	47555.825483	4068.792177	25357.211974
68.536000	0.013815	0.002582	0.003677	-0.042854	7723.123379	47552.684177	4067.938511	25276.182854
69.039000	0.012783	0.002065	0.007152	-0.042490	7707.614758	47462.346082	4076.711148	25257.435133
69.536000	0.013076	0.001817	0.007192	-0.041950	7704.869773	47381.689467	4075.295195	25229.609291
70.037000	0.010675	0.001525	0.009637	-0.041586	7674.311485	47314.587129	4081.193097	25210.887080
70.537000	0.012239	0.001286	0.007492	-0.041847	7694.464155	47316.858715	4075.855159	25224.327013
71.034500	0.011707	0.001668	0.006569	-0.041349	7683.082473	47305.062812	4071.842629	25198.729001
71.535000	0.012014	0.001768	0.002060	-0.041778	7691.204926	47359.072465	4060.395128	25220.761164
72.038000	0.013190	0.001756	0.007797	-0.042371	7710.812572	47418.506400	4078.202600	25251.305544
72.535500	0.008148	0.002003	-0.000179	-0.036683	7593.173172	46865.148762	4040.087700	24960.346882
73.036000	0.010963	0.001339	0.005374	-0.042310	7685.486145	47369.663819	4071.184323	25248.165217
73.536000	0.010968	0.002043	0.009533	-0.040800	7668.896566	47287.315223	4078.669248	25170.554609
74.036500	0.012529	0.001825	0.006179	-0.041565	7694.556845	47343.173394	4071.353741	25209.848813
74.536500	0.008323	0.001818	0.003922	-0.035460	7581.844308	46723.103491	4048.015312	24898.291961
75.036500	0.010776	0.002064	0.009102	-0.040826	7667.070726	47292.044413	4077.519420	25171.888774
75.537000	0.011394	0.002835	0.007657	-0.038382	7647.027397	47121.708797	4066.558931	25046.869384
76.035000	0.013603	0.002827	0.014438	-0.039564	7684.309631	47241.233270	4089.111396	25107.243703
76.537500	0.010472	0.002765	0.002937	-0.034221	7591.683952	46693.639413	4041.884490	24835.598063
77.035000	0.013051	0.003158	0.010113	-0.038906	7670.972067	47207.865171	4074.948681	25073.591060
77.535500	0.011737	0.003045	0.011679	-0.036345	7628.510295	46936.418226	4072.140307	24943.199932
78.036000	0.012561	0.003122	0.012687	-0.036740	7641.833383	46984.187216	4076.104896	24963.270506
78.536500	0.014030	0.003913	0.010696	-0.035375	7642.963749	46926.118799	4066.648116	24894.012543
79.039500	0.013998	0.004395	0.012531	-0.034165	7629.394459	46852.483376	4068.403954	24832.788086
79.537000	0.012848	0.003617	0.011402	-0.031421	7587.098304	46498.061372	4057.563308	24694.581858
80.040000	0.015335	0.004702	0.010661	-0.032352	7624.204002	46700.545962	4058.093751	24741.383525
80.537500	0.012839	0.004541	0.006459	-0.025928	7527.978720	46042.504877	4028.837417	24420.559760
81.035000	0.015611	0.005318	0.015671	-0.029924	7600.807025	46518.543111	4065.310830	24619.566969
81.535000	0.013374	0.004855	0.014478	-0.027185	7547.157253	46198.719848	4054.338463	24482.986327
82.035500	0.013389	0.004630	0.013533	-0.029180	7568.748993	46375.142172	4057.259623	24582.389779
82.536000	0.010207	0.004915	0.005624	-0.022636	7465.157553	45754.154062	4017.667453	24257.990662
83.036500	0.014493	0.005348	0.015383	-0.027147	7558.756282	46243.988550	4056.748494	24481.079906
83.536500	0.014417	0.005452	0.013386	-0.026258	7548.398146	46165.871699	4048.741389	24436.942274
84.036500	0.017032	0.006188	0.015508	-0.024873	7561.609077	46101.288929	4050.780032	24368.335580
84.537000	0.012132	0.005261	0.014480	-0.019353	7450.878362	45465.833131	4032.778578	24097.087790
85.035000	0.014448	0.006719	0.015485	-0.022951	7513.389837	45963.410327	4045.405274	24273.484622
85.537500	0.015388	0.006477	0.019027	-0.022474	7518.325840	45892.322890	4053.888271	24250.017165
86.035500	0.014713	0.006354	0.015753	-0.021645	7502.324468	45798.248172	4042.544827	24209.278815
86.535500	0.015693	0.006544	0.016539	-0.020723	7502.948694	45726.204716	4042.172700	24164.103550
87.036000	0.015812	0.007410	0.014584	-0.019703	7493.387714	45711.087786	4034.019244	24114.206496
87.536000	0.014708	0.007326	0.015122	-0.018577	7469.811780	45592.178607	4032.411098	24059.233815
88.036000	0.014995	0.006825	0.020210	-0.018324	7470.165841	45518.173858	4045.674996	24046.892425
88.536000	0.016607	0.007775	0.019156	-0.017163	7474.925801	45497.513278	4039.580702	23990.431750
89.037000	0.014420	0.007206	0.017996	-0.017397	7454.361757	45464.772742	4037.040466	24001.790436
89.537500	0.012486	0.007442	0.021409	-0.012296	7381.030523	44991.452691	4032.429207	23755.302911
90.037500	0.014681	0.007890	0.022871	-0.015483	7437.025319	45344.592874	4045.178758	23908.985952
90.538000	0.011896	0.007804	0.016272	-0.009321	7344.334322	44739.464577	4010.507627	23612.907540
91.035000	0.016422	0.008020	0.023680	-0.014527	7445.250542	45264.044420	4044.772805	23862.743786
91.535500	0.014051	0.008845	0.016610	-0.009625	7369.613415	44868.986168	4012.225458	23627.380952
92.035500	0.015997	0.008872	0.024403	-0.013248	7427.415177	45222.582562	4043.242140	23801.093058
92.536000	0.016234	0.008409	0.022259	-0.012409	7421.127063	45096.079688	4035.059144	23760.731052
93.036500	0.017968	0.008971	0.022866	-0.010868	7423.147918	45001.229348	4032.507496	23686.814737
93.536500	0.012711	0.008533	0.022999	-0.006375	7322.529828	44526.799615	4020.672840	23472.795074
94.037000	0.016775	0.009475	0.021263	-0.008790	7389.145268	44849.202688	4022.510048	23587.583017
94.537000	0.017427	0.009593	0.024896	-0.007836	7386.013909	44768.682926	4029.779957	23542.174987
95.037500	0.016863	0.009997	0.024970	-0.006509	7366.485860	44680.003780	4026.371940	23479.167228
95.535000	0.012711	0.008592	0.024692	-0.002839	7286.596297	44195.454962	4015.706271	23305.906155
96.035500	0.017295	0.010274	0.024494	-0.004961	7354.997209	44558.053252	4020.892900	23405.909681
96.535500	0.018091	0.010217	0.024925	-0.004576	7359.219063	44515.763385	4021.015067	23387.727778
97.036000	0.016402	0.009626	0.024229	-0.004375	7339.818735	44440.080389	4018.595120	23378.259933
97.536000	0.013755	0.010109	0.020238	0.002350	7244.839781	43848.326906	3990.057134	23063.450702
98.036500	0.019035	0.011052	0.026299	-0.001359	7335.893827	44288.585398	4016.048274	23236.470861
98.537000	0.014703	0.010168	0.022944	0.003592	7241.901806	43737.236497	3993.915877	23005.883297
99.037000	0.019186	0.011767	0.030638	0.000089	7322.647124	44218.927439	4023.851913	23168.753623
99.535000	0.015529	0.011562	0.024216	0.006405	7222.029974	43604.179791	3989.854959	22875.993549
100.037500	0.018708	0.011521	0.026087	0.001551	7302.891352	44056.969305	4007.679335	23100.605270
100.535500	0.017505	0.011677	0.025569	0.008221	7223.630017	43445.404511	3988.636603	22792.599734
101.035500	0.020162	0.012498	0.030943	0.003486	7298.000953	43966.457369	4015.506419	23010.753562
101.536000	0.022194	0.013274	0.028607	0.004693	7306.388927	43925.829160	4006.019050	22954.937542
102.036000	0.020271	0.013110	0.029413	0.005012	7283.649132	43880.342579	4007.320876	22940.221680
102.536500	0.020772	0.013800	0.027304	0.012340	7215.132554	43259.840709	3982.393169	22604.756712
103.036500	0.020270	0.013706	0.028558	0.006874	7264.848771	43761.201732	4000.086738	22854.433981
103.537000	0.017658	0.012824	0.027067	0.012390	7183.748305	43164.825738	3981.642889	22602.509659
104.036500	0.022280	0.014917	0.031853	0.009073	7262.942395	43668.603460	4002.999169	22753.615633
104.537500	0.019846	0.013625	0.028767	0.014215	7187.346179	43070.157827	3981.319150	22519.863194
105.035000	0.023627	0.014667	0.030827	0.010284	7264.315357	43531.957257	3997.064378	22698.331016
105.535500	0.020822	0.015212	0.025895	0.016352	7175.872054	43019.371330	3968.317831	22423.505798
106.036000	0.022983	0.015172	0.027990	0.011810	7242.516596	43436.629485	3985.573154	22628.830688
106.536000	0.024272	0.015097	0.034068	0.012516	7248.362159	43363.997853	3999.735869	22596.772110
107.036000	0.024055	0.015535	0.030857	0.013102	7240.310854	43350.201508	3989.708900	22570.198313
107.536500	0.020715	0.015355	0.026316	0.019392	7144.932235	42753.173416	3961.581962	22287.270515
108.036500	0.024466	0.015684	0.034507	0.014142	7234.014191	43267.484941	3996.591860	22523.146918
108.537500	0.024996	0.015556	0.037020	0.014882	7231.926586	43187.056458	4001.293887	22489.746682
109.037500	0.027786	0.016279	0.035594	0.016262	7246.034131	43126.209707	3993.862221	22427.562801
109.535000	0.022827	0.016624	0.031487	0.022432	7135.848145	42591.281218	3967.060106	22151.975462
110.035000	0.028085	0.017423	0.036610	0.018375	7227.881417	43036.770100	3990.972632	22332.748993
110.535500	0.027509	0.016857	0.034551	0.018330	7222.579643	42988.691916	3985.682840	22334.744966
111.035500	0.026293	0.017425	0.034124	0.019316	7200.682657	42950.205159	3981.985116	22290.671552
111.536000	0.023860	0.017768	0.031195	0.025482	7116.180518	42417.842399	3958.478388	22017.194124
112.036000	0.028216	0.017721	0.033658	0.020769	7205.350026	42843.886475	3976.984602	22225.882147
112.536500	0.027166	0.017647	0.034603	0.020821	7194.407635	42832.246927	3979.308220	22223.537126
113.037000	0.029346	0.017882	0.031909	0.021989	7204.448371	42746.831091	3969.291321	22171.645755
113.540000	0.027111	0.018807	0.034270	0.029037	7113.225201	42189.988547	3957.253198	21861.287524
114.037500	0.027672	0.018563	0.038329	0.023415	7173.766859	42678.652909	3982.262361	22108.440670
114.534500	0.024455	0.018512	0.039113	0.029551	7082.517106	42117.072807	3968.368095	21838.856761
115.035500	0.030469	0.019527	0.039150	0.024990	7185.836158	42622.866900	3980.295533	22038.888452
115.535500	0.025257	0.019118	0.034528	0.031416	7072.278835	42003.742561	3951.847265	21757.671582
116.035000	0.030749	0.019591	0.038459	0.026051	7178.111147	42531.855852	3975.732885	21992.137352
116.536000	0.025545	0.018556	0.033440	0.031659	7072.705280	41931.494704	3948.469975	21747.121102
117.036500	0.028937	0.019354	0.039053	0.026980	7151.147324	42425.896260	3974.865708	21951.357377
117.536500	0.026272	0.019321	0.029990	0.033150	7065.352857	41866.315518	3936.016605	21682.482013
118.039500	0.030672	0.020404	0.038197	0.029065	7147.714425	42331.916153	3967.257479	21860.058369
118.537000	0.032447	0.021329	0.036771	0.030262	7153.381722	42307.262344	3960.515534	21807.852657
119.037500	0.032358	0.020309	0.042544	0.030296	7152.170474	42211.868452	3975.317930	21806.348716
119.535000	0.031627	0.020636	0.042346	0.031185	7136.311893	42161.198118	3972.501430	21767.697937
120.035500	0.032921	0.021408	0.044154	0.032396	7137.128071	42121.605799	3974.048483	21715.148012
120.535500	0.033631	0.021130	0.036344	0.032721	7140.887214	42067.271991	3953.146302	21701.048141
121.036000	0.035118	0.022853	0.043462	0.034011	7142.815428	42106.227245	3968.078680	21645.255735
121.536500	0.032562	0.021275	0.044850	0.036808	7090.730965	41714.002059	3964.450378	21524.865209
122.036500	0.034633	0.022306	0.045820	0.034805	7130.310347	41985.627038	3972.120283	21610.995976
122.536500	0.030312	0.021228	0.034434	0.039781	7040.529162	41445.600435	3930.549959	21397.766076
123.037000	0.035656	0.022196	0.036367	0.036195	7126.727888	41851.064573	3944.395545	21551.179172
123.537500	0.033893	0.021767	0.040954	0.038946	7082.941229	41567.548546	3949.043538	21433.392940
124.035000	0.034580	0.022842	0.044460	0.037435	7104.203909	41797.990943	3961.840048	21498.013823
124.535000	0.032166	0.022292	0.037345	0.043193	7025.663739	41238.215870	3929.300429	21252.957993
125.036000	0.035000	0.021766	0.043498	0.037877	7103.983201	41662.469218	3958.242542	21479.050850
125.535500	0.032597	0.023204	0.037875	0.044386	7018.412654	41213.449341	3927.651574	21202.584732
126.036000	0.035326	0.022756	0.044161	0.039928	7087.287493	41568.087173	3954.699897	21391.490715
126.536500	0.033484	0.022303	0.038135	0.045069	7020.357222	41074.212562	3926.599864	21173.810175
127.036500	0.037247	0.023224	0.041815	0.040441	7100.916172	41564.168963	3947.438182	21369.680846
127.537000	0.031431	0.022863	0.039988	0.045880	6993.208513	41052.201094	3929.191862	21139.696906
128.037000	0.037318	0.023287	0.045630	0.041999	7086.524774	41431.466404	3953.165840	21303.477866
128.554000	0.035776	0.023207	0.041235	0.042306	7068.699588	41397.275937	3941.262364	21290.473798
129.035000	0.035992	0.023915	0.044593	0.042671	7067.267879	41427.642567	3948.823856	21275.014314
129.535500	0.033314	0.023326	0.038729	0.048498	6986.273987	40863.710092	3919.579779	21030.019479
130.036000	0.038328	0.023517	0.041863	0.043487	7081.908493	41320.253350	3939.871353	21240.503108
130.535500	0.036088	0.023644	0.042433	0.047995	7017.298889	40935.439080	3930.014491	21051.066326
131.036000	0.037018	0.023943	0.043529	0.044582	7058.772837	41261.294759	3941.308341	21194.334669
