sample name	sample
index	1055
start time	 04-22-2021  09:47:22 AM
880	-0.022261
Peak Time (s)	101.035
Peak Height 	-0.02226
calc peak height	100,103
Baseline Time (s)	11.036
Baseline Value 	-0.004237
subtract baseline	10,4
Abs	-0.017853
Peak Time (s)	100.038
Peak Height 	-0.01785
calc peak height	100,103
Baseline Time (s)	10.039
Baseline Value 	0.002511
subtract baseline	10,3
PK_550	0.001242
Peak Time (s)	101.035
Peak Height 	0.001242
calc peak height	100,103
Baseline Time (s)	11.036
Baseline Value 	-2.0142E-4
subtract baseline	10,2
PK_880	-0.022546
Peak Time (s)	102.036
Peak Height 	-0.02255
calc peak height	100,103
Baseline Time (s)	10.039
Baseline Value 	0.001304
subtract baseline	10,1


Time (s)	A880-A510	A880-A775	A880-A975	A880	I510	I775	I975	I880	
0.035000	-0.002505	-0.000035	-0.000845	0.005271	6168.528977	43233.946370	3763.979832	22639.525015
0.538500	-0.005072	-0.000459	-0.005533	0.005121	6149.437946	43208.385908	3753.035645	22646.365378
1.035500	-0.000214	0.000879	0.000382	0.004357	6193.988214	43404.609693	3769.180732	22681.446098
1.561500	-0.002748	0.000245	0.002417	0.000165	6207.232940	43739.005107	3784.457436	22875.006034
2.036500	-0.002594	-0.000235	-0.003529	0.004192	6176.369259	43315.942815	3760.096526	22689.050331
2.536500	-0.000664	-0.000698	-0.000149	-0.000734	6231.192235	43734.857830	3780.346564	22916.745219
3.037000	0.000856	0.000679	0.001946	-0.001136	6246.718742	43903.086712	3786.511641	22935.466323
3.537000	-0.001047	0.000642	-0.001647	0.001510	6210.090675	43649.722825	3771.175808	22812.719281
4.037500	0.000578	0.000905	-0.000299	0.001153	6225.997479	43708.092415	3775.345361	22829.224853
4.535000	0.000212	0.000195	-0.002343	0.000697	6226.721264	43684.222633	3771.462434	22850.347022
5.036000	-0.001166	0.000735	-0.000963	0.000848	6214.443511	43720.846718	3774.465858	22843.364913
5.538000	-0.001965	0.000397	0.003436	0.000180	6213.384391	43751.946747	3786.942295	22874.306870
6.038500	-0.000399	0.000687	-0.001133	0.000842	6220.637107	43716.861216	3774.062626	22843.602970
6.536000	-0.002479	-0.000210	-0.000177	0.000341	6207.978168	43679.484855	3777.634655	22866.823594
7.036500	-0.001062	0.000104	-0.002694	0.000528	6217.841083	43691.505980	3771.016219	22858.161031
7.536500	-0.000076	0.000151	-0.003815	0.000018	6229.874116	43744.132591	3769.529724	22881.849046
8.037000	-0.000497	-0.000348	0.000179	0.000372	6223.631753	43663.665271	3778.435268	22865.414466
8.537000	-0.001337	0.000278	0.003764	0.000172	6218.487098	43741.516654	3787.773789	22874.674155
9.035000	-0.001531	0.000625	0.001561	0.000854	6211.466454	43709.936301	3780.647237	22843.075057
9.537500	0.001162	-0.000521	-0.000412	-0.000604	6244.888653	43739.334150	3779.379684	22910.710596
10.038500	0.000000	0.000730	0.000000	0.000235	6228.741378	43778.270416	3778.332037	22871.784580
10.535500	0.000228	-0.000055	-0.002819	-0.000408	6235.760244	43764.878553	3772.997696	22901.625794
11.036000	0.000214	0.000000	-0.003223	0.000000	6232.359361	43731.504577	3771.014343	22882.666006
11.536500	-0.000490	-0.000208	0.003020	-0.000498	6230.695482	43758.869080	3787.590773	22905.775296
12.036500	-0.002561	0.000472	0.003171	-0.000204	6211.691361	43795.382349	3787.237202	22892.150036
12.536500	0.000220	0.000543	0.005209	0.000124	6231.406420	43771.082522	3791.483839	22876.933329
13.037000	-0.002010	0.000118	0.001508	0.003280	6188.262960	43434.267609	3774.563082	22731.020478
13.537000	-0.000341	-0.000029	0.001752	-0.000928	6235.365470	43816.397680	3785.515979	22925.770403
14.034500	0.001143	0.001733	-0.002520	0.000144	6238.696044	43881.734336	3772.380703	22875.999567
14.538000	0.000829	0.000904	0.004141	0.002869	6214.227596	43546.496247	3782.040347	22749.945102
15.035000	-0.000938	-0.000088	-0.001439	0.003612	6194.156104	43383.886967	3766.563189	22715.724807
15.592000	0.000097	0.000263	-0.004805	-0.000907	6238.728456	43841.959497	3769.368414	22924.787218
16.036500	-0.000849	0.000461	-0.001103	-0.001335	6234.554578	43901.342967	3779.480884	22944.740119
16.536500	0.001324	0.000116	0.003408	-0.001552	6253.877631	43889.164096	3791.169859	22954.803922
17.036500	-0.003923	-0.000150	0.001967	0.002183	6181.767577	43512.006345	3778.377257	22781.597266
17.537000	-0.000417	0.000990	0.004817	-0.000772	6233.492346	43898.084710	3792.736071	22918.520220
18.037000	0.000922	0.000754	0.006905	-0.003098	6263.179365	44096.570597	3803.783937	23026.973006
18.535000	-0.001817	0.000445	0.003825	0.000884	6208.924488	43690.045154	3786.161823	22841.662049
19.035000	-0.002250	0.000024	0.000916	0.001825	6197.943261	43561.884596	3776.676038	22798.131862
19.535500	-0.002394	-0.000118	0.003395	0.000750	6205.389609	43649.703013	3785.431684	22847.897282
20.035500	-0.001513	0.000791	0.004081	0.000700	6212.836896	43740.051452	3787.252298	22850.194873
20.536000	-0.002729	0.000598	-0.003054	0.001095	6199.951715	43684.633049	3768.756912	22831.911444
21.036000	-0.002590	-0.000652	-0.000216	0.000849	6203.028478	43590.158005	3776.295114	22843.306768
21.536000	0.000463	0.000417	-0.000991	0.000434	6230.861445	43729.932220	3775.410722	22862.533704
22.036500	-0.001227	0.000166	0.000267	0.000921	6213.368877	43660.386378	3777.302499	22839.983130
22.536500	0.000898	0.000758	0.001090	0.001329	6227.160110	43677.642782	3778.321898	22821.079349
23.034500	-0.002075	0.000301	0.000016	0.001910	6198.659585	43579.917428	3774.262030	22794.204446
23.535000	-0.001820	0.000610	0.000947	0.001039	6207.666252	43691.057497	3778.684179	22834.515945
24.037500	-0.001987	0.000740	0.001800	0.001157	6205.384372	43692.214549	3780.490592	22829.037242
24.535500	0.000405	0.000347	0.000619	0.000954	6226.205884	43674.294730	3778.084623	22838.432110
25.036000	-0.002788	0.001660	0.003184	0.002611	6187.390505	43641.877139	3780.319435	22761.865575
25.536000	-0.000345	0.000737	0.000271	0.000975	6220.012140	43709.034866	3777.179799	22837.475397
26.036000	0.001131	0.000641	0.001556	0.000971	6231.921306	43700.384370	3780.346564	22837.657356
26.537000	-0.001819	0.000171	0.000910	0.000657	6210.739705	43685.692761	3779.530769	22852.210062
27.036000	-0.000307	0.000833	0.003219	0.001484	6216.226859	43670.070548	3783.179503	22813.886441
27.537000	-0.001180	0.000588	-0.001609	0.001393	6209.961522	43655.656821	3771.554476	22818.129825
28.037500	0.001954	0.001273	-0.001160	0.000189	6244.883465	43833.937149	3775.598490	22873.910950
28.537500	-0.000756	0.000811	0.005897	-0.000860	6231.462202	43889.416545	3795.647006	22922.599151
29.038000	-0.001464	0.000633	0.004187	-0.000719	6224.637660	43859.347939	3791.036728	22916.084052
29.535000	0.000698	0.000636	-0.001032	-0.000703	6241.938869	43857.971947	3778.098154	22915.301379
30.035500	-0.004057	0.000445	-0.003825	0.005053	6157.978741	43299.065203	3757.308137	22649.518551
30.536000	-0.002878	-0.000095	-0.005714	-0.001087	6216.230268	43825.148554	3767.595206	22933.174781
31.036500	-0.002195	0.001164	-0.000170	-0.000459	6216.668818	43884.934237	3779.620177	22903.995971
31.539500	-0.000898	-0.000672	-0.000865	-0.001598	6236.276512	43818.983788	3780.710652	22956.970810
32.037500	-0.003833	0.000414	-0.006237	0.003270	6173.850366	43462.933250	3755.790984	22731.461247
32.537000	-0.001610	0.000785	-0.003401	0.001350	6206.851210	43678.198017	3767.291899	22820.090207
33.062000	-0.004936	0.000923	-0.002695	0.005830	6144.934267	43271.105108	3758.156827	22613.883835
33.538000	0.000332	0.001015	-0.003048	0.000023	6233.118176	43825.206800	3771.384525	22881.594415
34.035500	-0.005057	0.000795	0.000033	0.006664	6137.437819	43181.524765	3762.731576	22575.739644
34.538000	-0.001509	0.000753	0.002123	-0.000131	6219.542463	43814.996931	3784.462704	22888.745301
35.037500	-0.004895	-0.000071	-0.001493	0.003508	6163.561600	43395.225306	3766.686560	22720.505010
35.536000	-0.002751	0.000098	0.000440	0.002307	6190.110490	43523.683467	3774.330696	22775.889764
36.035000	-0.005810	-0.000018	-0.000850	0.002526	6164.092543	43492.185713	3770.641837	22765.759148
36.536500	-0.000608	0.001000	0.000683	0.002783	6203.402599	43563.629970	3773.758338	22753.893185
37.037000	-0.001937	0.000318	-0.004923	0.003510	6187.003687	43431.425517	3758.377111	22720.396571
37.535000	-0.002896	0.000816	0.003060	0.002208	6189.746399	43600.468070	3781.006523	22780.469059
38.035000	-0.002417	0.000071	0.000479	0.001905	6195.980758	43558.921214	3775.408777	22794.464974
38.535000	-0.002813	0.000022	0.001936	0.001906	6192.805079	43554.091755	3778.982373	22794.389018
39.035500	-0.002950	-0.000051	0.002570	0.002946	6183.431258	43449.685841	3777.984095	22746.378504
39.535500	-0.001411	0.001221	0.002824	0.002338	6200.549459	43626.237585	3780.103437	22774.438705
40.036000	-0.001371	-0.000133	-0.003117	0.001355	6208.729423	43591.340142	3767.970569	22819.861987
40.536500	-0.001197	-0.000273	0.001153	0.001418	6209.618577	43572.291690	3778.258551	22816.967118
41.042500	-0.003234	0.000195	0.001667	0.003136	6179.673943	43454.952816	3775.303583	22737.645826
41.537000	-0.000272	0.000770	0.001157	0.001917	6213.036605	43623.438047	3777.042605	22793.898223
42.040000	-0.001707	0.001268	0.007809	0.001830	6202.240364	43678.551450	3793.708219	22797.915373
42.534500	0.000838	0.001138	0.000585	0.001924	6221.888623	43657.441948	3775.623502	22793.580391
43.043500	-0.004235	-0.000003	-0.003107	0.002362	6177.873647	43509.016595	3765.549573	22773.359348
43.535500	-0.001885	0.000817	-0.002845	0.001215	6205.736852	43693.932127	3768.974494	22826.350919
44.035500	-0.001133	0.000605	0.003856	0.001932	6206.014824	43606.539837	3783.648716	22793.203390
44.536000	0.000044	0.000125	0.000720	0.000590	6226.230243	43687.615785	3779.227910	22855.278886
45.036000	-0.002844	0.000919	0.002901	0.002438	6188.324276	43588.446268	3780.047836	22769.846327
45.536000	0.000001	0.000532	0.002143	-0.002126	6247.817240	43983.055066	3789.455334	22981.596711
46.042500	0.001410	0.000795	0.004816	-0.001390	6253.269265	43938.180555	3794.273433	22947.276217
46.540000	0.000060	0.001047	0.001261	-0.001256	6241.249523	43949.309071	3785.111697	22941.022334
47.037000	-0.001636	0.000528	0.004980	0.002888	6194.363174	43509.438419	3784.062690	22749.075680
47.537500	-0.000965	0.001061	0.004570	-0.000939	6230.423637	43920.588553	3792.537425	22926.287791
48.035000	0.000050	0.001177	0.003146	-0.001053	6239.532777	43942.453462	3789.280580	22931.605080
48.535500	-0.000874	0.000588	0.001598	-0.001288	6233.973387	43908.904728	3786.026213	22942.545133
49.035500	-0.001781	0.000698	-0.000008	0.002604	6195.473926	43552.131065	3772.507224	22762.192756
49.535500	-0.001291	0.001282	0.000152	0.002037	6203.912939	43660.349647	3774.285992	22788.358366
50.036000	-0.001246	0.000285	0.004466	0.000077	6219.986892	43751.167829	3789.751583	22879.090051
50.536500	0.001867	0.000272	0.006547	-0.001116	6254.754384	43862.719356	3797.912631	22934.550609
51.036500	-0.001669	-0.000104	-0.000540	0.002512	6197.102972	43485.457784	3771.433205	22766.437828
51.537500	0.001904	0.000857	0.002866	-0.001150	6255.328115	43921.279140	3788.825052	22936.100032
52.037000	-0.002102	-0.000057	-0.000032	0.003050	6189.357950	43439.357062	3771.359651	22741.598270
52.537500	0.004544	0.000146	0.007237	-0.000309	6269.963590	43774.454965	3797.620892	22897.019308
53.035500	0.008000	-0.002460	0.015728	0.135818	5338.303639	32558.198271	3521.004082	17469.509030
53.535000	0.018032	-0.007550	0.003355	0.227887	4889.469355	26584.264619	3347.935964	14653.050855
54.038000	-0.023035	-0.027905	-0.028465	-0.141696	7330.293082	56005.300436	4096.905430	30658.788378
54.536000	-0.032962	-0.040847	-0.023286	-0.184304	7689.767931	59769.758626	4258.066078	33538.144667
55.036000	-0.020602	-0.055389	-0.012508	-0.225124	8335.760565	63325.940447	4453.194778	36574.727645
55.537000	-0.009556	-0.037538	-0.001813	-0.192674	8066.218783	61323.761257	4368.092930	34137.777074
56.037000	-0.010593	-0.035462	-0.008094	-0.189197	8011.045798	61135.049354	4331.279856	33887.265066
56.534500	-0.008965	-0.032423	-0.003079	-0.185630	7987.519420	61064.130174	4336.689919	33632.371393
57.037500	-0.010368	-0.026368	-0.008580	-0.173967	7831.726122	60316.133193	4273.707559	32813.440591
57.535000	-0.011772	-0.021837	-0.012397	-0.167239	7737.093817	60025.642812	4236.225867	32350.910416
58.035500	-0.010880	-0.013853	-0.010328	-0.139417	7436.096045	57468.541117	4148.435108	30512.600107
58.536000	-0.009387	-0.012019	-0.013205	-0.135379	7408.598067	57191.628325	4125.732813	30255.450806
59.036000	-0.005012	-0.009439	-0.013016	-0.129087	7387.999140	56728.304586	4105.994438	29859.470443
59.535500	-0.003166	-0.004634	-0.011060	-0.103010	7135.262605	54148.438304	4030.647513	28278.195373
60.036500	-0.007043	-0.004246	-0.013725	-0.077056	6842.885620	51210.433903	3946.510670	26795.921689
60.536500	-0.008932	-0.004577	-0.017767	-0.074761	6803.450511	50918.298968	3928.617920	26669.056581
61.037000	-0.009034	-0.003101	-0.013609	-0.056050	6630.793219	49044.508413	3888.504035	25659.416643
61.536500	-0.011828	-0.002846	-0.010812	-0.047141	6527.103357	48131.218392	3872.052561	25193.747524
62.037500	-0.016861	-0.003663	-0.021123	-0.049692	6505.463591	48312.711731	3851.497340	25326.088814
62.534500	-0.016546	-0.004184	-0.014237	-0.039545	6420.976472	47207.363403	3842.968210	24804.218859
63.035500	-0.013154	-0.002410	-0.018990	-0.028140	6353.506514	46232.408988	3801.638534	24231.924837
63.536000	-0.020459	-0.006064	-0.013499	-0.018293	6213.218724	44901.686513	3790.757452	23749.810223
64.036000	-0.016270	-0.003857	-0.012863	0.023606	5923.590183	41220.666019	3692.922062	21816.316742
64.536500	-0.021681	-0.008436	-0.014297	0.044794	5733.908962	39004.969285	3643.102711	20907.313589
65.036500	-0.020916	-0.008273	-0.020131	0.030726	5838.250719	40212.406566	3660.936933	21505.892666
65.536500	-0.023748	-0.012669	-0.012139	0.038272	5764.868199	39196.501746	3661.911318	21182.403428
66.037000	-0.024562	-0.009324	-0.021350	0.063742	5586.680668	37386.499223	3588.953235	20131.103866
66.556500	-0.024787	-0.008562	-0.013048	0.071186	5536.700807	36857.880392	3590.690225	19835.347221
67.035500	-0.022310	-0.007794	-0.020119	0.082457	5480.452397	36042.981319	3554.323881	19397.015592
67.536000	-0.022006	-0.006700	-0.015805	0.083832	5473.681562	36021.511591	3560.050024	19344.333131
68.046500	-0.025572	-0.004026	-0.015866	0.084691	5445.870384	36160.809510	3558.252700	19311.489358
68.541500	-0.024160	-0.003482	-0.021202	0.081304	5476.042298	36464.522543	3554.460317	19441.335335
69.036000	-0.028167	-0.002530	-0.024141	0.084627	5430.091597	36280.935141	3542.390349	19313.907509
69.539500	-0.024061	-0.001640	-0.022242	0.076545	5506.923124	36980.783772	3561.711670	19625.520917
70.037000	-0.022944	-0.001346	-0.022393	0.074091	5529.846324	37198.013018	3566.233142	19721.281119
70.537500	-0.022544	-0.000536	-0.017738	0.070473	5555.864666	37550.982051	3582.673273	19863.448544
71.038000	-0.024502	-0.000066	-0.016349	0.071052	5539.407699	37542.259137	3584.301627	19840.618218
71.535000	-0.022264	0.000235	-0.021110	0.062074	5612.881970	38293.418629	3592.818500	20198.083646
72.035000	-0.023285	-0.000174	-0.019477	0.058120	5632.415948	38584.701569	3604.232039	20357.896398
72.535000	-0.021134	0.000939	-0.021555	0.051670	5690.451610	39214.049620	3613.264104	20621.692043
73.036000	-0.027877	0.001241	-0.018768	0.051169	5648.220921	39281.583485	3620.119281	20642.369045
73.536000	-0.022490	0.001244	-0.018437	0.040599	5757.405695	40181.659056	3643.218490	21083.752023
74.036500	-0.022735	0.002119	-0.019622	0.034433	5798.962304	40793.389030	3653.969952	21346.270656
74.536500	-0.022331	0.002218	-0.012360	0.027850	5848.717405	41383.180193	3684.502412	21630.650024
75.037000	-0.026000	0.003131	-0.021742	0.027247	5826.784401	41518.279034	3665.029696	21656.938808
75.537500	-0.022810	0.002469	-0.019949	0.014764	5940.558972	42587.812883	3696.898908	22208.962699
76.040500	-0.021575	0.003175	-0.015044	0.007908	6000.916733	43287.401374	3723.954151	22518.958517
76.535000	-0.022190	0.002723	-0.017720	0.001156	6047.457568	43879.570747	3733.501029	22829.068166
77.035000	-0.023085	0.003176	-0.019665	0.000505	6045.591558	43984.225136	3730.458976	22859.224776
77.535000	-0.022853	0.002342	-0.021273	-0.011715	6142.012153	45079.420943	3755.670247	23433.783295
78.036000	-0.022359	0.002832	-0.018425	-0.016687	6185.224834	45615.111907	3774.645570	23672.241516
78.536000	-0.021891	0.002011	-0.021636	-0.021736	6229.381662	46034.395205	3779.154734	23917.148846
79.039500	-0.025749	0.001802	-0.029160	-0.020527	6188.799141	45893.381173	3757.897398	23858.261114
79.536500	-0.023212	0.002090	-0.019634	-0.028643	6274.669992	46736.140695	3801.283603	24256.860865
80.037000	-0.021036	0.002800	-0.026122	-0.030925	6311.237978	47040.253414	3790.781655	24370.317354
80.540000	-0.021545	0.003207	-0.027998	-0.032763	6322.216932	47269.706741	3790.687289	24462.101711
81.035000	-0.024236	0.003159	-0.030040	-0.028465	6264.879115	46826.442369	3775.042726	24248.033977
81.535000	-0.021623	0.001873	-0.021336	-0.036458	6352.252330	47512.382502	3816.737782	24647.839901
82.035500	-0.021151	0.002083	-0.023504	-0.036068	6352.930807	47493.885311	3810.244816	24628.152943
82.536000	-0.023104	0.002158	-0.023450	-0.037812	6351.192469	47681.596663	3814.805140	24716.294325
83.036000	-0.021278	0.002272	-0.022778	-0.037969	6367.758283	47709.712691	3816.911554	24724.239822
83.536000	-0.023210	0.002661	-0.023748	-0.037364	6346.579597	47687.341876	3812.910300	24693.607097
84.036500	-0.024886	0.001725	-0.023066	-0.037390	6332.860204	47593.252144	3814.706195	24694.916898
84.537000	-0.023678	0.001232	-0.021498	-0.037185	6341.186220	47521.175875	3818.173255	24684.528221
85.037000	-0.025368	0.000998	-0.022690	-0.030488	6272.139045	46812.524623	3798.249453	24348.528511
85.537500	-0.022637	0.001946	-0.019756	-0.034408	6326.789882	47309.054063	3815.539187	24544.583546
86.035000	-0.023655	0.001291	-0.022142	-0.032989	6306.665374	47096.817095	3805.907566	24473.426257
86.535500	-0.021637	0.001308	-0.024998	-0.031841	6313.838197	46981.469599	3795.863246	24415.994694
87.035000	-0.026099	0.000458	-0.025864	-0.025300	6224.203360	46235.266680	3777.524659	24091.787495
87.535500	-0.024140	0.000340	-0.022649	-0.029371	6273.043565	46632.828350	3795.560834	24293.010832
88.036000	-0.023034	0.000713	-0.023942	-0.027374	6265.782746	46469.039807	3787.378596	24194.045413
88.536500	-0.026004	0.000135	-0.023283	-0.027404	6241.933286	46413.868964	3789.087406	24195.525624
89.039500	-0.027944	0.000413	-0.021973	-0.020551	6171.555986	45757.910241	3775.417263	23859.391813
89.537000	-0.024141	0.001509	-0.021820	-0.024122	6230.477146	46222.505840	3784.582236	24033.902982
90.043000	-0.023361	0.000861	-0.019486	-0.024170	6237.153018	46162.554097	3790.483151	24036.245841
90.534500	-0.024324	0.000175	-0.024055	-0.024226	6229.841358	46099.646516	3779.330470	24039.020295
91.035000	-0.028793	-0.000743	-0.028574	-0.019210	6154.243709	45511.402532	3756.136671	23794.247432
91.535000	-0.025208	0.000766	-0.024158	-0.022365	6207.795801	45973.009224	3774.509513	23947.873138
92.036000	-0.024962	0.000784	-0.019222	-0.021973	6206.618892	45935.806576	3785.692610	23928.705187
92.536000	-0.026492	0.000881	-0.022199	-0.021042	6186.985751	45853.050494	3776.068065	23883.333857
93.037500	-0.020498	0.001435	-0.018367	-0.019960	6226.301440	45800.685909	3782.831647	23830.687071
93.536500	-0.023621	0.001090	-0.017917	-0.019968	6201.315586	45767.222577	3783.961869	23831.059261
94.037000	-0.020975	0.001612	-0.022341	-0.019324	6217.347542	45755.206212	3771.517587	23799.790329
94.537000	-0.023534	0.000452	-0.022858	-0.019678	6199.692222	45675.439276	3771.120276	23816.966187
95.037500	-0.021396	0.000670	-0.019031	-0.019862	6218.292676	45715.187602	3780.953556	23825.913307
95.535000	-0.023931	-0.000064	-0.023160	-0.019236	6192.999452	45580.896958	3769.305600	23795.516173
96.035500	-0.022987	0.000243	-0.023340	-0.020314	6209.153348	45717.631748	3771.495347	23847.882963
96.535500	-0.025471	-0.000830	-0.023383	-0.022121	6203.736798	45790.360847	3775.809755	23935.945777
97.036000	-0.024753	-0.001017	-0.019640	-0.022260	6210.598792	45785.568851	3785.368199	23942.723304
97.536500	-0.024566	-0.000465	-0.022764	-0.021569	6206.559503	45771.794387	3775.976401	23909.014081
98.036000	-0.023264	-0.000665	-0.025313	-0.023927	6235.976307	45986.067557	3775.506672	24024.341553
98.537000	-0.024011	-0.000286	-0.020927	-0.025102	6239.438357	46141.075543	3789.221605	24082.056892
99.034000	-0.023882	0.000115	-0.023059	-0.025328	6242.304492	46203.672593	3784.499369	24093.133933
99.540000	-0.023497	0.000420	-0.021766	-0.023538	6230.967426	46055.402113	3783.273197	24005.284301
100.037500	-0.023151	0.000797	-0.017853	-0.026595	6258.491788	46399.087779	3800.613196	24155.555597
100.535000	-0.024724	0.000708	-0.021923	-0.027343	6251.798622	46465.367436	3792.313972	24192.494699
101.035500	-0.026438	0.001242	-0.020069	-0.022261	6197.130147	46010.026018	3784.310930	23942.778020
101.535500	-0.026061	0.000609	-0.021646	-0.026234	6232.023828	46344.014367	3790.244981	24137.769767
102.036000	-0.022546	0.000850	-0.019282	-0.029823	6289.767239	46730.114980	3805.138283	24315.458260
102.536000	-0.023647	0.000523	-0.021102	-0.030929	6289.816203	46809.042317	3803.341492	24370.525541
103.036500	-0.025709	0.000444	-0.021732	-0.024877	6223.933787	46191.579104	3786.667907	24070.985595
103.536500	-0.026807	0.000069	-0.022146	-0.028227	6242.092629	46490.116003	3793.962312	24236.260866
104.037500	-0.025277	0.000224	-0.019909	-0.031830	6283.842177	46870.148658	3808.617667	24415.457065
104.534500	-0.023369	0.000330	-0.022189	-0.032717	6306.778075	46971.085486	3805.102667	24459.775937
105.037500	-0.026271	0.000467	-0.025241	-0.027626	6241.563909	46469.635948	3784.785772	24206.487994
105.535500	-0.026762	-0.000050	-0.021552	-0.030514	6260.990917	46708.927254	3801.165121	24349.804500
106.035500	-0.024553	0.000778	-0.020198	-0.033601	6304.315360	47106.985656	3812.371216	24504.100492
106.536000	-0.024147	0.000111	-0.021681	-0.034892	6318.305858	47170.725988	3811.882483	24568.925993
107.036500	-0.026998	0.000540	-0.017831	-0.028591	6243.485650	46574.206474	3805.687350	24254.269448
107.536500	-0.025368	-0.000352	-0.027007	-0.031615	6281.339442	46789.842783	3790.296071	24404.705854
108.068500	-0.025540	-0.000065	-0.025298	-0.036508	6320.143259	47318.182651	3806.824561	24650.344777
108.533500	-0.024554	-0.000317	-0.020531	-0.036634	6329.350771	47305.307076	3819.236308	24656.700838
109.039500	-0.028358	-0.000825	-0.024903	-0.031476	6255.851104	46727.907920	3795.189602	24397.777445
109.537500	-0.024260	0.000353	-0.024685	-0.036660	6332.004548	47376.743734	3808.754414	24658.024630
110.034500	-0.024809	-0.000614	-0.024144	-0.037243	6332.276591	47337.224090	3811.598559	24687.460209
110.538000	-0.024461	0.000058	-0.023362	-0.036529	6329.251658	47333.038745	3811.772263	24651.413840
111.066000	-0.027313	-0.000773	-0.021373	-0.031438	6264.035169	46729.371511	3803.940514	24395.905560
111.536000	-0.024088	-0.000920	-0.018491	-0.037564	6340.941549	47338.865660	3826.838821	24703.738791
