sample name	sample
index	352
start time	 03-01-2021  12:07:10 PM
880	0.256486
Peak Time (s)	92.538
Peak Height 	0.2565
calc peak height	90,93
Baseline Time (s)	10.034
Baseline Value 	-0.002742
subtract baseline	10,4
Abs	0.186935
Peak Time (s)	92.038
Peak Height 	0.1869
calc peak height	90,93
Baseline Time (s)	9.54
Baseline Value 	0.001088
subtract baseline	10,3
PK_550	0.103770
Peak Time (s)	92.538
Peak Height 	0.1038
calc peak height	90,93
Baseline Time (s)	9.54
Baseline Value 	1.2144E-4
subtract baseline	10,2
PK_880	0.178178
Peak Time (s)	92.038
Peak Height 	0.1782
calc peak height	90,93
Baseline Time (s)	11.037
Baseline Value 	2.787E-4
subtract baseline	10,1


Time (s)	A880-A510	A880-A775	A880-A975	A880	I510	I775	I975	I880	
0.036500	-0.003010	-0.000067	-0.001360	0.007607	6851.520291	47414.055092	3988.206999	24996.440719
0.537000	0.000028	0.000835	-0.003458	0.005103	6902.568659	47764.571264	3989.273357	25124.422479
1.037500	-0.002825	-0.000478	-0.001826	0.003528	6890.732172	47791.631993	3997.717882	25205.247383
1.535000	-0.001065	-0.000291	-0.001565	0.001362	6927.182665	48035.558629	4004.153215	25316.977180
2.035000	-0.002636	-0.001181	-0.002477	0.003602	6891.798802	47711.401595	3995.803125	25201.472385
2.538000	0.001470	-0.000117	-0.004497	0.000904	6955.185152	48101.288032	3997.592118	25340.636616
3.035500	-0.000064	-0.000083	-0.000303	-0.001166	6960.226445	48320.839347	4014.273414	25448.037242
3.536000	-0.002139	0.000147	0.001021	0.001052	6920.064290	48113.328493	4011.877137	25332.995776
4.036000	0.000519	0.000426	-0.004092	0.001497	6940.724731	48096.132404	3997.098857	25310.002143
4.536500	-0.000272	-0.000297	0.001979	0.000878	6939.111001	48085.289736	4014.910995	25342.007480
5.040000	-0.001072	-0.000660	-0.001762	0.000357	6936.505447	48101.714506	4006.305384	25369.006287
5.537000	-0.000844	-0.000626	-0.000246	0.000372	6938.490777	48103.730603	4010.308515	25368.219893
6.037000	-0.002349	-0.000799	-0.000742	-0.000476	6932.348664	48174.012517	4011.250539	25412.190069
6.534500	0.001015	0.000403	0.000648	0.001020	6949.833722	48143.423631	4010.967888	25334.672802
7.035000	-0.000974	-0.000625	0.001642	-0.000089	6941.591800	48151.834239	4016.604107	25392.118380
7.535500	0.001680	-0.000016	-0.000521	0.000385	6962.039488	48165.839491	4009.537734	25367.525267
8.036000	0.000699	-0.000078	-0.001334	0.000408	6952.610576	48157.095318	4007.308929	25366.365270
8.536000	0.000678	0.000020	-0.001125	0.000513	6951.422945	48156.222411	4007.583386	25360.883138
9.036000	-0.000659	0.000011	-0.003771	0.000515	6938.881302	48155.064884	4000.544142	25360.785583
9.539500	-0.000175	0.000000	0.000000	-0.000177	6949.901461	48226.181123	4012.435672	25396.681040
10.034500	-0.000778	-0.000528	0.003041	0.000000	6942.588912	48152.637071	4020.129246	25387.492641
10.537000	0.001035	-0.000047	-0.000472	-0.000381	6963.180773	48242.558249	4011.718237	25407.250500
11.037500	0.000000	-0.000226	0.001771	-0.000402	6953.653243	48226.049341	4017.791427	25408.355482
11.534500	0.001124	0.000118	0.002318	0.000065	6959.826483	48213.245288	4018.009164	25384.135069
12.035500	0.000287	0.000294	-0.002833	0.000215	6950.555481	48215.896857	4003.831266	25376.335672
12.535500	-0.002216	0.000156	0.001658	0.002784	6903.259142	47934.377226	4008.952982	25243.601204
13.035000	0.000866	-0.000520	-0.000490	-0.001505	6972.173112	48310.624644	4014.682361	25465.676796
13.536000	-0.000861	0.000017	0.000487	-0.000594	6947.375850	48271.511844	4014.860731	25418.336141
14.039500	-0.001546	0.000333	0.002030	0.001039	6925.707921	48134.122540	4014.615951	25333.677343
14.541000	-0.001274	-0.000469	-0.000884	0.002493	6914.712713	47899.769788	4002.958528	25258.601903
15.037000	0.001356	0.000334	0.006178	0.000275	6960.027081	48213.774595	4027.868058	25373.222932
15.545000	-0.001025	-0.000556	-0.000545	-0.000375	6943.786968	48188.873116	4011.506060	25406.961393
16.037500	0.003188	0.000556	0.002610	0.000514	6975.043792	48212.122404	4017.587667	25360.875944
16.535500	-0.001709	-0.000409	-0.005916	0.004865	6888.692838	47660.780058	3983.460870	25136.597254
17.035500	0.001711	0.000705	-0.000828	0.000350	6962.662133	48244.739069	4008.813981	25369.360727
17.541500	-0.000348	0.000470	0.000403	-0.000026	6946.865757	48259.533017	4013.111639	25388.846358
18.036000	-0.001408	0.000466	-0.003189	0.000454	6932.459141	48208.951580	4002.251455	25363.977861
18.536000	0.000444	0.000171	-0.002499	0.002486	6930.780638	47966.868738	3998.694832	25258.953096
19.036500	-0.000040	0.000325	-0.000904	0.001850	6932.191792	48048.870968	4004.612875	25291.734691
19.536500	0.000719	0.000167	-0.000389	0.000943	6947.782728	48126.817732	4008.401883	25338.655866
20.037500	-0.001316	0.001134	0.004807	0.002326	6915.871242	48083.523635	4018.623660	25267.212058
20.537500	-0.000634	-0.000400	-0.001023	0.001192	6932.794180	48041.896047	4006.048658	25325.779527
21.038000	-0.001286	-0.000263	-0.005415	0.001416	6924.616093	48032.830375	3993.820374	25314.186298
21.535000	0.000643	0.000665	-0.000657	0.001923	6937.897184	48076.691170	4005.077268	25287.996994
22.035500	-0.001966	-0.000092	-0.003265	0.001350	6918.895138	48057.493083	3999.674330	25317.587816
22.536000	-0.000545	0.000439	-0.000274	0.002010	6925.981990	48044.051415	4005.863455	25283.470156
23.036000	0.000333	0.000184	-0.000392	0.001593	6938.081033	48060.911265	4006.660383	25305.046298
23.536500	-0.001248	-0.000503	-0.001518	0.000861	6930.142429	48065.547968	4005.611531	25342.874076
24.036500	-0.002496	-0.000503	0.000846	0.000912	6918.037803	48060.225713	4011.782995	25340.222557
24.537000	-0.000573	-0.000468	0.002005	0.001793	6927.754469	47972.423611	4012.529143	25294.699498
25.037500	-0.001186	0.000433	-0.001878	0.001938	6920.681748	48050.930536	4001.791796	25287.192455
25.537500	-0.000353	0.000302	0.001850	0.001815	6929.596762	48050.063451	4012.054680	25293.558932
26.035000	-0.000840	0.000143	-0.004058	0.001837	6924.859479	48031.348657	3996.291032	25292.451574
26.535500	0.001031	-0.000504	-0.003896	0.001180	6948.483834	48032.339814	3998.452979	25326.370489
27.035000	-0.001154	-0.000192	-0.000184	0.001288	6927.044469	48053.530084	4008.027725	25320.794025
27.536000	-0.001563	-0.000177	0.000461	0.001553	6920.768114	48027.610623	4009.044267	25307.121984
28.039000	0.002405	0.000074	-0.000091	-0.002216	6993.441573	48447.180593	4017.660551	25502.681894
28.536500	0.000839	-0.000080	-0.000433	-0.000109	6958.778184	48210.690802	4011.094788	25393.125570
29.037000	0.001089	0.000426	-0.001711	0.000241	6957.843080	48227.039802	4006.748966	25374.992091
29.537000	-0.000110	-0.000193	-0.006162	0.003320	6917.844566	47842.689178	3986.857542	25215.995793
30.037500	-0.000047	0.000458	0.003153	-0.000077	6950.170145	48263.603975	4020.640150	25391.508913
30.535000	0.000384	-0.000482	0.000650	-0.000448	6957.685516	48204.103352	4014.902956	25410.718642
31.035000	0.000975	0.000180	-0.001248	-0.000001	6959.038715	48226.609904	4008.628107	25387.538512
31.541000	-0.002351	0.000582	-0.004471	0.005112	6880.478634	47737.492902	3986.591796	25123.917876
32.036000	0.000808	-0.000233	-0.002356	0.002874	6930.551531	47884.727877	3998.046957	25238.942317
32.539000	-0.001764	0.000009	0.001355	0.005261	6884.531115	47663.016579	4001.552868	25116.319662
33.036500	0.002624	0.000311	0.002745	0.000143	6973.216421	48225.246784	4018.948312	25380.088384
33.536500	-0.004511	-0.000042	-0.002217	0.004767	6863.789990	47708.768757	3993.416316	25141.632868
34.037000	0.000588	0.000529	-0.000550	0.000470	6950.988694	48213.836961	4009.235477	25363.148567
34.537500	-0.000565	0.000709	0.000590	0.004469	6902.950438	47817.086784	4001.626131	25156.944570
35.037000	0.002488	0.000778	0.001316	-0.001032	6983.026716	48396.915144	4018.263032	25441.051108
35.535500	-0.000167	-0.000548	-0.003819	0.002583	6924.170577	47882.217116	3994.950751	25253.945903
36.035500	0.001651	0.000584	-0.000438	0.002386	6942.992974	48020.079075	4004.427964	25264.105092
36.536000	-0.001966	-0.000303	0.000423	0.002123	6911.716386	47955.333212	4007.420423	25277.681502
37.036500	-0.002068	-0.000036	0.001740	0.002170	6910.324600	47978.129219	4010.810933	25275.236819
37.536000	-0.000565	0.000761	0.005399	0.004036	6906.961416	47867.332421	4015.616639	25179.181467
38.036500	-0.001478	0.000008	-0.001694	0.002371	6913.942632	47961.833100	4001.133180	25264.891700
38.537000	-0.000422	0.000298	0.000481	0.002442	6923.113088	47984.518584	4006.723644	25261.210101
39.037000	-0.002139	0.000145	-0.000093	0.002163	6909.735601	47997.651332	4005.940538	25275.619235
39.534000	-0.001538	-0.000536	-0.000062	0.001573	6920.816287	47988.191376	4007.594282	25306.088956
40.035000	0.000059	-0.000109	0.002177	0.001996	6931.754132	47988.577036	4012.444313	25284.210081
40.535500	-0.002108	-0.000072	0.000086	0.001834	6913.080158	48009.303204	4007.294126	25292.596774
41.035500	0.000464	0.000452	0.000140	0.002526	6930.595307	47991.878561	4005.594180	25256.899039
41.535500	0.000672	0.000725	-0.000809	0.002620	6931.651313	48010.392122	4002.819837	25252.020624
42.039000	-0.000420	0.000296	0.002999	0.002541	6922.205356	47974.054416	4013.188878	25256.110714
42.536500	-0.001069	-0.000197	-0.002150	0.002175	6919.572231	47960.857177	4000.441669	25274.968287
43.036500	-0.000989	0.000414	0.002278	0.002517	6917.129725	47988.776787	4011.319962	25257.322125
43.537000	-0.002281	-0.000449	0.000755	0.002005	6909.878293	47952.316198	4008.620136	25283.731049
44.037500	-0.000442	-0.000329	0.001366	0.002215	6925.036559	47943.031036	4009.688750	25272.891974
44.537500	-0.002267	-0.000052	0.004348	0.002832	6902.338415	47907.774795	4016.025431	25241.094465
45.038500	-0.000777	-0.000062	0.002755	0.001472	6928.838886	48047.905483	4015.399660	25311.287580
45.535000	-0.002189	-0.000308	0.001119	0.004026	6892.015705	47757.808746	4004.206853	25179.689347
46.035500	0.003359	0.000682	0.001810	0.000337	6978.317497	48243.707555	4015.911080	25370.008933
46.563500	-0.002426	-0.000557	-0.001131	0.001647	6911.858139	47978.322671	4004.549906	25302.232227
47.036000	0.001434	-0.000023	0.003110	-0.000098	6964.275615	48215.507535	4020.580866	25392.591547
47.537000	-0.005059	0.000279	-0.002113	0.005853	6848.814486	47629.809029	3990.833786	25085.996040
48.037000	-0.000824	-0.000558	-0.005153	-0.000274	6944.726519	48178.064103	3998.975227	25401.697254
48.559500	-0.002785	-0.000641	-0.003952	0.005841	6869.781111	47536.442696	3986.043331	25086.614345
49.037500	-0.001709	-0.000290	0.001293	0.002396	6911.559564	47928.277902	4009.011130	25263.561055
49.537500	-0.001317	-0.000020	-0.002549	0.004680	6894.020354	47719.996023	3992.772435	25146.090907
50.063500	-0.001236	0.000840	0.003435	0.000930	6929.613165	48198.324630	4018.686250	25339.312861
50.535000	-0.001159	0.000080	-0.004145	0.006593	6877.818779	47533.189548	3983.571468	25048.162763
51.038500	0.000497	-0.000014	0.001484	0.000126	6953.364549	48193.113832	4015.603866	25380.984515
51.536000	-0.003603	-0.000749	-0.000554	0.004205	6877.307155	47693.733182	3999.291909	25170.456458
52.036500	0.000946	-0.000137	0.004279	0.000482	6954.237844	48143.136721	4022.169629	25362.509205
52.536500	-0.004557	-0.001598	0.002812	0.008834	6826.212886	47132.330308	3995.954297	24934.015473
53.037000	-0.006534	-0.008193	0.015141	0.310678	4838.881523	24639.691354	3438.136307	13878.889560
53.537000	-0.020575	-0.013892	-0.012846	0.128602	5765.803402	35533.332077	3688.829902	19615.008610
54.035000	-0.020709	-0.083039	-0.012252	-0.219473	9313.820340	64932.224112	4722.757763	40197.634578
54.535000	-0.093104	-0.275177	-0.076649	-0.415810	11439.797699	65535.000000	5387.759666	61536.181083
55.035500	-0.086659	-0.303812	-0.065433	-0.444445	12160.169916	65535.000000	5631.687871	65535.000000
55.538500	-0.005539	-0.159690	0.010307	-0.300323	10906.577732	65535.000000	5226.370746	47836.567452
56.036000	-0.009097	-0.102201	0.007086	-0.242835	9853.639448	65535.000000	4916.291470	42260.809911
56.536000	-0.014731	-0.075626	0.000982	-0.213080	9307.676893	65078.075203	4752.496358	39652.090629
57.036500	-0.006236	-0.063238	0.001679	-0.199080	9226.671341	64847.715039	4695.089366	38485.139324
57.536500	0.000981	-0.056558	0.004479	-0.192210	9231.745539	64820.588667	4677.873410	37926.098380
58.037000	0.013685	-0.051666	0.011704	-0.188325	9362.121845	64964.458871	4691.992781	37613.888833
58.537500	0.022142	-0.040199	0.017874	-0.173392	9266.122557	64471.041423	4655.184353	36439.329446
59.034500	0.030087	-0.028306	0.022579	-0.157620	9152.000990	63923.532399	4609.756716	35241.942987
59.535500	0.029980	-0.005295	0.023654	-0.117504	8596.924749	61566.643782	4458.422565	32385.240083
60.035500	0.038248	-0.002210	0.033346	-0.098071	8451.738655	59399.111547	4422.735357	31093.423669
60.535500	0.045521	0.010881	0.037655	-0.055085	8011.651693	55640.452752	4288.685691	28433.237607
61.036000	0.048823	0.014538	0.042646	-0.061554	8128.488947	56884.740201	4327.169724	28816.949734
61.536500	0.051525	0.020132	0.047985	-0.024841	7732.904870	53151.438326	4224.183475	26713.268457
62.036500	0.055632	0.025045	0.055883	0.004238	7461.553701	50431.431102	4158.751492	25168.779250
62.537000	0.057047	0.029559	0.061161	0.015442	7359.379393	49704.771994	4141.009225	24600.750150
63.037000	0.066099	0.033070	0.067548	0.027758	7325.817813	48765.364354	4123.496573	23993.032134
63.539000	0.065126	0.036330	0.063059	0.031436	7278.419988	48721.200243	4099.762124	23814.813406
64.035000	0.068820	0.040028	0.067176	0.024500	7387.486725	49857.157086	4131.989640	24152.096146
64.535500	0.073641	0.044759	0.070221	0.016333	7524.410738	51272.670361	4165.528208	24556.173699
65.035500	0.075778	0.045936	0.074985	0.019686	7511.419181	51030.917917	4169.814007	24389.377974
65.579500	0.074495	0.047593	0.076588	0.028259	7407.432275	50270.455374	4148.792431	23968.658281
66.036000	0.081809	0.049962	0.080814	0.029193	7474.481521	50427.301147	4158.679056	23923.320634
66.536500	0.082741	0.051634	0.078667	0.039759	7373.611893	49463.751281	4120.911788	23417.175868
67.036500	0.086182	0.052629	0.085410	0.043038	7375.286692	49219.557601	4131.092028	23262.586682
67.537000	0.085808	0.053689	0.085039	0.055318	7246.116298	48038.078673	4094.299231	22693.928777
68.037000	0.089681	0.054991	0.087107	0.057649	7261.649722	47931.252710	4093.546783	22587.782151
68.535000	0.088933	0.056206	0.087149	0.069028	7140.897392	46889.404699	4061.490716	22077.698177
69.035500	0.093559	0.057200	0.092355	0.071345	7163.637336	46755.645083	4069.580688	21975.501773
69.538000	0.095285	0.058968	0.097616	0.083100	7065.768234	45758.551702	4051.472009	21465.151613
70.036000	0.097471	0.060483	0.099234	0.085530	7063.423408	45668.366959	4049.227419	21361.392098
70.536000	0.097722	0.060643	0.099456	0.096159	6964.568805	44649.587967	4020.819725	20914.212402
71.036500	0.099783	0.062633	0.101158	0.098347	6963.373911	44630.588679	4019.510755	20823.515339
71.536500	0.102168	0.063448	0.107091	0.109011	6886.208285	43694.768412	4006.834019	20387.903959
72.036500	0.105337	0.063656	0.105506	0.109651	6909.622506	43654.123595	4000.917698	20362.088885
72.537000	0.105051	0.064703	0.106189	0.118231	6828.126970	42953.249382	3980.170440	20019.812882
73.041000	0.108718	0.066060	0.111341	0.120814	6838.003571	42840.400324	3986.880833	19918.097855
73.538000	0.108399	0.067403	0.111855	0.129280	6758.680376	42190.561469	3966.245516	19588.896157
74.038000	0.113518	0.069007	0.115318	0.131710	6782.785821	42115.821968	3968.903185	19495.559246
74.535500	0.114931	0.069387	0.121761	0.136096	6756.144883	41755.860031	3974.218659	19328.486267
75.035500	0.117039	0.070907	0.117699	0.140411	6736.474637	41506.518762	3952.732173	19165.694181
75.536500	0.115919	0.072443	0.118918	0.148170	6658.374203	40957.248325	3936.244033	18877.078286
76.036500	0.120006	0.073244	0.123153	0.149548	6682.030970	40906.639001	3943.415135	18826.341382
76.536500	0.117866	0.073628	0.125989	0.157788	6592.165494	40225.218218	3929.888864	18526.345118
77.037000	0.123907	0.075035	0.130763	0.158005	6642.320409	40327.596225	3941.282572	18518.520601
77.537500	0.122505	0.075563	0.126430	0.164599	6573.629616	39808.463992	3914.158887	18282.664598
78.037500	0.126338	0.075635	0.132052	0.165600	6597.809816	39729.601932	3925.545004	18247.159920
78.535000	0.125925	0.077389	0.135004	0.175469	6510.753754	39047.738122	3908.542946	17901.558354
79.035500	0.129390	0.077855	0.134748	0.174232	6550.313373	39189.769111	3910.938552	17944.442077
79.535500	0.129397	0.079425	0.133668	0.181983	6485.389185	38676.888840	3889.575128	17677.721181
80.036000	0.135233	0.080245	0.134170	0.182821	6527.164376	38675.434533	3888.771142	17649.172530
80.536000	0.132750	0.080315	0.140422	0.190716	6440.968664	38036.496739	3884.845834	17382.830742
81.036500	0.137118	0.080856	0.140436	0.189760	6484.921879	38157.852518	3887.161189	17414.818062
81.537000	0.136281	0.082395	0.143526	0.196140	6425.462167	37766.936673	3879.328477	17202.639688
82.037000	0.142278	0.082572	0.148931	0.197107	6466.800391	37703.557537	3889.907887	17170.751001
82.537500	0.143045	0.084046	0.148330	0.200683	6443.656335	37535.537122	3879.948396	17053.447627
83.035000	0.146132	0.084830	0.149298	0.203805	6443.365517	37349.551771	3874.849591	16951.812795
83.535000	0.143458	0.084758	0.153510	0.207077	6394.875371	37085.264741	3877.072009	16846.084170
84.035500	0.149108	0.086479	0.151725	0.210435	6413.487041	36956.633195	3864.974999	16738.398110
84.535000	0.148671	0.087380	0.154948	0.216327	6362.321920	36567.393235	3858.753340	16551.454076
85.036000	0.150313	0.088743	0.157841	0.216275	6375.945708	36677.343915	3865.621135	16553.098916
85.536000	0.155767	0.089561	0.160929	0.220010	6389.822764	36451.155345	3864.108113	16435.876425
86.037000	0.155789	0.090712	0.162568	0.221489	6378.061823	36425.853595	3864.483787	16389.750367
86.536500	0.160418	0.091676	0.158410	0.223631	6398.163108	36335.032996	3849.865836	16323.206635
87.037000	0.158443	0.093004	0.163432	0.227224	6353.306805	36161.125808	3853.163323	16212.327725
87.540500	0.160826	0.093923	0.167787	0.232275	6332.016851	35846.135356	3851.555419	16057.997471
88.036500	0.162987	0.094842	0.170876	0.232154	6350.220506	35925.077158	3858.990081	16061.673624
88.535000	0.165028	0.095665	0.170154	0.235060	6343.303471	35767.024124	3850.589434	15973.645676
89.036000	0.167699	0.097118	0.172236	0.237529	6344.914779	35690.185670	3849.698208	15899.337710
89.536000	0.169539	0.099265	0.175286	0.242561	6319.519576	35473.112193	3845.143755	15749.184332
90.039000	0.171300	0.098927	0.175208	0.242155	6336.737433	35478.188846	3845.896358	15761.235683
90.536500	0.169270	0.100300	0.176772	0.249133	6265.716983	35060.344402	3833.552295	15555.677547
91.036500	0.174217	0.100715	0.179244	0.246081	6328.715823	35318.229561	3846.150984	15645.195841
91.537000	0.175474	0.101655	0.184992	0.249771	6309.433186	35113.548568	3850.884254	15537.060285
92.037500	0.178178	0.102984	0.186935	0.250410	6325.792918	35164.789628	3853.896096	15518.435475
92.537500	0.177212	0.103770	0.182099	0.256486	6270.318936	34774.129876	3828.973346	15342.647684
93.035000	0.183300	0.105145	0.188910	0.255244	6328.072327	34966.696213	3847.303068	15378.359044
93.535500	0.183077	0.105577	0.191141	0.257808	6305.999595	34809.704796	3846.539413	15304.712734
94.035500	0.185532	0.107131	0.194351	0.259389	6312.904328	34807.715212	3850.286730	15259.503384
94.536000	0.183160	0.106639	0.186753	0.263978	6258.275527	34436.549118	3822.593837	15129.244761
95.036500	0.186370	0.108331	0.194666	0.263487	6287.217961	34595.516221	3841.608167	15143.111088
95.536500	0.189106	0.109493	0.193329	0.266297	6286.629654	34475.435707	3832.178498	15063.916283
96.033500	0.188740	0.109806	0.191983	0.266623	6281.201444	34474.480055	3828.402641	15054.762810
96.548000	0.191225	0.110618	0.199431	0.269203	6280.463331	34346.187367	3839.437287	14982.571530
97.037500	0.192232	0.112339	0.196743	0.271230	6272.479716	34324.017566	3828.747794	14926.151434
97.534500	0.194525	0.112912	0.202160	0.275199	6259.392207	34079.191693	3832.018238	14816.416580
98.034500	0.196052	0.113865	0.201090	0.275226	6271.099787	34145.817128	3829.539163	14815.680687
98.545500	0.196863	0.113955	0.204878	0.276711	6265.832500	34045.535256	3834.749685	14774.879112
99.036000	0.196518	0.114678	0.204676	0.278070	6252.564108	33999.998228	3831.216731	14737.677979
