sample name	sample
index	1286
start time	 04-29-2021  02:54:07 PM
880	0.106234
Peak Time (s)	92.536
Peak Height 	0.1062
calc peak height	90,93
Baseline Time (s)	8.54
Baseline Value 	-0.003184
subtract baseline	10,4
Abs	0.092889
Peak Time (s)	91.535
Peak Height 	0.09289
calc peak height	90,93
Baseline Time (s)	9.035
Baseline Value 	0.001987
subtract baseline	10,3
PK_550	0.042060
Peak Time (s)	92.536
Peak Height 	0.04206
calc peak height	90,93
Baseline Time (s)	11.036
Baseline Value 	3.4557E-4
subtract baseline	10,2
PK_880	0.085684
Peak Time (s)	92.536
Peak Height 	0.08568
calc peak height	90,93
Baseline Time (s)	8.54
Baseline Value 	-2.2373E-4
subtract baseline	10,1


Time (s)	A880-A510	A880-A775	A880-A975	A880	I510	I775	I975	I880	
0.035000	-0.000923	-0.000433	-0.002025	0.006310	6264.337746	40884.870516	3847.577369	20749.032426
0.535000	-0.002176	0.000358	0.003077	0.004879	6265.683386	41079.187427	3861.289066	20807.711038
1.036000	-0.001034	-0.000618	0.000364	0.003830	6282.373857	41085.609971	3857.776923	20850.870029
1.536000	0.001918	0.000567	0.001146	0.002405	6315.966614	41315.272204	3862.438825	20909.669745
2.036500	-0.002347	-0.000010	-0.006353	0.005037	6263.186480	41033.118163	3841.234680	20801.216600
2.536500	0.001522	0.000031	0.001441	0.002135	6314.992032	41291.761513	3863.636284	20920.831220
3.037500	0.001066	0.000151	-0.000519	-0.000938	6335.233835	41574.394305	3865.999511	21048.372724
3.537500	0.002049	-0.000658	-0.000988	0.000156	6334.363802	41405.669075	3862.682176	21002.839590
4.037500	-0.003870	-0.000741	0.000109	0.004620	6254.801965	41005.669888	3855.578088	20818.370622
4.538000	0.002028	-0.001351	0.001712	-0.000589	6339.983865	41410.296953	3870.007823	21033.816467
5.035000	-0.000542	0.000045	-0.003109	0.000736	6309.862694	41416.529102	3856.978256	20978.757037
5.536000	0.001178	0.000203	0.002136	0.000879	6322.029772	41417.906596	3867.781118	20972.844777
6.036000	-0.001005	0.000229	-0.004600	0.000828	6305.595879	41424.758434	3853.652814	20974.960050
6.536000	0.000751	0.000698	0.003090	0.000911	6318.487631	41458.883990	3869.748015	20971.523367
7.036500	-0.000920	-0.000224	-0.000136	0.000066	6312.120117	41452.089795	3864.679576	21006.588805
7.537000	-0.001264	0.000809	-0.001556	0.000830	6303.587326	41475.892212	3860.055010	20974.870261
8.037500	0.001977	0.000480	0.005479	0.001511	6323.315825	41386.448430	3873.573397	20946.634082
8.540000	0.000000	-0.000296	0.002276	0.000000	6319.721459	41451.548476	3869.953427	21009.333877
9.035000	-0.000593	-0.000807	0.000000	-0.000228	6316.906857	41426.483318	3865.592887	21018.815500
9.535000	-0.000325	-0.000071	-0.001353	-0.000503	6321.096002	41516.051594	3863.305246	21030.254351
10.036000	0.000228	0.000104	0.001822	0.000528	6317.405191	41440.236542	3867.860612	20987.408466
10.536500	0.001754	0.000411	-0.001252	0.000324	6330.785642	41485.463771	3861.767436	20995.888948
11.036000	-0.001072	0.000000	-0.002473	-0.000131	6312.462567	41489.383208	3860.148326	21014.782739
11.536000	0.001568	0.000391	0.001185	0.000772	6325.877950	41444.075266	3865.987254	20977.298036
12.037000	0.000503	0.000236	0.000528	0.000557	6319.300746	41449.357017	3865.045851	20986.199826
12.536500	0.001354	0.000230	0.000225	-0.000186	6331.637542	41514.714347	3865.982005	21017.080476
13.037500	0.000736	0.000136	-0.002278	0.000393	6322.371333	41454.959792	3859.453579	20993.011372
13.538500	0.000830	0.000191	-0.002848	0.000380	6323.194824	41460.993600	3858.277982	20993.544731
14.035000	-0.000335	0.000618	0.000181	0.003024	6293.885928	41265.190411	3859.090609	20884.126510
14.537500	-0.001307	0.000658	-0.000957	0.002996	6286.662610	41271.149420	3856.752188	20885.274927
15.037000	0.000677	-0.000062	0.002036	0.000846	6318.419201	41397.389866	3867.640396	20974.222774
15.536000	-0.000804	0.000395	0.002852	0.000404	6310.401691	41476.976057	3870.319857	20992.539679
16.036500	0.001928	-0.000090	0.000153	0.000814	6328.332710	41397.755090	3863.706154	20975.530978
16.536500	0.001962	-0.000082	-0.001126	-0.000114	6335.792793	41480.582419	3862.961521	21014.074494
17.036500	0.000452	0.000765	-0.000693	0.000772	6317.248022	41477.112380	3862.001630	20977.271655
17.536500	0.002709	-0.000160	-0.000062	0.000644	6335.707070	41406.633224	3863.610962	20982.605884
18.040000	0.001056	0.000619	0.000288	0.001860	6313.517388	41367.937139	3861.774649	20932.194993
18.534500	0.001851	0.000133	-0.002137	0.001025	6326.102758	41398.835658	3858.417586	20966.794634
19.035500	0.000743	0.000431	-0.000080	0.001603	6313.093216	41374.073506	3861.542866	20942.857432
19.535500	-0.001816	0.000201	0.002828	0.000919	6298.668320	41414.206465	3869.171750	20971.182042
20.036000	-0.000390	-0.000068	0.003378	0.001382	6306.068224	41349.496345	3869.356729	20952.010424
20.536000	-0.000536	0.000534	-0.003461	0.001589	6303.353180	41384.396443	3854.444853	20943.410977
21.036500	0.000586	-0.000175	0.001296	0.001345	6313.867101	41343.306182	3865.004073	20953.531512
21.537000	-0.000402	0.000426	-0.000381	0.001481	6305.210246	41384.429256	3861.162389	20947.893680
22.037000	-0.000556	0.000849	-0.000278	0.001791	6301.648835	41394.423005	3860.725194	20935.075213
22.537000	-0.000544	-0.000815	-0.001649	0.000554	6311.256161	41356.629618	3860.441426	20986.318346
23.037500	0.000521	-0.000560	0.001154	0.000625	6318.922327	41372.976916	3866.233910	20983.399289
23.535000	0.000576	0.000507	0.004509	0.001031	6316.210297	41431.295657	3872.522961	20966.530708
24.035000	0.000081	0.000060	-0.004102	0.000687	6315.041243	41422.202318	3854.993560	20980.802883
24.535500	0.001735	0.000610	-0.002598	0.001319	6322.939283	41414.993532	3856.829271	20954.619226
25.036000	0.001198	0.000922	0.004747	0.001324	6318.744308	41442.140303	3872.406131	20954.378763
25.536000	0.000319	-0.000149	-0.004317	0.000717	6316.652157	41401.094226	3854.478903	20979.562143
26.036500	-0.001022	-0.000391	0.005282	0.001155	6302.957221	41341.031832	3873.913438	20961.403283
26.536500	-0.001780	0.000089	0.003131	0.000754	6300.215052	41418.915661	3870.170183	20978.047524
27.036500	0.000781	0.000982	0.000505	0.001474	6314.374328	41434.183471	3863.053253	20948.182245
27.540000	0.000520	-0.000603	0.004178	-0.003104	6347.820737	41700.047508	3880.702876	21138.794160
28.037500	0.001953	-0.000085	-0.000299	-0.000115	6335.723523	41480.418080	3864.717068	21014.105235
28.535000	0.002977	0.001038	0.002149	0.000641	6337.804112	41512.961539	3868.316966	20982.718654
29.035500	0.000554	0.000510	0.001184	0.000290	6321.760497	41497.242152	3867.009288	20997.292027
29.536000	0.002960	0.001030	0.001976	0.000501	6338.757399	41524.675338	3868.246269	20988.516457
30.036000	-0.001507	0.000232	-0.005691	0.005835	6263.503485	40984.417142	3840.952787	20768.473232
30.536500	0.002016	0.001091	0.000368	0.000757	6329.463225	41507.450483	3864.284004	20977.924588
31.037000	0.001577	0.000255	0.001154	0.002502	6312.586533	41279.168783	3862.249938	20905.675851
31.536500	0.000768	0.001100	0.002735	0.001182	6316.527351	41470.505082	3868.411934	20960.283561
32.038000	-0.000537	-0.000301	0.001079	0.003316	6290.101092	41158.585458	3860.370642	20872.059486
32.537500	0.002242	0.000868	0.001049	0.000433	6333.719615	41516.370438	3866.417168	20991.365332
33.034500	-0.000779	-0.000061	0.003087	-0.000126	6314.686194	41483.558765	3871.956990	21014.571062
33.535500	0.000633	0.000650	-0.001529	0.000305	6322.258879	41508.386653	3861.222792	20996.682086
34.035500	-0.001923	-0.000307	-0.000469	0.003903	6275.039815	41106.499269	3855.870429	20847.866149
34.535500	0.000023	0.000906	-0.002577	0.002519	6300.508142	41335.081062	3854.349748	20904.960503
35.036000	0.000054	0.000206	-0.000029	0.001265	6310.385485	41384.111529	3862.365184	20956.859755
35.536500	-0.000274	0.000819	0.000406	0.001611	6305.195819	41407.587650	3862.552953	20942.496463
36.037000	0.000803	0.000250	0.002621	0.001738	6312.506343	41346.110701	3866.985619	20937.252236
36.536500	0.001363	0.001063	-0.003279	0.002015	6314.690839	41393.512451	3853.934793	20925.812904
37.039500	0.000022	0.000813	-0.000590	0.001844	6305.677057	41386.458482	3859.952382	20932.848675
37.539000	0.000165	0.000304	-0.000377	0.001804	6307.088607	41345.100958	3860.488453	20934.536798
38.035000	-0.000432	0.000179	0.001571	0.001650	6303.685007	41347.603973	3864.940657	20940.899243
38.535000	-0.000658	-0.000106	0.004659	0.001346	6304.287938	41349.313971	3872.171335	20953.503688
39.035500	-0.000583	0.000365	0.003519	0.001540	6303.362073	41373.708116	3869.320511	20945.433750
39.535500	-0.000818	-0.000096	0.006014	0.001375	6302.828759	41347.645355	3875.012399	20952.286387
40.036000	-0.000041	0.000216	-0.001804	0.001745	6305.955869	41342.449334	3857.601635	20936.948754
40.536000	-0.000265	0.001278	-0.000125	0.002145	6301.162656	41400.954296	3860.298895	20920.400892
41.036000	-0.001229	0.001032	0.000951	0.001722	6297.013828	41416.594068	3863.471669	20937.901557
41.539500	0.002608	0.001232	0.003248	0.002552	6320.151856	41360.992723	3866.587344	20903.586119
42.037500	-0.000747	0.000630	-0.001257	0.001518	6302.277904	41399.106931	3859.232692	20946.347899
42.537500	-0.000169	0.000933	0.003588	0.002263	6300.994618	41360.120659	3867.925748	20915.539830
43.038000	-0.001100	0.001267	0.002060	0.002567	6291.526625	41362.747527	3864.031340	20902.977438
43.535500	0.001410	0.000567	0.003170	0.001874	6316.144633	41362.144355	3867.865122	20931.634620
44.035500	0.001607	0.001417	0.007488	-0.000326	6334.683821	41632.490224	3881.853151	21022.888718
44.536000	0.002737	0.000658	0.000842	0.000566	6336.531400	41485.945177	3865.695670	20985.841957
45.036500	0.000612	0.000490	0.005222	0.000245	6322.561654	41499.561071	3875.738786	20999.175796
45.536500	0.001794	0.000761	0.004721	0.000376	6330.687269	41511.869472	3874.381738	20993.700973
46.037000	-0.000070	0.000437	-0.004578	0.002728	6298.187576	41275.314788	3849.723461	20896.345353
46.537500	0.001222	0.000557	0.001095	0.000180	6327.777359	41511.162167	3867.052184	21001.840428
47.035000	0.002630	0.000100	0.004228	0.000430	6336.750576	41448.500700	3873.209601	20991.464117
47.534500	0.001524	0.001166	0.001126	0.002646	6311.064999	41346.850690	3861.885316	20899.698679
48.035500	-0.000350	0.000900	0.004669	0.003288	6291.742984	41266.751635	3868.046038	20873.204535
48.536000	0.001123	0.000553	0.000473	0.000626	6323.564498	41471.322141	3864.783478	20983.342106
49.036000	0.002596	0.000447	0.001473	0.000604	6335.138181	41463.815843	3866.955563	20984.235259
49.536000	0.000500	0.000581	0.002281	0.000654	6318.531407	41471.276859	3868.568063	20982.160870
50.036500	0.002461	0.000638	0.002964	-0.001318	6349.025958	41651.487241	3874.246576	21064.176336
50.536500	0.000423	-0.001170	0.005084	0.010184	6245.197406	40484.721383	3854.341777	20591.065964
51.040000	-0.003751	-0.017780	0.033279	0.278024	4719.061729	22468.569550	3467.784753	12476.650561
51.537500	-0.020284	-0.033853	-0.007970	0.055429	5783.238508	34326.433203	3739.839586	18846.896648
52.035000	-0.023379	-0.047101	-0.014363	-0.140171	7354.411571	50675.428033	4174.993424	27884.016835
52.535000	-0.017662	-0.107798	-0.007374	-0.317616	9656.465238	65381.441542	4826.913154	40461.604002
53.035500	-0.013186	-0.091563	-0.005024	-0.296702	9407.976446	64713.098191	4748.079477	38698.607489
53.536000	-0.015321	-0.060462	-0.002874	-0.249005	8709.688473	62399.009374	4568.343192	34981.645172
54.035500	-0.012373	-0.042515	-0.001915	-0.212330	8280.549585	59891.746160	4440.013592	32388.719330
54.536000	-0.017030	-0.031487	-0.009271	-0.185167	7905.105282	57816.601040	4325.618763	30604.590038
55.036500	-0.017175	-0.031247	-0.012626	-0.197806	8049.249747	59466.628952	4355.497564	31420.853053
55.539500	-0.015728	-0.040502	-0.005040	-0.222238	8361.331168	61475.151089	4463.579604	33067.736893
56.040000	-0.011551	-0.027685	-0.002544	-0.181728	7928.364162	57862.446803	4336.127632	30386.579393
56.534500	-0.008147	-0.020624	-0.001351	-0.132664	7433.164691	52804.286174	4190.712591	27456.914999
57.034500	-0.005950	-0.013354	0.003665	-0.090992	7045.059867	49010.816966	4089.709455	25215.808358
57.535500	-0.001539	-0.009492	0.001305	-0.066736	6862.881418	46899.905341	4021.533253	24006.995467
58.035500	-0.004112	-0.005819	0.003992	-0.046806	6666.124907	45286.676931	3979.545340	23063.061184
58.536000	0.005991	-0.002758	0.006173	-0.011825	6460.149074	42289.642308	3904.132142	21507.482218
59.036000	0.005815	-0.001562	0.009781	-0.013586	6472.921752	42558.162364	3916.091287	21582.842221
59.536500	0.011721	0.000412	0.013055	-0.035758	6707.113121	44820.231826	3974.818214	22558.164285
60.036500	0.013417	0.002994	0.015328	-0.040740	6765.079759	45555.030598	3992.202022	22784.259249
60.537000	0.017511	0.003771	0.016874	-0.002154	6475.050169	42006.450711	3906.415720	21099.076633
61.034000	0.023997	0.010836	0.022978	0.019330	6355.953369	40732.436334	3872.887962	20223.706595
61.534500	0.025120	0.010416	0.026694	0.028047	6297.198764	39946.676600	3862.240316	19880.675086
62.035000	0.019989	0.011717	0.019605	0.038107	6182.704361	39208.950865	3826.644461	19493.293634
62.535000	0.028878	0.020299	0.021769	0.040620	6230.268939	39718.515274	3825.933257	19397.896623
63.035500	0.027621	0.023220	0.021641	0.041745	6212.418950	39870.689005	3823.387461	19355.373206
63.535500	0.031627	0.024934	0.024956	0.037708	6273.096284	40362.268117	3838.420969	19508.459053
64.035500	0.038085	0.027056	0.027527	0.037849	6321.542111	40533.122475	3843.446804	19503.106088
64.536500	0.036985	0.028145	0.026524	0.038597	6307.290441	40562.591589	3839.822187	19474.619280
65.037500	0.040531	0.030240	0.033955	0.040523	6319.784010	40577.277541	3851.266451	19401.579848
65.537500	0.038551	0.030871	0.030168	0.042213	6291.560519	40485.720615	3839.881540	19337.713168
66.040000	0.043436	0.032255	0.033317	0.044989	6307.751668	40365.764962	3840.652321	19233.386483
66.537000	0.046258	0.033180	0.032398	0.047535	6309.881420	40226.516336	3833.516835	19138.285194
67.035500	0.047895	0.033438	0.036355	0.053198	6279.019567	39766.007791	3830.024075	18928.704195
67.535500	0.046310	0.033830	0.037335	0.059681	6218.048351	39253.807853	3818.854490	18692.128330
68.035500	0.048415	0.034194	0.041246	0.063527	6205.043454	38964.296251	3818.986037	18553.442528
68.536000	0.049352	0.034481	0.037492	0.063620	6211.338239	38980.363066	3811.257829	18550.100147
69.036500	0.049552	0.035135	0.041181	0.064296	6207.790860	38978.501218	3817.305474	18525.866804
69.539500	0.052279	0.034773	0.035387	0.063796	6231.961821	38989.992230	3806.709384	18543.794526
70.039500	0.051731	0.036027	0.042714	0.066987	6203.969610	38829.782492	3814.976968	18429.736726
70.537000	0.053032	0.037160	0.044045	0.069162	6197.458416	38743.859011	3813.281601	18352.449970
71.035000	0.054314	0.037154	0.049318	0.070732	6195.321995	38614.438733	3820.737091	18296.945374
71.536000	0.052757	0.037991	0.043360	0.072042	6174.074186	38575.656130	3806.167150	18250.753654
72.035500	0.057691	0.038399	0.046517	0.073965	6196.387488	38451.776553	3808.624588	18183.197616
72.535000	0.060073	0.040296	0.053791	0.074633	6209.163476	38552.205827	3821.893977	18159.795728
73.036000	0.057003	0.039476	0.049013	0.073488	6194.823464	38578.853944	3814.571256	18199.940252
73.536500	0.060571	0.040635	0.058206	0.074471	6214.095626	38593.280817	3831.206282	18165.475254
74.036500	0.060556	0.040435	0.054340	0.075096	6209.311751	38525.686966	3822.067457	18143.618910
74.539500	0.060739	0.041113	0.059727	0.075094	6210.694694	38581.395869	3833.044850	18143.678079
75.037000	0.064585	0.041770	0.054590	0.076469	6229.206262	38522.560253	3819.797477	18095.691716
75.537500	0.066087	0.042010	0.061182	0.077583	6232.120866	38451.133757	3830.928900	18056.923111
76.037500	0.066891	0.042569	0.059843	0.078660	6230.062560	38408.826715	3826.000872	18019.517402
76.537500	0.066801	0.043302	0.062395	0.079658	6221.897368	38387.286637	3829.167191	17984.960082
77.035500	0.070665	0.044246	0.055759	0.080169	6247.129425	38422.540406	3814.699585	17967.290511
77.536000	0.068301	0.043717	0.060596	0.080412	6227.500682	38359.718922	3823.972367	17958.917963
78.036000	0.069784	0.044287	0.066999	0.083052	6218.827424	38191.563374	3831.640551	17868.033282
78.536500	0.072869	0.045016	0.067957	0.084543	6230.781305	38129.749399	3830.549094	17816.930688
79.039500	0.073172	0.043280	0.073309	0.084386	6234.240242	38002.281643	3841.883673	17822.312232
79.537000	0.072874	0.044131	0.069622	0.086594	6215.447787	37893.123029	3829.762615	17746.969016
80.040000	0.070856	0.042496	0.073364	0.086735	6199.324672	37750.630061	3837.146272	17742.150098
80.534500	0.076117	0.043075	0.069973	0.088196	6227.745056	37680.127742	3827.212085	17692.523828
81.040000	0.072217	0.043230	0.073957	0.088837	6193.818397	37641.328129	3834.045314	17670.802609
81.535500	0.076364	0.042771	0.067782	0.089791	6217.628775	37528.755525	3819.534141	17638.498840
82.038000	0.074516	0.041931	0.073896	0.090406	6199.243198	37413.258357	3830.706652	17617.746637
82.536000	0.074727	0.040708	0.078849	0.089648	6206.463057	37376.432506	3842.457684	17643.336798
83.035500	0.075523	0.042170	0.079760	0.091516	6198.478800	37344.327112	3840.477188	17580.329916
83.536500	0.075117	0.040788	0.078346	0.091769	6193.578025	37215.199073	3837.038755	17571.810298
84.039500	0.078816	0.040616	0.074569	0.092368	6216.696289	37154.514207	3828.074839	17551.691775
84.537500	0.075787	0.040216	0.076002	0.092446	6193.524861	37116.946188	3830.840765	17549.054394
85.037000	0.077503	0.041037	0.080312	0.093265	6200.197917	37117.109940	3838.008406	17521.581908
85.535000	0.078128	0.040756	0.079917	0.093427	6203.655224	37082.351585	3836.861883	17516.166765
86.035500	0.077361	0.040576	0.083305	0.095097	6185.535762	36937.402058	3840.403186	17460.287994
86.535500	0.078838	0.039689	0.074942	0.093817	6206.038688	36968.158907	3825.885471	17503.102870
87.035500	0.077228	0.040627	0.079779	0.095817	6179.220620	36885.203623	3831.671122	17436.294907
87.536000	0.076872	0.040281	0.081681	0.096274	6173.212157	36822.602820	3834.632923	17421.063491
88.036000	0.078264	0.040421	0.078035	0.096913	6178.777525	36783.755086	3825.878861	17399.810023
88.536500	0.080383	0.040659	0.084672	0.098111	6185.594854	36709.091775	3837.007494	17360.035398
89.037000	0.079391	0.041346	0.084449	0.099326	6169.273464	36668.154115	3834.051253	17319.805508
89.534500	0.081929	0.040033	0.085985	0.099706	6185.231504	36537.157929	3836.426272	17307.256321
90.037500	0.082269	0.040661	0.088931	0.100568	6181.366084	36519.090837	3840.724601	17278.817102
90.535000	0.081154	0.040700	0.080412	0.101611	6165.431808	36441.677152	3821.171584	17244.464033
91.037500	0.082377	0.040443	0.090752	0.102466	6168.141417	36356.113842	3840.566149	17216.385424
91.535500	0.082162	0.041661	0.092889	0.104165	6154.060255	36319.120156	3841.469011	17160.703834
92.035500	0.082485	0.040260	0.087032	0.103789	6159.198982	36240.635736	3830.201686	17173.019446
92.536000	0.085684	0.042060	0.091867	0.106234	6164.747254	36191.286004	3835.098298	17093.246221
93.036500	0.084028	0.041204	0.089493	0.106144	6153.231033	36132.788330	3830.416945	17096.168585
93.539500	0.084353	0.041304	0.090512	0.107817	6143.355420	36013.005951	3829.082137	17041.832348
94.034000	0.083010	0.042330	0.090808	0.108867	6125.898722	36011.100982	3827.545447	17007.817779
94.537500	0.083503	0.041536	0.093242	0.109130	6127.573175	35930.877285	3831.979473	16999.328574
95.038000	0.081725	0.041058	0.087119	0.109415	6112.587147	35873.067654	3818.954037	16990.099687
95.535000	0.083463	0.040679	0.093488	0.109751	6122.765387	35818.982395	3831.211618	16979.267264
96.035500	0.085512	0.042656	0.094863	0.112236	6119.596526	35780.665855	3828.943291	16899.296919
96.536000	0.083539	0.042513	0.094423	0.112878	6100.670421	35721.455639	3826.740100	16878.714043
