sample name	sample
index	692
start time	 03-22-2021  12:28:43 PM
880	-0.000463
Peak Time (s)	90.038
Peak Height 	-4.6287E-4
calc peak height	90,93
Baseline Time (s)	9.537
Baseline Value 	-0.005155
subtract baseline	10,4
Abs	-0.011379
Peak Time (s)	91.535
Peak Height 	-0.01138
calc peak height	90,93
Baseline Time (s)	8.537
Baseline Value 	0.001797
subtract baseline	10,3
PK_550	-0.003647
Peak Time (s)	91.535
Peak Height 	-0.003647
calc peak height	90,93
Baseline Time (s)	11.036
Baseline Value 	5.8177E-4
subtract baseline	10,2
PK_880	-0.013847
Peak Time (s)	90.535
Peak Height 	-0.01385
calc peak height	90,93
Baseline Time (s)	9.035
Baseline Value 	0.002467
subtract baseline	10,1


Time (s)	A880-A510	A880-A775	A880-A975	A880	I510	I775	I975	I880	
0.035000	-0.003022	-0.000343	-0.002538	0.004835	7331.400424	45505.447204	3960.084570	24094.446804
0.536000	-0.003950	-0.000460	-0.002862	0.005497	7315.098353	45429.029840	3957.553354	24062.093916
1.036000	-0.003684	-0.000289	-0.001126	0.004050	7332.665083	45587.760826	3965.737022	24132.834826
1.536000	-0.003860	-0.000907	-0.000394	0.005871	7312.196495	45348.763497	3962.930281	24043.848691
2.036500	-0.001352	-0.000127	-0.001099	0.001853	7379.425044	45820.252242	3971.490225	24240.689279
2.537000	-0.001217	0.000371	0.000603	0.001367	7385.881543	45917.657672	3977.178136	24264.648500
3.037000	-0.001113	-0.001031	0.001001	-0.001545	7417.344203	46067.410915	3985.838901	24408.607797
3.540000	-0.000961	-0.000469	-0.001191	0.005555	7345.193337	45422.543794	3961.694884	24059.294519
4.034500	0.001492	0.000007	0.000768	0.000443	7423.799368	45973.098616	3980.019114	24310.191624
4.535000	0.000649	-0.000381	0.002422	0.000010	7419.505971	45977.646018	3985.487188	24331.616037
5.035500	-0.000558	0.000223	0.001621	0.000424	7402.568013	45996.429607	3982.301884	24311.166957
5.535500	0.000961	0.000006	0.005160	0.000313	7419.594956	45985.869674	3991.896305	24316.624755
6.035500	0.000211	-0.000312	0.002207	-0.000078	7415.841346	45993.121984	3985.152105	24335.946627
6.536000	-0.000171	-0.000473	0.000920	-0.000342	7414.609841	46003.361773	3982.469873	24348.997256
7.036500	-0.001117	-0.000388	-0.000115	-0.000059	7401.775551	45983.800823	3979.025415	24335.035488
7.537000	-0.000566	0.000653	0.001385	0.000592	7400.729030	46022.465835	3981.243633	24302.875834
8.037000	0.001090	0.000161	0.003920	0.000446	7419.560271	45988.071935	3988.278298	24310.075241
8.537000	0.000247	-0.000349	0.000000	-0.000132	7416.790977	45994.911377	3979.517384	24338.646332
9.035000	0.000000	0.001037	-0.001414	0.000719	7405.311269	46047.984219	3973.617382	24296.611059
9.536500	-0.001361	-0.000214	0.000782	0.000000	7398.608765	45995.119203	3981.214783	24332.097238
10.035500	0.001458	0.000515	0.003661	0.000378	7424.124525	46029.966237	3987.776413	24313.429140
10.535500	0.000828	0.000099	-0.000373	0.000188	7419.512197	46007.491893	3977.707666	24322.794984
11.036000	-0.001796	0.000000	0.005919	-0.000115	7395.284021	46027.838224	3995.035718	24337.805910
11.536000	-0.000072	-0.000339	-0.000262	-0.000095	7413.059354	45992.121012	3978.735638	24336.795894
12.036500	0.000267	0.000591	0.003139	0.000721	7408.070632	46003.454205	3985.501613	24296.498045
12.539000	0.000952	0.000751	0.000837	0.000810	7414.304447	46010.491915	3979.242773	24292.107903
13.036000	0.000658	0.000700	0.002723	0.000802	7411.317657	46006.295382	3984.199719	24292.511254
13.537000	0.000535	0.000707	0.000938	0.001384	7403.950758	45949.191554	3978.006859	24263.810301
14.034500	-0.000911	-0.000167	-0.001676	0.004202	7359.663887	45584.788527	3963.926925	24125.404219
14.536500	-0.000080	0.000195	0.002422	0.003138	7379.297917	45725.226816	3977.302179	24177.553711
15.035000	0.000649	0.000124	-0.000193	0.000988	7409.274518	45930.641133	3976.092171	24283.316928
15.536000	0.001315	0.001413	0.006616	0.001855	7407.178316	45972.593736	3991.671132	24240.624275
16.036000	-0.003213	0.000135	-0.000498	0.005587	7321.728819	45478.593495	3963.395364	24057.725153
16.536000	0.000400	-0.000322	-0.000744	0.000883	7407.772156	45896.924656	3974.930397	24288.485412
17.039500	0.002617	0.000222	0.003694	-0.001846	7459.733394	46222.223325	3993.729916	24423.553085
17.537000	-0.001211	-0.000413	-0.000100	0.002619	7372.951500	45716.465541	3972.094291	24203.052938
18.037500	-0.001012	0.000457	0.001995	0.004079	7359.896502	45658.299803	3973.743369	24131.441188
18.535000	-0.000511	-0.000484	0.000508	0.002256	7383.978429	45745.298542	3974.618896	24220.906033
19.035000	0.000725	-0.000227	0.001016	0.002241	7396.997753	45772.123943	3975.978044	24221.624926
19.535000	0.000580	0.000975	0.005109	0.002959	7388.010356	45819.901648	3984.797932	24186.345374
20.035500	-0.001244	0.000341	0.002120	0.003981	7358.516376	45656.578233	3974.324300	24136.238117
20.536000	-0.000999	0.000034	0.000304	0.001952	7382.071065	45826.371891	3974.876517	24235.843530
21.036500	-0.000359	0.000494	0.004652	0.002260	7385.518243	45841.414076	3985.433103	24220.671283
21.539500	-0.001747	-0.000049	0.002850	0.002133	7372.436318	45800.372357	3981.044383	24226.942282
22.037000	-0.002495	0.000668	0.001587	0.003361	7351.994954	45749.830087	3974.548492	24166.618318
22.537000	-0.000547	0.000378	0.004370	0.002331	7382.821579	45822.896414	3984.505522	24217.176906
23.037500	0.000330	0.000790	0.003047	0.003017	7384.807206	45795.847440	3979.249469	24183.495476
23.537000	-0.001022	0.000686	0.001620	0.002600	7375.103633	45826.781080	3976.615470	24203.957463
24.035000	0.000637	0.000312	0.000682	0.002238	7396.113441	45825.633934	3975.117545	24221.778969
24.535500	0.000416	0.000139	0.002786	0.002155	7394.672493	45816.766091	3980.820484	24225.870418
25.036000	-0.000658	0.000195	0.004985	0.002531	7379.591156	45785.063714	3985.597563	24207.362892
25.536000	-0.000561	0.000234	-0.001229	0.002364	7382.340094	45805.482282	3969.828218	24215.579205
26.039000	-0.000170	0.000744	0.005113	0.002998	7379.812506	45793.184079	3984.707474	24184.416635
26.537000	0.000430	0.000414	0.003201	0.002783	7388.285166	45781.898128	3980.265254	24194.999483
27.037000	0.001778	0.000616	0.000534	-0.000611	7437.866251	46138.378307	3982.165517	24362.316026
27.537500	0.000225	0.000565	0.003369	0.001113	7403.542348	45961.938276	3985.076451	24277.133103
28.037500	0.000148	0.000626	0.004113	0.001072	7403.169709	45972.149006	3987.139969	24279.194859
28.535000	0.000093	0.000135	0.003828	0.000605	7407.468936	45969.751571	3987.619011	24302.217187
29.035500	0.002476	0.001454	0.002422	0.001843	7419.439764	45977.785582	3980.684048	24241.203415
29.535500	-0.001628	0.000564	0.005026	0.004109	7353.227399	45665.908366	3981.567235	24129.968232
30.036000	-0.002112	0.000446	0.002472	0.006811	7320.473103	45389.155005	3967.899192	23998.089407
30.539000	-0.000585	0.000638	0.005744	0.004758	7357.294307	45609.377662	3981.750027	24098.233863
31.036500	0.000636	0.000516	0.002327	0.002744	7390.828663	45795.741715	3978.081825	24196.878738
31.536500	0.001336	0.001097	0.005912	0.004806	7376.678774	45649.769902	3982.063404	24095.883451
32.034000	-0.003333	-0.000536	-0.003802	0.005546	7320.923066	45416.867338	3955.025667	24059.736012
32.537000	0.001748	0.000125	0.007608	0.001040	7420.233560	45925.613589	3996.450243	24280.765279
33.035000	0.003317	0.000642	0.003753	0.000198	7445.549710	46060.442329	3988.490922	24322.296728
33.535000	-0.003289	0.000843	-0.001375	0.005497	7321.869386	45556.780916	3961.370611	24062.102815
34.035500	0.001667	0.000908	0.005791	0.004322	7385.147581	45678.830194	3983.014517	24119.557932
34.536000	0.000181	0.002035	0.004258	0.004567	7367.187856	45765.798866	3978.366885	24107.566828
35.039000	0.000304	0.000590	0.000387	0.003970	7374.644283	45682.123461	3969.852714	24136.749700
35.536500	0.000290	0.000369	-0.000958	0.003501	7379.375685	45706.626243	3967.589636	24159.777863
36.036500	-0.001594	0.000540	0.003185	0.004455	7350.013774	45629.558337	3975.862419	24113.047906
36.536500	-0.001645	0.000622	-0.000726	0.003795	7356.289537	45702.582915	3967.428481	24145.338981
37.037000	0.000376	0.000546	-0.001553	0.003646	7378.761489	45709.795144	3965.678563	24152.658712
37.535000	-0.000579	0.000591	0.003093	0.004019	7364.991403	45677.419832	3976.755745	24134.370234
38.035000	-0.001651	0.001118	0.003872	0.005028	7343.511968	45629.930410	3976.157084	24085.010570
38.534500	-0.000840	0.001405	0.002667	0.004408	7358.275312	45719.341782	3974.633924	24115.336202
39.035500	-0.000120	0.000485	0.002452	0.003768	7372.353163	45691.741987	3975.741906	24146.684098
39.539000	0.000442	0.000683	0.003096	0.003875	7377.062382	45700.637003	3977.140421	24141.424351
40.035500	-0.001561	0.000715	0.003988	0.004071	7354.316460	45684.544553	3978.957128	24131.850587
40.536500	0.001398	0.000226	0.007032	0.003637	7389.466621	45679.118349	3988.069650	24153.075208
41.037000	0.001490	0.000541	0.002973	0.004071	7385.911682	45667.436154	3976.308859	24131.838527
41.536500	-0.000914	-0.000314	0.004704	0.003191	7370.100484	45669.858456	3983.126974	24174.951677
42.037500	0.001067	0.001170	0.007097	0.004996	7371.917282	45638.265211	3984.669224	24086.579906
42.537500	0.002218	0.000949	0.010119	0.004327	7390.821746	45682.392353	3994.394316	24119.300651
43.035000	0.000930	0.001240	0.007884	0.004153	7379.250089	45728.184485	3988.956521	24127.829801
43.535500	0.000712	0.000496	0.004951	0.000646	7413.507785	46001.437906	3990.466237	24300.190833
44.038500	-0.001741	-0.000236	-0.001023	0.006173	7330.822148	45384.878601	3960.538669	24029.169406
44.536000	0.002722	0.000191	0.005787	0.001316	7427.545863	45904.855066	3990.905464	24267.170218
45.036500	0.000554	0.001112	0.004032	0.001990	7397.819861	45929.253404	3984.515127	24233.947580
45.537000	0.000125	0.000511	0.004669	0.003053	7382.296713	45764.705261	3983.396714	24181.710492
46.037000	-0.002591	0.000815	0.003335	0.007864	7304.800841	45322.242347	3967.408875	23946.912453
46.537000	0.002538	0.000858	0.010065	0.002008	7418.365377	45902.408265	4000.403574	24233.076111
47.035000	-0.002366	0.000467	0.001534	0.004963	7336.826510	45572.291983	3970.252641	24088.172947
47.535000	0.003228	0.000670	0.002935	0.002762	7417.696980	45809.157088	3979.621597	24196.008567
48.035000	-0.002186	-0.000458	-0.000282	0.007117	7316.575221	45270.983416	3960.017023	23983.199286
48.538500	0.001232	0.001461	0.005750	0.002483	7399.754350	45915.045562	3987.735014	24209.732491
49.035500	0.000871	-0.000180	0.002668	0.000208	7419.764130	45977.905774	3985.612814	24321.841670
49.535500	0.001861	0.000033	0.006810	0.000353	7428.614222	45984.581939	3996.155422	24314.647946
50.036000	-0.002124	0.000383	0.003886	0.007728	7310.966867	45293.396639	3969.184406	23953.520143
50.536500	-0.010480	-0.005407	0.001125	-0.000691	7311.616341	45550.800905	3983.923542	24366.295240
51.037000	-0.067338	-0.016902	-0.010377	0.287183	4879.161863	24309.788282	3416.767546	13947.190787
51.537500	-0.058516	-0.018246	-0.032647	-0.041762	7240.974607	48415.074192	4003.220056	26498.706104
52.034500	-0.068952	-0.137203	-0.031850	-0.299394	10591.451218	65535.000000	4944.787454	45635.929843
52.537500	-0.052656	-0.178175	-0.010327	-0.340367	11679.583142	65535.000000	5269.729615	49867.330972
53.038500	-0.036558	-0.163596	-0.010727	-0.325788	11710.452061	65535.000000	5187.538410	48315.769661
53.535500	-0.055782	-0.112336	-0.008041	-0.274528	10386.321752	65535.000000	4939.682194	43255.878438
54.036000	-0.052599	-0.086031	-0.015426	-0.247536	9985.441089	65436.028623	4780.288884	40822.063564
54.535500	-0.030031	-0.111670	-0.015286	-0.273862	10833.149361	65535.000000	4901.877279	43194.017987
55.036500	-0.019062	-0.105318	-0.010879	-0.267510	10918.237138	65535.000000	4892.688792	42608.493394
55.537000	-0.019237	-0.080311	-0.009928	-0.242479	10464.528464	65531.648194	4782.260205	40382.723448
56.037500	-0.022356	-0.050822	-0.013868	-0.202106	9740.976023	63981.497049	4594.363853	37052.313533
56.537000	-0.018210	-0.030799	-0.009577	-0.166487	9260.781503	61827.081816	4472.633755	34360.452983
57.037500	-0.021879	-0.016985	-0.008582	-0.116895	8523.382541	57167.646353	4300.355955	30961.969222
57.538000	-0.026298	-0.014438	-0.013904	-0.085034	8070.447307	53625.919640	4180.959699	28974.616832
58.035500	-0.025927	-0.011132	-0.015408	-0.063799	7826.598957	51574.693942	4112.824139	27728.784041
58.536000	-0.023822	-0.009210	-0.006481	-0.048983	7683.681551	50150.994292	4095.752813	26894.928977
59.036000	-0.020064	-0.006053	-0.019127	-0.028303	7499.785417	48282.626261	4003.384827	25777.573980
59.536500	-0.026118	-0.007772	-0.014282	-0.012249	7270.089674	46463.129413	3973.875227	24946.136403
60.037000	-0.027189	-0.008476	-0.019085	-0.000643	7143.559569	45245.730189	3932.028192	24363.886598
60.536500	-0.027637	-0.008836	-0.018029	0.006785	7066.782194	44493.283603	3916.199184	23999.333241
61.037500	-0.025482	-0.007348	-0.020058	0.012405	7033.455749	44099.556482	3897.505598	23727.665253
61.534500	-0.019387	-0.005321	-0.021603	0.008627	7129.143122	44653.849649	3902.928366	23909.920469
62.037500	-0.020984	-0.005645	-0.019846	0.006359	7135.724871	44841.085583	3912.774866	24020.086017
62.535500	-0.019788	-0.004392	-0.018185	0.004481	7166.014376	45144.513281	3921.510905	24111.754174
63.035000	-0.018916	-0.005267	-0.019579	0.000003	7219.241361	45496.408046	3929.179313	24331.945808
63.536000	-0.019688	-0.005737	-0.018342	-0.001481	7226.374064	45595.918234	3935.991886	24405.408844
64.036500	-0.019384	-0.005910	-0.023314	0.000174	7212.860605	45416.698715	3919.477443	24323.522454
64.539000	-0.017230	-0.005149	-0.018241	-0.004599	7282.645202	45961.754034	3944.104925	24560.595942
65.037000	-0.016667	-0.005183	-0.017007	-0.005281	7295.314418	46026.108561	3948.965250	24594.714595
65.540000	-0.017556	-0.004328	-0.018905	-0.003948	7272.733421	45978.634282	3940.784664	24528.101796
66.037500	-0.020164	-0.005400	-0.021993	-0.000776	7214.549386	45559.779729	3925.107722	24370.492600
66.537500	-0.015346	-0.004135	-0.015736	-0.004966	7305.568500	46098.914474	3951.398192	24578.954059
67.035000	-0.015879	-0.004119	-0.026472	-0.004631	7296.721719	46067.243079	3923.555712	24562.211514
67.538000	-0.014923	-0.004062	-0.017879	-0.003943	7299.451684	46004.589980	3943.364044	24527.892556
68.036000	-0.018249	-0.004155	-0.020278	0.001834	7207.615107	45425.972780	3922.884186	24241.661183
68.536000	-0.015445	-0.003820	-0.017295	-0.002774	7282.236347	45912.615626	3941.884607	24469.629025
69.036500	-0.014070	-0.003275	-0.019244	-0.001621	7284.504392	45852.527798	3934.080211	24412.385141
69.536500	-0.012935	-0.003496	-0.019496	-0.001561	7295.429737	45824.696116	3933.297931	24409.371454
70.037000	-0.016637	-0.003807	-0.023671	0.003791	7204.164125	45268.635914	3909.689177	24145.520971
70.537500	-0.014221	-0.003159	-0.020224	-0.001119	7277.870023	45814.421133	3930.371366	24387.495106
71.040500	-0.013314	-0.003672	-0.017354	-0.001049	7286.374551	45756.855913	3937.391538	24384.020343
71.536000	-0.013765	-0.003614	-0.017107	-0.001106	7282.359818	45768.124359	3938.155398	24386.828158
72.035500	-0.016666	-0.003807	-0.020645	0.002566	7216.112768	45388.294036	3920.158970	24205.627057
72.535500	-0.013323	-0.002619	-0.018728	-0.000746	7283.204406	45830.895232	3933.182306	24369.016367
73.036000	-0.015194	-0.002378	-0.018024	-0.000158	7258.294196	45796.600632	3933.470809	24339.909627
73.536500	-0.011090	-0.002181	-0.015185	-0.000109	7299.439579	45811.171098	3940.482631	24337.468196
74.036500	-0.013148	-0.003211	-0.020645	-0.000909	7286.628857	45788.479846	3928.795239	24377.072198
74.537000	-0.012152	-0.001934	-0.015027	-0.000663	7294.258806	45890.386022	3942.282210	24364.875885
75.037000	-0.013409	-0.003384	-0.018852	-0.000995	7284.848572	45779.834386	3933.494322	24381.333241
75.537000	-0.011579	-0.002985	-0.017742	-0.000964	7303.169818	45816.211424	3936.199174	24379.779663
76.035000	-0.011430	-0.002714	-0.015461	-0.001379	7308.927188	45883.996475	3942.993570	24400.344620
76.535000	-0.010365	-0.002625	-0.018184	-0.001268	7318.686740	45881.895068	3935.853263	24394.861251
77.035500	-0.010197	-0.002434	-0.017986	-0.000304	7310.537261	45805.434985	3933.931828	24347.108194
77.535500	-0.011143	-0.001525	-0.017641	-0.000902	7306.988696	45954.501027	3936.297981	24376.712252
78.036000	-0.011065	-0.001853	-0.018529	-0.001086	7309.667524	45940.285331	3934.532881	24385.841812
78.536000	-0.011060	-0.002130	-0.017428	-0.001408	7312.999531	45944.696905	3938.106494	24401.781450
79.036500	-0.011245	-0.002221	-0.016608	-0.000168	7298.460946	45813.079675	3937.049672	24340.400635
79.537000	-0.011543	-0.001195	-0.016078	-0.001032	7304.231458	46000.213179	3940.561522	24383.173391
80.040000	-0.014934	-0.003003	-0.018858	0.001593	7243.258365	45562.558502	3927.013993	24253.516621
80.535000	-0.011558	-0.002071	-0.014285	-0.002096	7314.943507	46018.823292	3947.788448	24435.920374
81.035000	-0.012663	-0.002362	-0.017321	-0.000428	7286.679896	45824.868859	3935.911945	24353.276949
81.535500	-0.009975	-0.002093	-0.017039	-0.001333	7323.350404	45940.914541	3938.896434	24398.064054
82.035500	-0.015271	-0.003006	-0.021905	0.002988	7225.854534	45425.418809	3916.004737	24184.914166
82.536000	-0.011507	-0.003287	-0.016851	-0.002812	7322.806071	45969.246324	3943.102429	24471.540953
83.036000	-0.010510	-0.002551	-0.014828	-0.002496	7329.789215	46010.942925	3947.426614	24455.832185
83.536000	-0.012311	-0.002895	-0.014588	-0.002872	7315.186102	46014.095493	3948.992069	24474.518965
84.036500	-0.013816	-0.002336	-0.017912	0.000390	7266.680936	45746.543797	3932.378612	24312.811133
84.539500	-0.009564	-0.001847	-0.017919	-0.002191	7336.375905	46050.477529	3938.842796	24440.658463
85.037500	-0.014587	-0.003305	-0.016243	-0.000219	7265.036770	45711.048839	3938.094393	24342.900096
85.535000	-0.012614	-0.002880	-0.014657	-0.002674	7310.064027	45995.939393	3948.311970	24464.678449
86.035000	-0.015603	-0.003092	-0.017848	0.001883	7233.610524	45525.299275	3928.809062	24239.227604
86.535500	-0.013466	-0.003061	-0.015201	-0.003442	7309.202590	46054.250573	3948.882383	24502.899825
87.036000	-0.016877	-0.003630	-0.024430	-0.000356	7243.317062	45692.544489	3918.027837	24349.698619
87.536000	-0.012470	-0.003239	-0.019034	-0.003120	7316.097342	46004.507747	3938.372309	24486.837221
88.036500	-0.012241	-0.003167	-0.017240	-0.003211	7319.381077	46020.805917	3943.130540	24491.415133
88.536500	-0.012919	-0.003427	-0.014913	-0.003446	7314.832931	46018.281515	3949.623487	24503.085451
89.039000	-0.018590	-0.003484	-0.020022	-0.000021	7222.747088	45673.901856	3928.133921	24333.120582
89.537000	-0.015631	-0.003408	-0.016603	-0.003679	7289.555715	46043.327374	3945.925987	24514.718625
90.037500	-0.019374	-0.004342	-0.015770	-0.000463	7219.323626	45632.980017	3939.903129	24354.987153
90.535000	-0.013847	-0.004109	-0.014108	-0.004150	7312.540527	46020.444373	3953.467270	24538.176039
91.035000	-0.017868	-0.004552	-0.013631	-0.000737	7237.181669	45639.252559	3945.999920	24368.540100
91.535000	-0.014121	-0.003647	-0.011379	-0.003446	7302.556610	45996.455297	3958.647513	24503.095501
92.035500	-0.013932	-0.003905	-0.012390	-0.003625	7306.306860	45988.572952	3956.515622	24511.996085
92.535500	-0.015392	-0.004380	-0.016749	-0.004074	7296.004802	45985.982925	3946.556734	24534.406845
93.046500	-0.018023	-0.003915	-0.019662	0.000708	7221.124712	45559.834386	3927.214671	24297.123452
93.542500	-0.015676	-0.004668	-0.007129	-0.004014	7292.507820	45951.491485	3971.067300	24531.425885
94.037000	-0.014729	-0.003300	-0.016180	-0.003059	7292.421504	45992.495118	3945.427476	24483.828071
94.534500	-0.015188	-0.004401	-0.017752	-0.004105	7298.396073	45987.020445	3944.094562	24535.950494
95.035000	-0.018953	-0.004720	-0.014016	-0.000068	7219.586528	45556.997623	3943.331200	24335.442506
95.535500	-0.017145	-0.004261	-0.012514	-0.003743	7274.827203	45965.000298	3956.501576	24517.911293
