sample name	sample
index	795
start time	 03-31-2021  02:30:49 PM
880	-0.019873
Peak Time (s)	92.535
Peak Height 	-0.01987
calc peak height	90,93
Baseline Time (s)	9.037
Baseline Value 	-0.00161
subtract baseline	10,4
Abs	0.027330
Peak Time (s)	90.534
Peak Height 	0.02733
calc peak height	90,93
Baseline Time (s)	8.536
Baseline Value 	0.001159
subtract baseline	10,3
PK_550	0.016388
Peak Time (s)	91.535
Peak Height 	0.01639
calc peak height	90,93
Baseline Time (s)	11.036
Baseline Value 	6.8833E-5
subtract baseline	10,2
PK_880	0.021306
Peak Time (s)	92.035
Peak Height 	0.02131
calc peak height	90,93
Baseline Time (s)	11.536
Baseline Value 	4.4238E-4
subtract baseline	10,1


Time (s)	A880-A510	A880-A775	A880-A975	A880	I510	I775	I975	I880	
0.037000	0.000821	0.000871	0.006209	0.002165	6762.910036	40549.278957	4094.490597	22164.347471
0.535000	0.000542	0.000504	-0.003235	0.003407	6750.263943	40411.107677	4070.732392	22110.018276
1.035500	-0.000597	0.000307	-0.001279	0.003072	6743.585304	40422.949998	4075.776268	22124.644502
1.535500	-0.000534	0.000363	-0.003151	0.000941	6761.821865	40610.992462	4076.348557	22218.043828
2.035500	0.001100	0.000595	0.001268	0.001170	6773.538782	40611.217299	4085.648537	22207.983424
2.539000	-0.001593	0.000451	0.002563	0.001011	6752.427045	40612.503459	4088.895467	22214.958759
3.036500	0.001884	0.000881	0.002642	-0.001346	6801.223672	40853.459554	4094.362939	22318.768209
3.536000	0.001797	0.000162	0.002567	-0.000712	6795.162639	40736.375272	4092.770200	22290.823396
4.035500	0.001141	-0.000678	-0.004778	-0.001285	6794.459655	40713.276882	4077.671642	22316.100147
4.537000	-0.000107	0.000110	0.009852	-0.000485	6777.284783	40712.176703	4108.756766	22280.800288
5.034000	0.000614	0.000306	0.000582	-0.000563	6783.985113	40735.908533	4087.987045	22284.253154
5.535000	0.000738	0.001600	-0.000692	0.000608	6775.213284	40746.553519	4082.536701	22232.683856
6.035500	0.001035	0.000023	-0.002471	-0.000219	6784.627917	40681.734779	4080.421869	22269.083855
6.535500	0.001364	0.000430	0.000516	0.000077	6784.898378	40691.277298	4086.410608	22256.048326
7.039000	0.001818	-0.000331	-0.001652	-0.000417	6792.857339	40668.307632	4082.680505	22277.811391
7.536000	0.002500	0.001076	0.000892	0.000372	6791.958006	40721.591908	4086.590251	22243.046846
8.036500	0.002436	0.000381	-0.000013	-0.000137	6795.693236	40705.548787	4085.705790	22265.454116
8.536000	-0.001025	-0.000020	0.000000	-0.000724	6771.611902	40721.594489	4087.045108	22291.324753
9.037000	0.001593	0.000896	-0.000685	0.000000	6787.468853	40738.247484	4083.903285	22259.430292
9.537500	0.002354	-0.000287	0.003457	-0.000534	6798.349780	40682.167937	4094.370754	22282.969314
10.034500	0.000691	0.000628	0.001113	0.000063	6779.379356	40709.650269	4087.773215	22256.658779
10.535000	-0.000171	0.001029	0.001403	0.000336	6769.887201	40720.686133	4087.811086	22244.626828
11.035500	-0.002415	0.000000	-0.001485	0.004457	6717.139578	40278.069593	4072.270580	22064.170045
11.536000	0.000000	-0.000201	-0.000484	-0.001245	6784.544120	40751.019017	4087.128043	22314.309688
12.036000	-0.000018	0.000172	-0.002853	-0.000946	6781.888119	40757.401186	4081.186952	22301.111210
12.536500	0.002162	-0.000012	0.002186	-0.001066	6801.207466	40751.885460	4092.708524	22306.415270
13.036500	0.000987	0.000217	-0.000236	-0.001323	6793.482307	40793.989565	4087.855411	22317.760087
13.536500	0.001820	-0.000230	0.006386	0.000290	6786.935588	40615.935027	4099.119138	22246.660553
14.037000	0.000976	0.000455	0.000923	0.001417	6770.443887	40577.873151	4084.329136	22197.150849
14.534500	-0.000396	0.000846	0.003990	0.002721	6748.165912	40499.264254	4088.262551	22139.977048
15.035000	-0.004164	-0.000913	-0.005836	0.005698	6692.629626	40094.562904	4060.050577	22010.191714
15.547000	0.001209	0.000058	-0.002245	0.000445	6780.518813	40627.459273	4079.449428	22239.840912
16.036000	0.000536	-0.000443	0.000752	-0.000113	6779.553767	40632.315082	4087.359758	22264.386825
16.535500	0.001338	0.000941	0.004272	0.001438	6773.295051	40617.970314	4091.771320	22196.235884
17.036000	0.000915	-0.000363	0.001104	0.000282	6779.417499	40605.161939	4087.264566	22247.014603
17.539000	0.000362	0.000699	0.004942	0.000286	6774.758628	40696.452115	4095.867698	22246.823228
18.036500	-0.001518	-0.000981	-0.003402	-0.000820	6768.296793	40646.955403	4079.690903	22295.579686
18.537000	-0.001126	0.000341	0.000237	0.000689	6758.981175	40630.803078	4084.421178	22229.101676
19.037500	0.001566	0.000289	-0.000878	0.000949	6779.291211	40603.873874	4081.363427	22217.687732
19.538000	-0.000774	-0.000052	-0.003267	0.000935	6759.867167	40575.740048	4076.106101	22218.300323
20.035000	-0.001036	-0.000179	-0.003991	0.000827	6758.586154	40574.113584	4074.745903	22223.040069
20.535000	0.000878	0.000182	-0.003013	0.001494	6768.974479	40547.753586	4075.430960	22193.743373
21.038000	0.002141	0.000081	-0.004230	0.000951	6784.084918	40585.815645	4073.944689	22217.587418
21.536000	0.001810	0.000138	0.001846	0.001072	6780.301515	40580.329144	4087.157651	22212.305347
22.036500	-0.001048	0.000113	-0.000098	0.000903	6757.855601	40592.652596	4083.201324	22219.708610
22.536500	0.000081	0.000173	-0.000382	0.001326	6763.734960	40561.372043	4081.627521	22201.116827
23.037000	0.000921	0.000352	-0.001128	0.001137	6772.328671	40593.189832	4080.393087	22209.451026
23.537000	-0.000763	0.000843	-0.002774	0.001318	6756.770542	40619.884988	4076.348023	22201.482066
24.037500	-0.000090	0.000644	0.005414	0.001731	6758.931816	40567.087428	4093.675851	22183.352169
24.535000	-0.000397	-0.000247	-0.007263	0.001549	6757.896709	40506.135941	4065.977106	22191.339000
25.035500	0.000164	-0.000496	0.003160	0.000413	6772.045363	40582.481967	4091.576581	22241.271097
25.538500	0.000567	0.000255	0.000004	0.001418	6767.019337	40560.571061	4082.282522	22197.094957
26.036000	-0.000607	0.000325	-0.002842	0.001153	6759.446405	40589.481095	4076.564487	22208.749456
26.536000	0.000040	-0.000232	-0.001609	0.000859	6767.285253	40566.786657	4079.942895	22221.647546
27.036500	0.000429	0.000368	0.000424	0.001232	6767.423103	40586.339257	4083.630102	22205.256943
27.536500	0.000941	0.000581	0.001971	0.001374	6770.510390	40592.452607	4086.761855	22199.025864
28.037000	0.001526	0.000313	0.006191	-0.002004	6803.754225	40861.324686	4103.876903	22347.865562
28.537500	0.000077	0.000618	0.001412	0.001045	6766.044805	40623.934303	4086.248248	22213.467092
29.037500	0.001291	0.000097	0.000756	0.000326	6782.198454	40641.091409	4086.388970	22245.077860
29.535500	0.000918	-0.001078	-0.002736	-0.000094	6782.591103	40575.976934	4079.556790	22263.569446
30.038000	0.001669	0.000096	0.001564	0.000861	6780.886017	40594.863867	4086.999801	22221.554328
30.535500	-0.000023	-0.000029	-0.002676	0.000823	6767.055406	40587.311280	4077.657217	22223.205485
31.035500	0.001030	0.000226	0.005342	0.000317	6780.089306	40652.980587	4096.699639	22245.467464
31.538500	0.000884	0.000276	-0.003910	0.000374	6778.392323	40652.306315	4075.924806	22242.961534
32.036500	-0.001190	0.000129	-0.002467	0.002364	6744.539084	40468.437916	4074.717053	22155.618223
32.561500	0.000593	0.000246	0.000747	0.000822	6772.211128	40611.098920	4085.261830	22223.269313
33.037000	0.000810	-0.000242	-0.001696	0.000590	6775.966121	40589.060920	4080.345009	22233.462046
33.537000	0.000636	-0.000318	0.000791	0.000504	6775.233196	40589.916414	4086.069655	22237.253527
34.038000	0.002279	0.000523	-0.002916	0.001118	6783.842767	40609.469014	4076.476731	22210.256827
34.535000	0.002063	0.000247	0.001098	-0.001847	6806.952928	40841.968102	4092.020455	22340.934412
35.035500	-0.002288	-0.000748	-0.002251	0.002149	6737.224163	40411.599831	4075.668458	22165.036561
35.535500	0.000000	-0.000438	-0.001415	0.001505	6761.566670	40493.496025	4078.939952	22193.258322
36.036000	0.002160	0.000053	0.001076	0.001978	6775.652525	40495.012405	4083.420404	22172.535387
36.536500	0.002200	0.000937	0.000396	0.002181	6774.283862	40553.562337	4081.458172	22163.635309
37.036000	-0.003149	-0.000342	0.001275	0.001604	6734.610209	40493.202578	4084.694653	22188.912968
37.537000	0.001844	-0.000096	0.003671	0.001566	6776.447409	40517.619043	4090.134411	22190.597363
38.037000	-0.000479	-0.000050	-0.003525	0.001568	6757.053455	40521.421787	4074.139583	22190.509676
38.534500	-0.001306	0.000238	-0.003714	0.001977	6746.791171	40511.099307	4072.823934	22172.593472
39.035000	0.000545	0.000070	0.001775	0.002091	6761.228271	40486.745939	4084.725913	22167.565137
39.535500	-0.000740	0.000302	0.001693	0.001617	6754.482140	40547.510676	4085.599925	22188.360446
40.035500	-0.001632	0.000872	0.002531	0.002251	6741.814801	40541.962669	4086.055385	22160.565492
40.536000	0.000125	0.000044	-0.000746	0.001220	6764.981436	40559.472384	4081.055990	22205.780831
41.036500	-0.000449	0.001102	0.000667	0.002349	6750.809907	40553.377967	4081.685445	22156.273410
41.536500	0.000966	0.001125	-0.001398	0.002249	6763.421414	40563.908438	4077.331894	22160.665934
42.037000	-0.001646	-0.000691	-0.003873	0.001115	6751.115646	40505.250162	4074.369714	22210.381511
42.536000	-0.000227	-0.000457	0.000734	0.001360	6760.885920	40504.368631	4084.035968	22199.657588
43.037000	-0.000452	0.000029	0.002203	0.001557	6757.371942	40529.132615	4086.871851	22190.998125
43.535000	-0.000557	0.000990	0.001631	0.001845	6754.101794	40587.106182	4084.952808	22178.347839
44.038000	-0.001600	-0.000873	-0.005878	0.001276	6750.170116	40475.798974	4069.608712	22203.339576
44.535500	0.000186	-0.000059	0.001984	0.001282	6764.980498	40545.293473	4086.996875	22203.064461
45.035500	0.002642	0.000176	0.002931	-0.002844	6820.272360	40922.429013	4098.393733	22385.069522
45.535500	0.002237	-0.000077	-0.001923	0.000407	6789.447168	40619.012796	4080.247407	22241.498026
46.064500	0.000708	0.001043	-0.002043	0.001016	6771.545596	40663.105349	4078.630931	22214.728011
46.536500	-0.000053	0.000210	0.001004	0.000724	6767.635905	40616.485556	4086.054403	22227.584682
47.037000	-0.001736	0.000395	-0.004741	0.000430	6756.063655	40657.799409	4073.967376	22240.489362
47.537000	0.000085	-0.000566	0.001847	0.000569	6770.081821	40562.993253	4088.283965	22234.383686
48.037500	0.000889	0.000302	0.003101	0.000807	6774.813323	40617.241274	4090.560331	22223.941829
48.537500	-0.000114	-0.000342	-0.001507	0.001637	6759.516516	40490.385333	4078.445280	22187.478873
49.041000	-0.002229	-0.000723	0.003405	0.001670	6741.685549	40454.806056	4089.306446	22186.036536
49.535500	-0.001614	0.000965	0.000150	0.001220	6750.510294	40638.811143	4083.047450	22205.776317
50.035500	0.000638	0.000811	0.000940	0.001135	6769.974654	40632.854332	4084.996462	22209.533055
50.536000	-0.000029	0.000166	0.000469	0.000711	6767.947771	40613.857021	4084.891131	22228.159070
51.036500	0.003490	0.000620	0.003796	-0.000794	6810.113389	40783.027969	4095.719160	22294.421760
51.536500	0.002709	0.000693	-0.001165	-0.001509	6809.553641	40851.382885	4086.196554	22325.983471
52.037000	0.000095	0.000889	-0.000758	0.003837	6742.983904	40407.208363	4075.237271	22091.211478
52.537000	-0.016422	0.007468	-0.005655	0.295397	4914.559609	22492.173369	3601.195633	12822.716035
53.038000	-0.046914	-0.004486	-0.015544	0.009398	6332.684260	39481.449887	4031.380734	21850.066216
53.535500	-0.059692	-0.054896	-0.019166	-0.263094	8942.581240	63717.834175	4815.222302	38183.452073
54.035000	-0.043725	-0.158534	-0.006487	-0.379576	11010.263789	65535.000000	5403.411734	48964.631753
54.535500	-0.048184	-0.146629	-0.012434	-0.367671	10719.380076	65535.000000	5311.331958	47725.439715
55.035500	-0.047324	-0.127530	-0.012543	-0.348571	10407.817739	65535.000000	5216.393680	45806.940678
55.535500	-0.036739	-0.093509	-0.006742	-0.314550	10026.233300	65535.000000	5084.318123	42591.889786
56.036500	-0.028256	-0.064132	-0.010193	-0.278633	9604.937509	64602.822149	4913.825391	39460.092567
56.536500	-0.017936	-0.081957	-0.011425	-0.302952	10141.349360	65528.290327	5011.929453	41552.116641
57.040000	-0.005013	-0.066720	-0.009743	-0.285227	10064.414768	65172.167279	4943.205233	40015.806748
57.537500	-0.006089	-0.053217	-0.008011	-0.266306	9752.993591	64403.605831	4872.340723	38443.616773
58.038000	-0.011137	-0.018629	-0.007216	-0.196868	8711.365297	59682.180390	4615.712473	33226.597951
58.535000	-0.009113	-0.022548	-0.004782	-0.209834	8906.878544	60871.677235	4669.807933	34138.478431
59.035500	-0.008144	-0.014044	-0.007718	-0.180713	8545.178339	58196.681266	4559.321644	32127.852572
59.535500	-0.003778	-0.009199	-0.003298	-0.160190	8347.925074	56245.925803	4506.821334	30789.693556
60.036000	-0.004598	-0.006414	-0.002000	-0.140581	8108.808918	54229.354200	4449.441385	29568.901299
60.536500	-0.005465	-0.004405	-0.002718	-0.123639	7909.338894	52503.663140	4396.346837	28557.600574
61.036500	-0.008547	-0.003849	-0.001702	-0.104687	7673.601535	50457.858557	4344.586581	27472.109534
61.537000	-0.006252	-0.002956	-0.001069	-0.102081	7670.365380	50271.803094	4339.023160	27326.536954
62.037000	-0.005830	-0.002440	-0.000067	-0.095005	7601.531353	49565.640666	4322.050039	26935.549464
62.537500	-0.005061	-0.001314	0.000786	-0.089278	7550.949697	49076.855325	4308.602435	26623.821301
63.035000	-0.005487	0.000489	0.003948	-0.088702	7540.785045	49206.697206	4315.719141	26592.682706
63.535500	0.009052	0.005994	-0.004539	-0.087115	7673.884794	49623.803529	4288.234070	26507.109461
64.051500	0.009735	0.005072	-0.003755	-0.090100	7712.312020	49845.041935	4298.442403	26668.302006
64.536000	0.010943	0.005442	-0.001192	-0.088583	7709.052593	49721.857487	4301.290456	26586.223315
65.066500	0.011816	0.006561	-0.001109	-0.086195	7693.162885	49586.097411	4295.021924	26457.674622
65.536500	0.013530	0.007546	0.000894	-0.083878	7686.848435	49443.942880	4294.168930	26333.547726
66.036500	0.012672	0.008389	-0.004493	-0.080694	7644.762365	49195.212108	4271.166876	26164.115162
66.537000	0.014386	0.008650	0.001400	-0.077483	7629.270345	48883.686164	4278.314308	25994.475038
67.040000	0.013712	0.007966	0.001861	-0.075387	7600.761569	48592.051165	4273.952184	25884.435771
67.537500	0.014642	0.008621	-0.000079	-0.072315	7578.836371	48340.030439	4260.677390	25724.094533
68.038000	0.015450	0.008475	0.001759	-0.070410	7567.646789	48127.247484	4260.501499	25625.254493
68.535000	0.015530	0.009501	-0.000106	-0.067120	7535.070611	47893.481736	4247.008899	25455.501057
69.036000	0.014814	0.010265	0.005938	-0.064509	7501.555178	47703.710487	4255.975449	25321.705493
69.536000	0.014708	0.010470	0.001109	-0.061514	7470.559824	47418.572062	4235.641270	25169.248719
70.036000	0.015353	0.010281	0.000443	-0.059493	7456.873979	47194.004738	4228.742439	25066.984783
70.536500	0.015793	0.010814	0.005053	-0.058157	7447.991278	47112.711405	4237.154205	24999.622587
71.036500	0.017128	0.011588	0.008770	-0.056196	7441.787454	46992.822385	4241.693425	24901.128502
71.540000	0.017924	0.011357	0.006732	-0.055201	7439.818527	46869.266211	4233.863931	24851.305357
72.034500	0.015653	0.011767	0.009579	-0.052668	7392.561319	46656.148005	4234.672272	24725.011963
72.535000	0.017435	0.011607	0.006402	-0.050652	7390.271089	46438.877908	4221.388010	24625.057434
73.035000	0.019031	0.012413	0.013520	-0.048029	7380.242260	46258.200201	4232.877066	24495.624523
73.535500	0.017097	0.013818	0.005573	-0.045952	7341.293479	46191.614810	4207.415301	24393.721586
74.036000	0.017796	0.012204	0.008015	-0.045325	7341.987470	45970.183391	4211.982321	24363.051919
74.536000	0.019779	0.013815	0.010448	-0.043079	7339.457757	45907.756319	4212.456026	24253.596122
75.036000	0.020027	0.013863	0.007277	-0.042008	7331.513767	45807.217474	4201.807417	24201.578746
75.536500	0.018599	0.013519	0.009321	-0.041530	7313.170435	45726.563605	4205.727680	24178.404933
76.037000	0.017925	0.013593	0.013460	-0.039953	7291.620938	45579.579487	4212.169021	24102.143017
76.537000	0.019834	0.013569	0.014072	-0.039694	7307.412819	45551.927542	4213.059266	24089.630834
77.034500	0.018552	0.013828	0.012611	-0.038761	7286.220249	45486.188600	4207.031985	24044.637765
77.535000	0.018095	0.014607	0.016834	-0.036212	7257.654159	45314.075986	4211.242111	23922.275125
78.035500	0.018386	0.014255	0.009646	-0.035468	7253.368421	45207.916825	4191.438892	23886.717565
78.534500	0.018235	0.014203	0.012722	-0.034531	7243.085139	45112.274695	4196.743401	23841.979432
79.036000	0.019234	0.014842	0.015986	-0.032568	7234.000654	44984.643956	4199.984013	23748.626367
79.536000	0.019756	0.014448	0.009595	-0.031751	7231.217475	44868.200914	4182.157382	23709.861764
80.039000	0.017618	0.014232	0.010243	-0.031892	7212.472007	44861.050997	4184.094602	23716.571876
80.537000	0.018382	0.014322	0.017158	-0.030618	7207.695445	44747.549694	4198.044693	23656.281546
81.037000	0.017564	0.014538	0.012816	-0.029560	7190.178173	44667.025189	4184.687548	23606.352757
81.537500	0.017296	0.014688	0.012395	-0.029629	7188.327876	44687.947666	4183.821351	23609.613078
82.035000	0.018187	0.014073	0.012668	-0.029471	7195.154987	44614.173430	4184.104449	23602.168816
82.535000	0.018258	0.013933	0.017907	-0.029088	7192.243199	44564.253669	4196.104099	23584.119778
83.035000	0.016456	0.014243	0.014655	-0.027814	7163.675677	44472.490637	4184.915510	23524.224673
83.536000	0.017363	0.013290	0.016543	-0.028314	7176.715654	44429.419728	4190.802739	23547.684347
84.036000	0.018888	0.015363	0.013770	-0.026185	7171.111254	44424.084052	4178.751328	23447.882058
84.536000	0.017156	0.013796	0.017761	-0.026398	7157.053857	44295.658245	4189.078075	23457.850505
85.037000	0.018503	0.014255	0.017882	-0.025441	7160.658747	44248.561331	4187.017483	23413.116099
85.539000	0.018460	0.014365	0.020528	-0.025133	7157.408313	44229.855472	4192.791808	23398.730941
86.040000	0.017885	0.014445	0.015187	-0.024350	7144.876551	44163.445534	4177.730052	23362.229635
86.537000	0.017293	0.014520	0.017155	-0.023912	7135.407570	44129.225293	4181.473530	23341.874522
87.035000	0.020386	0.014231	0.018270	-0.023714	7162.103302	44083.342596	4183.724730	23332.659955
87.535000	0.019289	0.015068	0.018475	-0.022880	7144.270902	44083.603927	4182.179398	23293.887890
88.035000	0.018171	0.015210	0.018135	-0.022607	7131.486120	44071.297759	4180.678031	23281.258752
88.536000	0.020438	0.014749	0.017185	-0.022847	7154.571330	44050.463429	4178.938631	23292.362021
89.035500	0.018694	0.014616	0.014239	-0.022027	7130.957943	43960.824620	4169.769527	23254.346602
89.536500	0.018602	0.014372	0.018347	-0.022010	7129.959250	43936.303345	4179.734509	23253.560506
90.039500	0.017941	0.014648	0.016727	-0.021794	7121.926276	43941.982529	4175.251355	23243.580444
90.534000	0.020638	0.015569	0.027330	-0.020891	7138.386405	43943.675333	4199.152898	23201.788917
91.034000	0.018298	0.015313	0.019990	-0.021222	7119.951667	43950.674004	4181.828977	23217.077791
91.535000	0.020446	0.016388	0.021268	-0.020386	7131.979018	43973.140401	4182.912705	23178.471227
92.035000	0.021306	0.015293	0.022771	-0.021141	7146.835399	43941.224541	4188.469946	23213.341744
92.535000	0.019912	0.015788	0.017933	-0.019873	7122.370903	43868.713448	4173.509855	23154.802885
93.036000	0.020667	0.015095	0.018161	-0.020928	7138.990967	43902.690798	4176.636272	23203.506582
93.536000	0.020663	0.015377	0.025212	-0.020872	7138.446535	43923.942227	4193.843431	23200.935801
94.036500	0.021424	0.015674	0.019733	-0.020978	7146.422196	43961.708697	4180.601774	23205.833081
94.536500	0.019826	0.014806	0.018918	-0.021594	7137.381932	43938.000085	4180.114004	23234.292723
95.037500	0.018647	0.014950	0.012732	-0.020909	7120.286706	43887.343740	4163.426614	23202.647119
95.561500	0.019133	0.015858	0.023608	-0.020500	7120.992308	43934.104854	4188.952603	23183.751824
96.055000	0.021172	0.015403	0.024920	-0.020605	7140.674708	43901.338994	4192.456483	23188.603317
96.534500	0.020472	0.015495	0.025419	-0.020562	7133.834602	43905.851587	4193.586929	23186.608337
97.035500	0.019900	0.014768	0.019694	-0.021398	7136.259421	43916.083228	4181.533796	23225.230031
97.536000	0.018804	0.015064	0.020350	-0.020838	7121.065976	43891.319629	4181.768351	23199.334250
98.036000	0.019749	0.015313	0.019138	-0.020942	7130.688272	43924.467999	4179.057647	23204.164388
98.536500	0.017441	0.014455	0.020349	-0.021533	7114.958795	43899.399673	4183.474614	23231.495586
