sample name	sample
index	546
start time	 03-15-2021  11:17:07 AM
880	-0.055937
Peak Time (s)	90.537
Peak Height 	-0.05594
calc peak height	90,93
Baseline Time (s)	8.54
Baseline Value 	-0.005566
subtract baseline	10,4
Abs	0.002315
Peak Time (s)	91.535
Peak Height 	0.002315
calc peak height	90,93
Baseline Time (s)	11.036
Baseline Value 	0.005259
subtract baseline	10,3
PK_550	-0.001941
Peak Time (s)	91.535
Peak Height 	-0.001941
calc peak height	90,93
Baseline Time (s)	10.536
Baseline Value 	3.5668E-4
subtract baseline	10,2
PK_880	0.001623
Peak Time (s)	91.535
Peak Height 	0.001623
calc peak height	90,93
Baseline Time (s)	9.535
Baseline Value 	0.001554
subtract baseline	10,1


Time (s)	A880-A510	A880-A775	A880-A975	A880	I510	I775	I975	I880	
0.034500	0.000861	-0.000819	-0.008913	0.003165	6114.342678	40453.661015	3716.376736	21374.606278
0.535500	-0.001830	-0.000373	-0.006757	0.005773	6074.080818	40266.718071	3715.389716	21263.291832
1.035500	-0.002526	-0.000308	-0.004906	0.004293	6080.016502	40400.260101	3722.678560	21326.383301
1.536000	-0.004147	-0.000936	-0.011128	0.006283	6052.809985	40174.307630	3704.814729	21241.616155
2.036000	-0.002808	-0.001099	0.003526	0.000313	6108.103577	40677.116021	3750.327265	21497.052390
2.539000	-0.000750	0.000324	0.000988	0.000821	6119.953601	40757.018127	3743.470366	21475.192318
3.036500	0.001522	0.000465	0.000789	-0.000524	6147.767101	40887.071935	3746.045907	21533.174081
3.537000	0.000856	0.000409	0.001198	0.001823	6124.584507	40677.064147	3741.694008	21432.140591
4.039500	0.000781	-0.000154	0.003891	0.000275	6135.887728	40762.944927	3751.238544	21498.685980
4.537000	0.001506	0.001093	-0.007324	0.000903	6136.638341	40817.051297	3724.813893	21471.645479
5.035000	-0.000930	-0.000701	-0.003432	0.000102	6124.084988	40730.285836	3735.199993	21506.160808
5.535500	-0.000087	0.000111	-0.001757	0.000461	6127.799120	40769.887952	3738.133633	21490.699812
6.035500	0.000475	-0.000163	-0.004819	0.000238	6133.823048	40765.353202	3731.817832	21500.287324
6.536000	-0.001341	-0.000240	0.005830	-0.000203	6123.273305	40797.267268	3756.723075	21519.316117
7.036500	-0.000187	-0.000724	0.001894	-0.000382	6133.498286	40770.482682	3748.212811	21527.011826
7.536000	0.001097	-0.001000	0.001064	-0.000479	6144.134690	40754.903353	3746.560565	21531.194445
8.036500	-0.001391	-0.000658	-0.001206	-0.000334	6123.893826	40772.170341	3741.142152	21524.968446
8.539500	0.000396	-0.000188	0.003514	0.000000	6135.043041	40783.997355	3751.008568	21510.548788
9.037500	0.002000	0.000824	-0.002026	0.000576	6142.964254	40822.144339	3737.276215	21485.722161
9.535000	0.000000	0.000092	0.003793	-0.000280	6134.151268	40832.914918	3752.272679	21522.607180
10.035000	-0.000607	-0.000340	0.000731	-0.000492	6131.116255	40813.655234	3745.841253	21531.753253
10.535500	-0.001608	0.000000	-0.007594	0.000069	6119.138806	40794.421020	3726.058242	21507.581453
11.035500	-0.001525	-0.000610	0.000000	-0.000253	6122.241459	40769.218696	3743.661800	21521.446008
11.536000	0.002649	0.000174	-0.000519	0.000183	6151.005973	40799.682520	3741.523230	21502.680805
12.036000	0.001570	0.000247	0.000690	-0.000039	6144.393837	40825.502279	3744.732514	21512.243227
12.536500	-0.000382	-0.000325	-0.003441	-0.001059	6137.212220	40864.698264	3737.767582	21556.273419
13.036500	-0.000335	-0.000526	0.000334	-0.002895	6151.727979	41008.157724	3750.363327	21635.768544
13.537000	0.000184	-0.000159	0.001053	-0.001088	6141.795299	40881.832664	3747.910400	21557.524952
14.034500	0.000705	0.000006	0.003993	-0.000498	6141.259267	40844.548388	3753.219866	21532.040672
14.535000	-0.000444	-0.000645	-0.007532	0.002106	6112.469703	40560.692406	3721.715879	21419.994968
15.035000	-0.000087	0.000642	-0.000640	0.000236	6129.524759	40835.965056	3741.131858	21500.381473
15.538500	-0.001324	0.000074	-0.004957	-0.000458	6125.358441	40847.013793	3733.056689	21530.320181
16.036000	0.001206	0.000251	-0.002365	-0.001047	6149.358251	40914.167821	3740.142824	21555.750196
16.536000	-0.002441	-0.000481	0.000813	0.002698	6092.740661	40523.397527	3738.875942	21394.571422
17.039000	0.000791	0.000076	0.000131	-0.000808	6144.310337	40877.857508	3745.204430	21545.420536
17.536500	0.003482	-0.000306	0.002013	-0.003415	6185.427854	41073.349580	3755.345974	21658.363157
18.039500	0.002969	-0.000014	0.002407	-0.002006	6170.454523	40975.024075	3753.043236	21597.239891
18.537000	-0.001215	0.000262	-0.000036	0.002209	6105.794473	40630.533508	3738.070888	21415.542611
19.037000	0.000473	0.000461	0.002453	0.001422	6124.712475	40716.470722	3745.409463	21449.322826
19.535000	0.001524	0.001054	0.000164	0.002101	6127.572187	40709.018294	3738.759784	21420.195273
20.035000	0.001056	-0.000465	-0.001823	0.000914	6133.089085	40680.022017	3736.975456	21471.174328
20.535500	-0.000355	0.000213	0.002070	0.002273	6111.868204	40620.717831	3742.638648	21412.796791
21.035000	0.000380	0.000279	-0.000184	0.001394	6124.222145	40703.006203	3739.562341	21450.542083
21.536500	0.000653	0.000390	0.005983	0.001850	6122.818797	40672.994342	3752.410389	21430.966633
22.036000	0.000648	0.000072	0.002195	0.001182	6127.902927	40703.564001	3745.370990	21459.680822
22.537000	-0.001538	-0.001388	-0.000892	0.000604	6115.582583	40626.680557	3739.744841	21484.542673
23.036500	-0.003036	-0.000649	-0.000725	0.000656	6103.750593	40686.457909	3740.000586	21482.272487
23.537500	0.000893	0.000640	-0.007242	0.001438	6127.822342	40730.727673	3723.820349	21448.676606
24.038000	-0.001778	0.000883	-0.001588	0.002013	6102.994693	40701.728868	3735.051989	21423.964796
24.535000	-0.002265	-0.000413	-0.002382	0.001653	6102.030734	40620.238494	3734.086383	21439.422057
25.035500	-0.002105	-0.000447	-0.000900	0.000799	6109.763207	40691.679199	3739.292619	21476.141119
25.536000	0.000499	-0.000337	-0.001336	0.001428	6124.867173	40646.344157	3736.914071	21449.072106
26.036000	-0.000689	0.000056	-0.001773	0.001429	6115.762727	40680.513054	3735.938326	21449.030290
26.536000	0.000036	0.000870	-0.005207	0.002481	6113.268242	40659.851980	3726.001970	21403.900989
27.036500	-0.001676	-0.001079	-0.003571	0.002018	6103.733893	40530.594356	3730.639446	21423.740578
27.539500	-0.001339	-0.000664	-0.003618	0.000971	6114.299001	40657.719189	3732.856167	21468.723389
28.037000	0.000184	-0.000068	-0.000326	-0.002037	6149.111060	40973.016181	3746.939233	21598.576133
28.537500	-0.000972	0.000156	-0.003721	0.004095	6093.290923	40457.567013	3725.720525	21334.828559
29.067500	0.001114	0.000349	-0.001732	-0.000361	6143.357495	40862.605738	3740.025081	21526.113946
29.535500	-0.000498	0.000218	-0.001512	-0.000662	6133.268932	40877.509953	3741.191521	21539.127371
30.035500	0.000521	-0.000434	0.000054	-0.001138	6144.775567	40862.069693	3745.772122	21559.685524
30.536000	-0.002455	-0.000548	-0.005627	0.003523	6086.376803	40446.033428	3722.785164	21359.264796
31.036000	-0.002782	0.000181	0.002277	0.003310	6085.514823	40527.744757	3740.779492	21368.371618
31.536500	-0.000237	0.001673	0.001220	0.003469	6103.638980	40643.688668	3738.063297	21361.567198
32.037000	-0.000590	0.000036	-0.004238	0.002410	6109.031072	40593.475368	3728.297340	21406.954231
32.537000	0.001454	0.001249	0.001768	0.000211	6141.569848	40891.375073	3746.593701	21501.463053
33.037000	-0.002628	-0.000417	-0.008428	0.003482	6085.377962	40461.021579	3716.743458	21361.037963
33.537500	0.001386	-0.000195	-0.001031	-0.000435	6146.027923	40821.436705	3741.759145	21529.329114
34.035000	0.002579	0.000073	-0.000309	-0.000490	6155.668846	40849.671222	3743.502142	21531.689181
34.535500	-0.000788	0.000959	-0.001055	-0.000319	6128.400766	40912.399449	3741.444340	21524.306523
35.035500	-0.001446	-0.000225	-0.007096	0.003549	6093.831847	40471.785493	3719.506526	21358.145859
35.536000	0.001544	-0.000099	0.001212	0.002503	6124.642908	40573.609161	3740.205103	21402.962354
36.035500	-0.000320	0.000473	-0.001188	0.002667	6109.127517	40609.080425	3734.485863	21395.930256
36.536500	-0.000280	-0.000065	0.001134	0.002074	6113.963024	40613.825380	3740.989862	21421.357499
37.039500	0.000290	-0.000445	-0.003065	0.003156	6110.053382	40486.823632	3729.241085	21374.985112
37.537000	-0.000329	0.000163	0.001801	0.002049	6113.777050	40635.896889	3742.538946	21422.413990
38.037000	-0.001632	-0.000008	-0.005376	0.002079	6103.610668	40618.417186	3726.517075	21421.150214
38.534500	-0.002034	-0.000024	-0.002026	0.001984	6101.264854	40625.198893	3734.141673	21425.206736
39.035000	0.000822	-0.000254	-0.003328	0.001824	6124.312118	40619.188102	3731.608357	21432.083682
39.535500	-0.000484	0.000446	0.003348	0.002788	6106.952607	40596.143417	3744.350093	21390.724141
40.035500	-0.001753	-0.000070	-0.001433	0.001856	6104.381589	40632.353992	3735.744861	21430.688570
40.536000	0.001043	-0.000166	-0.004157	0.003177	6115.643356	40509.158540	3726.780721	21374.061906
41.036500	-0.001531	-0.000070	-0.005542	0.001757	6106.828690	40640.975942	3726.860352	21434.942181
41.539500	0.001548	0.000154	-0.008131	0.001983	6128.665596	40640.827900	3720.672656	21425.266776
42.037000	0.001796	0.000312	-0.000416	0.002534	6126.340780	40606.629192	3736.501595	21401.637393
42.537000	-0.000019	0.000433	0.005896	0.003415	6105.713838	40540.510834	3748.675552	21363.892941
43.034500	-0.000795	0.000610	-0.000357	0.002406	6107.494617	40643.683578	3736.917755	21407.109329
43.535000	-0.000794	0.000343	-0.001076	0.001964	6110.875341	40658.965908	3736.300470	21426.080580
44.038000	-0.001168	-0.000114	0.000948	0.001989	6107.830644	40616.980457	3740.764465	21425.013496
44.535500	-0.001999	0.000338	-0.001502	0.003157	6092.618968	40554.702104	3732.701156	21374.935964
45.035500	0.002237	0.001003	0.002372	-0.002466	6168.333270	41105.036978	3754.007259	21617.162562
45.536500	0.002750	0.000241	-0.001661	-0.000068	6153.731640	40827.533172	3739.528465	21513.489979
46.036500	0.001880	0.000361	0.006319	-0.000082	6147.112834	40839.173563	3757.558321	21514.081544
46.536500	-0.001701	0.000661	0.001313	0.003844	6089.661032	40523.072147	3737.433463	21345.554766
47.040000	-0.002952	0.000912	0.003243	0.005900	6064.669595	40366.746634	3737.151415	21257.890132
47.537500	0.000145	0.000324	0.000134	-0.000439	6136.495600	40867.200180	3744.381646	21529.490108
48.035000	0.000351	0.000858	0.004837	0.000251	6132.773513	40853.576413	3753.436330	21499.728875
48.557000	-0.003889	-0.000919	-0.001781	0.003594	6074.990279	40407.800988	3731.112256	21356.234687
49.035500	-0.004012	-0.000195	-0.002607	0.004889	6064.302490	40358.433806	3726.424741	21300.958342
49.535500	-0.001307	0.000558	0.002538	0.001283	6112.158084	40737.078237	3745.912174	21455.301022
50.052500	0.002464	0.000600	0.002271	0.000175	6149.643189	40837.619115	3747.807995	21503.017770
50.536000	-0.002097	0.000431	0.001097	0.003933	6085.988749	40495.418298	3736.755464	21341.762383
51.039500	-0.000711	0.000199	-0.004063	0.004532	6091.952349	40423.403846	3724.005018	21316.180341
51.537000	0.001881	0.000967	0.005251	-0.002481	6165.685224	41103.139717	3760.593609	21617.806681
52.037000	0.001049	0.000648	-0.000730	0.001868	6125.711168	40693.881882	3737.283496	21430.169769
52.537500	0.011049	-0.010536	0.009334	0.220174	4856.642577	25148.754270	3368.449941	14064.607778
53.035000	-0.006487	-0.014174	-0.003363	0.124814	5261.290487	30399.022243	3494.134868	16833.719348
53.535000	-0.016047	-0.026516	-0.005486	-0.122594	7059.912937	50204.291000	4044.595728	27617.279456
54.035000	-0.022706	-0.119444	-0.008152	-0.337264	9680.413267	65535.000000	4847.357552	43492.187039
54.535500	-0.009847	-0.104485	0.003372	-0.322304	9647.192358	65535.000000	4830.983694	42113.981377
55.035000	-0.011770	-0.061000	0.000678	-0.265455	8779.866954	63634.557923	4566.797034	37288.752258
55.535500	-0.014534	-0.040664	-0.002402	-0.231588	8295.762990	61769.175596	4420.176788	34700.551360
56.036500	-0.016943	-0.029990	-0.007956	-0.204612	7935.855867	59597.321419	4301.012385	32778.528349
56.534000	-0.012113	-0.035863	-0.008161	-0.234771	8367.204401	62862.745561	4410.409334	34935.279102
57.034500	-0.005150	-0.026301	-0.012043	-0.219412	8260.496522	62066.568827	4339.273499	33818.189237
57.534500	0.001621	-0.022151	-0.006278	-0.213273	8268.456866	61795.963642	4337.923906	33382.642319
58.035000	0.002984	-0.023365	-0.003134	-0.215149	8309.444339	61885.888610	4356.162927	33515.099236
58.539000	0.000241	-0.014141	-0.005977	-0.181994	7871.938228	58719.338396	4229.909326	31256.597093
59.035500	-0.002297	-0.010385	-0.010238	-0.156259	7551.939151	55960.895100	4132.408727	29618.575932
59.536000	0.003110	-0.009654	-0.006354	-0.141045	7445.724270	54218.026591	4097.300779	28694.911603
60.036500	-0.000162	-0.008512	-0.005889	-0.121282	7205.453784	52060.853935	4039.566725	27542.342508
60.537500	-0.001409	-0.006898	-0.008084	-0.106062	7041.355913	50542.245204	3989.624449	26689.858749
61.036500	-0.005976	-0.007142	-0.006807	-0.092972	6872.164822	49099.286199	3956.868969	25980.142220
61.538000	-0.000308	-0.004390	-0.009359	-0.082513	6827.434066	48285.271349	3921.810683	25428.278421
62.037500	-0.001223	-0.005733	-0.003260	-0.084987	6841.929764	48403.847475	3944.792236	25557.615677
62.534500	-0.003475	-0.007940	-0.012529	-0.102483	6986.508777	50037.058988	3967.277396	26493.650152
63.035500	-0.004870	-0.004936	-0.010769	-0.082418	6784.418079	48218.257177	3917.822649	25423.329166
63.535500	-0.007253	-0.004468	-0.008952	-0.098096	6908.444065	49937.679228	3965.045871	26255.396390
64.061000	-0.004658	-0.003473	-0.006319	-0.097644	6928.796888	49996.723054	3971.068884	26231.003466
64.536000	-0.007671	-0.003609	-0.011148	-0.093234	6858.734122	49505.415527	3945.766105	25994.152187
65.036500	-0.010021	-0.003928	-0.011471	-0.090237	6809.000859	49150.292242	3936.801295	25834.524396
65.536500	-0.005871	-0.004598	-0.008006	-0.091782	6861.989052	49243.675677	3950.352198	25916.650561
66.037000	-0.006452	-0.004891	-0.011894	-0.090137	6841.196444	49037.104398	3935.398940	25829.255385
66.537000	-0.009721	-0.004935	-0.013873	-0.083135	6746.617105	48293.313051	3911.522478	25460.689094
67.034500	-0.010377	-0.004294	-0.014690	-0.081877	6729.240153	48228.771443	3906.078967	25395.139133
67.537500	-0.007786	-0.004382	-0.012324	-0.084622	6777.876696	48507.416811	3919.538156	25538.459939
68.035000	-0.008845	-0.005170	-0.009395	-0.083438	6757.358503	48300.405912	3924.171276	25476.512794
68.535500	-0.010535	-0.005096	-0.011615	-0.078156	6694.250075	47758.309378	3904.386458	25202.226533
69.036000	-0.009926	-0.005569	-0.011409	-0.075243	6673.624270	47409.296147	3897.331067	25052.380577
69.536500	-0.007239	-0.004748	-0.009725	-0.078886	6730.567313	47869.939898	3911.256215	25239.937471
70.039000	-0.008435	-0.005686	-0.005291	-0.078411	6715.452625	47723.593778	3921.718951	25215.391619
70.536500	-0.010716	-0.005674	-0.007607	-0.071363	6632.136783	47002.041848	3897.130837	24854.376258
71.037000	-0.010606	-0.005014	-0.013659	-0.071883	6637.706400	47122.225982	3882.849708	24880.795353
71.535500	-0.008396	-0.005406	-0.008085	-0.074626	6681.780815	47362.670055	3904.387370	25020.773932
72.035000	-0.008776	-0.005190	-0.005045	-0.073332	6666.829866	47252.357043	3908.961206	24954.638271
72.534500	-0.009832	-0.005743	-0.010844	-0.068505	6614.735027	46705.247010	3881.406265	24709.615582
73.035500	-0.008639	-0.004425	-0.008760	-0.067413	6615.622502	46728.149713	3883.952956	24654.578172
73.536000	-0.004082	-0.004358	-0.006679	-0.069948	6678.529590	46992.026731	3895.865676	24782.599189
74.036000	-0.006803	-0.004685	-0.008205	-0.069304	6648.557682	46893.462766	3890.250046	24750.023582
74.539000	-0.009944	-0.005529	-0.012090	-0.063800	6572.603502	46253.896770	3866.269302	24473.411997
75.037000	-0.008485	-0.004662	-0.006929	-0.063592	6583.498510	46319.837039	3878.854237	24463.036587
75.536500	-0.006062	-0.003813	-0.003150	-0.066189	6627.543526	46666.292781	3895.268910	24593.021897
76.037000	-0.006122	-0.004289	-0.010975	-0.065673	6622.474021	46566.368204	3873.844548	24567.163418
76.534500	-0.006758	-0.004818	-0.010622	-0.060377	6570.537438	45983.429098	3861.338727	24303.138828
77.035000	-0.005651	-0.003216	-0.005868	-0.061254	6587.833015	46230.566915	3875.596790	24346.662638
77.535000	-0.005002	-0.003062	-0.006872	-0.062758	6606.676608	46396.600127	3876.871039	24421.455203
78.035500	-0.004421	-0.003111	-0.009113	-0.062252	6607.337989	46340.890162	3869.884607	24396.232084
78.538500	-0.007956	-0.003847	-0.007354	-0.056957	6530.607355	45740.784722	3860.957959	24134.401907
79.036000	-0.003409	-0.002890	-0.007053	-0.059112	6588.704679	46049.470478	3867.151886	24240.585079
79.542000	-0.003671	-0.003671	-0.004381	-0.061024	6603.145929	46162.205114	3878.804283	24335.235671
80.036500	-0.004179	-0.003509	-0.001500	-0.061103	6599.378337	46186.219587	3886.393490	24339.140044
80.539500	-0.003921	-0.004078	0.001639	-0.060644	6597.627845	46083.730417	3893.310946	24316.407694
81.034500	-0.005577	-0.004727	-0.005367	-0.057797	6558.402771	45736.897255	3868.090898	24175.732510
81.537500	-0.004187	-0.002388	-0.000314	-0.059135	6582.115320	46101.680832	3884.383162	24241.714937
82.035000	-0.003338	-0.004116	-0.004336	-0.060354	6600.183645	46050.953991	3877.205674	24302.004426
82.534500	-0.006889	-0.003947	-0.007332	-0.054333	6517.238416	45472.436310	3854.436832	24005.815224
83.035500	-0.003683	-0.003419	0.001566	-0.057650	6573.565534	45851.691439	3885.396623	24168.473483
83.538000	-0.001454	-0.004100	-0.000755	-0.060023	6613.820823	46019.677870	3885.532698	24285.639150
84.039000	-0.003430	-0.004255	-0.004251	-0.060029	6596.536808	46004.922539	3876.595223	24285.943235
84.536500	-0.002324	-0.003110	-0.006787	-0.059907	6605.159422	46106.718760	3869.838026	24279.901394
85.037000	-0.003031	-0.003933	-0.009302	-0.057653	6579.267220	45801.039195	3857.812005	24168.604514
85.537000	-0.001895	-0.004108	-0.001149	-0.060487	6614.020631	46065.102305	3885.710086	24308.601232
86.037500	-0.000323	-0.002958	-0.005700	-0.059510	6619.254517	46082.230974	3871.586291	24260.223699
86.535000	-0.001191	-0.003258	-0.002622	-0.059840	6614.520348	46085.242751	3880.271757	24276.547641
87.035000	-0.002357	-0.002569	-0.002819	-0.057690	6585.470550	45939.976393	3874.283999	24170.464369
87.535000	-0.000137	-0.003024	-0.002921	-0.060385	6628.616876	46162.986028	3880.903778	24303.556621
88.035500	0.000320	-0.002830	0.000273	-0.060203	6631.045449	46164.096223	3888.641384	24294.531530
88.538500	0.000415	-0.002872	-0.003018	-0.060386	6633.497047	46178.207255	3880.655538	24303.584232
89.036500	-0.004020	-0.003006	-0.000925	-0.059452	6586.332480	46071.714767	3883.628683	24257.379788
89.536500	0.000410	-0.002970	-0.000916	-0.060682	6636.071129	46198.071265	3886.813402	24318.286559
90.037000	-0.001158	-0.002307	-0.006736	-0.061161	6626.447005	46312.173013	3873.148819	24342.022402
90.537000	-0.005486	-0.002851	-0.004214	-0.055937	6543.096823	45738.353723	3866.300855	24084.297086
91.034500	-0.001681	-0.002508	0.001370	-0.058880	6601.794806	46064.339299	3888.059472	24229.114250
91.535000	0.001623	-0.001941	0.002315	-0.061060	6650.168447	46338.695646	3896.140443	24336.996802
92.034500	-0.001177	-0.002198	-0.002192	-0.061729	6631.297531	46380.015266	3886.222936	24370.225878
92.535500	-0.003012	-0.002382	-0.001825	-0.057008	6573.817517	45890.854281	3875.079499	24136.909999
93.036000	-0.002455	-0.003263	-0.003171	-0.060604	6610.126256	46160.983517	3880.823613	24314.393375
93.538500	0.001557	-0.002298	-0.005178	-0.061612	6654.490600	46358.294920	3878.269331	24364.438607
94.036500	0.001336	-0.002370	-0.004966	-0.061872	6654.830826	46377.174236	3879.475431	24377.358869
94.536000	-0.002949	-0.003003	-0.008119	-0.057621	6579.706461	45890.099680	3860.703557	24167.043573
95.036000	-0.000931	-0.002621	-0.002127	-0.060916	6626.294234	46256.282047	3884.301569	24329.897142
95.608500	0.002032	-0.002828	-0.003460	-0.062409	6665.809137	46384.999213	3884.711498	24404.047902
96.034500	-0.000423	-0.002393	0.002185	-0.062201	6642.147973	46407.834259	3898.766851	24393.713857
96.555000	-0.004249	-0.002898	-0.003342	-0.056545	6559.055605	45793.823433	3870.046519	24114.135237
97.035500	0.000083	-0.001852	-0.001512	-0.060114	6628.158316	46252.959043	3883.819222	24290.118247
97.535500	0.000200	-0.001475	0.004893	-0.060748	6634.792734	46354.135320	3902.037071	24321.528199
98.036500	0.000526	-0.002789	0.001276	-0.062067	6649.373416	46354.681820	3896.059521	24387.066879
98.536500	0.000571	-0.002965	-0.005603	-0.062044	6649.564182	46334.773206	3878.287061	24385.908442
99.037000	-0.001371	-0.002917	0.001899	-0.060640	6619.978450	46199.048598	3893.972936	24316.182178
