sample name	sample
index	602
start time	 03-16-2021  05:09:57 PM
880	0.223923
Peak Time (s)	182.537
Peak Height 	0.2239
calc peak height	180,183
Baseline Time (s)	11.537
Baseline Value 	-0.005374
subtract baseline	10,4
Abs	0.157256
Peak Time (s)	180.035
Peak Height 	0.1573
calc peak height	180,183
Baseline Time (s)	11.036
Baseline Value 	0.001563
subtract baseline	10,3
PK_550	0.089651
Peak Time (s)	181.538
Peak Height 	0.08965
calc peak height	180,183
Baseline Time (s)	11.537
Baseline Value 	0.001101
subtract baseline	10,2
PK_880	0.145970
Peak Time (s)	180.535
Peak Height 	0.146
calc peak height	180,183
Baseline Time (s)	9.536
Baseline Value 	0.001041
subtract baseline	10,1


Time (s)	A880-A510	A880-A775	A880-A975	A880	I510	I775	I975	I880	
0.035500	0.001140	-0.000585	-0.001756	0.002265	5599.303342	33744.108859	3650.544447	18329.627557
0.535500	-0.001095	-0.000416	-0.003814	0.004491	5571.634213	33598.477167	3642.820508	18250.686512
1.036500	-0.001025	-0.001345	-0.004796	0.003312	5579.349590	33616.182495	3643.174389	18292.453918
1.536500	-0.003634	-0.001065	-0.004549	0.005095	5552.302860	33510.103351	3640.420857	18229.305924
2.037000	-0.000084	-0.000471	-0.002778	0.001099	5598.942808	33835.072446	3650.805305	18371.165475
2.537000	0.002015	0.000477	0.003799	0.001674	5608.454726	33861.581328	3661.759028	18350.657372
3.035000	0.001391	0.000004	0.000479	-0.001422	5623.971697	34049.084836	3661.348807	18461.334893
3.535000	0.001682	-0.000288	0.002268	0.000734	5612.260857	33874.085763	3660.673511	18384.176579
4.035500	0.000262	-0.000703	-0.002703	0.000223	5606.570436	33880.960746	3652.531622	18402.444725
4.538000	0.001291	0.000014	0.000871	0.000701	5610.013661	33897.957761	3658.174003	18385.344128
5.035500	0.000756	-0.000423	0.002752	0.000228	5609.635390	33900.578623	3662.493230	18402.267639
5.536000	-0.000215	-0.000922	0.000814	-0.000346	5607.142635	33905.906079	3659.988231	18422.762445
6.036500	0.000195	-0.000197	0.002783	0.000251	5605.979066	33915.042375	3662.508929	18401.446739
6.537000	0.000740	0.000061	0.002953	0.000219	5609.580300	33935.718665	3662.878285	18402.557227
7.037000	0.000759	0.000027	0.001288	0.000375	5608.724743	33922.136921	3659.535026	18396.990837
7.534000	0.002248	-0.000262	-0.000582	-0.000384	5622.829077	33955.722293	3657.501719	18424.140137
8.035000	0.000621	0.000418	0.001809	0.000376	5607.859305	33950.016503	3660.488463	18396.955728
8.535000	-0.000129	-0.000240	-0.001448	0.000006	5605.483400	33929.460679	3655.208741	18410.191239
9.035500	0.000303	-0.000549	0.005526	-0.000239	5609.719681	33924.863033	3668.477907	18418.949243
9.535500	0.000000	-0.000733	0.003428	-0.000577	5609.934707	33935.865498	3665.220614	18431.032962
10.036000	-0.000882	0.000235	-0.002990	-0.000443	5603.586462	33995.524453	3653.220362	18426.251675
10.536500	-0.002107	0.001192	0.001806	0.000524	5589.926754	33994.740958	3660.211528	18391.671884
11.036000	0.001532	0.000521	0.000000	0.000244	5614.386458	33966.778006	3657.417045	18401.668734
11.536500	0.002012	0.000000	-0.000562	0.000000	5618.934802	33947.015420	3656.837319	18410.400029
12.037000	-0.001801	-0.000146	-0.001963	0.005322	5562.161427	33558.846506	3644.651571	18221.291092
12.537000	0.001901	-0.000376	0.002649	-0.000683	5622.531046	33968.928797	3663.980396	18434.831875
13.037500	0.003022	-0.000458	0.002683	-0.000702	5629.707623	33964.473132	3664.079117	18435.522316
13.535000	-0.000462	-0.000751	0.001149	-0.000363	5605.706875	33919.322734	3660.633248	18423.375457
14.038500	-0.000430	-0.001022	-0.004401	0.003746	5580.346060	33608.303886	3643.102779	18277.057659
14.536000	-0.000575	-0.000472	0.000219	0.002409	5587.737762	33741.949829	3653.870337	18324.530636
15.036000	0.000457	0.000376	0.007384	0.000039	5608.938237	33971.060966	3671.408982	18408.989908
15.536500	0.001731	-0.000455	0.002138	-0.000182	5618.307018	33927.488967	3662.117264	18416.893414
16.037000	-0.001802	-0.000010	0.000000	0.005764	5559.438281	33537.253070	3647.391951	18205.688090
16.540000	0.001550	0.000914	0.003691	0.001150	5608.827513	33930.167050	3662.523957	18369.342587
17.037500	0.004002	-0.000266	0.002395	-0.003088	5651.017192	34149.295187	3667.956261	18521.205420
17.535000	0.000403	-0.000174	0.004072	0.001504	5599.452704	33827.337759	3662.573016	18356.715221
18.035000	0.000656	-0.000376	0.001487	0.003267	5590.056254	33687.907143	3654.616554	18294.055347
18.536000	-0.001342	0.000123	0.000311	0.001662	5587.614488	33837.284925	3655.396423	18351.099048
19.035500	0.001321	0.000123	0.001568	0.001960	5602.332426	33816.060267	3657.145893	18340.469305
19.536000	-0.000246	-0.000617	0.004589	0.000676	5600.570026	33854.790795	3665.052539	18386.245857
20.036500	-0.002171	-0.000366	-0.001256	0.003401	5571.718257	33679.127246	3649.393930	18289.299362
20.537000	0.000895	-0.000552	0.005732	0.001365	5603.388828	33810.351272	3665.891022	18361.675397
21.037000	-0.001319	-0.000851	0.005223	0.000840	5592.861122	33826.476644	3665.920319	18380.389666
21.537000	0.001309	0.000473	0.001718	0.002056	5601.659137	33834.134115	3657.244390	18337.060417
22.034500	-0.001707	-0.000439	0.004712	0.003441	5574.336757	33671.102225	3660.192438	18287.878442
22.535500	-0.000690	-0.001363	-0.003943	0.000725	5597.497166	33798.233705	3649.372826	18384.509931
23.035000	0.002289	0.000748	0.003670	0.001788	5609.460929	33872.763074	3661.311987	18346.598231
23.538000	-0.000970	0.000923	-0.000921	0.001862	5588.683193	33880.015475	3652.791137	18343.979805
24.036000	0.001285	0.000992	0.003164	0.004666	5585.276826	33685.683037	3655.121743	18244.490415
24.536000	-0.000098	-0.000274	0.000676	0.001237	5597.993969	33839.280918	3656.837922	18366.237216
25.036500	0.002208	-0.000055	-0.000405	0.001510	5610.697129	33835.427783	3654.369743	18356.513533
25.536500	0.004303	0.000761	-0.000035	0.002247	5619.207636	33841.061503	3653.700385	18330.274831
26.037000	-0.001091	-0.000146	0.001125	0.003640	5576.909159	33677.693813	3653.276789	18280.797250
26.537500	-0.000139	-0.000032	0.001118	0.001465	5596.318528	33840.275554	3657.230189	18358.115565
27.034500	0.000445	-0.000977	-0.001601	0.002715	5592.177112	33684.438240	3650.011371	18313.656787
27.535000	0.000629	0.000467	0.005812	-0.000852	5615.604722	34041.412075	3670.144871	18440.902776
28.038000	-0.002566	-0.000414	0.006821	-0.000253	5591.903784	33935.496282	3670.907166	18419.448041
28.536000	0.001463	0.001041	0.002800	0.000884	5609.947256	33958.217087	3661.374731	18378.831343
29.035500	-0.001055	0.001167	0.000181	0.004666	5570.798272	33698.082991	3649.703262	18244.485030
29.536000	0.001119	0.000355	0.003667	0.001035	5606.851471	33898.440358	3662.692480	18373.439749
30.036500	-0.000039	-0.000233	0.004272	0.000067	5605.663544	33925.603040	3665.590108	18407.996375
30.537000	0.000888	0.000371	-0.002768	0.003471	5590.230122	33726.384727	3646.535894	18286.809678
31.037000	-0.001982	0.000028	0.000502	0.004019	5569.064529	33663.173592	3651.457000	18267.365802
31.534500	0.002287	0.000071	-0.004044	0.000307	5618.731783	33930.126382	3649.945942	18399.425653
32.035000	0.001191	-0.000751	0.003681	-0.000551	5617.241031	33932.738419	3665.641956	18430.114331
32.535000	0.002417	-0.000204	-0.000882	0.000261	5619.839767	33913.834877	3655.775849	18401.066461
33.035500	-0.000168	0.000215	-0.000504	0.004337	5578.307764	33653.931753	3649.059450	18256.118412
33.535500	0.001359	0.000028	0.007013	0.000454	5611.992322	33916.568534	3669.949616	18394.178569
34.036000	0.001652	-0.000096	0.004549	0.000119	5615.930768	33931.639980	3666.007852	18406.150779
34.536500	0.002847	0.001291	0.000164	0.003048	5605.066146	33821.725976	3652.605847	18301.803457
35.036500	-0.000128	0.000222	0.003995	0.003188	5585.671007	33735.815019	3659.339908	18296.831550
35.537000	-0.000573	0.000323	0.002206	0.001860	5591.161224	33837.429177	3658.496400	18344.051522
36.037500	0.000017	-0.000140	0.000891	0.003899	5582.167206	33659.819570	3652.382034	18271.624012
36.535000	-0.000029	0.000935	0.003737	0.003130	5586.651320	33790.642500	3658.975218	18298.907084
37.035000	0.000576	0.000179	0.001328	0.002246	5595.909327	33799.691162	3656.186673	18330.314867
37.538000	-0.000876	0.000624	-0.003774	0.002479	5585.434785	33814.769419	3646.509677	18322.017848
38.036000	-0.000675	0.000699	-0.003962	0.003927	5577.706068	33717.227355	3643.564849	18270.625879
38.536000	0.000333	-0.000036	0.006485	0.001942	5596.285820	33806.027828	3666.215363	18341.129212
39.036000	-0.001085	-0.001100	-0.002925	0.001107	5592.659783	33789.732881	3650.524307	18370.870716
39.536500	0.000091	0.000600	0.006738	0.002382	5592.043017	33820.006054	3665.869608	18325.479827
40.036500	0.001025	0.000822	-0.001717	0.004335	5585.711719	33697.045692	3646.872560	18256.180650
40.537000	0.000406	0.000229	0.005198	0.002020	5596.257163	33819.357984	3663.696094	18338.345944
41.037000	0.001635	0.000785	0.002543	0.002992	5597.856514	33789.707868	3657.042886	18303.787966
41.535000	0.001641	-0.000612	0.003794	0.002145	5603.179188	33750.665712	3660.885464	18333.903126
42.035500	-0.000081	-0.000140	0.001292	0.003447	5584.359410	33691.840973	3653.933305	18287.658402
42.535500	0.002033	0.000148	-0.000519	0.002921	5600.782631	33749.574945	3651.596897	18306.323400
43.036000	0.002759	-0.000114	0.004008	0.002451	5608.255808	33764.346865	3660.716270	18323.031117
43.536500	0.001216	-0.000348	0.001609	0.001999	5601.432451	33779.821915	3657.149714	18339.084213
44.036500	-0.001917	-0.000248	0.003512	0.003623	5571.915891	33671.773092	3657.661222	18281.424193
44.536500	0.000698	0.000145	0.006010	0.000655	5606.595832	33910.644370	3667.717041	18387.005603
45.037000	-0.001866	0.001123	-0.003111	0.006453	5554.815972	33568.564568	3640.563369	18181.395937
45.537000	0.001088	-0.000568	0.005017	-0.000300	5615.013352	33927.868767	3667.647015	18421.117605
46.037500	0.001148	0.000406	0.005441	0.004535	5585.232803	33653.481585	3659.521204	18249.103698
46.535000	-0.001696	-0.000705	-0.000352	0.000238	5594.262988	33879.734114	3656.785402	18401.879960
47.038000	-0.000635	0.001086	0.003150	0.006706	5560.819197	33548.134575	3651.387130	18172.496010
47.535500	0.000726	0.001180	0.004932	0.003491	5589.098619	33782.352231	3660.502664	18286.096644
48.035500	-0.000441	0.000224	0.004541	0.005183	5571.392211	33594.823015	3656.690813	18226.207650
48.536500	-0.000235	0.000804	0.002125	0.001189	5597.440495	33919.566321	3659.578302	18367.967995
49.036000	-0.001087	-0.000257	0.004386	0.005341	5566.438717	33549.695506	3656.119126	18220.626190
49.537000	0.003361	0.000566	0.002719	0.000225	5625.998383	33971.329712	3662.436356	18402.341548
50.037500	-0.001554	0.000182	-0.003610	0.004548	5568.451618	33636.763752	3643.084223	18248.667169
50.537500	0.001703	0.000656	0.006009	0.002200	5603.220740	33836.875407	3664.859831	18331.937688
51.035000	-0.000832	-0.001097	0.000940	0.021383	5470.944779	32382.103176	3621.344248	17664.469973
51.535000	0.017160	-0.002998	0.008349	0.195989	4689.948144	22544.092474	3379.221474	12771.421012
52.035500	-0.009361	-0.013537	-0.007629	0.002264	5534.617401	32838.626457	3639.975623	18329.685129
52.535500	-0.017033	-0.021944	-0.014305	-0.175028	6797.619919	47057.227083	4013.563570	26116.597337
53.036000	-0.029400	-0.094736	-0.016373	-0.398765	9246.626377	65399.407778	4779.401790	41773.686514
53.536000	-0.001918	-0.115862	0.004884	-0.420832	10014.703096	65535.000000	4980.369486	43800.791175
54.036000	-0.006294	-0.092779	-0.003548	-0.397749	9578.251757	65535.000000	4832.208798	41682.836400
54.537000	0.005497	-0.050359	0.004528	-0.343879	8960.747987	63905.837344	4635.200664	37156.740599
55.037000	-0.000147	-0.012832	0.000561	-0.249796	7715.472481	56459.926181	4277.168164	30481.257205
55.535000	-0.002822	-0.011813	-0.005760	-0.227686	7447.860444	53922.114474	4187.593680	29111.435860
56.035000	-0.006294	-0.006933	-0.009138	-0.218896	7321.014471	53465.124674	4151.016743	28585.969527
56.538000	0.001667	-0.002763	-0.006480	-0.208498	7296.220717	52745.409213	4128.273807	27977.869301
57.035500	0.006004	0.001086	-0.000969	-0.196605	7220.247514	51831.183480	4109.825535	27300.042811
57.536000	0.010514	0.002642	0.005880	-0.190248	7201.874092	51293.452780	4111.238699	26945.232514
58.036000	0.016361	0.005180	0.009746	-0.165334	7016.725207	48864.492636	4052.214250	25603.768109
58.536500	0.016589	0.006997	0.011345	-0.139933	6784.402268	46436.326260	3988.825645	24313.080024
59.036500	0.018846	0.008496	0.014680	-0.105135	6503.355333	43224.719711	3910.191957	22663.039764
59.536500	0.019627	0.009382	0.016767	-0.078361	6293.516204	40892.662973	3852.359113	21480.499746
60.037500	0.021813	0.012096	0.023038	-0.061173	6177.998700	39648.190331	3827.814498	20758.892372
60.537500	0.025137	0.013179	0.020623	-0.052030	6134.255569	38972.916479	3802.492716	20386.516912
61.037500	0.024712	0.017782	0.025453	-0.035080	6007.074706	37962.451963	3776.652903	19716.565653
61.535500	0.030037	0.017427	0.027746	-0.038727	6072.111693	38229.140695	3789.228508	19858.540166
62.035500	0.033728	0.024531	0.027286	-0.036729	6084.532039	38646.567327	3784.002889	19780.611879
62.535500	0.032329	0.030390	0.025522	-0.052007	6188.227534	40428.184234	3813.092266	20385.582578
63.036500	0.032494	0.031883	0.023459	-0.050908	6181.147550	40462.244000	3806.205399	20341.360115
63.536500	0.035668	0.033559	0.028942	-0.048122	6184.089675	40366.426215	3812.076172	20229.728647
64.037000	0.035438	0.034031	0.032699	-0.042426	6139.459959	39918.670453	3807.852223	20003.700946
64.537000	0.034073	0.034124	0.031706	-0.036676	6086.683283	39439.964939	3793.305658	19778.549551
65.034000	0.031560	0.033457	0.029470	-0.025825	5989.852945	38484.281780	3765.709386	19361.679217
65.535000	0.036140	0.035450	0.025678	-0.024610	6013.954437	38547.990434	3755.365890	19315.623280
66.035000	0.038767	0.035396	0.033550	-0.018925	5992.042184	38080.348763	3759.869253	19101.927492
66.535000	0.037346	0.036088	0.033460	-0.013087	5940.647710	37666.321509	3747.719121	18885.398409
67.036000	0.032128	0.036043	0.033129	-0.002726	5833.201224	36843.717357	3726.217900	18508.151843
67.536000	0.038845	0.036242	0.039855	-0.003219	5882.447469	36897.838394	3740.676106	18525.904495
68.036500	0.039320	0.037141	0.033619	0.007872	5810.217104	36109.792718	3706.374331	18131.507337
68.537000	0.042707	0.036997	0.041657	0.006565	5841.937232	36198.823522	3724.703226	18177.453452
69.036500	0.041064	0.037749	0.043240	0.014826	5775.411123	35628.467678	3711.565763	17889.308830
69.537000	0.044525	0.037001	0.047773	0.014512	5800.589966	35595.826404	3721.083635	17900.173682
70.037500	0.043478	0.036983	0.044006	0.024368	5728.461334	34861.321335	3694.602178	17563.208323
70.537500	0.043872	0.037590	0.044278	0.022389	5744.008840	35052.100714	3698.921027	17630.267549
71.035500	0.042867	0.037527	0.047993	0.028880	5695.194080	34570.877683	3693.597737	17411.503566
71.535500	0.046629	0.037554	0.047561	0.028880	5719.584019	34572.888324	3692.773077	17411.510486
72.036000	0.044779	0.037435	0.036628	0.038401	5646.492959	33878.083259	3654.627674	17096.484523
72.536000	0.049000	0.038594	0.052448	0.036484	5685.710078	34098.107392	3687.600804	17159.342052
73.036500	0.048253	0.038905	0.058879	0.042500	5642.531834	33691.253200	3688.389918	16962.965609
73.536500	0.050108	0.040182	0.053090	0.044066	5644.361726	33670.785011	3674.538635	16912.286972
74.037000	0.047148	0.038408	0.051133	0.051402	5579.866205	33032.578308	3657.371359	16677.332363
74.537500	0.052804	0.041429	0.057786	0.051199	5616.376235	33256.886078	3670.001222	16683.765403
75.035000	0.050271	0.040004	0.047077	0.056107	5570.089014	32817.836842	3641.520042	16528.699919
75.535000	0.053421	0.041332	0.058343	0.058053	5577.524047	32775.342830	3658.394821	16467.710602
76.036000	0.050052	0.041800	0.055218	0.066585	5504.911755	32226.105077	3637.344705	16203.437368
76.535500	0.056809	0.043044	0.058035	0.064958	5555.854933	32420.508780	3645.303870	16253.433537
77.035500	0.057445	0.043055	0.059429	0.067388	5544.871187	32256.623429	3643.440582	16178.830751
77.536500	0.057058	0.043685	0.066694	0.070713	5522.291524	32075.189527	3650.546771	16077.441950
78.036000	0.057840	0.043853	0.057762	0.079631	5473.464017	31493.783044	3618.860438	15809.289968
78.537000	0.062105	0.046198	0.056930	0.077485	5511.859226	31790.708638	3621.149198	15873.315412
79.037000	0.057455	0.045667	0.064185	0.082983	5451.342667	31392.784381	3624.219188	15709.923848
79.534500	0.061705	0.045027	0.068978	0.081282	5486.657704	31462.397167	3635.678567	15760.242691
80.037500	0.057284	0.045513	0.070084	0.089300	5413.374198	30971.687465	3623.486191	15524.689146
80.535500	0.062081	0.046445	0.066589	0.086560	5457.526975	31209.907377	3622.167840	15604.715437
81.035500	0.064115	0.047161	0.068391	0.091011	5443.285235	30967.674112	3617.555531	15475.006808
81.535500	0.062118	0.048275	0.063321	0.091056	5431.315099	31036.803259	3608.726847	15473.702812
82.036500	0.065183	0.047185	0.068023	0.092564	5440.436097	30869.073691	3614.226182	15430.042014
82.536000	0.067052	0.048180	0.073746	0.094951	5437.397922	30779.674678	3620.014243	15361.277159
83.039500	0.067204	0.049053	0.067398	0.100574	5405.524134	30476.666075	3599.450157	15200.776974
83.537500	0.069192	0.049513	0.078220	0.099736	5421.937770	30559.141874	3619.474419	15224.576828
84.037500	0.068490	0.050132	0.072659	0.101546	5407.341970	30483.470945	3606.752892	15173.243455
84.535000	0.073492	0.049729	0.071066	0.102903	5428.554402	30372.011777	3601.724044	15134.918689
85.038000	0.070275	0.050366	0.073173	0.106872	5386.912514	30162.234427	3598.564336	15023.462442
85.535000	0.071237	0.050531	0.083351	0.105061	5402.897680	30286.396794	3619.135187	15074.172126
86.038000	0.074944	0.050776	0.068845	0.106329	5417.040503	30222.073944	3592.186790	15038.642962
86.536500	0.074235	0.050331	0.078324	0.107043	5408.779015	30149.274056	3607.039674	15018.667621
87.036500	0.074617	0.051342	0.083873	0.110349	5391.888686	30005.837942	3610.890669	14926.663285
87.536500	0.078504	0.052675	0.086342	0.110805	5411.723166	30060.576141	3614.361947	14914.029420
88.034000	0.077915	0.053242	0.080446	0.111234	5405.819597	30069.204187	3603.507615	14902.141346
88.534000	0.078564	0.053510	0.084020	0.112200	5403.985604	30025.642681	3607.964260	14875.448067
89.034500	0.082410	0.053621	0.080666	0.112273	5425.910951	30027.975296	3602.114436	14873.423369
89.538000	0.080142	0.053946	0.078477	0.113110	5407.849741	29996.005987	3596.985954	14850.331103
90.035500	0.078257	0.054423	0.079149	0.119667	5359.408064	29619.701916	3587.115716	14671.038348
90.535500	0.082748	0.055085	0.087371	0.115314	5410.189132	29929.757953	3608.370866	14789.776725
91.035500	0.086559	0.056882	0.089561	0.116641	5424.630778	29959.004867	3609.852111	14753.441822
91.536000	0.082972	0.056021	0.089405	0.116537	5404.395447	29911.879040	3609.761050	14756.274696
92.036500	0.084112	0.056905	0.087556	0.122908	5374.309850	29573.068061	3595.773915	14583.399401
92.536500	0.088739	0.058222	0.089414	0.118974	5423.742908	29897.285081	3605.603890	14689.863408
93.034000	0.089544	0.058579	0.089585	0.118981	5428.392342	29918.942824	3605.882409	14689.649264
93.537000	0.089276	0.057883	0.090691	0.118349	5430.526540	29915.011210	3608.859754	14706.850540
94.040000	0.088727	0.058341	0.088805	0.124567	5391.265053	29559.434827	3595.082025	14538.791635
94.535000	0.091372	0.059418	0.092120	0.119813	5434.223034	29919.399822	3608.799283	14667.070622
95.035500	0.090931	0.059479	0.093220	0.119731	5432.121988	29928.278468	3610.829354	14669.281311
95.535500	0.093121	0.059963	0.095227	0.120460	5440.685115	29913.106038	3613.033526	14649.537528
96.038500	0.089866	0.059894	0.093428	0.126496	5386.723279	29536.311956	3599.633776	14487.132999
96.536000	0.093642	0.059530	0.088194	0.120364	5444.308929	29892.138755	3601.156868	14652.133185
97.036500	0.093932	0.060060	0.094492	0.122645	5432.630550	29783.624713	3608.010014	14590.468685
97.536500	0.094768	0.060807	0.101771	0.122241	5439.896606	29854.888591	3621.295705	14601.369389
98.037000	0.090173	0.059621	0.091618	0.128024	5379.717062	29426.215596	3593.997644	14446.384307
98.537500	0.093929	0.060034	0.095189	0.122820	5431.589612	29771.243014	3608.905595	14585.767380
99.037500	0.092866	0.060704	0.093799	0.124468	5415.779945	29710.776851	3603.710324	14541.433377
99.535500	0.097159	0.061813	0.092164	0.125175	5436.711737	29735.664523	3599.731155	14522.490973
100.037000	0.096305	0.061180	0.099160	0.125428	5430.229793	29680.950184	3611.247924	14515.701172
100.535500	0.098359	0.061771	0.098138	0.125668	5440.854735	29702.571158	3609.078094	14509.265665
101.036000	0.097485	0.063088	0.094768	0.127656	5424.110359	29661.217791	3599.937014	14456.172757
101.536500	0.098954	0.062169	0.101893	0.126809	5437.656575	29656.836888	3613.578841	14478.771250
102.036000	0.098293	0.062531	0.097489	0.126620	5434.894099	29690.828868	3606.335906	14483.833427
102.534000	0.101697	0.063269	0.105195	0.128478	5443.962823	29621.827511	3616.404653	14434.306363
103.037500	0.100387	0.062341	0.101361	0.129305	5431.431901	29514.173375	3608.368697	14412.334483
103.537500	0.098151	0.063437	0.102498	0.128950	5420.454578	29603.137344	3610.931690	14421.753990
104.034500	0.101362	0.062991	0.106388	0.129951	5433.359325	29514.460578	3615.920343	14395.203023
104.535500	0.103154	0.064387	0.098249	0.131005	5437.676338	29535.358757	3600.161361	14367.285011
105.036000	0.102793	0.064260	0.099824	0.132428	5427.246461	29440.565675	3600.420945	14329.738794
105.536000	0.104218	0.065064	0.106826	0.133349	5430.183250	29433.418632	3610.809902	14305.476000
106.036000	0.105225	0.064721	0.109550	0.132736	5439.674614	29449.901557	3616.573692	14321.618440
106.536000	0.102871	0.064179	0.104954	0.133206	5423.156034	29388.183951	3607.840286	14309.236380
107.037000	0.104832	0.065782	0.109673	0.135190	5423.021347	29364.919703	3612.541935	14257.156735
107.537000	0.106931	0.064893	0.109036	0.135067	5436.009446	29318.372915	3611.657027	14260.392479
108.037500	0.102496	0.064606	0.103954	0.135598	5407.074819	29268.684527	3602.050796	14246.487077
108.538000	0.106939	0.066143	0.110744	0.137485	5421.925072	29247.465545	3610.434918	14197.220571
109.035500	0.104090	0.066679	0.111997	0.139057	5396.295475	29184.767731	3609.885850	14156.348249
109.538500	0.105894	0.066143	0.112562	0.138934	5407.440243	29159.785026	3611.069710	14159.547866
110.041500	0.107227	0.065494	0.117399	0.139227	5413.468766	29102.941942	3618.931359	14151.940052
110.536000	0.107204	0.066609	0.120214	0.141255	5401.585045	29047.968671	3620.300869	14099.431973
111.036500	0.106916	0.066651	0.112428	0.141877	5396.330901	29013.125574	3605.791727	14083.393824
111.536500	0.105774	0.066302	0.107240	0.141925	5389.477504	28989.303217	3596.897527	14082.156848
112.037500	0.106768	0.066385	0.107123	0.148152	5359.558463	28623.165491	3586.265666	13922.745461
112.537500	0.107734	0.066989	0.116523	0.143973	5388.970672	28907.742951	3609.215959	14029.472792
113.037000	0.110812	0.067816	0.118387	0.145179	5399.761577	28885.037050	3610.347386	13998.568046
113.535000	0.111529	0.068328	0.112355	0.146358	5397.088580	28845.210226	3598.049455	13968.422534
114.035500	0.111671	0.068090	0.110789	0.146964	5394.419288	28794.921321	3594.387570	13952.980433
114.535500	0.112314	0.068441	0.116164	0.147872	5392.887676	28761.736805	3601.940645	13929.850628
115.036000	0.111729	0.067351	0.120442	0.148127	5388.054294	28681.836860	3608.812124	13923.363590
115.536000	0.112916	0.069085	0.117767	0.149864	5384.897934	28681.655877	3601.279637	13879.304764
116.036500	0.111420	0.068862	0.113046	0.156184	5340.422323	28296.496469	3582.763215	13720.460127
116.536500	0.114261	0.068180	0.115190	0.151135	5385.318251	28552.929281	3594.772177	13847.167465
117.036500	0.114127	0.068672	0.122241	0.152024	5379.456581	28529.528344	3605.221538	13824.770062
117.537500	0.112675	0.069832	0.114192	0.153051	5365.291276	28537.401624	3589.885481	13798.924965
118.034500	0.117325	0.070067	0.117859	0.154283	5384.842547	28478.672723	3593.967881	13768.012818
118.535000	0.117117	0.070056	0.117283	0.155396	5377.265810	28412.612593	3591.132756	13740.150607
119.035500	0.118924	0.071466	0.121757	0.156172	5383.178421	28449.844391	3597.354037	13720.771643
119.536000	0.117213	0.070693	0.118847	0.156448	5371.797381	28388.208249	3591.990690	13713.868561
120.036000	0.117838	0.071005	0.123305	0.163540	5335.142190	27993.790944	3587.587925	13538.474527
120.536500	0.118001	0.071764	0.121002	0.159169	5360.783792	28291.637475	3591.041540	13646.229020
121.037000	0.120897	0.071515	0.120435	0.159601	5374.836644	28251.924744	3589.370824	13635.535899
121.537000	0.120392	0.071427	0.121940	0.160032	5369.489265	28221.673636	3591.167993	13624.866991
122.037000	0.118921	0.072010	0.120211	0.166814	5322.840276	27863.167783	3577.048777	13458.447694
122.537500	0.122951	0.071968	0.126004	0.161824	5373.864384	28148.893175	3594.983752	13580.637249
123.034500	0.119157	0.071894	0.128266	0.161825	5352.268197	28144.539061	3598.801387	13580.612672
123.535500	0.125675	0.073265	0.123179	0.164157	5376.101253	28088.819739	3586.348843	13523.333021
124.035500	0.117385	0.071554	0.118118	0.168871	5302.805642	27719.296443	3570.263780	13408.484734
124.535500	0.119197	0.074426	0.119728	0.165862	5329.724108	28057.299976	3577.819868	13481.655739
125.036000	0.124539	0.073829	0.120147	0.166347	5357.147578	27994.743008	3577.711524	13469.816095
125.536500	0.122101	0.075136	0.122008	0.167693	5335.753520	27992.509801	3578.558046	13437.057688
126.036000	0.120198	0.073616	0.123715	0.172765	5296.811359	27614.883919	3573.040155	13314.536285
126.537000	0.123616	0.075368	0.124977	0.170123	5330.612274	27865.990850	3579.447843	13378.191403
127.040000	0.125795	0.073718	0.129359	0.169497	5346.414234	27807.181858	3587.748409	13393.310019
127.535000	0.126762	0.076048	0.128562	0.171254	5341.955763	27840.087905	3583.503114	13350.894377
128.035500	0.125587	0.076877	0.135142	0.171942	5331.464817	27848.167565	3593.336239	13334.322449
128.536000	0.124554	0.075854	0.131328	0.172824	5320.732709	27739.087503	3585.488189	13313.129173
129.036000	0.128524	0.076441	0.135688	0.173938	5336.758834	27708.956165	3590.903452	13286.395735
129.536000	0.129565	0.076400	0.123378	0.173726	5343.825478	27718.756736	3570.923068	13291.484025
130.036000	0.121065	0.075966	0.126579	0.179116	5266.627983	27388.491094	3567.367874	13163.123759
130.536500	0.128695	0.077408	0.133392	0.176766	5321.846919	27603.051815	3582.373048	13218.894565
131.037000	0.128939	0.078350	0.129447	0.176839	5322.795413	27652.399716	3575.753871	13217.138161
131.540000	0.126689	0.076898	0.131724	0.176399	5312.684467	27594.869176	3580.222153	13227.617558
132.037500	0.127292	0.078249	0.133160	0.183486	5276.807952	27271.216582	3570.959441	13060.211945
132.535000	0.126634	0.078316	0.131545	0.179059	5297.598189	27524.472436	3575.554914	13164.470197
133.037500	0.129427	0.078986	0.133817	0.179940	5308.216856	27512.495531	3577.838045	13143.631063
133.535500	0.126525	0.077000	0.130331	0.178440	5300.426971	27485.026730	3574.580821	13179.137482
134.035500	0.130083	0.078058	0.139269	0.180061	5311.191838	27453.169574	3586.658760	13140.770243
134.536000	0.129015	0.078132	0.131858	0.183281	5287.417182	27276.152463	3569.175113	13065.006888
135.036500	0.132047	0.079184	0.139980	0.181689	5313.065703	27424.803238	3585.134171	13102.388476
135.536500	0.128059	0.077488	0.131182	0.180700	5296.400973	27385.001536	3572.276810	13125.700752
136.042500	0.130967	0.079743	0.137548	0.182667	5301.615788	27401.194163	3579.490584	13079.407628
136.539500	0.133138	0.079045	0.133742	0.183383	5309.704347	27321.659956	3572.075306	13062.618456
137.035000	0.132798	0.080657	0.134655	0.185013	5298.763290	27320.678998	3570.907816	13024.493306
137.535000	0.133796	0.079980	0.137315	0.184353	5307.969468	27319.713164	3576.334268	13039.910982
138.035500	0.129105	0.078690	0.130325	0.189520	5253.733365	26959.646564	3556.661029	12919.791575
138.535500	0.132972	0.078766	0.130289	0.188710	5279.312912	27008.775689	3557.897632	12938.540259
139.036000	0.132602	0.080705	0.135645	0.186870	5287.410660	27219.279478	3569.497957	12981.228939
139.536500	0.133736	0.080817	0.135829	0.187937	5287.778111	27165.835313	3568.063224	12956.437659
140.041500	0.132293	0.080830	0.137037	0.192317	5255.862968	26923.358992	3562.936102	12855.372587
140.537000	0.135943	0.080846	0.133036	0.193056	5271.763152	26883.397530	3555.345157	12838.416677
141.037000	0.132155	0.080654	0.137387	0.188895	5273.804363	27103.373085	3569.035888	12934.244625
141.537500	0.132395	0.080913	0.138272	0.189165	5273.642551	27102.764200	3570.036352	12927.998020
142.035000	0.132233	0.081388	0.131558	0.195474	5238.409581	26780.111955	3549.167152	12783.137567
142.535000	0.130702	0.081696	0.140007	0.195447	5230.295725	26798.507174	3562.679153	12783.756024
143.035500	0.137180	0.082431	0.139465	0.191850	5285.191134	27037.873829	3567.614306	12866.104422
143.536000	0.135637	0.081983	0.140438	0.191100	5280.823427	27054.604241	3570.411492	12883.339869
144.036000	0.133425	0.081729	0.139792	0.190890	5269.832714	27052.171026	3569.701716	12888.177018
144.536000	0.135856	0.082379	0.137469	0.197979	5244.460585	26697.122687	3554.565648	12726.220871
145.036500	0.133555	0.081762	0.137286	0.192666	5260.837856	26955.564363	3562.775240	12847.356762
145.537000	0.139315	0.082628	0.146511	0.193793	5286.247190	26941.119545	3575.933583	12821.532935
146.045500	0.140390	0.084006	0.141056	0.194954	5285.779539	26953.157241	3565.166267	12795.015024
146.537500	0.135390	0.082803	0.139741	0.199814	5232.026701	26620.028176	3555.260706	12684.721424
147.035000	0.137586	0.081586	0.140155	0.194108	5275.005631	26866.215265	3565.075946	12814.329105
147.535000	0.138269	0.083241	0.138745	0.195815	5269.390904	26863.326445	3560.059647	12775.382751
148.035500	0.136084	0.083125	0.145814	0.196345	5254.570592	26827.750316	3570.626371	12763.321745
148.536000	0.133620	0.082821	0.146902	0.201878	5211.452972	26508.677168	3563.427091	12638.255155
149.036000	0.137600	0.083228	0.142045	0.196255	5263.325720	26838.387978	3564.660991	12765.354654
149.536500	0.136201	0.084167	0.147357	0.197728	5247.690069	26809.014391	3570.885955	12731.911281
150.042500	0.139023	0.083304	0.149914	0.197144	5266.238595	26793.627946	3576.018928	12745.145403
150.537500	0.135867	0.083459	0.139355	0.203659	5213.942565	26446.620704	3548.555874	12598.325378
151.034500	0.138543	0.084035	0.141185	0.198752	5254.848613	26745.507428	3559.262718	12708.702664
151.535000	0.140948	0.084422	0.139499	0.198965	5266.817020	26755.051228	3556.228344	12703.902305
152.035000	0.142780	0.084356	0.149984	0.200122	5270.505954	26688.003750	3571.265673	12677.762662
152.535000	0.134333	0.083314	0.134005	0.204814	5199.601465	26376.347470	3538.371657	12572.518667
153.038500	0.138986	0.084687	0.141654	0.200640	5246.999883	26677.823983	3556.993788	12666.092491
153.535500	0.140823	0.084094	0.142030	0.200270	5259.001739	26665.604700	3558.185687	12674.427354
154.036000	0.134696	0.083417	0.145757	0.205445	5198.181713	26347.889764	3555.874308	12558.469419
154.536500	0.138647	0.084930	0.139222	0.208222	5204.424620	26279.770213	3541.189431	12496.801666
155.037000	0.140908	0.086429	0.148036	0.203298	5243.011583	26627.778555	3562.966003	12606.406779
155.539500	0.140861	0.086302	0.147274	0.203624	5240.994187	26603.008730	3561.214364	12599.105249
156.034500	0.139908	0.085711	0.133830	0.209055	5206.710996	26277.020829	3531.547740	12478.387029
156.535000	0.137201	0.085491	0.142184	0.209869	5188.013405	26221.443873	3543.244307	12460.420622
157.035500	0.141482	0.085522	0.146401	0.204295	5240.725404	26524.093441	3558.740848	12584.125638
157.535500	0.141638	0.087195	0.143173	0.205748	5233.713752	26535.985915	3551.287544	12551.706090
158.035000	0.137787	0.085077	0.141835	0.210195	5189.384489	26181.757821	3542.188914	12453.225003
158.536000	0.139112	0.085267	0.146124	0.210717	5193.636729	26163.995731	3548.099675	12441.725632
159.036000	0.140557	0.086706	0.151744	0.205955	5226.779918	26498.205420	3564.660767	12547.113742
159.537000	0.139504	0.085482	0.138305	0.204983	5226.349126	26484.576727	3544.821863	12568.768636
160.036500	0.139114	0.085800	0.140967	0.211594	5189.005625	26145.622503	3538.654910	12422.448340
160.537000	0.137833	0.085450	0.144449	0.211647	5181.957361	26124.088358	3544.006826	12421.289544
161.037500	0.142862	0.086551	0.152036	0.206739	5234.977126	26447.321143	3563.867367	12529.687766
161.535000	0.142320	0.086697	0.147135	0.207175	5229.704108	26431.623087	3555.314207	12520.006915
162.038000	0.140593	0.085893	0.149985	0.206798	5222.444425	26408.505196	3560.472657	12528.375285
162.535500	0.136966	0.086214	0.147491	0.213022	5170.162032	26091.433680	3546.622716	12391.134286
163.036000	0.140727	0.085887	0.148870	0.207157	5221.239749	26388.811622	3558.112356	12520.409364
163.536000	0.142021	0.088081	0.145991	0.209028	5218.145050	26406.235624	3550.557181	12478.984277
164.039500	0.141371	0.087049	0.148871	0.208376	5218.155327	26385.717264	3556.165978	12493.399008
164.537000	0.141486	0.086940	0.150025	0.208113	5220.181420	26394.013265	3558.428677	12499.205198
165.037000	0.145062	0.087360	0.143609	0.209631	5231.245306	26334.754196	3545.851333	12465.660184
165.537500	0.143090	0.086518	0.146891	0.209119	5223.386842	26316.926389	3551.836164	12476.954950
166.035000	0.142516	0.087686	0.142609	0.210082	5215.153072	26327.995780	3543.576464	12455.717155
166.535500	0.145788	0.087235	0.150403	0.209805	5234.214408	26318.626206	3556.329991	12461.815521
167.038500	0.143322	0.087620	0.150091	0.210472	5217.380109	26303.473790	3554.770234	12447.130036
167.540000	0.143149	0.087761	0.149818	0.210908	5214.119694	26287.596692	3553.644006	12437.532541
168.036000	0.144971	0.087755	0.141247	0.210663	5225.201071	26300.440187	3540.541556	12442.929246
168.536500	0.143009	0.086693	0.144231	0.217069	5180.661921	25901.897248	3535.227355	12302.961590
169.039500	0.142688	0.088527	0.144175	0.212031	5205.666254	26268.401901	3542.976306	12412.865014
169.539500	0.141994	0.087036	0.150677	0.211247	5206.142304	26230.438078	3554.470835	12430.083887
170.037500	0.146528	0.089232	0.147186	0.213470	5218.492194	26228.959766	3545.438925	12381.330438
170.534500	0.139547	0.087902	0.144581	0.217870	5158.298668	25923.492917	3534.530577	12285.595081
171.037500	0.144542	0.088172	0.152321	0.212728	5211.836332	26211.895770	3554.728921	12397.573887
171.535500	0.142486	0.088166	0.149330	0.212531	5201.926330	26222.150501	3550.297374	12401.893586
172.035500	0.145213	0.088519	0.145442	0.213330	5212.203783	26198.242760	3542.925594	12384.395985
172.536000	0.141501	0.088106	0.149764	0.219554	5159.710020	25845.303262	3539.958749	12249.228954
173.036500	0.146286	0.088109	0.149734	0.214352	5212.478988	26121.618779	3548.060376	12362.068910
173.536500	0.146718	0.088549	0.153387	0.214562	5213.663852	26133.911543	3553.507794	12357.490578
174.037000	0.138487	0.088769	0.148370	0.220181	5140.774280	25847.177067	3536.818734	12235.717006
174.537000	0.139722	0.088055	0.144671	0.219553	5150.440302	25842.656399	3532.074344	12249.245559
175.037500	0.146397	0.088583	0.148471	0.214609	5211.700360	26133.260085	3545.670037	12356.472711
175.535000	0.143800	0.088093	0.150839	0.214800	5196.849612	26096.836337	3549.095698	12352.293879
176.035000	0.144192	0.089067	0.148844	0.219260	5175.357232	25911.589035	3538.984588	12255.568418
176.535500	0.139451	0.088402	0.147672	0.221133	5140.831594	25777.630419	3534.264985	12215.228340
177.035500	0.143266	0.088309	0.149516	0.215450	5190.572170	26073.677174	3545.989421	12338.131380
177.536000	0.146954	0.089505	0.149057	0.216777	5203.106995	26066.737263	3543.190136	12309.304659
178.039500	0.143345	0.089513	0.149103	0.222814	5152.326668	25747.694986	3533.879931	12179.194183
178.536500	0.140393	0.088520	0.152262	0.221764	5142.441865	25750.632916	3540.405343	12201.676477
179.039500	0.151012	0.090200	0.142941	0.218031	5218.082054	26036.995887	3531.754357	12282.124617
179.536500	0.143984	0.089543	0.146140	0.217287	5184.657632	26041.575131	3537.847980	12298.238058
180.034500	0.144640	0.088407	0.157256	0.216791	5190.749991	26007.575058	3556.119622	12308.999825
180.535000	0.145970	0.088849	0.145800	0.219595	5182.954770	25882.334632	3533.749347	12248.333304
181.034500	0.145313	0.088414	0.151978	0.217132	5192.504929	25989.816428	3547.217314	12301.600533
181.538500	0.145185	0.089651	0.154528	0.218571	5184.218490	25979.089117	3548.967145	12270.438384
182.036000	0.142968	0.088540	0.155339	0.223300	5147.835044	25671.125186	3542.812517	12168.790919
182.536500	0.139391	0.089120	0.135104	0.223923	5126.119684	25668.888463	3510.963514	12155.478587
183.036500	0.147643	0.090916	0.153161	0.220342	5187.848529	25952.233944	3544.033042	12232.246244
183.537000	0.147434	0.089961	0.148899	0.219711	5190.082581	25935.072608	3538.367973	12245.835921
184.037000	0.142813	0.089272	0.147774	0.224219	5142.262166	25661.349554	3529.673022	12149.158286
184.537500	0.144464	0.089040	0.140133	0.218816	5179.122947	25933.686801	3526.249686	12265.147895
185.035000	0.147386	0.090361	0.149011	0.220111	5187.707616	25935.068928	3537.921087	12237.212347
185.535500	0.146809	0.090341	0.146468	0.220594	5182.115271	25908.414513	3533.238976	12226.827161
186.035000	0.145719	0.089062	0.153108	0.219857	5180.251782	25879.746600	3544.711041	12242.694723
186.536000	0.146256	0.091512	0.151662	0.221667	5173.553280	25913.630584	3539.624337	12203.772915
