sample name	sample
index	204
start time	 02-22-2021  09:31:17 AM
880	-0.010554
Peak Time (s)	92.535
Peak Height 	-0.01055
calc peak height	90,93
Baseline Time (s)	10.537
Baseline Value 	-0.001923
subtract baseline	10,4
Abs	-0.005842
Peak Time (s)	91.04
Peak Height 	-0.005842
calc peak height	90,93
Baseline Time (s)	10.537
Baseline Value 	0.001128
subtract baseline	10,3
PK_550	-0.000668
Peak Time (s)	92.535
Peak Height 	-6.6776E-4
calc peak height	90,93
Baseline Time (s)	8.536
Baseline Value 	3.7185E-4
subtract baseline	10,2
PK_880	-0.006726
Peak Time (s)	92.535
Peak Height 	-0.006726
calc peak height	90,93
Baseline Time (s)	9.537
Baseline Value 	2.5763E-4
subtract baseline	10,1


Time (s)	A880-A510	A880-A775	A880-A975	A880	I510	I775	I975	I880	
0.034000	-0.003523	-0.001208	-0.003123	0.002157	6783.946772	47131.759528	3822.044167	24671.737968
0.537000	-0.000306	0.000281	0.000794	0.006106	6777.029292	46880.769254	3821.956480	24472.459585
1.040000	-0.003278	-0.000672	0.000264	0.002447	6783.525021	47156.984684	3830.450976	24657.046532
1.535000	-0.000836	-0.001410	-0.002794	-0.001497	6844.337487	47486.440244	3832.865052	24857.719631
2.037000	-0.002750	-0.000130	-0.004764	0.002241	6790.462067	47233.647357	3817.387446	24667.481859
2.535500	-0.000079	0.000603	-0.000134	0.002736	6811.121025	47258.070012	3828.581371	24642.401503
3.036000	-0.000281	-0.000056	0.001050	-0.001892	6853.467231	47667.337588	3844.495656	24877.954811
3.536000	-0.000892	-0.000086	-0.005861	0.000281	6826.771399	47439.675924	3819.714008	24767.019016
4.036500	-0.001856	0.000013	-0.003183	0.003465	6787.342417	47122.891300	3818.350574	24605.546781
4.537000	-0.001789	0.000476	-0.003172	0.000970	6811.655130	47426.621949	3825.126327	24731.982547
5.036500	0.000144	0.000832	-0.001671	0.001054	6829.284956	47454.518963	3828.972744	24727.696416
5.534000	0.000143	0.000814	-0.003166	0.000834	6831.387236	47475.524772	3825.512139	24738.918327
6.038000	-0.000507	-0.000224	-0.001324	0.000013	6833.022260	47453.013569	3832.757621	24780.670603
6.535000	-0.001680	-0.000547	0.002633	-0.000066	6822.567333	47427.891776	3843.824646	24784.704923
7.034500	0.000343	0.000194	-0.000111	0.000477	6836.721175	47448.325889	3834.802651	24757.061156
7.535500	0.000515	0.000893	0.003136	0.000424	6838.878743	47525.952509	3843.862517	24759.773286
8.036000	0.001694	-0.000357	0.001828	0.000048	6853.797180	47435.722576	3841.296064	24778.903210
8.536000	-0.000276	0.000000	0.002895	0.000373	6831.788235	47439.081303	3843.339287	24762.368675
9.036000	0.001072	0.000272	0.000635	0.000265	6845.735005	47478.239605	3837.426133	24767.851167
9.536500	0.000000	-0.000206	-0.000189	-0.000380	6841.636476	47495.363935	3836.934319	24800.682910
10.037000	0.000490	-0.000236	-0.003028	-0.000291	6845.486234	47483.202531	3828.941931	24796.174936
10.537500	0.000233	0.000463	0.000000	0.000000	6840.229175	47525.261152	3836.411915	24781.341462
11.035000	-0.000003	0.000729	0.001761	0.000117	6836.844992	47540.603322	3840.921974	24775.377190
11.535500	-0.000722	-0.000766	-0.003542	-0.000934	6840.024970	47494.827248	3829.291904	24828.950878
12.036000	-0.001105	0.000158	-0.002988	-0.000087	6828.258643	47502.740428	3828.497144	24785.778804
12.536000	0.000546	0.000710	0.003318	0.000324	6840.122749	47517.310381	3844.636155	24764.823494
13.036500	0.001017	0.000021	-0.003316	-0.002053	6867.519736	47691.996066	3832.959573	24886.193593
13.536500	0.000925	0.000210	0.005447	-0.002258	6868.598619	47732.802566	3857.696827	24896.668934
14.039500	0.000283	0.000067	-0.002554	0.001660	6824.827671	47313.539905	3824.930382	24696.939037
14.537000	-0.001742	-0.000540	0.003169	0.001164	6810.255142	47302.151139	3841.916276	24722.147836
15.033500	0.001607	0.001014	0.005929	-0.001858	6871.317417	47774.644334	3857.925082	24876.182338
15.537500	-0.001210	-0.000095	0.001816	-0.001233	6838.220227	47595.046425	3844.789427	24844.249888
16.035500	0.000362	-0.000401	0.002947	-0.002602	6866.492139	47705.021386	3851.701392	24914.282582
16.535500	0.001818	0.000568	-0.000648	-0.001789	6872.696753	47721.259075	3839.540363	24872.652438
17.036000	0.002441	0.000685	0.003794	-0.002788	6888.390310	47837.186434	3854.570790	24923.837603
17.536000	-0.001674	-0.000233	-0.000062	0.000279	6819.333402	47424.715496	3835.479377	24767.142379
18.036000	0.001398	-0.000348	-0.002116	-0.000091	6852.288394	47450.949498	3830.880959	24785.977787
18.536000	0.000640	-0.000824	-0.003138	-0.000061	6844.717686	47398.813119	3828.015331	24784.440875
19.037000	0.000818	-0.000566	-0.000570	0.000340	6842.583685	47384.088605	3833.923527	24764.022719
19.537500	-0.001926	0.000082	0.002208	0.000362	6816.136032	47448.648560	3841.477136	24762.907510
20.037500	-0.000922	-0.000093	0.003233	0.000033	6828.862612	47464.506871	3845.205966	24779.670631
20.537500	-0.000980	0.000759	-0.001602	0.001116	6817.972396	47440.655106	3828.994829	24724.568752
21.035000	-0.001579	-0.000178	0.001724	0.000375	6819.329103	47420.500048	3840.111223	24762.256746
21.535000	0.000096	0.000732	0.003016	0.000831	6830.957481	47467.281689	3842.407575	24739.025231
22.037500	-0.001184	0.000306	0.002535	0.000504	6821.858717	47457.069622	3841.986302	24755.667731
22.536000	0.001055	0.000453	0.003449	0.000586	6842.494206	47463.799841	3844.278298	24751.524246
23.036500	0.000871	0.000341	-0.001157	0.000715	6839.493186	47438.887302	3831.296293	24744.922629
23.536000	-0.002983	-0.000846	-0.003960	-0.000301	6812.385289	47421.354278	3826.435365	24796.673314
24.037000	-0.001523	-0.000241	-0.001925	0.000101	6822.472172	47442.179928	3830.875399	24776.177484
24.537500	0.001134	-0.000084	0.001577	0.000027	6848.620410	47466.106693	3840.664869	24779.984790
25.037500	-0.000416	0.000402	-0.003734	0.000675	6827.556697	47449.361651	3824.400250	24746.966971
25.535000	-0.000669	0.000130	-0.001425	0.000536	6826.466895	47435.655907	3831.055110	24754.037844
26.038000	-0.000339	0.000739	0.000567	0.000587	6829.141128	47493.165444	3836.356693	24751.456294
26.535500	-0.000905	0.000532	0.001748	0.001005	6819.750162	47428.787370	3838.448235	24730.223280
27.036500	0.001361	0.000390	0.003613	-0.001174	6862.350278	47639.053633	3849.590243	24841.209338
27.536500	-0.001002	0.000404	0.004104	-0.002251	6849.985763	47752.206154	3853.939303	24896.329411
28.036500	0.001351	0.000514	0.006235	-0.002206	6872.210722	47758.915443	3859.747573	24894.006853
28.536000	0.000402	0.000645	-0.000717	-0.002110	6862.126507	47762.480111	3840.230911	24889.085666
29.036500	0.002074	0.000270	0.003330	-0.001980	6877.019894	47710.214733	3851.040762	24882.462420
29.537000	-0.000249	0.000754	0.004558	-0.000994	6845.146699	47658.162510	3851.711238	24832.054598
30.038000	-0.000204	-0.000039	0.002476	0.003691	6800.858000	47094.493434	3833.089038	24594.108259
30.535000	0.001163	0.000655	-0.001833	0.002017	6829.828202	47337.314490	3825.918453	24678.848336
31.037500	-0.002590	0.000185	-0.003131	0.001052	6803.253619	47388.147679	3825.014454	24727.796346
31.535500	0.001448	0.000328	0.003917	-0.000481	6856.523341	47561.053786	3848.514641	24805.863821
32.035500	-0.000493	-0.000315	-0.001594	0.003668	6798.331351	47068.603563	3822.093605	24595.280353
32.536500	0.001654	0.001138	0.005930	-0.001553	6868.835285	47755.924046	3857.077803	24860.597475
33.036500	-0.000039	-0.000150	0.003342	-0.002836	6864.881374	47755.380457	3853.449054	24926.299884
33.537000	-0.000165	0.000108	-0.000433	0.001051	6826.369709	47380.322922	3832.356489	24727.862824
34.037000	-0.001620	-0.000230	-0.001459	0.001214	6810.936880	47328.815680	3829.115119	24719.586862
34.537500	-0.000744	0.000672	0.002241	0.001120	6820.182486	47431.347990	3839.485433	24724.353707
35.035000	-0.001890	0.000150	0.000719	0.000623	6814.000155	47428.767576	3836.675630	24749.639515
35.535500	0.001630	0.000576	0.000349	0.001193	6842.184811	47413.903663	3834.102723	24720.632255
36.035500	-0.000692	-0.000038	0.002327	0.001307	6818.899645	47339.027509	3839.207604	24714.871273
36.536000	0.000166	0.000855	0.002335	0.001272	6827.419441	47434.488839	3839.324657	24716.635833
37.035500	-0.000779	0.000062	-0.000214	0.000838	6822.538281	47397.532873	3833.536820	24738.712997
37.536500	-0.000420	0.000438	0.002363	0.000983	6824.586113	47421.313976	3840.197395	24731.331210
38.036500	-0.000704	0.000058	0.001738	0.000864	6823.005734	47394.450746	3838.806919	24737.370889
38.537000	0.000649	0.000900	0.002026	0.001469	6830.147825	47418.841797	3837.937864	24706.635615
39.042500	0.000654	-0.000047	0.001912	0.000931	6835.348954	47376.757595	3839.101136	24733.963237
39.537500	-0.000573	0.000503	0.005205	0.001390	6819.236857	47386.094521	3846.901780	24710.630477
40.035000	-0.000152	0.000624	0.003558	0.001298	6824.132889	47408.054060	3842.616515	24715.315714
40.535500	0.000754	0.000773	-0.002930	0.001741	6828.560479	47377.845122	3823.691525	24692.841906
41.035500	-0.001001	0.000215	0.001718	0.001168	6817.277812	47379.349911	3837.919153	24721.938352
41.536000	-0.000944	0.000497	0.004627	0.001113	6818.339452	47413.993880	3846.071560	24724.706886
42.036000	0.001887	0.000315	0.001866	0.001194	6844.638830	47386.859908	3838.253565	24720.589148
42.535500	0.001286	0.001059	0.004511	0.001778	6833.292475	47403.422924	3843.920217	24690.971282
43.042000	0.000116	0.000466	0.003371	0.001196	6827.670485	47402.261660	3842.381806	24720.502515
43.538000	0.000068	-0.000128	0.004198	-0.002067	6858.498147	47677.938079	3853.687826	24886.880874
44.035000	0.000985	0.000643	0.005372	-0.001749	6864.269401	47724.835975	3856.067579	24870.597961
44.537500	0.001563	-0.000048	0.006640	-0.002080	6873.050765	47687.627028	3860.530076	24887.575287
45.035000	0.002245	0.000396	0.002994	-0.001822	6877.144255	47706.838519	3849.671544	24874.345282
45.535500	-0.000476	0.000511	0.006274	0.002904	6805.749635	47231.360958	3845.673732	24633.894463
46.036000	-0.002468	-0.000345	-0.001913	0.003136	6784.667246	47119.982667	3822.670318	24622.180765
46.536000	-0.000508	-0.000676	-0.003158	-0.003089	6862.800734	47727.060905	3836.224388	24939.271462
47.035500	-0.001822	0.000313	0.002473	0.002307	6798.640351	47272.310373	3836.866617	24664.139150
47.537000	-0.001822	-0.000280	-0.002889	0.001445	6806.823577	47299.964111	3824.604612	24707.855475
48.037000	-0.002144	0.000467	0.003686	0.003441	6784.840917	47171.781764	3837.083372	24606.727085
48.540000	0.003070	0.000441	0.003818	-0.001824	6885.150302	47711.739665	3851.960975	24874.472677
49.043000	0.000417	0.000641	0.008482	-0.001856	6859.835387	47735.794128	3865.056437	24876.097331
49.537000	-0.000457	-0.000027	-0.002338	0.001549	6818.823506	47315.217767	3825.815669	24702.548710
50.035000	0.001199	0.000895	0.003077	0.002670	6823.932489	47294.844098	3837.527264	24645.757509
50.536000	-0.002850	-0.001844	0.004763	-0.005120	6859.803667	47816.673365	3863.781964	25043.735136
51.038500	-0.009537	-0.009179	-0.002022	0.146193	5584.383571	34006.197125	3492.606303	18457.757915
51.536000	-0.024054	-0.023513	0.004001	-0.011960	6723.744401	46301.712616	3880.926018	25399.094799
52.038000	-0.015526	-0.018939	0.004559	-0.076334	7463.242975	53805.933641	4079.860252	29032.700389
52.536000	-0.023773	-0.017500	-0.007250	-0.086790	7487.646057	55225.353847	4075.403159	29675.413249
53.042500	-0.029201	-0.024526	-0.018190	-0.135491	7991.588403	60516.846299	4205.128056	32881.610726
53.537500	-0.014176	-0.032660	-0.012378	-0.161515	8518.346881	62948.840064	4323.614977	34748.134464
54.035000	-0.002742	-0.034777	-0.007459	-0.169658	8787.662323	63790.973067	4374.796868	35355.519226
54.535000	0.000410	-0.025800	-0.004373	-0.153079	8601.642268	62730.573573	4321.951541	34130.787242
55.038000	-0.002194	-0.014532	-0.008731	-0.120662	8142.709688	59876.738105	4185.988771	31867.049259
55.535500	0.000019	-0.009407	-0.008705	-0.106004	7988.317070	58634.918222	4135.009745	30897.585702
56.035500	-0.003072	-0.006691	-0.008449	-0.071028	7542.664098	54629.658845	4020.708369	28712.416428
56.536000	0.002277	-0.002232	-0.007167	-0.042939	7294.485344	51878.807668	3938.500414	27080.561463
57.036500	-0.005549	-0.002771	-0.006430	-0.027125	7049.899228	50060.960778	3894.444852	26207.210051
57.537000	-0.007507	-0.003149	-0.009581	-0.033593	7095.531540	50729.987245	3904.005310	26560.569777
58.042000	-0.008182	-0.002448	-0.004611	-0.007518	6831.641640	48003.493793	3844.396935	25167.663895
58.534500	-0.008232	-0.002316	-0.007345	-0.000230	6762.048452	47262.947042	3817.091197	24793.076661
59.035500	-0.008547	-0.003063	-0.008501	0.000459	6752.615291	47115.745338	3812.130946	24757.981054
59.535500	-0.009196	-0.003838	-0.008718	0.001952	6732.564600	46884.286461	3807.554321	24682.106580
60.035000	-0.008389	-0.001921	-0.010155	0.006477	6698.001659	46619.656728	3791.733576	24453.812482
60.535500	-0.008106	-0.004026	-0.003791	0.000871	6752.886544	46975.221373	3823.715641	24736.995667
61.036000	-0.008312	-0.003560	-0.004319	-0.003160	6788.934852	47436.164394	3833.241173	24942.885108
61.536500	-0.006291	-0.001298	-0.011278	-0.017749	6949.217056	49206.681038	3854.260787	25704.265116
62.036500	-0.011539	-0.002019	-0.006248	-0.021988	6939.307548	49585.101988	3880.297233	25930.302714
62.540000	-0.011369	-0.002089	-0.013106	-0.022643	6947.406977	49648.242078	3862.810642	25965.425908
63.064500	-0.009683	-0.002496	-0.004874	-0.026447	7001.733645	50017.094581	3896.970645	26170.525282
63.537500	-0.009582	-0.003848	-0.007405	-0.026824	7006.491531	49910.960670	3890.787993	26190.943529
64.043000	-0.008670	-0.002679	-0.007479	-0.026076	7008.118946	49956.641693	3888.432891	26150.398066
64.535500	-0.008720	-0.002754	-0.007991	-0.024875	6995.661149	49818.021434	3883.549276	26085.529672
65.037000	-0.008582	-0.003812	-0.008692	-0.024565	6993.956458	49669.834433	3880.674473	26068.805504
65.535500	-0.009272	-0.003518	-0.006646	-0.022948	6971.093685	49526.909096	3881.894172	25981.827846
66.036500	-0.010184	-0.002903	-0.004445	-0.022307	6955.771778	49524.118475	3886.336392	25947.440369
66.537000	-0.009577	-0.003664	-0.006510	-0.022117	6959.875348	49421.652065	3879.919683	25937.231873
67.036500	-0.008838	-0.003118	-0.006390	-0.021240	6958.511625	49386.084945	3877.773677	25890.261879
67.537500	-0.011253	-0.003773	-0.010174	-0.020147	6924.078678	49198.467307	3864.033285	25831.891230
68.037500	-0.010152	-0.003007	-0.010311	-0.018139	6915.218309	49065.588692	3858.039209	25724.953606
68.535000	-0.009995	-0.003217	-0.004349	-0.019978	6934.744925	49239.960897	3879.984907	25822.877602
69.035500	-0.009930	-0.003152	-0.008383	-0.019467	6930.365557	49192.179970	3867.148650	25795.607437
69.535000	-0.010244	-0.003783	-0.012116	-0.018472	6917.568274	49018.309678	3853.941850	25742.657652
70.036000	-0.010989	-0.003224	-0.009381	-0.017730	6903.069463	48998.763779	3859.491518	25703.231905
70.535500	-0.009609	-0.002764	-0.006531	-0.018518	6924.228385	49132.150571	3869.691141	25745.131420
71.043500	-0.009379	-0.003393	-0.010471	-0.018511	6926.405272	49064.120669	3858.628316	25744.717513
71.536000	-0.010161	-0.002489	-0.008939	-0.016595	6900.094580	48956.256656	3857.559186	25643.104493
72.040000	-0.010598	-0.002445	-0.006086	-0.015370	6883.963066	48830.485806	3862.102451	25578.339270
72.534500	-0.009401	-0.002395	-0.007745	-0.016509	6906.655182	48957.122001	3860.652466	25638.575340
73.035000	-0.007955	-0.001887	-0.010966	-0.016384	6919.530926	48997.925607	3851.340385	25631.949298
73.535500	-0.007715	-0.001382	-0.007299	-0.014547	6903.965090	48856.075254	3856.423404	25534.982952
74.036000	-0.007326	-0.001566	-0.006875	-0.014141	6903.796755	48793.408330	3856.473892	25513.593398
74.536000	-0.008625	-0.002106	-0.012440	-0.015332	6902.748802	48862.512172	3844.355536	25576.344778
75.036500	-0.009776	-0.001469	-0.008990	-0.014654	6884.988835	48858.171204	3852.021912	25540.604120
75.536500	-0.008235	-0.001739	-0.008271	-0.013691	6890.588739	48727.295520	3851.343311	25489.907733
76.036500	-0.008629	-0.001812	-0.008505	-0.013212	6882.136337	48668.862685	3849.371835	25464.766795
76.537500	-0.008307	-0.001286	-0.009510	-0.013768	6890.640668	48783.517158	3848.125834	25493.952372
77.034500	-0.010607	-0.001770	-0.005735	-0.013824	6868.930347	48738.080235	3858.767386	25496.908700
77.540500	-0.008516	-0.001338	-0.008198	-0.012893	6880.142903	48685.192716	3849.337270	25448.003187
78.037000	-0.008767	-0.000534	-0.004325	-0.011689	6866.078985	48642.857237	3856.744975	25384.892379
78.535500	-0.007586	-0.001411	-0.004714	-0.012912	6889.329120	48679.432670	3859.071226	25448.980001
79.036000	-0.009402	-0.001443	-0.005842	-0.013196	6874.502681	48706.237123	3856.717554	25463.913405
79.536000	-0.007800	-0.001757	-0.008382	-0.012302	6881.350446	48578.367687	3847.194121	25417.006734
80.036500	-0.009049	-0.001638	-0.007770	-0.012526	6871.445731	48614.651705	3849.505724	25428.758117
80.536000	-0.007963	-0.001144	-0.008725	-0.012271	6879.478014	48639.970613	3846.162999	25415.402831
81.042000	-0.008763	-0.001477	-0.005309	-0.012061	6869.717374	48582.468949	3855.042464	25404.383875
81.537000	-0.010133	-0.001020	-0.014954	-0.011354	6849.715153	48556.147861	3826.598415	25367.397665
82.037500	-0.006799	-0.000677	-0.010157	-0.011374	6882.057234	48594.443254	3839.749235	25368.422452
82.535000	-0.010373	-0.002536	-0.013483	-0.012434	6857.796893	48510.051095	3833.545685	25423.944767
83.038000	-0.006752	-0.001242	-0.007013	-0.011477	6883.502728	48545.568537	3848.696694	25373.802102
83.535500	-0.008097	-0.001109	-0.005632	-0.010652	6862.549097	48472.640254	3850.237206	25330.696925
84.035500	-0.009291	-0.001473	-0.010647	-0.011522	6859.429596	48526.015827	3838.811429	25376.186417
84.538500	-0.007831	-0.001289	-0.013234	-0.011397	6872.292839	48532.139229	3831.391416	25369.605467
85.036500	-0.008724	-0.000937	-0.009797	-0.011115	6860.966841	48539.568366	3840.026549	25354.885420
85.536500	-0.008871	-0.000939	-0.007075	-0.011038	6858.813917	48531.326510	3847.312604	25350.876305
86.039500	-0.007705	-0.001691	-0.005710	-0.010992	6869.607589	48447.111324	3850.960890	25348.454816
86.536500	-0.009285	-0.001469	-0.006352	-0.011631	6860.536345	48537.997731	3850.953677	25381.883595
87.034500	-0.007450	-0.001285	-0.007980	-0.011314	6875.182245	48523.912424	3845.574185	25365.285164
87.535000	-0.008090	-0.001743	-0.008917	-0.010300	6859.222278	48368.829127	3840.204987	25312.341756
88.035000	-0.009114	-0.001579	-0.007319	-0.010812	6854.290968	48439.945403	3846.013859	25339.035096
88.535500	-0.007648	-0.001451	-0.009127	-0.011461	6874.684801	48521.818123	3842.819156	25372.969805
89.036000	-0.006576	-0.001234	-0.006451	-0.011011	6880.704332	48497.271413	3848.961235	25349.442539
89.536000	-0.007007	-0.001144	-0.005668	-0.011241	6878.756749	48531.053461	3851.767734	25361.452952
90.039500	-0.007663	-0.001782	-0.008673	-0.011094	6870.992260	48448.177811	3843.057171	25353.765308
90.537000	-0.008417	-0.001113	-0.008547	-0.010645	6859.398320	48471.414263	3842.170610	25330.327203
91.040000	-0.007732	-0.001416	-0.005842	-0.011215	6871.503095	48499.605860	3851.214758	25360.115449
91.537500	-0.010387	-0.002017	-0.009941	-0.010601	6840.044288	48371.558773	3838.219086	25328.022486
92.035000	-0.008482	-0.001251	-0.006717	-0.010726	6859.558947	48465.514709	3847.439280	25334.580486
92.535000	-0.006726	-0.000668	-0.006784	-0.010554	6874.836584	48508.835632	3846.780887	25325.593116
93.041000	-0.006318	-0.000384	-0.006335	-0.010095	6874.343488	48490.388301	3846.752416	25301.650530
93.535500	-0.008828	-0.001662	-0.005917	-0.010618	6855.185607	48410.738424	3849.352453	25328.918648
94.035500	-0.008453	-0.001361	-0.012047	-0.010565	6858.285296	48436.905373	3832.361825	25326.160043
94.536000	-0.006643	-0.001007	0.000961	-0.010710	6877.139067	48489.523103	3868.799915	25333.731846
95.036500	-0.005505	-0.000721	-0.006741	-0.010564	6886.748912	48504.266641	3846.924846	25326.113147
95.540000	-0.005855	-0.000524	-0.004088	-0.008949	6867.744742	48354.896184	3849.794692	25241.952423
96.036500	-0.009255	-0.000741	-0.004652	-0.010287	6847.901270	48472.982261	3851.942574	25311.670087
