sample name	sample
index	576
start time	 03-16-2021  03:22:07 PM
880	0.209234
Peak Time (s)	182.537
Peak Height 	0.2092
calc peak height	180,183
Baseline Time (s)	8.537
Baseline Value 	-0.006252
subtract baseline	10,4
Abs	0.152431
Peak Time (s)	182.537
Peak Height 	0.1524
calc peak height	180,183
Baseline Time (s)	10.037
Baseline Value 	0.002906
subtract baseline	10,3
PK_550	0.082724
Peak Time (s)	180.539
Peak Height 	0.08272
calc peak height	180,183
Baseline Time (s)	11.036
Baseline Value 	5.0948E-4
subtract baseline	10,2
PK_880	0.141344
Peak Time (s)	182.537
Peak Height 	0.1413
calc peak height	180,183
Baseline Time (s)	8.537
Baseline Value 	0.003556
subtract baseline	10,1


Time (s)	A880-A510	A880-A775	A880-A975	A880	I510	I775	I975	I880	
0.036500	-0.002640	-0.000016	0.002250	0.002499	5570.964680	33908.790688	3626.092769	18372.731801
0.536500	-0.000138	0.000115	-0.005200	0.005696	5566.580272	33690.313185	3606.288499	18258.666302
1.034500	-0.005869	0.000012	-0.004106	0.008401	5513.945794	33491.661953	3603.334358	18162.834085
1.535000	-0.000741	-0.000370	-0.000544	0.001751	5587.713799	33936.963480	3622.248383	18399.516709
2.035500	-0.000303	0.000099	-0.006132	0.001959	5589.182515	33955.713138	3611.460480	18392.078519
2.535500	-0.001566	-0.000743	-0.001925	0.000972	5587.421795	33966.045653	3621.121622	18427.483479
3.035500	-0.001449	-0.001627	0.002006	0.002642	5577.582843	33783.607318	3625.364885	18367.603238
3.536000	0.000780	0.000370	-0.001773	0.001017	5602.066411	34042.641399	3621.320647	18425.861322
4.036500	-0.000733	0.000020	0.000398	0.001438	5589.757333	33987.327422	3624.603640	18410.762137
4.537000	-0.000771	0.000805	-0.000783	0.001464	5589.350404	34041.788818	3622.338997	18409.833279
5.037000	-0.000974	-0.000459	0.001491	0.000188	5596.174206	34042.679944	3629.019402	18455.686895
5.534500	0.000244	0.000464	-0.000743	0.001381	5596.330682	34023.241638	3622.569128	18412.802507
6.035000	-0.001086	0.000813	-0.003940	0.001181	5589.148275	34062.723911	3616.969798	18419.990214
6.537000	0.001360	-0.000616	-0.003068	0.000196	5611.026831	34030.789428	3620.435808	18455.406212
7.035500	-0.002528	0.000027	0.002106	0.000484	5584.417959	34056.255041	3629.622797	18445.027915
7.536000	0.000753	0.000815	0.002427	0.001054	5601.660421	34071.948409	3629.151794	18424.538645
8.036000	-0.001751	-0.000138	-0.000451	0.000439	5589.633317	34047.664257	3624.886359	18446.641861
8.536500	0.000000	-0.000457	-0.000395	0.000000	5603.584337	34056.301678	3625.816884	18462.456028
9.037000	0.000461	0.000457	-0.000625	0.000440	5603.721446	34090.391804	3624.556836	18446.618910
9.537000	-0.001565	0.000299	0.002352	0.000410	5591.003019	34081.165639	3630.228739	18447.698023
10.037000	-0.002583	0.000141	0.000000	0.000172	5586.052884	34086.973402	3626.238002	18456.275573
10.537500	-0.001134	-0.000159	0.004914	-0.000023	5596.494175	34079.323584	3635.914171	18463.268535
11.035500	0.001505	0.000000	0.002975	-0.000119	5613.974984	34097.698112	3632.410291	18466.735959
11.535500	0.002031	-0.001001	-0.007208	-0.000506	5619.834184	34053.617608	3614.033387	18480.702905
12.035000	-0.000659	0.000332	-0.004167	0.000211	5598.037053	34097.864300	3618.355988	18454.872493
12.535500	-0.000520	-0.000032	0.001062	0.002305	5585.599562	33921.524959	3624.222269	18379.659882
13.036500	-0.000628	-0.000995	0.000099	-0.002254	5613.983038	34179.811654	3631.005545	18543.818111
13.536500	-0.000525	-0.000204	0.005517	0.000355	5597.967881	34048.958327	3636.344309	18449.674619
14.053000	0.004834	0.000667	-0.002204	0.000444	5631.753677	34105.147336	3621.587599	18446.461315
14.537000	-0.004431	-0.001215	-0.000817	0.002486	5559.766649	33824.155876	3620.363166	18373.205723
15.037500	0.000430	0.000437	-0.000670	0.001142	5599.042416	34038.494104	3623.153587	18421.379424
15.592000	-0.000575	-0.000416	0.000545	-0.000042	5600.181231	34062.253473	3627.668293	18463.964904
16.037500	0.001159	0.000268	0.006608	0.000409	5608.372115	34079.002983	3638.322171	18447.719500
16.535500	-0.002180	-0.000130	0.003858	0.002517	5573.757443	33899.363893	3629.092664	18372.093791
17.037000	-0.000776	-0.000596	-0.000464	-0.000162	5599.664122	34057.931585	3625.991259	18468.279968
17.536000	0.000176	-0.000649	0.001616	-0.002371	5619.896884	34213.281981	3634.108292	18548.085829
18.036000	0.000721	0.000516	0.006912	-0.002258	5622.669241	34289.286787	3644.021805	18543.981839
18.536500	-0.001276	0.000319	-0.000002	0.002210	5581.415012	33953.450250	3622.403686	18383.064799
19.037000	-0.002115	-0.001000	-0.004200	0.000755	5585.320750	33963.258639	3617.280094	18435.307630
19.537000	-0.000262	-0.000074	0.001455	0.001760	5590.706469	33957.550487	3625.986681	18399.218307
20.037500	-0.001844	0.000397	0.002059	0.001995	5579.183430	33974.468711	3626.683081	18390.796901
20.537500	-0.003720	0.000493	0.005878	0.002199	5566.046266	33966.716995	3633.521199	18383.459695
21.038000	-0.002471	-0.000491	0.003559	0.001653	5577.372659	33935.357102	3630.159471	18403.036832
21.536000	-0.001895	-0.000290	-0.000725	0.001108	5584.473593	33988.788687	3623.115338	18422.607318
22.035500	-0.002553	-0.001582	0.001521	0.000652	5583.194111	33928.885486	3628.200096	18439.003908
22.536500	-0.001624	-0.000433	-0.000523	0.001572	5583.249696	33945.308590	3622.624797	18405.948756
23.036500	-0.000453	-0.000758	0.000062	0.000827	5595.422061	33975.334605	3625.120105	18432.696240
23.536500	-0.001396	0.000026	-0.000342	0.001997	5582.001885	33947.736970	3622.166790	18390.702240
24.037000	-0.001213	-0.000374	0.000907	0.001226	5588.057533	33974.308584	3625.962185	18418.383096
24.537500	-0.002847	-0.000895	0.003984	0.001293	5577.273348	33932.160900	3631.646568	18415.963197
25.034500	0.000034	0.000225	0.001996	0.001801	5592.329635	33976.051907	3626.928842	18397.752508
25.535000	-0.003328	0.000310	0.003212	0.001984	5569.872209	33968.995540	3628.877182	18391.164760
26.035500	-0.001206	-0.000757	0.000780	0.001208	5588.208625	33948.105033	3625.754071	18418.999086
26.535500	-0.001131	0.000330	-0.000222	0.002349	5581.453402	33944.315034	3621.732676	18378.110038
27.036000	-0.001610	-0.000226	-0.000127	0.001969	5580.826014	33931.662538	3622.621423	18391.703113
27.536000	-0.002074	-0.000136	0.004900	0.001557	5580.501252	33967.640293	3632.884531	18406.503233
28.036500	0.000977	-0.000219	-0.002261	-0.002036	5622.890591	34220.144237	3626.138678	18535.960179
28.536500	0.000811	-0.000075	0.005471	0.000477	5605.718535	34049.476007	3636.024615	18445.302610
29.068500	-0.001275	-0.000367	0.000559	0.000406	5592.870806	34033.617714	3626.849727	18447.850982
29.537000	-0.001224	-0.000218	0.000851	0.000057	5595.414946	34069.363912	3628.057945	18460.398841
30.037500	-0.002314	-0.000478	0.009117	-0.000269	5590.554686	34074.068237	3644.435487	18472.130953
30.535000	-0.004622	-0.000813	-0.000411	0.001623	5563.992603	33914.483441	3622.739682	18404.131526
31.035000	-0.001300	0.000340	0.002531	0.001044	5588.653646	34038.517798	3629.367947	18424.897446
31.536000	-0.000276	-0.001142	0.001958	0.000296	5599.934436	33985.898127	3629.699209	18451.802524
32.040000	-0.002328	-0.000082	-0.003597	0.002368	5573.761297	33913.450884	3615.400505	18377.429915
32.536500	-0.001071	-0.000415	-0.003539	0.002728	5579.431460	33863.941410	3614.839336	18364.522950
33.047500	0.002360	0.001520	0.002894	0.001669	5607.994783	34078.401843	3628.872449	18402.456999
33.537000	-0.000509	-0.000510	0.000427	-0.000335	5602.469979	34076.563817	3627.997455	18474.516766
34.037000	-0.000792	0.000139	0.002008	0.000078	5598.033248	34093.547997	3630.204175	18459.635459
34.534500	-0.000524	-0.000654	0.002306	0.001920	5588.020527	33904.550723	3627.287457	18393.458860
35.037500	0.000175	-0.000393	0.004387	-0.000843	5610.095630	34121.522484	3636.474222	18492.848741
35.535500	-0.001040	0.000655	0.000985	0.002515	5580.976265	33955.702628	3623.684098	18372.163699
36.035500	-0.001381	-0.001071	0.003095	0.001915	5582.618453	33875.149889	3628.787705	18393.647494
36.536000	-0.001542	-0.000125	-0.001750	0.002551	5577.576568	33897.317492	3618.500016	18370.877063
37.036000	-0.002187	-0.000246	-0.001414	0.001478	5580.284497	33965.462201	3621.132002	18409.338123
37.536500	-0.001091	0.000227	-0.000909	0.002532	5580.539988	33923.790704	3620.103427	18371.525598
38.037000	-0.004249	0.000023	0.001056	0.002220	5562.586439	33931.566370	3624.372081	18382.724137
38.537000	-0.002686	-0.000080	0.004931	0.003147	5566.589709	33857.931479	3629.930768	18349.552000
39.037000	-0.002117	-0.000863	-0.000255	0.001533	5580.378867	33917.352523	3623.199186	18407.352981
39.537500	-0.000913	0.000069	-0.005309	0.002629	5581.058629	33905.555411	3611.742820	18368.064795
40.035000	-0.001228	-0.000014	-0.003913	0.002382	5580.628923	33917.331576	3614.788022	18376.916467
40.535000	-0.004080	-0.000214	-0.002106	0.002852	5559.672279	33869.454535	3617.273862	18360.090328
41.036000	0.000625	0.001063	0.001330	0.002788	5589.803233	33965.306798	3623.817384	18362.362616
41.536000	-0.004301	-0.000887	0.002715	0.002010	5563.576090	33881.514333	3627.891143	18390.252926
42.036000	-0.002131	0.000095	0.005773	0.002607	5573.496467	33909.034422	3632.548467	18368.871405
42.536500	-0.001189	0.000043	-0.004355	0.002416	5580.659705	33918.953591	3613.904387	18375.708071
43.036500	-0.004170	-0.000663	-0.000980	0.001455	5567.898786	33937.195549	3621.987079	18410.146750
43.537500	-0.001822	-0.000234	-0.002879	0.002148	5578.350502	33918.292703	3617.144707	18385.286793
44.036000	-0.000679	-0.000248	0.001802	0.002054	5586.183026	33923.979432	3626.085109	18388.648244
44.535000	-0.002093	-0.000435	0.004332	0.002878	5572.022021	33851.750599	3629.304686	18359.142216
45.035500	-0.002008	-0.000449	-0.000167	-0.000520	5594.098162	34094.263066	3627.226451	18481.194424
45.535000	0.000438	-0.000372	0.002581	-0.002891	5624.923255	34270.866153	3636.935602	18566.917838
46.036000	0.000989	0.000396	0.003481	0.000667	5605.645510	34069.712218	3631.879488	18438.463057
46.544500	-0.001643	-0.000646	-0.000485	0.002724	5575.840454	33847.720016	3620.537541	18364.670525
47.036500	-0.002336	0.000720	0.003629	0.001734	5577.720791	34016.367077	3630.139262	18400.154566
47.537000	-0.000820	0.000829	0.004354	0.000527	5594.995567	34110.844740	3633.802128	18443.483815
48.037000	0.000074	0.000027	0.010154	0.000424	5601.347962	34060.647791	3645.099129	18447.196934
48.546000	-0.002149	0.000182	0.002637	0.002087	5576.666909	33952.466435	3627.597597	18387.486743
49.040000	-0.001244	0.000925	-0.003856	0.003536	5573.229267	33901.947072	3612.753354	18335.651143
49.535000	-0.002533	-0.000191	-0.002875	0.002728	5570.194204	33879.908560	3616.073770	18364.521507
50.056000	-0.000798	-0.000231	-0.001828	0.000025	5598.334195	34070.745251	3623.076796	18461.551894
50.535000	-0.002133	0.000178	-0.001663	0.002255	5575.710213	33940.198354	3619.214835	18381.478409
51.035500	-0.000229	0.001576	0.004973	0.001208	5594.423566	34115.621648	3633.685591	18419.018907
51.536000	0.002366	0.000721	0.007648	-0.001867	5630.743966	34275.796083	3644.684708	18529.823579
52.036000	0.001353	0.000013	0.003838	-0.001326	5620.746116	34185.616047	3636.348664	18510.287928
52.537000	-0.003264	0.001758	0.002712	0.006650	5540.997317	33739.360717	3619.176741	18224.817234
53.037000	-0.000132	0.000576	0.003485	-0.014746	5698.492292	35210.755968	3661.639565	19002.593557
53.540000	0.001823	-0.004777	0.007608	0.163436	4741.864124	24059.348446	3379.883688	13557.651437
54.035000	-0.010158	-0.018009	-0.001735	-0.075140	6051.177036	38480.349415	3777.228858	21416.493252
54.535000	-0.025994	-0.030385	-0.017418	-0.253256	7510.340100	55033.724358	4216.664121	30843.449441
55.035500	-0.007762	-0.077835	-0.001832	-0.378026	9335.318304	65201.357704	4753.952436	40169.032143
55.536000	-0.003402	-0.055523	0.002664	-0.346852	8945.833502	63942.104389	4638.032260	37582.223348
56.036000	-0.009823	-0.025997	-0.006104	-0.289162	8106.550507	60106.459006	4378.419385	33258.543065
56.536500	-0.014730	-0.017014	-0.015296	-0.250143	7599.006482	56280.869261	4213.454546	30643.339754
57.036500	-0.009545	-0.014112	-0.010010	-0.258882	7754.360984	57732.121502	4259.571284	31208.803457
57.537000	-0.000616	-0.008856	-0.004331	-0.251789	7775.215699	57500.456410	4254.850253	30748.940083
58.037000	0.001792	-0.004103	-0.005223	-0.225508	7510.743322	54857.903484	4167.120052	29109.163992
58.537500	0.003110	-0.003177	0.001349	-0.213381	7395.695989	53533.770071	4149.852782	28385.324191
59.037500	0.006204	-0.000515	0.003603	-0.189373	7181.050307	51103.177713	4084.310424	27010.561076
59.535500	0.005380	-0.001616	0.005497	-0.171339	6996.179789	49023.597344	4037.762567	26026.758621
60.035500	0.006625	-0.001393	0.007709	-0.150695	6814.201494	46903.002062	3986.676316	24949.594294
60.536000	0.001143	-0.002132	0.002498	-0.114681	6451.177241	43328.780285	3879.971687	23188.783052
61.036000	0.009901	0.000583	0.008285	-0.097417	6380.953354	41995.433011	3852.024615	22395.101926
61.536500	0.008777	0.000278	0.009017	-0.072401	6173.555052	39778.697768	3795.269474	21299.578183
62.037000	0.010666	0.000495	0.012299	-0.061023	6101.304727	38841.999706	3777.042381	20821.830882
62.537000	0.012141	0.002483	0.015856	-0.044376	5989.006084	37647.565094	3748.279979	20144.946822
63.036500	0.012536	0.002976	0.015584	-0.048757	6023.938354	38040.232118	3757.217592	20320.591424
63.537000	0.015141	0.004744	0.018847	-0.015813	5808.452729	35603.093711	3694.535612	19042.384153
64.035500	0.013791	0.007672	0.017106	-0.018988	5820.996349	36066.478552	3697.465861	19161.389466
64.535500	0.017377	0.010071	0.018307	-0.013382	5807.112920	35822.128884	3688.494285	18951.837643
65.035500	0.018934	0.010068	0.021161	-0.011886	5807.532891	35708.516032	3691.248712	18896.371823
65.537000	0.021573	0.011039	0.024625	-0.011247	5821.277384	35733.685048	3697.012588	18872.749323
66.036000	0.021379	0.011808	0.027807	-0.008884	5803.721425	35613.291440	3698.688796	18785.672947
66.537000	0.020689	0.012788	0.018225	-0.001023	5745.745201	35098.313772	3663.638772	18499.328262
67.037000	0.024682	0.013952	0.029199	-0.004682	5797.571950	35458.368763	3692.945886	18631.957599
67.537500	0.027505	0.014756	0.028705	-0.002923	5804.844824	35386.739202	3688.370759	18568.060902
68.037500	0.030102	0.015880	0.034987	-0.000772	5807.904937	35309.980362	3696.782078	18490.284191
68.535000	0.028844	0.015488	0.028772	0.004964	5760.338482	34855.274508	3672.667980	18284.729935
69.035000	0.034538	0.017220	0.033031	0.002716	5814.415143	35149.860676	3685.714227	18364.956531
69.535500	0.035293	0.017406	0.038560	0.003886	5811.564275	35076.714954	3694.564462	18323.141962
70.038500	0.035418	0.018282	0.041440	0.004982	5804.903423	35060.389354	3698.210735	18284.060581
70.536000	0.032587	0.017681	0.041275	0.010384	5749.050528	34618.376810	3686.879306	18092.971648
71.036000	0.037869	0.019018	0.040696	0.007806	5802.352662	34905.980823	3690.932409	18183.884330
71.537000	0.039131	0.019694	0.041124	0.009651	5798.359175	34819.823496	3688.056556	18118.735283
72.037000	0.040824	0.020902	0.046470	0.011894	5794.604330	34743.690918	3694.364163	18039.945395
72.537000	0.039297	0.021343	0.036406	0.017908	5743.586941	34337.151651	3662.163621	17830.699826
73.035000	0.042516	0.022900	0.049730	0.014932	5785.439013	34667.483834	3694.817660	17933.895240
73.535000	0.042281	0.023161	0.047125	0.016598	5772.527250	34564.763473	3686.142488	17876.039422
74.035500	0.045406	0.022327	0.047243	0.017002	5791.015843	34474.422138	3685.564037	17862.027238
74.535500	0.043234	0.023620	0.043663	0.024189	5727.898621	34048.204293	3664.083627	17615.193965
75.036000	0.046099	0.024630	0.045844	0.021534	5764.963705	34312.614408	3673.666568	17705.912688
75.536000	0.045640	0.025486	0.051856	0.023058	5751.594025	34264.209434	3682.654978	17653.772011
76.037000	0.048712	0.025548	0.049032	0.024754	5760.863397	34146.251842	3673.602549	17595.967662
76.537000	0.043572	0.025188	0.047387	0.030653	5687.313036	33698.563372	3658.702122	17396.669757
77.038000	0.049567	0.025785	0.055696	0.028524	5741.260742	33892.807260	3679.387684	17468.294829
77.534500	0.045036	0.026595	0.050169	0.029837	5702.359195	33856.889034	3665.776671	17424.096280
78.038000	0.048960	0.026764	0.055054	0.031826	5715.179996	33727.207352	3671.512815	17357.370016
78.535000	0.047304	0.027548	0.051614	0.040066	5650.187031	33201.760847	3648.608724	17084.193756
79.035500	0.050539	0.027175	0.051440	0.035833	5699.098780	33472.693427	3656.499602	17223.881997
79.535500	0.048783	0.028436	0.058389	0.037999	5673.309989	33408.975177	3665.891246	17152.252893
80.036500	0.050007	0.029180	0.053979	0.040471	5665.148108	33287.599403	3652.409077	17070.903413
80.536500	0.047208	0.028665	0.052647	0.047626	5600.913217	32754.842670	3636.075034	16838.090876
81.036500	0.054751	0.029806	0.056569	0.044959	5666.825674	33018.241102	3648.730443	16924.443456
81.537000	0.055392	0.029193	0.057337	0.046100	5663.560022	32896.622198	3648.008342	16887.446239
82.040000	0.055696	0.029670	0.059857	0.048120	5652.388326	32790.114054	3648.974775	16822.181986
82.535000	0.052957	0.029949	0.059082	0.055689	5586.193155	32291.867878	3632.978363	16580.316679
83.034500	0.054990	0.030409	0.058611	0.051989	5622.808820	32575.084543	3639.132406	16698.002293
83.535500	0.056405	0.032256	0.061327	0.054631	5614.937905	32520.766153	3639.274334	16613.869667
84.035500	0.055421	0.030402	0.065174	0.055353	5604.018341	32345.357929	3645.275914	16590.969885
84.536000	0.056866	0.032954	0.069095	0.064798	5553.390488	31880.966440	3634.696796	16294.754600
85.036500	0.058301	0.033424	0.068280	0.060525	5589.421108	32199.725084	3641.303063	16427.969039
85.536500	0.062555	0.033480	0.061120	0.061707	5609.004642	32123.738021	3625.456480	16391.001541
86.037000	0.060345	0.033015	0.065934	0.062827	5587.775955	32017.124791	3632.435837	16356.036630
86.540000	0.058706	0.033739	0.064799	0.070849	5527.116408	31531.175151	3615.242723	16108.363148
87.037500	0.062640	0.035003	0.066295	0.067253	5574.287200	31853.891667	3624.758633	16218.841747
87.535000	0.063005	0.035469	0.063213	0.068743	5567.182265	31785.551381	3616.209604	16172.945956
88.035500	0.063131	0.034868	0.073384	0.070202	5558.797502	31648.660053	3632.577833	16128.165137
88.535500	0.060382	0.035074	0.067657	0.078053	5493.014002	31146.288445	3607.208420	15889.822726
89.035500	0.064076	0.035759	0.068644	0.073793	5542.230058	31470.273414	3616.917882	16018.626050
89.536000	0.067453	0.037197	0.073576	0.075910	5550.105469	31425.549252	3622.177308	15954.459287
90.036500	0.067759	0.037186	0.073833	0.077098	5544.583037	31346.723759	3620.433484	15918.572437
90.536500	0.061848	0.036152	0.062059	0.084453	5462.932407	30801.711525	3585.440490	15698.660335
91.037000	0.064202	0.037316	0.069353	0.080035	5504.307935	31163.208867	3606.682195	15830.326283
91.537000	0.066067	0.038343	0.071344	0.081673	5505.705255	31123.435766	3607.331636	15781.361638
92.038000	0.068428	0.038211	0.075114	0.083111	5511.393699	31021.397130	3611.632600	15738.510069
92.535000	0.066145	0.038504	0.076575	0.090171	5454.331285	30585.978115	3601.343121	15530.257912
93.035500	0.069850	0.039510	0.076402	0.086886	5496.904621	30861.296761	3607.045010	15626.733256
93.535500	0.068784	0.038876	0.075539	0.087348	5487.543548	30790.722097	3604.613341	15613.131939
94.036000	0.072944	0.041293	0.076163	0.090242	5495.297167	30760.052516	3600.462791	15528.178979
94.536000	0.070210	0.040319	0.075371	0.093507	5458.744399	30489.067952	3593.097019	15433.034706
95.036500	0.072051	0.041227	0.075912	0.092828	5474.039230	30590.229030	3595.306373	15452.769735
95.537000	0.074449	0.041881	0.079215	0.093856	5482.394298	30566.339692	3599.439261	15422.908396
96.039500	0.074402	0.042274	0.079846	0.095332	5473.110400	30497.311712	3597.901899	15380.162648
96.537000	0.072804	0.041684	0.075370	0.102309	5421.437608	30019.855078	3577.350810	15180.034426
97.037500	0.073213	0.041892	0.081351	0.097875	5450.494571	30311.782645	3596.015769	15306.834171
97.535000	0.079288	0.042622	0.085225	0.099295	5478.729031	30268.163588	3600.478422	15266.079071
98.035500	0.076376	0.043243	0.076782	0.100249	5455.257249	30247.152542	3583.523099	15238.775125
98.536000	0.079112	0.044559	0.082945	0.102591	5457.642244	30182.513888	3590.373543	15172.007351
99.036000	0.079377	0.044081	0.090964	0.103455	5454.017591	30098.227821	3603.364035	15147.461109
99.536500	0.079200	0.044222	0.086424	0.104570	5446.221876	30037.200637	3593.079134	15115.860475
100.036500	0.079794	0.043881	0.085204	0.105533	5444.000176	29955.674685	3589.143619	15088.628154
100.536500	0.079288	0.044550	0.088588	0.111037	5408.087247	29655.718105	3585.344316	14934.189698
101.037500	0.082010	0.045903	0.087026	0.108900	5437.092182	29871.917907	3586.373407	14993.930278
101.534000	0.079959	0.045235	0.086209	0.109295	5422.443564	29805.812952	3584.204180	14982.843728
102.035000	0.082848	0.046158	0.088201	0.111296	5427.753837	29739.105869	3584.188928	14926.969112
102.535500	0.084164	0.046692	0.092171	0.115578	5410.071441	29508.031095	3583.629722	14808.195059
103.036000	0.082920	0.047064	0.091223	0.113390	5415.688589	29665.620447	3585.847630	14868.746075
103.535500	0.083039	0.047084	0.088395	0.114587	5409.280955	29593.091044	3578.675547	14835.589099
104.036000	0.083702	0.048480	0.087239	0.115748	5406.321340	29607.510868	3574.575572	14803.509433
104.536500	0.083816	0.048549	0.089134	0.120828	5377.036110	29300.635910	3568.978566	14664.195580
105.036500	0.083929	0.048770	0.086454	0.117783	5395.619222	29500.228658	3569.617489	14747.506824
105.540000	0.085720	0.049257	0.099701	0.119142	5398.171119	29446.787130	3590.742210	14710.240504
106.037500	0.088048	0.049949	0.096123	0.120537	5403.700468	29403.841357	3581.835771	14672.135960
106.535000	0.086183	0.049241	0.088650	0.126811	5355.917851	28980.382419	3557.735650	14502.174819
107.035000	0.088108	0.050223	0.097059	0.122627	5391.697969	29293.047379	3579.783218	14615.251809
107.535000	0.087311	0.049662	0.096015	0.122896	5385.415438	29242.515271	3577.453438	14607.939120
108.036000	0.089217	0.050969	0.106912	0.124554	5386.875754	29221.182891	3593.989966	14563.028530
108.535500	0.085011	0.051766	0.095349	0.131619	5321.389396	28843.505685	3561.005871	14373.616593
109.036500	0.091554	0.051307	0.100318	0.126315	5390.268336	29134.986893	3579.021837	14515.532815
109.537000	0.091660	0.053021	0.104484	0.128591	5377.511074	29101.025016	3582.383720	14454.428651
110.037000	0.091604	0.051264	0.094824	0.127589	5383.063299	29055.388048	3567.103780	14481.278891
110.534500	0.088482	0.052176	0.094907	0.135073	5321.482037	28661.959538	3554.284203	14282.106511
111.037500	0.091810	0.052796	0.105273	0.129896	5370.745722	29008.709093	3581.463042	14419.513254
111.535000	0.093320	0.053148	0.094893	0.130606	5375.428606	28987.202799	3561.971098	14400.582283
112.035500	0.093398	0.053308	0.097485	0.132199	5366.568040	28901.102840	3563.706659	14358.193892
112.535500	0.093897	0.054556	0.102981	0.135839	5348.289779	28758.041710	3566.941867	14261.905983
113.036000	0.094062	0.054137	0.100117	0.133324	5363.878787	28883.352431	3566.332844	14328.350303
113.535500	0.091670	0.054489	0.101077	0.134478	5343.277390	28835.345897	3565.993922	14297.820358
114.036000	0.098304	0.055242	0.101542	0.135687	5374.861348	28808.023985	3564.696761	14265.905956
114.536500	0.097862	0.054202	0.104609	0.136597	5366.954167	28691.802959	3568.463977	14241.966951
115.039000	0.095877	0.056484	0.098240	0.137789	5348.466068	28756.725722	3555.344176	14210.667515
115.534500	0.097427	0.056581	0.101228	0.138598	5352.767074	28714.279500	3559.102234	14189.483985
116.035000	0.097740	0.056761	0.103722	0.139640	5348.533362	28663.015094	3561.614670	14162.230364
116.535000	0.094059	0.056984	0.101112	0.146481	5288.260041	28272.700553	3545.400607	13985.016152
117.035500	0.102748	0.057741	0.100021	0.142057	5363.607090	28577.805729	3551.079654	14099.318447
117.535500	0.102405	0.058124	0.114865	0.142115	5361.262610	28597.032198	3576.801295	14097.796665
118.036000	0.100806	0.058066	0.100752	0.143759	5342.435668	28496.328319	3549.419523	14055.197627
118.536500	0.100523	0.058685	0.109326	0.150295	5303.301654	28149.364602	3552.905673	13887.422139
119.036500	0.101903	0.058848	0.108784	0.145387	5339.366118	28446.454609	3560.429227	14013.178178
119.540000	0.103122	0.059402	0.110553	0.145791	5344.077016	28455.279293	3562.797101	14002.772867
120.040000	0.097185	0.058802	0.103459	0.146018	5308.651601	28406.580323	3550.184899	13996.920891
120.534500	0.099663	0.059033	0.104422	0.153124	5282.386908	28005.289244	3539.767091	13815.592852
121.035000	0.101979	0.059725	0.105727	0.147859	5325.562780	28352.627140	3550.914660	13949.663501
121.535000	0.103325	0.060769	0.112120	0.149102	5326.156077	28340.945678	3559.772349	13917.868222
122.035000	0.104323	0.059444	0.110854	0.148538	5335.147871	28296.353665	3558.559553	13932.281533
122.566500	0.103466	0.061825	0.109840	0.157548	5278.882910	27910.931590	3541.441871	13704.177154
123.038500	0.107407	0.062347	0.117847	0.152150	5332.102087	28254.815158	3564.422442	13840.265642
123.537500	0.104281	0.060414	0.108085	0.150825	5321.747756	28219.313243	3549.875430	13873.928933
124.081000	0.105758	0.061560	0.115674	0.152815	5318.813190	28170.096520	3559.499080	13823.424221
124.537500	0.105155	0.061325	0.111525	0.157789	5287.064159	27868.305942	3543.884660	13698.158861
125.243500	0.109083	0.061249	0.113406	0.153694	5332.865251	28100.776246	3554.073610	13801.170995
125.543500	0.108703	0.062275	0.113522	0.154876	5323.882250	28091.749595	3552.245715	13771.338473
126.035500	0.105286	0.062589	0.108412	0.155475	5300.929554	28075.173010	3542.531743	13756.252767
126.535500	0.105585	0.062214	0.113331	0.162060	5265.431508	27674.278944	3539.722319	13591.734415
127.036000	0.111410	0.064252	0.123448	0.158142	5320.672381	28016.910208	3563.741449	13689.307395
127.536000	0.105283	0.062683	0.119975	0.156968	5292.431103	27994.066062	3559.753035	13718.718281
128.036000	0.110570	0.063234	0.113519	0.158288	5315.023216	27949.565913	3546.419559	13685.653475
128.539500	0.108289	0.063130	0.113629	0.158374	5301.521368	27938.587911	3546.460132	13683.503100
129.039500	0.110199	0.064961	0.120154	0.160172	5302.158441	27940.526151	3554.538227	13638.646234
129.537000	0.111922	0.065027	0.118070	0.160515	5310.025947	27924.564897	3550.381291	13630.111760
130.037500	0.110643	0.064527	0.116048	0.161272	5298.431957	27852.108902	3545.647797	13611.289709
130.534500	0.113028	0.065465	0.121628	0.162662	5304.085321	27826.098455	3552.795006	13576.802631
131.035500	0.112677	0.065041	0.119245	0.163015	5300.083484	27781.450942	3548.121157	13568.081173
131.535500	0.113263	0.065009	0.119297	0.163470	5300.827871	27753.513443	3547.434070	13556.815735
132.036000	0.113729	0.066684	0.119912	0.164589	5297.118680	27785.453473	3546.577186	13529.212279
132.535500	0.111954	0.066652	0.120764	0.166126	5278.377165	27695.500233	3545.413759	13491.383752
133.036500	0.114440	0.065512	0.126827	0.164830	5299.790837	27704.452617	3558.008678	13523.269460
133.537000	0.115142	0.066523	0.123405	0.165646	5299.135039	27715.579082	3550.727580	13503.164983
134.037000	0.116430	0.067493	0.124242	0.167115	5298.108875	27687.062819	3549.649430	13467.111907
134.534500	0.114540	0.066325	0.116821	0.167538	5285.004963	27596.286733	3536.382141	13456.760862
135.034500	0.115782	0.067011	0.113449	0.167530	5292.077684	27635.818060	3530.763429	13456.937826
135.535000	0.117807	0.067940	0.128628	0.169078	5294.782599	27600.527853	3553.796830	13419.112820
136.035000	0.118959	0.067712	0.125357	0.170219	5294.843124	27522.642979	3546.261554	13391.309204
136.535500	0.116777	0.067917	0.125449	0.175723	5251.611371	27223.475681	3537.123779	13258.212025
137.036000	0.117923	0.068322	0.128093	0.170664	5286.454706	27532.039635	3550.164690	13380.490797
137.536000	0.118724	0.067975	0.126193	0.170609	5291.299847	27515.429634	3547.018667	13381.811610
138.036500	0.118674	0.067199	0.124013	0.170916	5289.278300	27454.021606	3542.803876	13374.372007
138.539500	0.117348	0.069004	0.120273	0.177568	5244.520418	27181.023966	3525.436456	13213.984293
139.037500	0.119514	0.069160	0.131818	0.172951	5282.525647	27449.855451	3552.625209	13325.043176
139.537000	0.119397	0.068194	0.121266	0.172404	5284.952985	27426.099744	3535.675223	13338.276306
140.034500	0.115669	0.068971	0.127098	0.173822	5256.037528	27389.858572	3543.103653	13303.985835
140.535000	0.115272	0.069765	0.126120	0.180560	5216.515856	27056.388433	3530.168073	13142.653951
141.035500	0.118242	0.069307	0.125361	0.174751	5265.235604	27356.378339	3538.608467	13281.600073
141.535500	0.121712	0.070826	0.128611	0.176728	5273.626196	27330.618125	3540.752304	13234.108056
142.036000	0.121145	0.070451	0.130737	0.176942	5269.233192	27297.381681	3543.983604	13228.966433
142.536500	0.119687	0.070478	0.128570	0.183752	5223.239259	26918.607335	3528.933571	13067.065513
143.036500	0.119681	0.070342	0.127016	0.177115	5260.053843	27281.549444	3537.417618	13224.820993
143.534000	0.121445	0.071065	0.136465	0.177579	5267.339415	27296.087702	3552.657812	13213.721360
144.037500	0.120435	0.070113	0.132299	0.177838	5260.231466	27228.097864	3545.113223	13207.532693
144.535000	0.123269	0.071388	0.123070	0.178988	5269.673520	27235.090969	3527.714922	13180.070854
145.035500	0.120764	0.071998	0.128123	0.180351	5248.043389	27192.844388	3533.851080	13147.605313
145.535500	0.123128	0.070469	0.134832	0.179255	5267.381264	27168.596472	3547.007995	13173.701374
146.035500	0.122224	0.072203	0.130659	0.180665	5254.429135	27186.739113	3537.572921	13140.139122
146.535500	0.122236	0.071691	0.132129	0.181246	5251.256223	27125.580111	3539.067455	13126.350164
147.036000	0.122598	0.072433	0.127250	0.181395	5252.445880	27158.754263	3530.657341	13122.823839
147.536500	0.124007	0.071349	0.130288	0.181699	5258.613389	27081.179169	3535.219093	13115.618566
148.039000	0.122758	0.071870	0.131136	0.182407	5247.701582	27070.801775	3535.453355	13098.859447
148.537000	0.124805	0.073732	0.136606	0.184559	5247.112139	27054.585143	3541.028568	13048.062863
149.034500	0.123193	0.073247	0.128786	0.184132	5240.525943	27051.336792	3528.662420	13058.113941
149.538000	0.122295	0.072892	0.128725	0.184125	5235.592558	27031.993922	3528.573166	13058.289973
150.035000	0.127112	0.072804	0.128084	0.184803	5258.621986	26989.387207	3526.389358	13042.318814
150.535500	0.127222	0.072490	0.132428	0.184562	5260.586367	26985.367610	3534.010204	13047.997164
151.035500	0.125080	0.073630	0.130711	0.185464	5243.613921	26998.555492	3529.646738	13026.781510
151.536000	0.123514	0.074239	0.126403	0.186157	5231.091003	26993.924502	3521.389292	13010.513003
152.036500	0.126641	0.074430	0.137152	0.187739	5239.644694	26916.700955	3536.598226	12973.465072
152.538500	0.124548	0.074847	0.133377	0.193556	5196.163180	26619.425333	3520.691687	12838.421970
153.037000	0.126133	0.074443	0.138785	0.187239	5239.600028	26945.131799	3540.183475	12985.148808
153.537000	0.125456	0.073949	0.137123	0.187575	5233.987969	26899.168078	3536.825052	12977.301103
154.037500	0.126595	0.073797	0.138537	0.189121	5231.736624	26805.356229	3536.605059	12941.221495
154.534500	0.123439	0.074473	0.133934	0.194625	5184.327337	26540.564538	3519.850725	12813.783442
155.035500	0.125560	0.076036	0.132899	0.189905	5221.700038	26885.738825	3525.914827	12922.971908
155.535500	0.126214	0.074660	0.140987	0.189464	5227.735527	26834.039375	3540.146139	12933.229852
156.035500	0.127876	0.075440	0.135780	0.191330	5226.610250	26774.126854	3528.323274	12889.871098
156.536000	0.124936	0.074084	0.129741	0.195348	5188.528340	26480.014695	3511.844670	12797.182545
157.036500	0.129457	0.075892	0.139989	0.190914	5237.656349	26822.004334	3536.032478	12899.531550
157.536500	0.129887	0.075413	0.136568	0.191194	5238.483891	26780.127831	3529.857623	12893.025922
158.037000	0.128198	0.076403	0.133993	0.193899	5214.246575	26685.879198	3521.139021	12830.516662
158.537500	0.129298	0.076382	0.131944	0.192057	5230.452597	26786.026616	3520.800702	12873.053499
159.035000	0.129327	0.075562	0.134026	0.192219	5229.710877	26731.937879	3523.955211	12869.286321
159.535500	0.130734	0.076876	0.135536	0.193505	5230.381548	26733.461602	3524.324791	12839.588527
160.035000	0.131630	0.077260	0.138456	0.193612	5234.747180	26748.692900	3528.977449	12837.124955
160.536000	0.130250	0.075743	0.139726	0.193422	5228.165282	26675.804553	3531.403110	12841.500784
161.036000	0.131354	0.076968	0.138434	0.194194	5230.001547	26700.660841	3527.975711	12823.718681
161.536000	0.132152	0.077715	0.143458	0.195282	5228.401850	26681.989516	3534.527874	12798.694247
162.039500	0.133529	0.077377	0.138071	0.195321	5235.801408	26661.323022	3525.511060	12797.800820
162.536500	0.129191	0.077971	0.136808	0.201596	5177.726367	26351.896507	3513.170233	12654.703635
163.037000	0.133555	0.077492	0.139826	0.196185	5231.160027	26620.249424	3526.983509	12777.962528
163.537500	0.131702	0.077421	0.133238	0.196002	5221.947278	26626.428069	3516.464123	12782.173094
164.035000	0.132133	0.077638	0.137689	0.196656	5220.722936	26602.502128	3522.683148	12767.193001
164.535000	0.126977	0.077540	0.140499	0.202251	5162.277382	26293.227482	3518.115991	12639.898040
165.035500	0.130820	0.078481	0.143838	0.197625	5208.191075	26595.590396	3531.251715	12745.013982
165.536000	0.135000	0.078122	0.144626	0.198082	5228.660503	26551.010670	3531.802814	12734.573447
166.036000	0.132343	0.077526	0.136682	0.200603	5200.240712	26381.570665	3514.580093	12677.220520
166.536500	0.128861	0.077457	0.139473	0.203631	5164.982495	26214.434161	3514.193919	12608.748828
167.036500	0.137174	0.078730	0.136839	0.199717	5231.643390	26495.065742	3516.278696	12697.342381
167.537000	0.135574	0.079185	0.143005	0.200032	5221.081938	26502.744179	3525.880554	12690.191556
168.037000	0.134037	0.079982	0.135942	0.204227	5189.732127	26318.377895	3507.518987	12595.330731
168.537500	0.129198	0.078694	0.138844	0.204872	5160.128312	26214.187205	3511.162092	12580.831718
169.038000	0.135915	0.079515	0.146697	0.200439	5220.713252	26498.509743	3531.327145	12680.933822
169.535000	0.136677	0.077607	0.137768	0.199177	5231.879365	26463.388488	3518.677228	12709.628184
170.035500	0.135517	0.080240	0.143925	0.204679	5195.323632	26307.898144	3519.747942	12585.162156
170.535500	0.130944	0.079135	0.146478	0.206096	5162.926955	26172.143287	3521.611832	12553.361248
171.036000	0.134908	0.080993	0.147783	0.202623	5203.218213	26460.113550	3529.501729	12631.495919
171.539000	0.137247	0.080359	0.143079	0.202587	5216.226125	26427.582213	3521.791096	12632.294228
172.036500	0.130293	0.078836	0.139772	0.205771	5161.178686	26173.510912	3511.208225	12560.644310
172.537000	0.133813	0.077849	0.142404	0.206643	5175.435100	26073.923966	3514.063112	12541.112869
173.037000	0.135521	0.080421	0.143819	0.203770	5200.303016	26366.858822	3521.066138	12605.631331
173.538000	0.139037	0.081232	0.138116	0.204259	5216.874561	26384.299395	3510.975461	12594.607776
174.035000	0.134017	0.080595	0.140024	0.208325	5167.470605	26130.884183	3507.494492	12503.565689
174.535500	0.131484	0.081136	0.144372	0.210163	5144.066217	26061.461041	3511.545184	12462.674083
175.036000	0.133246	0.079455	0.145952	0.203364	5190.121614	26336.540513	3525.244264	12614.769497
175.536000	0.134943	0.081477	0.142484	0.205233	5189.189079	26344.837594	3516.488463	12572.725952
176.036500	0.133630	0.080371	0.139573	0.209953	5156.648475	26031.845697	3504.155451	12467.338835
176.536500	0.130696	0.079257	0.136785	0.209059	5145.749365	26020.128914	3501.126861	12487.217468
177.037000	0.134627	0.081311	0.149373	0.205511	5185.966659	26320.855586	3527.351057	12566.493278
177.537500	0.137128	0.081471	0.144113	0.206202	5195.800671	26292.176468	3517.564892	12550.989511
178.037500	0.134669	0.081037	0.149341	0.211780	5152.434477	25969.996492	3516.993205	12426.850068
178.535000	0.133813	0.080315	0.137996	0.211222	5150.838732	25961.227160	3499.608882	12439.189442
179.035500	0.137811	0.081085	0.154276	0.207048	5194.914333	26225.765578	3532.943329	12532.062268
179.536000	0.139681	0.082810	0.150988	0.208436	5197.536884	26243.884635	3525.183706	12501.074921
180.036000	0.137982	0.081670	0.141864	0.207008	5196.065599	26259.417364	3512.593366	12532.954610
180.539000	0.139034	0.082724	0.149530	0.208107	5195.807934	26257.024909	3523.323569	12508.416640
181.038500	0.135804	0.080856	0.142548	0.207113	5183.660075	26209.945408	3513.533272	12530.605764
181.536500	0.138928	0.081869	0.147876	0.208290	5194.237783	26201.183053	3520.306856	12504.342368
182.037000	0.138530	0.082658	0.150723	0.208789	5189.356969	26216.718619	3524.164083	12493.210520
182.537000	0.141344	0.082369	0.152431	0.209234	5202.260875	26177.270314	3526.250288	12483.317182
183.037500	0.139247	0.081567	0.151034	0.208638	5194.073993	26166.209895	3524.926980	12496.579402
183.535000	0.138533	0.081632	0.146717	0.208311	5191.972455	26187.236743	3518.373990	12503.861831
184.035000	0.138502	0.082810	0.144650	0.209725	5184.131827	26174.627607	3512.707046	12472.411392
184.535000	0.134909	0.082543	0.150586	0.214921	5136.968347	25883.083685	3513.905709	12357.632378
185.036000	0.137625	0.080438	0.144516	0.208112	5188.119880	26133.861848	3515.107746	12508.295324
185.539000	0.140712	0.082133	0.142709	0.209672	5196.422871	26141.122801	3509.649742	12473.570066
186.036500	0.139778	0.084147	0.151391	0.211258	5182.738509	26164.081059	3521.203710	12438.404668
186.536500	0.138350	0.082564	0.143953	0.215610	5151.633714	25847.711080	3502.111247	12342.529075
187.037000	0.136863	0.082569	0.145437	0.210522	5170.961461	26118.936026	3512.689229	12454.708881
187.534500	0.139612	0.083165	0.149439	0.211517	5180.435433	26097.596103	3517.583138	12432.675061
188.035000	0.138702	0.082734	0.145842	0.216431	5149.130583	25813.304051	3503.819611	12324.550334
188.535000	0.136648	0.082995	0.144533	0.217416	5132.963298	25775.076079	3500.157347	12303.033482
