sample name	sample
index	1077
start time	 04-22-2021  11:04:18 AM
880	-0.009014
Peak Time (s)	102.035
Peak Height 	-0.009014
calc peak height	100,103
Baseline Time (s)	9.037
Baseline Value 	-0.004742
subtract baseline	10,4
Abs	-0.017058
Peak Time (s)	100.538
Peak Height 	-0.01706
calc peak height	100,103
Baseline Time (s)	8.537
Baseline Value 	0.005125
subtract baseline	10,3
PK_550	0.001437
Peak Time (s)	102.535
Peak Height 	0.001437
calc peak height	100,103
Baseline Time (s)	10.037
Baseline Value 	3.1087E-4
subtract baseline	10,2
PK_880	-0.017503
Peak Time (s)	100.538
Peak Height 	-0.0175
calc peak height	100,103
Baseline Time (s)	10.538
Baseline Value 	0.001305
subtract baseline	10,1


Time (s)	A880-A510	A880-A775	A880-A975	A880	I510	I775	I975	I880	
0.034000	-0.000711	-0.000082	-0.001588	0.002753	6245.851129	43277.359450	3879.022760	22724.030281
0.534500	-0.003582	-0.001072	-0.005788	0.007311	6189.097320	42765.468743	3858.868517	22517.054685
1.037500	-0.003330	-0.000451	-0.005342	0.004066	6215.700560	43121.581885	3867.313575	22664.205657
1.537000	-0.001161	-0.000417	-0.008990	0.001804	6249.700937	43334.439164	3864.133590	22767.386483
2.036000	0.000283	-0.000446	-0.004465	0.001061	6266.609349	43400.862193	3876.270502	22801.415074
2.535000	-0.001441	0.000028	-0.008929	0.006408	6212.242216	42949.572214	3853.783397	22557.912724
3.036000	0.002271	0.000101	-0.002127	-0.001172	6299.486425	43660.555697	3886.922951	22903.973020
3.536500	-0.000465	-0.000112	-0.004082	0.000558	6264.712658	43478.929331	3878.327031	22824.476056
4.037000	0.000505	0.000095	-0.002233	0.000757	6270.695280	43479.685141	3882.168559	22815.361504
4.537000	-0.001617	0.000065	0.000333	0.004063	6228.817072	43169.539621	3880.442087	22664.317379
5.037000	-0.000488	0.000902	-0.006564	0.001316	6258.666348	43502.780619	3870.827973	22789.720477
5.535000	0.000201	0.000635	-0.002397	0.000958	6266.774571	43511.314055	3881.317235	22806.139866
6.035000	0.001495	0.000220	0.002338	0.000290	6282.015942	43534.924375	3893.981956	22836.776325
6.535500	0.000733	0.001024	0.001298	0.000728	6272.685206	43569.112956	3890.501814	22816.685351
7.035000	0.000949	0.000255	-0.006902	0.000224	6278.275920	43544.331485	3872.568647	22839.786583
7.536000	0.000313	0.000382	0.004224	0.000452	6271.570600	43534.975186	3898.056765	22829.341716
8.036500	0.000320	-0.000167	-0.001338	0.000061	6274.658332	43520.126746	3885.883790	22847.269018
8.536500	-0.000412	0.000249	0.000000	0.000007	6269.391193	43564.014421	3889.145369	22849.745497
9.037000	-0.001238	-0.000274	0.001269	0.000000	6263.045073	43515.882459	3892.146314	22850.083844
9.537000	0.000464	-0.000530	-0.001934	-0.000251	6278.203537	43515.399423	3885.218495	22861.606320
10.037500	0.000752	0.000000	0.001449	-0.000172	6279.829816	43557.563972	3892.975330	22857.999952
10.538000	0.000000	0.000042	0.000619	-0.000019	6272.790495	43547.132159	3890.660869	22850.938946
11.035000	0.000518	-0.000027	-0.003697	0.000072	6276.108124	43532.121248	3880.350424	22846.754341
11.535500	-0.000961	0.000345	-0.002096	0.001111	6256.595936	43469.969037	3881.660959	22799.115559
12.035500	-0.001676	0.000222	-0.005113	-0.000054	6260.075131	43567.287107	3877.353094	22852.563028
12.536500	0.000677	0.000837	0.001467	0.000057	6277.461323	43614.367065	3892.477129	22847.449320
13.039000	0.000576	0.000216	-0.001203	-0.000805	6283.392560	43637.026475	3888.228822	22887.116225
13.537000	0.000046	0.000543	0.007195	0.000542	6268.796859	43541.586660	3904.902251	22825.207198
14.039500	-0.003406	-0.000147	-0.000965	0.002642	6226.004199	43281.588796	3880.729918	22729.083857
14.537500	-0.002987	0.000100	-0.000307	0.002525	6230.110535	43315.458076	3882.536710	22734.440641
15.037000	0.000217	0.000720	0.000471	0.000527	6270.238450	43559.483920	3889.031620	22825.892371
15.535000	-0.001445	-0.000456	-0.004326	0.002745	6240.262984	43243.391146	3872.696441	22724.391098
16.038000	0.000472	0.000318	0.001259	0.000023	6276.136139	43569.070384	3892.069834	22849.042904
16.536000	-0.004528	-0.000566	-0.004207	0.003316	6212.281693	43180.280335	3871.654131	22698.364889
17.038500	0.003772	0.001140	0.002813	-0.002902	6324.877379	43920.974798	3902.670434	22983.847522
17.536500	0.000449	0.000415	-0.004358	0.001593	6263.768956	43431.505626	3875.285668	22777.031177
18.036500	0.000804	-0.000332	0.000081	0.001124	6270.159100	43405.624892	3886.716626	22798.503119
18.536500	-0.000515	0.000552	-0.002165	0.001623	6256.082978	43441.512961	3880.308285	22775.692706
19.037000	0.000797	-0.000560	-0.002554	0.001064	6270.572253	43389.948571	3880.704149	22801.261030
19.534000	-0.002706	-0.000172	0.000474	0.001334	6241.414349	43400.979327	3887.147143	22788.912209
20.040500	0.000615	0.000531	-0.003145	0.002018	6261.761639	43402.669530	3877.112514	22757.583055
20.535500	-0.000601	0.000287	0.000194	0.001482	6256.513078	43429.946984	3886.144200	22782.147016
21.035500	-0.000508	0.000820	-0.004713	0.001682	6255.680892	43460.972598	3874.257696	22772.967400
21.535500	-0.001202	0.000872	-0.000264	0.002101	6247.095629	43426.735731	3883.624775	22753.814823
22.036000	0.000204	0.000559	-0.001385	0.001931	6259.263894	43413.434671	3881.406333	22761.589375
22.536500	0.000368	-0.000077	-0.004143	0.001072	6267.186193	43434.209784	3876.992447	22800.907583
23.036500	0.000079	0.001061	0.000466	0.001792	6259.366317	43473.189684	3886.053965	22767.921163
23.537000	-0.001980	0.001195	0.001524	0.002170	6240.563783	43450.374524	3887.647375	22750.638248
24.038000	-0.001599	-0.000043	-0.004047	0.000765	6254.332584	43465.971743	3877.927259	22814.963629
24.537500	-0.000983	0.000328	0.003594	0.001066	6256.770249	43472.515338	3895.114502	22801.179842
25.035000	-0.000516	0.000914	-0.000113	0.001828	6254.485750	43456.070866	3884.615101	22766.270250
25.535500	-0.001377	0.000091	-0.001639	0.001447	6250.784613	43414.914595	3881.943765	22783.738974
26.036000	0.001580	0.000435	-0.001481	0.001359	6274.364796	43455.208232	3882.518378	22787.767611
26.536000	0.000401	0.000145	-0.003298	0.001302	6265.652999	43433.436487	3878.419589	22790.358036
27.036500	0.001612	0.000275	-0.002764	-0.000650	6290.259891	43628.063233	3884.212918	22879.980256
27.536500	-0.000530	0.000785	0.002603	0.000966	6261.047934	43524.541780	3893.014474	22805.768822
28.037000	0.001350	0.000598	0.002975	-0.000325	6285.673798	43627.754973	3896.938576	22865.004707
28.537000	-0.001604	0.000210	-0.001977	0.001662	6247.382050	43406.026317	3880.654711	22773.898336
29.037500	0.000983	0.000607	0.000009	0.000311	6277.864595	43569.073808	3888.451895	22835.784235
29.534500	-0.001177	-0.000053	-0.000219	0.001705	6250.341468	43377.526204	3884.655226	22771.930583
30.035500	0.001532	0.000869	0.003264	0.000585	6280.010206	43567.989138	3895.470483	22823.222927
30.535500	0.000401	0.000013	0.000148	0.003443	6249.108283	43222.176907	3881.456082	22692.580682
31.035500	-0.002225	-0.000046	-0.004260	0.002270	6237.918504	43325.537647	3873.947108	22746.080705
31.536000	-0.001108	-0.000269	0.001782	0.001137	6255.254941	43410.218217	3890.677549	22797.913716
32.039500	0.000513	0.000589	0.001397	0.000475	6272.934274	43552.060075	3891.329022	22828.257127
32.536500	-0.000042	-0.000141	0.002190	0.001698	6259.157270	43369.926009	3890.317214	22772.225160
33.036500	-0.000688	0.000846	-0.000862	0.000106	6266.484840	43610.629655	3886.891622	22845.214243
33.537500	-0.001361	0.000347	0.000701	0.000982	6254.496373	43482.154482	3888.502762	22805.023152
34.040500	0.000715	0.000571	0.001499	-0.000620	6283.026197	43652.871328	3894.148224	22878.562741
34.537500	-0.000875	0.001154	-0.000752	0.002713	6244.894038	43395.989978	3881.059373	22725.844471
35.035000	-0.000421	0.000485	0.001738	0.002362	6251.095342	43366.347754	3887.697794	22741.860333
35.535500	-0.001736	-0.000033	0.001314	0.001756	6245.640551	43374.629326	3888.125969	22769.606765
36.036000	-0.000762	-0.000080	0.002958	0.001999	6251.274695	43347.686005	3891.416330	22758.487458
36.535500	-0.001520	-0.000133	-0.003369	0.001732	6247.477705	43367.469723	3877.254441	22770.662202
37.036000	-0.001933	0.000474	0.003764	0.002252	6240.305574	43375.685926	3892.719653	22746.914421
37.536500	-0.002962	0.000384	-0.000975	0.002053	6233.922694	43385.768060	3882.078032	22755.994107
38.036500	-0.001207	0.000287	-0.001235	0.002263	6245.801573	43357.191811	3880.982892	22746.402959
38.537000	-0.002884	0.000322	-0.001024	0.002225	6233.197823	43363.988039	3881.562307	22748.124291
39.037500	-0.001449	-0.000110	-0.001737	0.001879	6246.894191	43355.934142	3880.706473	22763.942881
39.534500	-0.001234	0.000606	-0.000787	0.002384	6244.659348	43375.599792	3881.744963	22740.857955
40.035500	-0.001543	0.001054	-0.002594	0.002853	6238.675935	43373.653825	3876.452400	22719.441149
40.536000	-0.000108	-0.000063	-0.002645	0.001876	6257.278613	43360.724985	3878.604792	22764.111244
41.036000	-0.001200	-0.000073	-0.003440	0.002125	6246.922354	43336.519019	3876.179441	22752.706778
41.536500	-0.002076	-0.000001	0.000051	0.002031	6240.899711	43352.006904	3884.523127	22756.993086
42.036500	-0.001554	0.000099	0.000933	0.002386	6242.181613	43328.239223	3885.755082	22740.767624
42.537000	-0.001538	-0.000816	-0.000866	0.001463	6249.418963	43328.959565	3883.709226	22782.976462
43.037000	0.001694	0.000625	0.000356	0.003143	6261.408764	43306.769201	3882.639941	22706.215779
43.540000	-0.000142	0.000763	0.004245	0.002826	6249.675591	43349.134014	3892.499593	22720.693919
44.037500	0.001022	0.000579	-0.001032	-0.000403	6283.736987	43633.364449	3887.688619	22868.622715
44.535000	0.000286	0.000092	0.004100	-0.000441	6278.295437	43591.301031	3899.879411	22870.364537
45.036000	0.000641	0.000808	0.000924	-0.000144	6278.743423	43630.508954	3891.672075	22856.693551
45.536000	0.000284	0.000224	0.001330	0.001367	6264.242685	43434.781937	3889.074362	22787.369675
46.036000	-0.000752	0.000319	-0.001351	-0.000417	6270.044867	43610.349428	3886.974110	22869.265238
46.539000	0.000921	0.000044	-0.000863	-0.000230	6281.596316	43567.039602	3887.676828	22860.631674
47.036500	0.001150	0.000167	0.001138	-0.000790	6287.749003	43631.053971	3893.698859	22886.414594
47.539500	-0.001111	-0.000600	-0.002103	0.002457	6245.047847	43256.769660	3878.512458	22737.535852
48.034000	-0.001152	0.000540	0.004011	0.002311	6245.860962	43376.292156	3893.160154	22744.204337
48.540000	0.000018	0.000639	0.004394	0.000801	6266.572590	43526.304879	3897.634150	22813.338792
49.034500	0.002459	0.000884	-0.003485	0.000394	6288.726154	43587.321461	3880.097158	22832.007372
49.540500	-0.002138	0.000282	-0.001090	0.004481	6221.630365	43150.903177	3876.166221	22645.308795
50.035500	0.001927	0.001247	0.004718	-0.001813	6301.817565	43828.436236	3904.612165	22933.529702
50.536000	0.001507	0.001027	0.001029	-0.001617	6296.999401	43789.312506	3895.393847	22924.508941
51.035000	0.009519	-0.002263	0.006570	0.025598	6150.057627	41019.463396	3845.453224	21708.257592
51.536500	0.018974	-0.011805	0.005003	0.427825	4215.509758	17703.319935	3254.675478	10350.093300
52.037000	-0.007326	-0.019666	-0.019945	-0.096295	7039.448796	51373.444169	4085.137787	27802.044329
52.536500	-0.015332	-0.059471	-0.016577	-0.233265	8470.707005	63513.639898	4548.837426	37034.931169
53.037000	-0.005531	-0.057223	-0.000897	-0.234806	8618.109957	64044.358359	4616.767265	37156.285809
53.535000	0.002039	-0.024928	0.001295	-0.169297	7903.946555	59546.555795	4379.733002	32360.074238
54.034500	0.002823	-0.019187	0.004976	-0.138282	7567.453158	56347.128483	4287.611517	30329.633155
54.535500	-0.004832	-0.015184	-0.005269	-0.117426	7270.870031	54314.803123	4189.608138	29043.535280
55.035500	-0.005131	-0.015020	-0.003643	-0.120653	7300.440594	54717.488487	4204.441932	29238.516854
55.536000	-0.008280	-0.015498	-0.010356	-0.130578	7369.642369	55855.780087	4214.352450	29847.358875
56.035500	-0.006149	-0.015354	-0.006128	-0.150447	7601.896432	58350.614233	4291.079936	31108.784587
56.536500	-0.003550	-0.013349	-0.006206	-0.144842	7569.468627	57893.366929	4272.601522	30747.106006
57.039500	-0.000525	-0.012352	-0.004670	-0.144899	7602.716958	58026.753428	4277.755325	30750.726358
57.540000	-0.001127	-0.010361	-0.006820	-0.135233	7492.831523	57062.051912	4239.957330	30137.719259
58.034500	-0.001600	-0.006640	-0.006677	-0.113929	7268.211263	54915.224258	4174.784552	28833.924563
58.535000	-0.002397	-0.006501	-0.009327	-0.101218	7134.421723	53432.626351	4129.424840	28085.875331
59.035500	-0.006137	-0.005611	-0.010276	-0.073237	6836.164045	50380.096694	4048.235218	26514.467602
59.535000	-0.007294	-0.004480	-0.013132	-0.061559	6721.538857	49242.264326	4009.441647	25887.984352
60.036000	-0.008009	-0.003557	-0.011152	-0.027098	6424.196421	45802.137085	3927.296282	24134.448711
60.536500	-0.012993	-0.008125	-0.010592	-0.023166	6352.587912	44971.738682	3919.116281	23943.101115
61.036000	-0.016039	-0.009992	-0.014796	0.003867	6121.549445	42266.792010	3846.275027	22673.262483
61.536500	-0.018303	-0.008813	-0.017642	0.043011	5828.559547	38976.080161	3756.258906	20969.097755
62.036500	-0.020169	-0.008146	-0.016907	0.073391	5618.982827	36593.974792	3697.749561	19748.376848
62.537000	-0.019680	-0.004006	-0.019755	0.084954	5550.526972	36023.879143	3670.718589	19305.744981
63.035000	-0.023184	-0.006612	-0.015720	0.083817	5536.124557	35912.314761	3680.317675	19348.767380
63.535000	-0.022372	-0.003218	-0.014865	0.081588	5554.646353	36341.754736	3686.096045	19433.400759
64.035500	-0.022144	-0.000953	-0.018682	0.080161	5564.777308	36626.754531	3681.613718	19487.787886
64.539500	-0.022288	-0.001197	-0.017962	0.074329	5599.911510	37062.775620	3693.958676	19712.020589
65.036000	-0.019453	0.001361	-0.018959	0.074795	5614.681871	37227.558945	3691.186209	19694.000788
65.536500	-0.019715	0.002857	-0.012649	0.075856	5606.419839	37261.886542	3701.177631	19653.027062
66.036500	-0.019964	0.002055	-0.020018	0.074008	5616.411216	37344.626327	3690.671930	19724.487596
66.537000	-0.018047	0.000756	-0.020130	0.067276	5671.052073	37777.526342	3703.284356	19987.290822
67.039500	-0.018880	0.002142	-0.015676	0.061907	5700.147672	38323.430691	3722.357660	20199.822490
67.535000	-0.020791	0.002482	-0.015235	0.054769	5734.048837	38937.637130	3737.369599	20486.469486
68.035000	-0.020059	0.002229	-0.020725	0.045856	5797.694186	39662.417141	3744.238668	20851.113173
68.535500	-0.022503	0.003759	-0.018872	0.035475	5851.146523	40683.081713	3769.228138	21285.354919
69.035500	-0.021113	0.003300	-0.021751	0.025667	5928.228204	41504.074726	3783.697775	21705.254857
69.535500	-0.025335	0.001899	-0.020091	0.018408	5949.485400	42027.529616	3802.665146	22022.200233
70.036000	-0.024107	0.001963	-0.023281	0.012077	6003.027462	42607.154562	3809.439849	22302.988364
70.536500	-0.024395	0.000964	-0.022790	0.002801	6067.912617	43370.127463	3830.817319	22721.829764
71.036500	-0.020733	0.001368	-0.022637	-0.003432	6140.928527	43992.570521	3845.054949	23008.355896
71.537000	-0.022144	0.001269	-0.016347	-0.008087	6165.224046	44425.234530	3869.952532	23225.010022
72.038000	-0.020363	-0.000027	-0.020048	-0.014611	6228.263203	44927.501420	3876.476740	23532.626496
72.537000	-0.021178	-0.000065	-0.021022	-0.019019	6255.919436	45351.979494	3884.471073	23743.107475
73.035500	-0.022464	-0.000113	-0.016519	-0.023618	6281.622898	45798.641028	3905.968008	23965.014856
73.535000	-0.020422	-0.000186	-0.022110	-0.026293	6318.550627	46056.137506	3899.031926	24095.141783
74.035000	-0.022102	-0.000916	-0.019500	-0.027408	6314.103076	46094.305310	3907.897637	24149.600596
74.536000	-0.017912	-0.000914	-0.024843	-0.032442	6387.402095	46597.544716	3907.162385	24397.372291
75.036500	-0.020253	-0.000285	-0.021996	-0.034757	6387.192208	46894.404777	3919.567143	24512.259835
75.536000	-0.020470	-0.000883	-0.017397	-0.036048	6395.822580	46964.572322	3933.906196	24576.597276
76.037000	-0.018800	-0.000839	-0.020937	-0.034497	6396.778634	46812.038457	3921.500611	24499.309764
76.540000	-0.019671	-0.001085	-0.020955	-0.039689	6431.741537	47314.406787	3934.108992	24759.055081
77.037500	-0.017127	-0.000440	-0.019445	-0.040347	6457.884290	47447.731085	3939.437015	24792.227998
77.535000	-0.019418	-0.001640	-0.016641	-0.041557	6449.032519	47448.705158	3949.370066	24853.264661
78.035000	-0.017896	-0.000892	-0.022047	-0.038564	6437.032144	47219.217352	3928.687343	24702.495261
78.535500	-0.018427	-0.000449	-0.017658	-0.041551	6457.095385	47570.257960	3946.830209	24852.971644
79.035500	-0.018326	0.000264	-0.021133	-0.041874	6460.570133	47676.840116	3939.039635	24869.312434
79.535500	-0.018034	-0.001294	-0.019635	-0.042066	6464.543116	47536.448684	3943.211152	24879.035215
80.036500	-0.016142	-0.000348	-0.016847	-0.043071	6488.398554	47737.104533	3952.626016	24929.921832
80.537000	-0.016691	0.000150	-0.019026	-0.043280	6485.594872	47810.072860	3947.726237	24940.555631
81.037500	-0.017541	0.000106	-0.013198	-0.043494	6480.335984	47827.636463	3962.830666	24951.386014
81.534500	-0.021472	0.000029	-0.017305	-0.043729	6450.003098	47843.969570	3953.126920	24963.331813
82.034500	-0.021843	0.000163	-0.023013	-0.039875	6415.632257	47461.064079	3929.528305	24768.419422
82.535000	-0.019357	0.000310	-0.022060	-0.043452	6465.051677	47844.333202	3940.643339	24949.251854
83.035500	-0.019097	0.000341	-0.017960	-0.043707	6469.289292	47873.974967	3951.438765	24962.216001
83.536000	-0.020570	0.000938	-0.015712	-0.042744	6449.320817	47836.087720	3954.643023	24913.348576
84.035500	-0.022613	-0.000106	-0.023714	-0.038625	6399.316894	47305.689971	3924.777373	24705.557013
84.536000	-0.019482	0.000708	-0.020448	-0.042530	6456.475210	47790.203613	3942.345918	24902.503520
85.036500	-0.019951	0.000335	-0.024879	-0.042161	6449.611635	47713.666699	3930.554469	24883.819871
85.536500	-0.018327	0.000569	-0.023885	-0.041648	6458.707879	47684.916865	3931.730514	24857.878998
86.040000	-0.020538	0.000542	-0.019262	-0.035797	6393.250228	47083.606728	3928.730395	24564.047724
86.537500	-0.020952	-0.000568	-0.018115	-0.040506	6427.973994	47450.836118	3943.111449	24800.217144
87.035000	-0.019916	0.001034	-0.020832	-0.038398	6419.279589	47399.061155	3931.249285	24694.184793
87.535500	-0.020142	0.000099	-0.017991	-0.036070	6398.636984	47066.339667	3932.502052	24577.659480
88.035500	-0.023357	0.000171	-0.026105	-0.031782	6338.711943	46640.207828	3902.578858	24364.712310
88.535500	-0.020209	0.000547	-0.017728	-0.035465	6393.230366	47050.381069	3931.667701	24547.490085
89.036000	-0.020936	0.000405	-0.018395	-0.034252	6377.660527	46913.125670	3927.081006	24487.146148
89.536500	-0.021177	-0.000312	-0.023988	-0.032568	6362.279034	46670.734347	3909.508932	24403.605629
90.036500	-0.024360	0.000063	-0.020903	-0.026591	6290.012058	46110.451098	3902.604092	24109.675089
90.540000	-0.022511	-0.000126	-0.018839	-0.031675	6344.572972	46599.595127	3919.748749	24359.437189
91.037000	-0.021779	0.000272	-0.019693	-0.030094	6337.843886	46480.868652	3913.877734	24281.442393
91.535000	-0.021264	0.000577	-0.014308	-0.027959	6325.045022	46297.900223	3921.722480	24176.600244
92.035000	-0.024894	0.000870	-0.021516	-0.022477	6253.923334	45783.053165	3891.422182	23909.727382
92.535500	-0.022923	0.000899	-0.023562	-0.026733	6302.369309	46207.789108	3896.634289	24116.632437
93.035500	-0.021531	0.000954	-0.017991	-0.026337	6310.176882	46173.761715	3908.946557	24097.297244
93.536000	-0.018968	0.000960	-0.017132	-0.025380	6322.805633	46079.212019	3908.712519	24050.614846
94.036500	-0.023606	0.000477	-0.020604	-0.018847	6235.894734	45388.220373	3885.046667	23734.882166
94.536500	-0.020996	0.000092	-0.019680	-0.023920	6295.429843	45848.734136	3899.167760	23979.666164
95.036500	-0.018149	0.000647	-0.019344	-0.022981	6310.380890	45810.760994	3897.736934	23934.137269
95.537500	-0.017863	0.001026	-0.020309	-0.021357	6299.890092	45688.053374	3891.625116	23855.614950
96.037000	-0.021149	0.000440	-0.022626	-0.015959	6232.576758	45103.334250	3873.630272	23596.782484
96.535000	-0.019224	0.000530	-0.016856	-0.020745	6284.477027	45579.184782	3898.334234	23826.096709
97.035000	-0.017500	0.001143	-0.017032	-0.019922	6291.508343	45558.680155	3895.970939	23786.519088
97.535000	-0.015791	0.001499	-0.016200	-0.018717	6295.447235	45475.371804	3895.088801	23728.614450
98.036000	-0.021247	-0.000289	-0.023661	-0.013775	6215.116948	44821.578943	3866.214614	23492.977822
98.536500	-0.019694	0.001076	-0.017144	-0.018054	6259.931995	45369.160641	3891.299724	23696.841037
99.036500	-0.017849	0.001260	-0.019871	-0.017063	6266.543537	45290.429796	3882.590280	23649.441542
99.536000	-0.020478	0.001318	-0.014847	-0.016835	6244.470509	45273.913509	3893.841302	23638.565203
100.033500	-0.020956	0.001080	-0.017174	-0.010855	6195.106228	44672.339168	3874.436289	23354.997799
100.537500	-0.017503	0.001072	-0.017058	-0.016239	6262.838002	45191.879839	3887.240390	23610.115848
101.035000	-0.018404	0.000186	-0.017509	-0.016114	6254.902560	45093.685438	3885.890779	23604.146046
101.537500	-0.018190	0.000628	-0.018077	-0.014824	6246.602830	45011.487668	3881.552771	23542.743815
102.035500	-0.019629	0.000935	-0.020545	-0.009014	6191.203059	44481.920948	3862.444454	23268.438987
102.535500	-0.018302	0.001437	-0.017952	-0.014285	6241.593900	45037.673824	3880.589643	23517.157381
103.036000	-0.017540	0.000662	-0.019901	-0.014160	6246.500850	44950.571886	3875.773507	23511.247710
103.536500	-0.017038	0.001813	-0.018222	-0.013309	6243.806953	44979.538628	3877.692015	23470.884230
104.036500	-0.020283	0.001192	-0.024779	-0.007464	6174.546828	44358.524133	3849.311209	23195.908337
104.536500	-0.016215	0.001846	-0.015657	-0.011399	6235.447883	44798.255844	3879.213144	23380.602219
105.037000	-0.019146	0.000827	-0.019170	-0.011789	6215.994294	44737.847927	3871.981261	23399.029763
105.535000	-0.017198	-0.000281	-0.012958	-0.012038	6232.809126	44655.189258	3887.003787	23410.756185
106.035000	-0.023214	0.000215	-0.013677	-0.005083	6134.740118	44039.690617	3869.185417	23084.953325
106.535000	-0.018304	0.001121	-0.014177	-0.010053	6209.168862	44599.245741	3879.526229	23317.231663
