sample name	sample
index	182
start time	 02-18-2021  11:20:18 AM
880	-0.025864
Peak Time (s)	92.538
Peak Height 	-0.02586
calc peak height	90,93
Baseline Time (s)	10.037
Baseline Value 	-0.002082
subtract baseline	10,4
Abs	-0.009720
Peak Time (s)	91.037
Peak Height 	-0.00972
calc peak height	90,93
Baseline Time (s)	9.036
Baseline Value 	0.00127
subtract baseline	10,3
PK_550	-0.005694
Peak Time (s)	91.537
Peak Height 	-0.005694
calc peak height	90,93
Baseline Time (s)	8.536
Baseline Value 	3.7551E-4
subtract baseline	10,2
PK_880	-0.015776
Peak Time (s)	91.037
Peak Height 	-0.01578
calc peak height	90,93
Baseline Time (s)	10.037
Baseline Value 	-2.009E-4
subtract baseline	10,1


Time (s)	A880-A510	A880-A775	A880-A975	A880	I510	I775	I975	I880	
0.036500	-0.000043	-0.000453	0.002517	0.003538	6664.829022	43382.522804	3867.490429	22860.941265
0.539500	0.000476	-0.000410	-0.000477	0.003884	6666.350357	43354.210338	3859.374017	22844.954166
1.037500	-0.000105	0.000236	-0.003450	0.003069	6668.409109	43490.641500	3854.164097	22882.543429
1.539000	0.000435	-0.000853	0.001102	-0.000442	6704.263785	43717.836754	3873.763024	23045.317017
2.035000	-0.002512	-0.000223	-0.001268	0.002939	6648.403972	43459.950514	3859.746747	22888.569963
2.535500	0.001928	-0.000519	0.002189	-0.000904	6721.691134	43792.765002	3877.569608	23066.831432
3.036000	0.003509	-0.000226	-0.000069	-0.001942	6745.154368	43918.405517	3874.571228	23115.259800
3.535500	-0.001537	-0.000707	0.000261	-0.000829	6690.199126	43768.088854	3872.651669	23063.360037
4.036000	0.002942	0.000977	0.008380	0.001180	6712.147299	43737.424236	3887.731602	22969.981347
4.537000	-0.000336	-0.000340	0.002183	0.000200	6691.729058	43705.787797	3874.841553	23015.478026
5.037000	-0.000705	-0.001150	-0.003544	-0.000291	6692.809127	43675.734242	3862.059847	23038.304739
5.537000	0.002363	0.000635	0.003883	0.001429	6704.769283	43681.850741	3875.997767	22958.413268
6.034500	0.000322	-0.000011	0.005026	0.000287	6696.782159	43728.430580	3881.629854	23011.395001
6.535000	0.001338	0.000312	0.002929	0.000586	6703.155454	43730.758215	3875.726616	22997.529423
7.035000	0.001295	-0.000465	0.000915	-0.000328	6710.909370	43743.649702	3873.027101	23040.033502
7.535000	0.001021	0.000014	-0.001192	-0.000219	6707.487242	43778.451124	3867.605607	23034.921360
8.036000	0.001087	-0.000329	0.004640	-0.000292	6708.733125	43753.074941	3882.107175	23038.329225
8.536000	0.001888	0.000000	0.003126	-0.000019	6713.435130	43758.320877	3877.698849	23025.633456
9.036000	0.000503	-0.000147	0.000000	-0.000173	6702.470554	43758.985316	3870.404377	23032.783319
9.536500	-0.001328	-0.000029	0.001664	0.000279	6682.246736	43727.624892	3873.373390	23011.800429
10.036500	0.000000	0.000174	0.001132	0.000000	6696.474740	43772.903776	3872.752645	23024.755793
10.537500	0.000143	0.000084	-0.006060	0.000356	6694.578740	43730.925062	3854.412182	23008.196437
11.037000	-0.001566	-0.000435	-0.001569	-0.000474	6686.789498	43760.161155	3867.307637	23046.789583
11.535000	-0.001390	0.000789	-0.001004	0.000701	6677.963567	43764.811518	3865.822347	22992.190053
12.035000	-0.002700	-0.000713	-0.000221	-0.000876	6680.315903	43771.824911	3871.583434	23065.509388
12.535500	-0.004797	0.000104	-0.008934	0.003867	6620.356029	43403.822828	3839.146822	22845.767452
13.038500	0.000014	-0.000040	-0.002957	-0.002567	6719.443692	43995.079798	3869.028549	23144.453289
13.536000	-0.002512	-0.000849	-0.005711	-0.001269	6685.463819	43796.147919	3859.179794	23083.857699
14.036500	-0.000133	0.000308	-0.002222	0.000056	6694.796780	43780.206550	3864.428255	23022.135352
14.536500	-0.004205	-0.000389	0.000504	0.003909	6625.134173	43353.883584	3861.690646	22843.803550
15.037000	-0.000671	0.000724	-0.002650	0.000990	6681.762237	43731.484161	3861.122195	22978.785497
15.553500	-0.000455	0.000029	-0.001680	-0.000828	6699.790937	43837.339071	3867.901787	23063.307818
16.034500	-0.000042	0.000535	-0.005238	-0.000299	6698.758448	43835.187200	3857.976396	23038.680564
16.535000	-0.003473	-0.000608	-0.001881	0.002870	6640.595609	43430.451773	3858.431477	22891.771116
17.038000	-0.003017	-0.000145	0.001880	-0.000257	6672.063951	43767.071733	3875.219842	23036.720182
17.535500	0.000107	-0.000579	-0.002900	-0.003293	6726.765431	44012.871570	3870.944132	23178.440668
18.036000	-0.001799	0.000583	-0.002070	0.001621	6666.245612	43658.917752	3860.996345	22949.509912
18.536500	-0.003062	0.000125	-0.002203	0.002726	6645.451472	43512.440363	3858.001270	22898.411442
19.036500	-0.003468	0.000591	0.002633	0.002044	6647.869324	43619.969236	3871.424223	22929.942138
19.536500	-0.002398	0.000655	0.002733	0.002292	6655.080536	43602.664217	3871.059756	22918.459516
20.037000	-0.001286	0.000045	-0.001752	0.001565	6671.260915	43613.666865	3861.905078	22952.126626
20.534500	-0.001777	-0.000049	-0.007360	0.002553	6658.242776	43512.354815	3846.022879	22906.410151
21.037000	-0.003795	-0.000082	-0.004780	0.001479	6649.958511	43609.816477	3854.790248	22956.111499
21.535000	-0.003529	0.000456	0.003006	0.001733	6650.060835	43636.500830	3873.098400	22944.338242
22.035500	-0.000585	-0.000101	0.000217	0.001750	6675.816226	43582.629496	3866.242862	22943.564237
22.535500	-0.005204	-0.000875	-0.002299	0.000913	6642.569279	43588.481150	3862.158722	22982.332154
23.036000	-0.003049	-0.000001	0.003678	0.001433	6656.899657	43621.767326	3875.484160	22958.222708
23.536000	-0.000583	-0.000446	0.004734	0.001480	6678.210016	43575.664645	3877.968193	22956.065237
24.036500	-0.002573	0.000350	0.000859	0.001791	6657.935456	43621.051342	3867.704104	22941.631526
24.537000	-0.001067	0.000508	0.001406	0.001753	6671.534737	43639.479795	3869.134414	22943.426140
25.037000	-0.001503	0.000709	0.000607	0.002152	6664.175842	43620.987731	3866.214012	22924.960485
25.537500	-0.001519	0.001289	0.000692	0.002533	6660.687754	43639.581126	3865.491911	22907.331700
26.035000	-0.003825	0.000971	0.000968	0.002198	6643.398550	43641.197300	3866.980506	22922.836307
26.537500	-0.002324	-0.000085	-0.001807	0.001252	6664.872007	43630.836788	3862.531831	22966.633795
27.035500	-0.000321	0.000207	-0.004412	0.001508	6680.278205	43634.218294	3855.606559	22954.743163
27.536000	0.000746	0.000677	0.002245	-0.001031	6712.273389	43917.672046	3878.022588	23072.758249
28.035500	-0.005858	0.000048	-0.001976	0.005382	6598.017777	43257.502545	3852.148278	22776.079964
28.536500	-0.000115	-0.000680	-0.001023	-0.000612	6700.892745	43750.205676	3868.978732	23053.241006
29.036500	-0.000422	-0.000037	-0.000605	-0.000576	6697.846121	43807.365132	3869.913302	23051.575590
29.539500	-0.000859	0.001577	0.005261	0.000364	6685.639763	43870.892016	3882.022345	23007.837843
30.034500	-0.003781	0.000016	-0.001393	0.004705	6621.893275	43317.410360	3855.178160	22807.150668
30.537500	-0.003000	0.000204	-0.004227	0.005100	6625.254383	43298.145531	3847.424029	22788.992587
31.065500	-0.001575	-0.000547	0.002005	-0.000843	6689.987805	43784.469185	3876.968107	23063.994830
31.535500	-0.002943	-0.000376	-0.000633	0.003024	6643.884532	43437.686890	3861.078318	22884.622270
32.041500	-0.004553	-0.000785	-0.001831	0.004668	6615.507627	43246.312029	3854.212554	22808.853081
32.536000	-0.003206	-0.000171	0.001226	0.004413	6629.452817	43327.187366	3862.218007	22820.592977
33.036500	-0.001369	-0.000212	0.000935	-0.000438	6688.217846	43777.790053	3873.343714	23045.114513
33.539500	0.000434	0.000460	0.001864	0.000118	6699.284451	43788.763918	3874.261001	23019.292580
34.037000	-0.003249	0.000107	-0.000286	0.003762	6634.755184	43413.854681	3860.131801	22850.572592
34.537500	-0.001095	-0.000872	-0.000026	0.003676	6654.363126	43330.557648	3860.969750	22854.534812
35.037500	0.000962	0.000147	0.001885	0.001656	6690.320917	43614.745254	3870.542552	22947.911401
35.535000	-0.000675	0.000224	0.005570	0.002076	6672.135593	43582.513919	3878.556560	22928.443246
36.035000	0.000296	-0.001053	0.000822	0.001447	6686.280442	43521.911891	3868.457086	22957.605549
36.535500	-0.000239	0.000009	0.000720	0.003374	6664.545664	43440.980157	3863.515236	22868.493761
37.036000	0.001380	0.000603	0.003485	0.002546	6686.143136	43574.015659	3872.280884	22906.719407
37.536500	0.001027	0.000107	0.001408	0.002110	6686.877000	43568.434857	3868.269404	22926.908806
38.036500	0.001622	0.000134	0.002651	0.002494	6688.747950	43534.926920	3870.366661	22909.130675
38.536500	-0.000726	-0.000489	0.005316	0.001546	6676.369305	43565.434359	3879.239516	22953.002730
39.037000	-0.000650	-0.000187	-0.000465	0.001621	6676.373949	43586.653963	3864.894456	22949.533802
39.537000	-0.001371	-0.001110	0.007898	0.000855	6676.770748	43571.977918	3887.339559	22985.044369
40.035000	-0.000845	-0.000439	-0.000283	0.001461	6676.063861	43578.057137	3865.729031	22956.951714
40.535000	0.002626	0.000294	0.005580	0.002135	6700.831528	43583.525071	3878.435891	22925.711776
41.035000	-0.000008	-0.000543	0.003325	0.001274	6685.110648	43585.807296	3875.008044	22965.583377
41.535500	-0.000987	-0.000297	0.006061	0.002052	6669.602076	43535.974949	3879.828709	22929.567963
42.035500	0.001038	-0.000377	0.001475	0.001483	6692.532044	43581.822984	3869.962740	22955.924125
42.536500	-0.000458	-0.000051	0.007855	0.003036	6665.589813	43466.882131	3881.827227	22884.070803
43.036500	0.000003	-0.000325	0.001439	0.001420	6683.919509	43592.530098	3870.028789	22958.820048
43.536500	0.001409	-0.000612	0.002447	0.001697	6693.918890	43539.722926	3871.818298	22946.007416
44.036500	-0.000816	-0.000314	0.002407	0.001420	6676.682011	43593.533084	3872.395614	22958.818574
44.537500	0.000969	0.000239	0.005344	0.002224	6685.358678	43570.155823	3877.638067	22921.624634
45.035000	0.000574	-0.000344	0.004485	-0.000726	6708.026930	43792.543333	3882.798773	23058.539164
45.559500	0.002535	-0.000009	0.005465	-0.000809	6726.258797	43831.911951	3885.430741	23062.387980
46.038000	-0.001763	-0.001251	0.001593	0.003021	6654.260060	43356.328957	3866.496507	22884.789611
46.535500	-0.000892	-0.000103	0.002375	0.003305	6659.402492	43436.916138	3867.710353	22871.651654
47.036500	0.001876	0.000078	0.006191	0.000007	6713.091247	43763.231178	3885.206841	23024.412214
47.536500	0.001115	0.000488	0.006823	-0.000436	6710.262119	43843.623736	3887.875853	23045.039221
48.036500	0.000329	0.000271	0.004233	0.003575	6667.775742	43446.645463	3871.592523	22859.207538
48.537000	-0.000599	-0.000006	0.002472	0.004599	6650.621671	43325.313194	3864.796853	22812.066354
49.037000	0.002912	0.000906	0.005757	0.000706	6716.094985	43775.319101	3882.401324	22991.942037
49.537500	0.001142	0.000310	0.004079	-0.000214	6708.524078	43805.865212	3880.527880	23034.698012
50.038000	0.001069	-0.000209	0.006953	0.002157	6686.834558	43534.469702	3881.773813	22924.733616
50.534500	-0.000849	-0.000934	0.001680	0.003127	6661.349580	43375.961282	3866.450821	22879.879966
51.036000	0.002554	0.000753	0.006387	-0.001704	6734.446469	43988.525692	3889.947634	23104.146511
51.536000	0.002480	0.000641	0.005552	-0.000540	6723.368353	43867.877456	3884.980326	23049.887284
52.036000	-0.000335	0.000106	0.007364	0.004174	6656.665609	43375.297666	3877.808088	22831.591626
52.536500	-0.027424	-0.022059	0.002821	0.187755	5190.672024	28090.806521	3501.819508	15936.995979
53.036500	-0.033082	-0.018257	-0.008196	0.061410	5942.892039	36903.797696	3712.756990	20362.096737
53.537000	-0.045066	-0.027640	-0.017500	-0.101899	7235.299898	51381.074466	4097.719263	28364.640208
54.037500	-0.018512	-0.070942	0.002536	-0.249959	9409.321295	64614.897968	4707.152276	38737.192972
54.535000	-0.026581	-0.035862	-0.001847	-0.180938	8341.283343	59973.244573	4411.867134	33461.241618
55.035000	-0.028015	-0.032138	-0.009513	-0.171332	8203.256089	59204.914828	4349.342849	32791.159114
55.535500	-0.023124	-0.022720	-0.019919	-0.165415	8190.608514	59660.882288	4292.497008	32385.756241
56.035500	-0.014782	-0.017137	-0.013881	-0.152046	8129.044743	58651.748537	4267.651789	31489.816349
56.536000	-0.014275	-0.009679	-0.017177	-0.112414	7673.612108	54668.516412	4130.302983	28990.378812
57.036000	-0.009886	-0.008043	-0.010021	-0.097296	7555.728186	53085.225100	4106.285953	28095.454388
57.539500	-0.008465	-0.007627	-0.009674	-0.084984	7438.999236	51728.398391	4071.014819	27389.288877
58.039500	-0.012579	-0.006849	-0.009470	-0.049521	7038.652530	47978.007215	3972.550197	25463.714543
58.537000	-0.014580	-0.007785	-0.013607	-0.035981	6891.139841	46499.122348	3926.110441	24768.974739
59.035000	-0.012580	-0.006327	-0.012250	-0.033155	6883.457815	46362.011768	3922.337442	24626.709346
59.535000	-0.013324	-0.005517	-0.009052	-0.025386	6805.017797	45670.578303	3910.674011	24240.285837
60.035000	-0.015513	-0.006905	-0.016760	-0.017062	6710.245419	44724.009943	3870.718735	23833.841298
60.536000	-0.016963	-0.007220	-0.012805	-0.022433	6745.323246	45214.180542	3893.782776	24095.211422
61.036000	-0.015693	-0.006634	-0.015541	-0.031491	6839.244958	46165.059804	3909.699092	24543.364435
61.536000	-0.013745	-0.005876	-0.016725	-0.043462	6969.416911	47452.880451	3937.399937	25150.166684
62.036500	-0.017173	-0.006668	-0.020890	-0.051998	7018.242294	48254.910944	3948.818072	25593.137410
62.539500	-0.018029	-0.007377	-0.017829	-0.057734	7065.428353	48783.321674	3972.159272	25895.790638
63.036500	-0.018610	-0.008174	-0.018178	-0.063092	7112.132829	49268.018204	3985.656916	26182.063131
63.540000	-0.018740	-0.008849	-0.016173	-0.057869	7059.835811	48642.199847	3976.968438	25902.941975
64.037000	-0.020411	-0.008134	-0.018210	-0.049539	6963.824368	47846.552987	3949.400345	25464.619464
64.553500	-0.019247	-0.007470	-0.016319	-0.041101	6895.370539	47048.590229	3932.326541	25029.138720
65.035000	-0.014592	-0.005733	-0.013241	-0.041651	6944.229865	47281.815995	3941.756502	25057.255746
65.535500	-0.016742	-0.006748	-0.014881	-0.039486	6903.688798	46957.871823	3931.869584	24946.749750
66.036000	-0.018941	-0.005631	-0.017245	-0.036184	6852.566564	46736.584765	3917.304463	24779.243573
66.538500	-0.019680	-0.004114	-0.016847	-0.027769	6768.934409	46045.384652	3897.021598	24358.097189
67.036500	-0.016374	-0.005162	-0.012956	-0.032829	6845.297642	46446.009295	3919.691496	24610.344069
67.536500	-0.015384	-0.005752	-0.016278	-0.032655	6852.830158	46369.533721	3910.783026	24601.644363
68.037500	-0.017881	-0.005649	-0.012373	-0.032004	6823.865738	46314.639223	3919.074813	24569.039817
68.534500	-0.021345	-0.005716	-0.019392	-0.027434	6750.888120	45853.169496	3889.825020	24341.474303
69.035000	-0.017788	-0.005264	-0.017062	-0.032935	6833.257000	46446.432455	3909.502838	24615.648038
69.535500	-0.019594	-0.005028	-0.014652	-0.033704	6823.738214	46547.403285	3917.593568	24654.261814
70.035500	-0.020043	-0.006371	-0.018485	-0.034902	6830.614142	46532.862592	3910.884983	24714.551607
70.536000	-0.022876	-0.005579	-0.020051	-0.029814	6758.538030	46103.001948	3894.119821	24459.666261
71.036500	-0.016722	-0.006289	-0.013619	-0.036415	6875.258334	46693.506733	3927.200848	24790.947495
71.536000	-0.018744	-0.007301	-0.016527	-0.037620	6867.668998	46712.968495	3922.818291	24851.915908
72.037000	-0.017384	-0.006292	-0.012860	-0.036532	6870.201676	46705.035338	3929.457005	24796.851721
72.537000	-0.021811	-0.006643	-0.019060	-0.032105	6788.917361	46225.401381	3902.356231	24574.072787
73.037500	-0.015439	-0.006078	-0.011287	-0.037693	6899.105373	46844.062533	3936.537872	24855.659258
73.535000	-0.016785	-0.006464	-0.015588	-0.038788	6896.757780	46915.879101	3928.240904	24911.241222
74.035500	-0.015939	-0.006621	-0.016488	-0.038649	6903.367050	46885.858579	3925.563939	24904.172335
74.535000	-0.019577	-0.006344	-0.014697	-0.032807	6815.681574	46325.487036	3915.190904	24609.252019
75.035500	-0.013351	-0.006473	-0.014424	-0.039102	6931.902654	46946.822939	3932.059365	24927.223480
75.536000	-0.015991	-0.007105	-0.013357	-0.040028	6915.797179	46976.687619	3937.226010	24974.362532
76.036500	-0.017242	-0.007122	-0.013491	-0.039118	6895.573509	46882.557585	3934.515461	24928.006688
76.536500	-0.018169	-0.007123	-0.016295	-0.034502	6844.177157	46417.251990	3915.438386	24694.424775
77.036500	-0.018033	-0.007167	-0.014078	-0.040610	6902.119684	47029.512315	3936.865450	25004.064053
77.537000	-0.015254	-0.006584	-0.019798	-0.040400	6926.209417	47067.477090	3921.560722	24993.335769
78.037500	-0.016697	-0.006290	-0.013279	-0.040133	6910.166246	47070.208384	3937.703623	24979.729275
78.535000	-0.017221	-0.007022	-0.011495	-0.040854	6912.005426	47069.101064	3944.234682	25016.522276
79.038000	-0.014239	-0.007782	-0.012724	-0.041819	6949.162706	47089.982983	3943.546390	25065.892617
79.535500	-0.016880	-0.007175	-0.014212	-0.041525	6921.498272	47121.861398	3938.895539	25050.828151
80.035500	-0.016811	-0.007181	-0.012580	-0.041767	6924.423203	47145.869041	3943.787262	25063.216795
80.536500	-0.015508	-0.007492	-0.017902	-0.041849	6937.463674	47122.607979	3930.167986	25067.418066
81.036500	-0.016243	-0.006978	-0.013117	-0.041595	6928.148155	47149.030874	3941.934423	25054.405275
81.537000	-0.016873	-0.006980	-0.013206	-0.041767	6923.842653	47166.385460	3942.151937	25063.223020
82.037000	-0.016140	-0.007751	-0.014509	-0.041396	6927.250354	47050.082824	3937.790707	25044.256794
82.537500	-0.018880	-0.007627	-0.016357	-0.035943	6850.908021	46511.288750	3918.960686	24767.089977
83.040500	-0.015779	-0.007651	-0.014487	-0.041525	6931.852752	47073.396969	3938.181925	25050.828510
83.535000	-0.016573	-0.007277	-0.013536	-0.041232	6921.636665	47081.630438	3939.894798	25035.852206
84.035000	-0.017800	-0.007015	-0.011862	-0.040046	6899.031606	46987.693033	3941.166948	24975.303633
84.535500	-0.016501	-0.007958	-0.018499	-0.041085	6920.926023	46997.407269	3926.657117	25028.338456
85.036000	-0.016784	-0.007471	-0.015630	-0.040150	6909.506939	46951.986276	3931.650728	24980.619692
85.536500	-0.018853	-0.007470	-0.014891	-0.039881	6887.674332	46924.652754	3932.866140	24966.874590
86.036500	-0.017147	-0.006734	-0.010167	-0.038077	6886.754545	46816.516022	3940.453178	24875.118355
86.537000	-0.017273	-0.006916	-0.020799	-0.038282	6887.493942	46818.800224	3913.594861	24885.527760
87.037500	-0.016718	-0.006898	-0.014835	-0.037960	6889.658032	46788.033377	3928.046836	24869.165011
87.537500	-0.016169	-0.006603	-0.010716	-0.036796	6883.943401	46700.317097	3935.691127	24810.208725
88.037500	-0.018173	-0.006858	-0.013182	-0.035808	6856.191267	46575.041460	3926.760416	24760.265829
88.535000	-0.018269	-0.006912	-0.015125	-0.035410	6851.625333	46529.585860	3920.747406	24740.168989
89.035500	-0.016714	-0.007172	-0.013009	-0.035480	6866.652716	46510.370616	3926.360334	24743.684362
89.535500	-0.015811	-0.006296	-0.018095	-0.034026	6861.553665	46452.433065	3909.650928	24670.479454
90.036500	-0.016583	-0.006539	-0.014415	-0.033882	6853.087922	46413.594158	3918.654521	24663.209329
90.536500	-0.019775	-0.006708	-0.012564	-0.027612	6766.652628	45772.743667	3907.414756	24350.305254
91.036500	-0.015776	-0.006226	-0.009720	-0.032478	6847.582042	46304.356935	3927.100698	24592.765250
91.537000	-0.017492	-0.005694	-0.014020	-0.031519	6822.979152	46261.604961	3913.633936	24544.748474
92.037500	-0.016039	-0.005763	-0.016330	-0.030667	6828.494124	46169.737504	3905.616984	24502.207971
92.537500	-0.017913	-0.006621	-0.016768	-0.025864	6767.684227	45608.998357	3892.451876	24263.861533
93.035500	-0.015532	-0.006068	-0.013138	-0.030716	6833.600932	46144.227598	3913.836714	24504.658069
93.535000	-0.015367	-0.005475	-0.013287	-0.029210	6821.294967	46053.319493	3909.630650	24429.602991
94.035500	-0.017083	-0.006194	-0.018424	-0.029329	6806.698376	45993.730741	3896.978168	24435.553058
94.536000	-0.019312	-0.005811	-0.016752	-0.022811	6727.652956	45388.849399	3884.898422	24113.742411
95.048000	-0.015716	-0.005631	-0.014947	-0.027997	6807.005894	45917.355107	3902.368849	24369.368011
95.541500	-0.017681	-0.004999	-0.017351	-0.026791	6778.176606	45860.595208	3893.311996	24309.678536
96.036000	-0.016878	-0.005106	-0.008477	-0.026651	6784.181264	45836.110169	3915.353333	24302.743718
96.533500	-0.017648	-0.005232	-0.016174	-0.021835	6733.812460	45349.927287	3883.912607	24065.953021
97.037500	-0.015014	-0.005789	-0.012640	-0.027277	6806.844971	45830.470059	3906.374098	24333.709351
97.543000	-0.016030	-0.005099	-0.013590	-0.025185	6778.575085	45691.944210	3898.709821	24230.368585
98.035000	-0.015541	-0.004848	-0.014053	-0.024905	6780.467824	45689.140314	3896.843900	24216.570058
