sample name	sample
index	292
start time	 02-25-2021  12:52:54 PM


Wavelength (nm)	Absorbance
494.344910	NaN
494.563924	NaN
494.782919	NaN
495.001897	-0.535294
495.220856	0.822771
495.439797	0.334292
495.658719	-0.007188
495.877624	-0.033920
496.096510	0.046697
496.315378	0.103810
496.534227	0.055144
496.753059	0.033876
496.971872	0.013050
497.190667	-0.008316
497.409444	0.004063
497.628203	0.007716
497.846943	0.007706
498.065665	0.006327
498.284369	0.007120
498.503055	0.006836
498.721723	0.007162
498.940372	0.007159
499.159003	0.007271
499.377616	0.006866
499.596210	0.006732
499.814787	0.005579
500.033345	0.005850
500.251885	0.005003
500.470406	0.004803
500.688910	0.004190
500.907395	0.004581
501.125862	0.004488
501.344311	0.005106
501.562742	0.004756
501.781154	0.005237
501.999548	0.006329
502.217924	0.006408
502.436282	0.006973
502.654621	0.007443
502.872942	0.007699
503.091245	0.007721
503.309530	0.006981
503.527797	0.006941
503.746045	0.007145
503.964275	0.005711
504.182487	0.005696
504.400681	0.005912
504.618856	0.005800
504.837013	0.005684
505.055152	0.005278
505.273273	0.005438
505.491376	0.006599
505.709460	0.005552
505.927526	0.006649
506.145574	0.007289
506.363604	0.006840
506.581615	0.007296
506.799608	0.006814
507.017583	0.007782
507.235540	0.008466
507.453478	0.007643
507.671399	0.008902
507.889301	0.008277
508.107185	0.007797
508.325050	0.008570
508.542898	0.008599
508.760727	0.008412
508.978538	0.007914
509.196330	0.007366
509.414105	0.007824
509.631861	0.008072
509.849599	0.007897
510.067319	0.007863
510.285021	0.007929
510.502704	0.007994
510.720369	0.008644
510.938016	0.009156
511.155645	0.008246
511.373255	0.007317
511.590848	0.006872
511.808422	0.006580
512.025977	0.006247
512.243515	0.005522
512.461034	0.005561
512.678536	0.005404
512.896018	0.005964
513.113483	0.006733
513.330930	0.008055
513.548358	0.008028
513.765768	0.008978
513.983160	0.009939
514.200533	0.010324
514.417889	0.010226
514.635226	0.010350
514.852545	0.009935
515.069845	0.010036
515.287128	0.009723
515.504392	0.009832
515.721638	0.009845
515.938866	0.009731
516.156075	0.009816
516.373267	0.009703
516.590440	0.009798
516.807594	0.009390
517.024731	0.009437
517.241850	0.009493
517.458950	0.009356
517.676032	0.009119
517.893095	0.009144
518.110141	0.008893
518.327168	0.009005
518.544177	0.008659
518.761168	0.009042
518.978141	0.009340
519.195095	0.009193
519.412031	0.009473
519.628949	0.009585
519.845849	0.009949
520.062731	0.010438
520.279594	0.010940
520.496439	0.011485
520.713266	0.011541
520.930074	0.011678
521.146865	0.011559
521.363637	0.012076
521.580391	0.012234
521.797127	0.012194
522.013844	0.011854
522.230543	0.011406
522.447224	0.011288
522.663887	0.011497
522.880532	0.011980
523.097158	0.012217
523.313766	0.011660
523.530356	0.011893
523.746928	0.011496
523.963481	0.011901
524.180017	0.012328
524.396534	0.012677
524.613032	0.012783
524.829513	0.012357
525.045975	0.013000
525.262420	0.013470
525.478845	0.012911
525.695253	0.012900
525.911643	0.013720
526.128014	0.013218
526.344367	0.012936
526.560702	0.013009
526.777018	0.013087
526.993316	0.012666
527.209597	0.012469
527.425858	0.013019
527.642102	0.013045
527.858328	0.012295
528.074535	0.013168
528.290724	0.013840
528.506894	0.013863
528.723047	0.014435
528.939181	0.014717
529.155297	0.014863
529.371395	0.014297
529.587475	0.014789
529.803536	0.015335
530.019579	0.015272
530.235604	0.014776
530.451611	0.015009
530.667600	0.014902
530.883570	0.014875
531.099522	0.015495
531.315456	0.015798
531.531372	0.015691
531.747269	0.015279
531.963148	0.014665
532.179009	0.014885
532.394852	0.015198
532.610676	0.014730
532.826482	0.014339
533.042271	0.014506
533.258040	0.015208
533.473792	0.015475
533.689525	0.015635
533.905240	0.016525
534.120937	0.016595
534.336616	0.016410
534.552277	0.016847
534.767919	0.017569
534.983543	0.017591
535.199149	0.017807
535.414736	0.017946
535.630306	0.017924
535.845857	0.017876
536.061390	0.017963
536.276904	0.018806
536.492401	0.018574
536.707879	0.018766
536.923339	0.018618
537.138781	0.018542
537.354204	0.018838
537.569610	0.019050
537.784997	0.019449
538.000366	0.019668
538.215716	0.018734
538.431049	0.019049
538.646363	0.018860
538.861659	0.019167
539.076937	0.019496
539.292196	0.019595
539.507438	0.019797
539.722661	0.019719
539.937866	0.019652
540.153052	0.020051
540.368221	0.020734
540.583371	0.021090
540.798503	0.020988
541.013617	0.021050
541.228712	0.020658
541.443789	0.020784
541.658848	0.021028
541.873889	0.021053
542.088912	0.021139
542.303916	0.021202
542.518902	0.021323
542.733870	0.021428
542.948820	0.021324
543.163752	0.021632
543.378665	0.021560
543.593560	0.021416
543.808437	0.022013
544.023295	0.022281
544.238136	0.022046
544.452958	0.022249
544.667762	0.022291
544.882548	0.022436
545.097315	0.022641
545.312064	0.022816
545.526795	0.022943
545.741508	0.023167
545.956203	0.023372
546.170879	0.023426
546.385537	0.023386
546.600177	0.023462
546.814799	0.023730
547.029402	0.023772
547.243988	0.024157
547.458555	0.024265
547.673103	0.024077
547.887634	0.023937
548.102146	0.024056
548.316640	0.024180
548.531116	0.024659
548.745574	0.024552
548.960013	0.024750
549.174435	0.024546
549.388838	0.024360
549.603222	0.024193
549.817589	0.024481
550.031937	0.024728
550.246267	0.024824
550.460579	0.024693
550.674873	0.024702
550.889148	0.025234
551.103405	0.025353
551.317644	0.025749
551.531865	0.026145
551.746068	0.026425
551.960252	0.026413
552.174418	0.026641
552.388566	0.026846
552.602696	0.027141
552.816807	0.026841
553.030900	0.027059
553.244975	0.027360
553.459032	0.027099
553.673070	0.026928
553.887091	0.027283
554.101093	0.027191
554.315077	0.027148
554.529042	0.027542
554.742990	0.028022
554.956919	0.027965
555.170830	0.028012
555.384722	0.028702
555.598597	0.028913
555.812453	0.028668
556.026291	0.028821
556.240111	0.029174
556.453913	0.028979
556.667696	0.028724
556.881461	0.028773
557.095208	0.028648
557.308937	0.028530
557.522647	0.028211
557.736339	0.028216
557.950013	0.028514
558.163669	0.028758
558.377307	0.028636
558.590926	0.028822
558.804527	0.029203
559.018110	0.029300
559.231675	0.029467
559.445221	0.029917
559.658749	0.030097
559.872259	0.029831
560.085751	0.029972
560.299225	0.030487
560.512680	0.030500
560.726117	0.030300
560.939536	0.030635
561.152937	0.030671
561.366319	0.030526
561.579683	0.030615
561.793029	0.030393
562.006357	0.030268
562.219667	0.030243
562.432958	0.030349
562.646231	0.030566
562.859486	0.030339
563.072723	0.030329
563.285941	0.030395
563.499141	0.030513
563.712323	0.031104
563.925487	0.030825
564.138632	0.030706
564.351760	0.030676
564.564869	0.030560
564.777960	0.030693
564.991032	0.030682
565.204087	0.030786
565.417123	0.030787
565.630141	0.030793
565.843140	0.031141
566.056122	0.031418
566.269085	0.031443
566.482030	0.031954
566.694957	0.032092
566.907866	0.032314
567.120756	0.032654
567.333628	0.033011
567.546482	0.033114
567.759318	0.033313
567.972135	0.033276
568.184935	0.033628
568.397716	0.033376
568.610478	0.033561
568.823223	0.033672
569.035949	0.033601
569.248657	0.033513
569.461347	0.033500
569.674019	0.033630
569.886672	0.033498
570.099308	0.033503
570.311925	0.033967
570.524523	0.033841
570.737104	0.033684
570.949666	0.033733
571.162210	0.034023
571.374736	0.033859
571.587244	0.033825
571.799733	0.034145
572.012205	0.033963
572.224658	0.033496
572.437092	0.033578
572.649509	0.033624
572.861907	0.033622
573.074287	0.033183
573.286649	0.033393
573.498993	0.033302
573.711318	0.033491
573.923625	0.033832
574.135914	0.033969
574.348185	0.034054
574.560438	0.034355
574.772672	0.034708
574.984888	0.034952
575.197086	0.035079
575.409266	0.034980
575.621427	0.034912
575.833570	0.034903
576.045695	0.035169
576.257802	0.035277
576.469890	0.035410
576.681961	0.035574
576.894013	0.035947
577.106046	0.035963
577.318062	0.036099
577.530059	0.036384
577.742039	0.036345
577.954000	0.036644
578.165942	0.036586
578.377867	0.036546
578.589773	0.036327
578.801661	0.036362
579.013531	0.036696
579.225382	0.036945
579.437216	0.036756
579.649031	0.037141
579.860828	0.036868
580.072606	0.036835
580.284367	0.036932
580.496109	0.037092
580.707833	0.037199
580.919539	0.037091
581.131227	0.037077
581.342896	0.037268
581.554547	0.036994
581.766180	0.037464
581.977795	0.037562
582.189391	0.037796
582.400969	0.037878
582.612529	0.037956
582.824071	0.037994
583.035595	0.038365
583.247100	0.038506
583.458587	0.038915
583.670056	0.038650
583.881506	0.039044
584.092939	0.039330
584.304353	0.039415
584.515749	0.039408
584.727127	0.039521
584.938486	0.039436
585.149828	0.039646
585.361151	0.039322
585.572456	0.039712
585.783742	0.039723
585.995011	0.039408
586.206261	0.039696
586.417493	0.039743
586.628706	0.039740
586.839902	0.039627
587.051079	0.039537
587.262238	0.039600
587.473379	0.039513
587.684502	0.039852
587.895606	0.039933
588.106692	0.039916
588.317760	0.039789
588.528810	0.040092
588.739841	0.040251
588.950855	0.040454
589.161850	0.040977
589.372827	0.041337
589.583785	0.041339
589.794726	0.041589
590.005648	0.041748
590.216552	0.041889
590.427437	0.041985
590.638305	0.042057
590.849154	0.041878
591.059985	0.041538
591.270798	0.041398
591.481592	0.041367
591.692369	0.041092
591.903127	0.041095
592.113867	0.041213
592.324588	0.041413
592.535292	0.041677
592.745977	0.041758
592.956644	0.042190
593.167293	0.042024
593.377923	0.042533
593.588536	0.042819
593.799130	0.042684
594.009706	0.042841
594.220263	0.042890
594.430803	0.042881
594.641324	0.042845
594.851827	0.043132
595.062312	0.043352
595.272778	0.042991
595.483227	0.043120
595.693657	0.043247
595.904069	0.043676
596.114462	0.043682
596.324838	0.043509
596.535195	0.043907
596.745534	0.043691
596.955855	0.043982
597.166157	0.044043
597.376441	0.044090
597.586707	0.044181
597.796955	0.043944
598.007185	0.044048
598.217396	0.044215
598.427589	0.044149
598.637764	0.044359
598.847921	0.044385
599.058060	0.044682
599.268180	0.044776
599.478282	0.044723
599.688366	0.045019
599.898431	0.045059
600.108479	0.045142
600.318508	0.045334
600.528519	0.045115
600.738511	0.045159
600.948486	0.045235
601.158442	0.045108
601.368380	0.045323
601.578300	0.045280
601.788202	0.045243
601.998085	0.045633
602.207950	0.045724
602.417797	0.045944
602.627626	0.046012
602.837436	0.045955
603.047228	0.046372
603.257002	0.046394
603.466758	0.046288
603.676496	0.046541
603.886215	0.046451
604.095916	0.046539
604.305599	0.046650
604.515264	0.046781
604.724910	0.046825
604.934538	0.046925
605.144148	0.046951
605.353740	0.047272
605.563314	0.047407
605.772869	0.047432
605.982406	0.047293
606.191925	0.047482
606.401425	0.047311
606.610908	0.047489
606.820372	0.047344
607.029818	0.047521
607.239246	0.047319
607.448655	0.047232
607.658047	0.047390
607.867420	0.047455
608.076775	0.047250
608.286111	0.047408
608.495430	0.047409
608.704730	0.047695
608.914012	0.047781
609.123275	0.048054
609.332521	0.048259
609.541748	0.048190
609.750957	0.048163
609.960148	0.048375
610.169321	0.048303
610.378475	0.048328
610.587611	0.048020
610.796729	0.048379
611.005829	0.048331
611.214910	0.048162
611.423974	0.048352
611.633019	0.048822
611.842045	0.048868
612.051054	0.049184
612.260044	0.049240
612.469017	0.049716
612.677970	0.049629
612.886906	0.049852
613.095824	0.050166
613.304723	0.050386
613.513604	0.050068
613.722467	0.050339
613.931311	0.050406
614.140138	0.050612
614.348946	0.050596
614.557736	0.050528
614.766507	0.050500
614.975261	0.050536
615.183996	0.050469
615.392713	0.050638
615.601412	0.050653
615.810092	0.050562
616.018754	0.050276
616.227399	0.050169
616.436024	0.050323
616.644632	0.050431
616.853222	0.050402
617.061793	0.050394
617.270346	0.050735
617.478880	0.050531
617.687397	0.050742
617.895895	0.051084
618.104375	0.051395
618.312837	0.051504
618.521281	0.051402
618.729706	0.051631
618.938113	0.051617
619.146502	0.051484
619.354873	0.051630
619.563226	0.051674
619.771560	0.051489
619.979876	0.051409
620.188174	0.051498
620.396453	0.051640
620.604715	0.051657
620.812958	0.051795
621.021183	0.051912
621.229390	0.052121
621.437578	0.052118
621.645748	0.052506
621.853900	0.052393
622.062034	0.052436
622.270150	0.052628
622.478247	0.052644
622.686326	0.052792
622.894387	0.052916
623.102430	0.052822
623.310454	0.053016
623.518461	0.053050
623.726449	0.053325
623.934418	0.053671
624.142370	0.053783
624.350303	0.054125
624.558218	0.054131
624.766115	0.054141
624.973994	0.054554
625.181855	0.054688
625.389697	0.054858
625.597521	0.055093
625.805327	0.054968
626.013114	0.055031
626.220883	0.054869
626.428634	0.055341
626.636367	0.055610
626.844082	0.055622
627.051778	0.055895
627.259457	0.055920
627.467117	0.056055
627.674758	0.056098
627.882382	0.056138
628.089987	0.056204
628.297574	0.055939
628.505143	0.055653
628.712694	0.055755
628.920226	0.055516
629.127740	0.055415
629.335236	0.055343
629.542714	0.055290
629.750174	0.055343
629.957615	0.055275
630.165038	0.055448
630.372443	0.055768
630.579829	0.055653
630.787198	0.055664
630.994548	0.055982
631.201880	0.056003
631.409194	0.056062
631.616489	0.056244
631.823766	0.056406
632.031025	0.056514
632.238266	0.056655
632.445489	0.057010
632.652693	0.057250
632.859879	0.057259
633.067047	0.057422
633.274197	0.057472
633.481329	0.057479
633.688442	0.057574
633.895537	0.057589
634.102614	0.057617
634.309672	0.057373
634.516713	0.057326
634.723735	0.057362
634.930739	0.057159
635.137724	0.057284
635.344692	0.057321
635.551641	0.057385
635.758572	0.057305
635.965485	0.057124
636.172379	0.057235
636.379256	0.057322
636.586114	0.057341
636.792954	0.057484
636.999775	0.057785
637.206579	0.057652
637.413364	0.057820
637.620131	0.058057
637.826880	0.058288
638.033610	0.058331
638.240323	0.058384
638.447017	0.058532
638.653692	0.058703
638.860350	0.058469
639.066990	0.058561
639.273611	0.058433
639.480214	0.058365
639.686798	0.058383
639.893365	0.058480
640.099913	0.058506
640.306443	0.058589
640.512955	0.058871
640.719449	0.058983
640.925924	0.059191
641.132381	0.059207
641.338820	0.059437
641.545241	0.059703
641.751644	0.059952
641.958028	0.060264
642.164394	0.060281
642.370742	0.060389
642.577071	0.060556
642.783383	0.060797
642.989676	0.061034
643.195951	0.061128
643.402207	0.061023
643.608446	0.061061
643.814666	0.061136
644.020868	0.061282
644.227052	0.061514
644.433218	0.061687
644.639365	0.061663
644.845494	0.061844
645.051605	0.062016
645.257698	0.062164
645.463772	0.062114
645.669828	0.062053
645.875866	0.062193
646.081886	0.061955
646.287888	0.062007
646.493871	0.062174
646.699836	0.062362
646.905783	0.062312
647.111712	0.062515
647.317622	0.062854
647.523514	0.062967
647.729388	0.063254
647.935244	0.063282
648.141082	0.063301
648.346901	0.063325
648.552702	0.063268
648.758485	0.063254
648.964250	0.063429
649.169996	0.063443
649.375724	0.063570
649.581434	0.063405
649.787126	0.063778
649.992800	0.063863
650.198455	0.063905
650.404092	0.064091
650.609711	0.064240
650.815311	0.064185
651.020894	0.064248
651.226458	0.064238
651.432004	0.064306
651.637532	0.064225
651.843041	0.064459
652.048532	0.064615
652.254006	0.064752
652.459460	0.065042
652.664897	0.065122
652.870315	0.065151
653.075716	0.065339
653.281097	0.065469
653.486461	0.065462
653.691807	0.065458
653.897134	0.065545
654.102443	0.065436
654.307734	0.065411
654.513006	0.065472
654.718261	0.065528
654.923497	0.065576
655.128715	0.065838
655.333915	0.065851
655.539096	0.066104
655.744259	0.066278
655.949404	0.066389
656.154531	0.066438
656.359640	0.066615
656.564730	0.066873
656.769802	0.067047
656.974856	0.066934
657.179892	0.067334
657.384909	0.067421
657.589908	0.067553
657.794889	0.067783
657.999852	0.067981
658.204797	0.068137
658.409723	0.068172
658.614631	0.068412
658.819521	0.068721
659.024393	0.068904
659.229246	0.069027
659.434081	0.069117
659.638898	0.069296
659.843697	0.069330
660.048478	0.069490
660.253240	0.069678
660.457984	0.069816
660.662710	0.069849
660.867417	0.069909
661.072107	0.070022
661.276778	0.070145
661.481431	0.070218
661.686066	0.070469
661.890682	0.070523
662.095281	0.070409
662.299861	0.070450
662.504422	0.070514
662.708966	0.070490
662.913491	0.070610
663.117999	0.070549
663.322488	0.070649
663.526958	0.070779
663.731411	0.070818
663.935845	0.071058
664.140261	0.071069
664.344659	0.071209
664.549038	0.071447
664.753400	0.071430
664.957743	0.071611
665.162068	0.071621
665.366375	0.071518
665.570663	0.071657
665.774933	0.071958
665.979185	0.071929
666.183419	0.071907
666.387635	0.071940
666.591832	0.072035
666.796011	0.072104
667.000172	0.072200
667.204315	0.072391
667.408439	0.072410
667.612545	0.072314
667.816634	0.072547
668.020703	0.072725
668.224755	0.072564
668.428788	0.072672
668.632803	0.072714
668.836800	0.072880
669.040779	0.072950
669.244739	0.073042
669.448681	0.073148
669.652605	0.073230
669.856511	0.073250
670.060399	0.073446
670.264268	0.073528
670.468119	0.073838
670.671952	0.073791
670.875767	0.074028
671.079563	0.074243
671.283341	0.074070
671.487101	0.074274
671.690843	0.074191
671.894567	0.074438
672.098272	0.074552
672.301959	0.074516
672.505628	0.074805
672.709278	0.074856
672.912911	0.075028
673.116525	0.075264
673.320121	0.075370
673.523699	0.075747
673.727258	0.075781
673.930799	0.075987
674.134322	0.076219
674.337827	0.076476
674.541314	0.076760
674.744782	0.076723
674.948232	0.076818
675.151664	0.076965
675.355078	0.077193
675.558474	0.077471
675.761851	0.077500
675.965210	0.077723
676.168551	0.077873
676.371873	0.077912
676.575178	0.078188
676.778464	0.078661
676.981732	0.078787
677.184981	0.078776
677.388213	0.078806
677.591426	0.079044
677.794621	0.079167
677.997798	0.079267
678.200956	0.079246
678.404097	0.079249
678.607219	0.079242
678.810323	0.079335
679.013408	0.079523
679.216476	0.079871
679.419525	0.080055
679.622556	0.080150
679.825569	0.080220
680.028563	0.080462
680.231540	0.080619
680.434498	0.080707
680.637438	0.080857
680.840359	0.080973
681.043263	0.080800
681.246148	0.080655
681.449015	0.080672
681.651864	0.080752
681.854694	0.080665
682.057506	0.080813
682.260301	0.081078
682.463076	0.081141
682.665834	0.081238
682.868573	0.081283
683.071295	0.081480
683.273998	0.081479
683.476682	0.081451
683.679349	0.081686
683.881997	0.081682
684.084627	0.081531
684.287239	0.081513
684.489833	0.081550
684.692408	0.081649
684.894965	0.081609
685.097504	0.081680
685.300025	0.081599
685.502527	0.081489
685.705012	0.081423
685.907478	0.081506
686.109925	0.081494
686.312355	0.081602
686.514766	0.081713
686.717159	0.081817
686.919534	0.081926
687.121891	0.082099
687.324230	0.082327
687.526550	0.082685
687.728852	0.082796
687.931136	0.082996
688.133401	0.083066
688.335649	0.083277
688.537878	0.083499
688.740089	0.083626
688.942281	0.083895
689.144456	0.084109
689.346612	0.084115
689.548750	0.084204
689.750870	0.084367
689.952971	0.084330
690.155055	0.084322
690.357120	0.084365
690.559167	0.084530
690.761195	0.084504
690.963206	0.084586
691.165198	0.084730
691.367172	0.084901
691.569128	0.084934
691.771065	0.084926
691.972984	0.085015
692.174885	0.085197
692.376768	0.085296
692.578633	0.085300
692.780479	0.085263
692.982308	0.085200
693.184118	0.085089
693.385909	0.085176
693.587683	0.085417
693.789438	0.085476
693.991175	0.085536
694.192894	0.085519
694.394595	0.085595
694.596277	0.085439
694.797941	0.085521
694.999587	0.085637
695.201215	0.085576
695.402824	0.085587
695.604416	0.085659
695.805989	0.085591
696.007543	0.085466
696.209080	0.085471
696.410598	0.085615
696.612099	0.085780
696.813580	0.085839
697.015044	0.085870
697.216490	0.085945
697.417917	0.085930
697.619326	0.086035
697.820717	0.086287
698.022089	0.086314
698.223444	0.086501
698.424780	0.086599
698.626098	0.086677
698.827397	0.086770
699.028679	0.087017
699.229942	0.087055
699.431187	0.087035
699.632414	0.087171
699.833622	0.087523
700.034813	0.087581
700.235985	0.087656
700.437139	0.087900
700.638274	0.088108
700.839392	0.087987
701.040491	0.088287
701.241572	0.088447
701.442635	0.088568
701.643679	0.088453
701.844706	0.088496
702.045714	0.088435
702.246704	0.088450
702.447675	0.088502
702.648629	0.088643
702.849564	0.088393
703.050481	0.088388
703.251380	0.088242
703.452260	0.088347
703.653122	0.088460
703.853966	0.088415
704.054792	0.088273
704.255600	0.088251
704.456389	0.088144
704.657160	0.088341
704.857913	0.088336
705.058648	0.088540
705.259365	0.088393
705.460063	0.088105
705.660743	0.088159
705.861405	0.088120
706.062048	0.087985
706.262674	0.087986
706.463281	0.087930
706.663870	0.087776
706.864441	0.087511
707.064993	0.087510
707.265527	0.087544
707.466043	0.087501
707.666541	0.087583
707.867021	0.087891
708.067482	0.087938
708.267925	0.087963
708.468350	0.088308
708.668757	0.088459
708.869145	0.088654
709.069516	0.088997
709.269868	0.089165
709.470201	0.089312
709.670517	0.089305
709.870814	0.089335
710.071093	0.089531
710.271354	0.089465
710.471597	0.089522
710.671821	0.089549
710.872028	0.089424
711.072216	0.089353
711.272385	0.089334
711.472537	0.089197
711.672670	0.089138
711.872785	0.089023
712.072882	0.088956
712.272961	0.088926
712.473021	0.088814
712.673063	0.088894
712.873087	0.088948
713.073093	0.088765
713.273081	0.088989
713.473050	0.089132
713.673001	0.089202
713.872934	0.089290
714.072849	0.089301
714.272745	0.089351
714.472623	0.089196
714.672483	0.089078
714.872325	0.089125
715.072148	0.088993
715.271954	0.088933
715.471741	0.088680
715.671509	0.088619
715.871260	0.088695
716.070992	0.088580
716.270707	0.088777
716.470403	0.088917
716.670080	0.089018
716.869740	0.088934
717.069381	0.088944
717.269004	0.089025
717.468609	0.089038
717.668195	0.088908
717.867764	0.089116
718.067314	0.088862
718.266846	0.088889
718.466360	0.088826
718.665855	0.088738
718.865332	0.088583
719.064791	0.088680
719.264232	0.088713
719.463655	0.088835
719.663059	0.088666
719.862445	0.088826
720.061813	0.088830
720.261163	0.088743
720.460494	0.088851
720.659807	0.088999
720.859102	0.088892
721.058379	0.088678
721.257638	0.088513
721.456878	0.088573
721.656100	0.088574
721.855304	0.088335
722.054490	0.088310
722.253657	0.088098
722.452806	0.087983
722.651937	0.088015
722.851050	0.088101
723.050145	0.088051
723.249221	0.087985
723.448279	0.087924
723.647319	0.088071
723.846340	0.088125
724.045344	0.088434
724.244329	0.088517
724.443296	0.088536
724.642245	0.088505
724.841175	0.088469
725.040088	0.088410
725.238982	0.088354
725.437857	0.088062
725.636715	0.088128
725.835554	0.088066
726.034376	0.088103
726.233179	0.088095
726.431963	0.088112
726.630730	0.088058
726.829478	0.088155
727.028208	0.088034
727.226920	0.088252
727.425614	0.088108
727.624289	0.088014
727.822946	0.087973
728.021585	0.087838
728.220206	0.087917
728.418808	0.087955
728.617392	0.087887
728.815958	0.087960
729.014506	0.087718
729.213036	0.087682
729.411547	0.087439
729.610040	0.087249
729.808515	0.087110
730.006972	0.086786
730.205410	0.086514
730.403831	0.086315
730.602233	0.086166
730.800616	0.085898
730.998982	0.085711
731.197329	0.085693
731.395658	0.085756
731.593969	0.085687
731.792262	0.085472
731.990536	0.085414
732.188793	0.085420
732.387031	0.085225
732.585250	0.085465
732.783452	0.085499
732.981635	0.085312
733.179800	0.085068
733.377947	0.085074
733.576076	0.085021
733.774186	0.085085
733.972278	0.085072
734.170352	0.085024
734.368408	0.084932
734.566446	0.084914
734.764465	0.084934
734.962466	0.084915
735.160449	0.084832
735.358413	0.084974
735.556360	0.084751
735.754288	0.084572
735.952198	0.084695
736.150090	0.084609
736.347963	0.084375
736.545818	0.084252
736.743655	0.084222
736.941474	0.084274
737.139275	0.084203
737.337057	0.084350
737.534821	0.084445
737.732567	0.084234
737.930295	0.084358
738.128005	0.084530
738.325696	0.084544
738.523369	0.084464
738.721024	0.084378
738.918660	0.084353
739.116279	0.084350
739.313879	0.084291
739.511461	0.084333
739.709024	0.084164
739.906570	0.084167
740.104097	0.084300
740.301606	0.084330
740.499097	0.084309
740.696569	0.084230
740.894024	0.084054
741.091460	0.083769
741.288878	0.083773
741.486277	0.083576
741.683659	0.083378
741.881022	0.083059
742.078367	0.082962
742.275694	0.082890
742.473002	0.082754
742.670293	0.082734
742.867565	0.082602
743.064819	0.082403
743.262054	0.082249
743.459272	0.082032
743.656471	0.081986
743.853652	0.081870
744.050815	0.081681
744.247959	0.081739
744.445085	0.081717
744.642194	0.081957
744.839283	0.081947
745.036355	0.082231
745.233408	0.082278
745.430444	0.082305
745.627461	0.082189
745.824459	0.082041
746.021440	0.082025
746.218402	0.081842
746.415346	0.081856
746.612272	0.081679
746.809180	0.081420
747.006069	0.081395
747.202940	0.081276
747.399793	0.081398
747.596628	0.081442
747.793444	0.081368
747.990243	0.081525
748.187023	0.081383
748.383784	0.081516
748.580528	0.081541
748.777253	0.081535
748.973960	0.081552
749.170649	0.081350
749.367320	0.081290
749.563973	0.081295
749.760607	0.081079
749.957223	0.080916
750.153821	0.080820
750.350400	0.080911
750.546962	0.080926
750.743505	0.081150
750.940030	0.081180
751.136536	0.081318
751.333025	0.081107
751.529495	0.081141
751.725947	0.081208
751.922381	0.081191
752.118796	0.081117
752.315194	0.081017
752.511573	0.080756
752.707934	0.080728
752.904276	0.080580
753.100601	0.080742
753.296907	0.080675
753.493195	0.080643
753.689465	0.080651
753.885716	0.080576
754.081949	0.080601
754.278164	0.080353
754.474361	0.080336
754.670540	0.080189
754.866700	0.079886
755.062843	0.079951
755.258967	0.079812
755.455072	0.079510
755.651160	0.079566
755.847229	0.079261
756.043280	0.079117
756.239313	0.078719
756.435328	0.078661
756.631324	0.078543
756.827302	0.078166
757.023262	0.077887
757.219204	0.077859
757.415127	0.077580
757.611033	0.077610
757.806920	0.077566
758.002788	0.077568
758.198639	0.077269
758.394471	0.077193
758.590286	0.077290
758.786081	0.077322
758.981859	0.077219
759.177619	0.077056
759.373360	0.076771
759.569083	0.076782
759.764788	0.076886
759.960474	0.077042
760.156143	0.077096
760.351793	0.077065
760.547425	0.076960
760.743038	0.077011
760.938634	0.077109
761.134211	0.077149
761.329770	0.077096
761.525311	0.076991
761.720833	0.077101
761.916338	0.076823
762.111824	0.076518
762.307292	0.076282
762.502741	0.076093
762.698173	0.075998
762.893586	0.076233
763.088981	0.076234
763.284358	0.076244
763.479716	0.076197
763.675057	0.076344
763.870379	0.076348
764.065683	0.076593
764.260968	0.076701
764.456236	0.076570
764.651485	0.076320
764.846716	0.076382
765.041929	0.076233
765.237123	0.076068
765.432299	0.076055
765.627457	0.076295
765.822597	0.076305
766.017719	0.076210
766.212822	0.076325
766.407907	0.076138
766.602974	0.075994
766.798023	0.076181
766.993054	0.076044
767.188066	0.076088
767.383060	0.075997
767.578036	0.075813
767.772993	0.075736
767.967933	0.075501
768.162854	0.075583
768.357757	0.075540
768.552642	0.075372
768.747508	0.075431
768.942356	0.075476
769.137186	0.075417
769.331998	0.075593
769.526792	0.075564
769.721567	0.075610
769.916324	0.075689
770.111063	0.075696
770.305784	0.075773
770.500486	0.075859
770.695171	0.075660
770.889837	0.075501
771.084484	0.075382
771.279114	0.075329
771.473725	0.075336
771.668318	0.075155
771.862893	0.075043
772.057450	0.074662
772.251988	0.074631
772.446509	0.074516
772.641011	0.074431
772.835494	0.074207
773.029960	0.074138
773.224407	0.073802
773.418836	0.073820
773.613247	0.073790
773.807640	0.073809
774.002014	0.073503
774.196370	0.073558
774.390708	0.073681
774.585028	0.073841
774.779330	0.073922
774.973613	0.074080
775.167878	0.074089
775.362125	0.074242
775.556354	0.074472
775.750564	0.074522
775.944756	0.074561
776.138930	0.074439
776.333086	0.074319
776.527223	0.074423
776.721343	0.074534
776.915444	0.074466
777.109526	0.074369
777.303591	0.074289
777.497637	0.074323
777.691666	0.074223
777.885676	0.074342
778.079667	0.074414
778.273641	0.074356
778.467596	0.074354
778.661533	0.074446
778.855452	0.074373
779.049352	0.074259
779.243235	0.074079
779.437099	0.074079
779.630945	0.073905
779.824773	0.073758
780.018582	0.073490
780.212373	0.073259
780.406146	0.073144
780.599901	0.073002
780.793638	0.072830
780.987356	0.072815
781.181056	0.072615
781.374738	0.072602
781.568402	0.072589
781.762047	0.072903
781.955674	0.073011
782.149283	0.072905
782.342874	0.072882
782.536447	0.072909
782.730001	0.073025
782.923537	0.072991
783.117055	0.072781
783.310555	0.072578
783.504036	0.072292
783.697499	0.072408
783.890944	0.072453
784.084371	0.072634
784.277780	0.072757
784.471170	0.072688
784.664542	0.072813
784.857896	0.072825
785.051231	0.073012
785.244549	0.073199
785.437848	0.073150
785.631129	0.073089
785.824392	0.073149
786.017636	0.073184
786.210863	0.073347
786.404071	0.073298
786.597260	0.073489
786.790432	0.073401
786.983585	0.073131
787.176721	0.073060
787.369838	0.072979
787.562936	0.072686
787.756017	0.072586
787.949079	0.072482
788.142123	0.072327
788.335149	0.072035
788.528156	0.071919
788.721146	0.071903
788.914117	0.071714
789.107070	0.071565
789.300005	0.071487
789.492921	0.071351
789.685819	0.071167
789.878699	0.071258
790.071561	0.071478
790.264405	0.071664
790.457230	0.071825
790.650037	0.071979
790.842826	0.072406
791.035597	0.072566
791.228349	0.072863
791.421084	0.072938
791.613800	0.073063
791.806497	0.073254
791.999177	0.073342
792.191838	0.073485
792.384481	0.073639
792.577106	0.073722
792.769713	0.073858
792.962301	0.073986
793.154871	0.074202
793.347423	0.074325
793.539957	0.074376
793.732473	0.074349
793.924970	0.074400
794.117449	0.074536
794.309910	0.074571
794.502353	0.074738
794.694777	0.074792
794.887183	0.074893
795.079571	0.075028
795.271941	0.075104
795.464293	0.075387
795.656626	0.075530
795.848941	0.075453
796.041238	0.075525
796.233516	0.075504
796.425777	0.075521
796.618019	0.075690
796.810243	0.075781
797.002449	0.075706
797.194636	0.075904
797.386805	0.075749
797.578956	0.075919
797.771089	0.076113
797.963204	0.076102
798.155300	0.076228
798.347378	0.076195
798.539438	0.076246
798.731480	0.076497
798.923503	0.076436
799.115509	0.076651
799.307496	0.076496
799.499465	0.076368
799.691415	0.076552
799.883348	0.076319
800.075262	0.076189
800.267158	0.076122
800.459035	0.076171
800.650895	0.076073
800.842736	0.076015
801.034559	0.076181
801.226364	0.076398
801.418150	0.076382
801.609919	0.076443
801.801669	0.076680
801.993401	0.076698
802.185114	0.076759
802.376810	0.076809
802.568487	0.076934
802.760146	0.076726
802.951787	0.076612
803.143409	0.076794
803.335014	0.076986
803.526600	0.076855
803.718168	0.076947
803.909717	0.076840
804.101249	0.077021
804.292762	0.077077
804.484257	0.077414
804.675734	0.077573
804.867192	0.077475
805.058632	0.077563
805.250054	0.077842
805.441458	0.078123
805.632844	0.078389
805.824211	0.078349
806.015561	0.078461
806.206891	0.078600
806.398204	0.078572
806.589499	0.078676
806.780775	0.078596
806.972033	0.078510
807.163273	0.078553
807.354495	0.078654
807.545698	0.078747
807.736883	0.078811
807.928050	0.078853
808.119199	0.078947
808.310329	0.079145
808.501441	0.079397
808.692535	0.079569
808.883611	0.079493
809.074669	0.079392
809.265708	0.079495
809.456729	0.079525
809.647732	0.079458
809.838717	0.079525
810.029683	0.079635
810.220632	0.079814
810.411562	0.079748
810.602474	0.079892
810.793367	0.080173
810.984242	0.080294
811.175100	0.080377
811.365938	0.080506
811.556759	0.080603
811.747562	0.080695
811.938346	0.080878
812.129112	0.081163
812.319860	0.081471
812.510589	0.081600
812.701300	0.081863
812.891994	0.082068
813.082668	0.082407
813.273325	0.082603
813.463964	0.082728
813.654584	0.082779
813.845186	0.083171
814.035769	0.083184
814.226335	0.083492
814.416882	0.083724
814.607411	0.084080
814.797922	0.084207
814.988415	0.084397
815.178889	0.084756
815.369345	0.085019
815.559783	0.085011
815.750203	0.084924
815.940605	0.084820
816.130988	0.084815
816.321353	0.084754
816.511700	0.084786
816.702028	0.084629
816.892339	0.084567
817.082631	0.084474
817.272905	0.084451
817.463161	0.084630
817.653398	0.084509
817.843617	0.084757
818.033819	0.084975
818.224001	0.084998
818.414166	0.085322
818.604312	0.085589
818.794440	0.085540
818.984550	0.085649
819.174642	0.086175
819.364716	0.086449
819.554771	0.086388
819.744808	0.086414
819.934827	0.086545
820.124827	0.086669
820.314810	0.086543
820.504774	0.086746
820.694720	0.086918
820.884647	0.086895
821.074557	0.087056
821.264448	0.087430
821.454321	0.087555
821.644176	0.087677
821.834012	0.087724
822.023831	0.088046
822.213631	0.088228
822.403413	0.088434
822.593176	0.088405
822.782922	0.088581
822.972649	0.088530
823.162358	0.088546
823.352049	0.088675
823.541721	0.088934
823.731376	0.088902
823.921012	0.089051
824.110629	0.089144
824.300229	0.089277
824.489811	0.089409
824.679374	0.089482
824.868919	0.089608
825.058445	0.089860
825.247954	0.089938
825.437444	0.090225
825.626916	0.090667
825.816370	0.090780
826.005806	0.090787
826.195223	0.090956
826.384622	0.091096
826.574003	0.091199
826.763366	0.091408
826.952711	0.091664
827.142037	0.091780
827.331345	0.091715
827.520635	0.092016
827.709906	0.092421
827.899160	0.092660
828.088395	0.092864
828.277612	0.093276
828.466810	0.093468
828.655991	0.093785
828.845153	0.093905
829.034297	0.094087
829.223423	0.094162
829.412531	0.094235
829.601620	0.094060
829.790691	0.094156
829.979744	0.094274
830.168779	0.094302
830.357795	0.094184
830.546793	0.094378
830.735773	0.094293
830.924735	0.094434
831.113679	0.094569
831.302604	0.095074
831.491511	0.095103
831.680400	0.095479
831.869271	0.095712
832.058123	0.096095
832.246957	0.095910
832.435773	0.096228
832.624571	0.095981
832.813351	0.096014
833.002112	0.096127
833.190855	0.096437
833.379580	0.096177
833.568287	0.096423
833.756975	0.096348
833.945645	0.096725
834.134297	0.097151
834.322931	0.097553
834.511547	0.097821
834.700144	0.097836
834.888723	0.097899
835.077284	0.098072
835.265826	0.097964
835.454351	0.098149
835.642857	0.098383
835.831345	0.098289
836.019815	0.098819
836.208266	0.099149
836.396699	0.099440
836.585114	0.099947
836.773511	0.100252
836.961890	0.100823
837.150250	0.100991
837.338592	0.100926
837.526916	0.101105
837.715222	0.101133
837.903510	0.101227
838.091779	0.101372
838.280030	0.101259
838.468263	0.101351
838.656477	0.101310
838.844674	0.101647
839.032852	0.101936
839.221012	0.101890
839.409153	0.102165
839.597277	0.102452
839.785382	0.102421
839.973469	0.102580
840.161538	0.102722
840.349589	0.102953
840.537621	0.103142
840.725635	0.103381
840.913631	0.103843
841.101609	0.103949
841.289568	0.104016
841.477509	0.104559
841.665432	0.104902
841.853337	0.105185
842.041224	0.105445
842.229092	0.105633
842.416942	0.105929
842.604774	0.106186
842.792588	0.106343
842.980383	0.106544
843.168160	0.106439
843.355919	0.106759
843.543660	0.107053
843.731382	0.107398
843.919087	0.107705
844.106773	0.108220
844.294441	0.108549
844.482090	0.108744
844.669722	0.109084
844.857335	0.109347
845.044930	0.109404
845.232507	0.109704
845.420065	0.109664
845.607605	0.109886
845.795127	0.109664
845.982631	0.110153
846.170117	0.110632
846.357584	0.110716
846.545033	0.110823
846.732464	0.111135
846.919877	0.111266
847.107272	0.111454
847.294648	0.111533
847.482006	0.111819
847.669346	0.111394
847.856667	0.111272
848.043971	0.111387
848.231256	0.111695
848.418523	0.111918
848.605771	0.112099
848.793002	0.112685
848.980214	0.112736
849.167408	0.113000
849.354584	0.113253
849.541742	0.113409
849.728881	0.113650
849.916002	0.113799
850.103105	0.113718
850.290190	0.113571
850.477256	0.113524
850.664304	0.113663
850.851334	0.113691
851.038346	0.113797
851.225340	0.113739
851.412315	0.113880
851.599272	0.114185
851.786211	0.114403
851.973132	0.114740
852.160034	0.114507
852.346918	0.114785
852.533784	0.115045
852.720632	0.115397
852.907462	0.115772
853.094273	0.116004
853.281066	0.116064
853.467841	0.115786
853.654598	0.115896
853.841336	0.116266
854.028056	0.116495
854.214758	0.116485
854.401442	0.116395
854.588107	0.116616
854.774755	0.116525
854.961384	0.116776
855.147995	0.117230
855.334587	0.117597
855.521162	0.117606
855.707718	0.117405
855.894256	0.117244
856.080775	0.117812
856.267277	0.117917
856.453760	0.118351
856.640225	0.118392
856.826672	0.118936
857.013101	0.119331
857.199511	0.119722
857.385903	0.119759
857.572277	0.120248
857.758633	0.120370
857.944970	0.120560
858.131290	0.120759
858.317591	0.120908
858.503873	0.120928
858.690138	0.120707
858.876384	0.120730
859.062612	0.121113
859.248822	0.121218
859.435014	0.121335
859.621188	0.121433
859.807343	0.121509
859.993480	0.122064
860.179599	0.122199
860.365699	0.122522
860.551781	0.122983
860.737846	0.123364
860.923891	0.123624
861.109919	0.123831
861.295929	0.123924
861.481920	0.124094
861.667893	0.124142
861.853848	0.124269
862.039784	0.124450
862.225702	0.124650
862.411603	0.124833
862.597484	0.125250
862.783348	0.125252
862.969193	0.125579
863.155021	0.125690
863.340830	0.125861
863.526620	0.126257
863.712393	0.126185
863.898147	0.126166
864.083883	0.126347
864.269601	0.126357
864.455301	0.126525
864.640982	0.126722
864.826645	0.126676
865.012290	0.126504
865.197917	0.126834
865.383526	0.127054
865.569116	0.127230
865.754688	0.127208
865.940242	0.127489
866.125777	0.127568
866.311295	0.127742
866.496794	0.128173
866.682275	0.128299
866.867737	0.128139
867.053182	0.128092
867.238608	0.128304
867.424016	0.128465
867.609406	0.128582
867.794778	0.128734
867.980131	0.128620
868.165466	0.128621
868.350783	0.128991
868.536082	0.128972
868.721362	0.129321
868.906625	0.128991
869.091869	0.129122
869.277094	0.128961
869.462302	0.128985
869.647491	0.129503
869.832662	0.129822
870.017815	0.129983
870.202950	0.130224
870.388066	0.130265
870.573165	0.130754
870.758245	0.130952
870.943306	0.131089
871.128350	0.131348
871.313375	0.131411
871.498382	0.131159
871.683371	0.131194
871.868342	0.131141
872.053294	0.131323
872.238229	0.131469
872.423144	0.131529
872.608042	0.131806
872.792922	0.132000
872.977783	0.131967
873.162626	0.132153
873.347451	0.132115
873.532258	0.132401
873.717046	0.132520
873.901816	0.132640
874.086568	0.132680
874.271302	0.132397
874.456017	0.132303
874.640715	0.132329
874.825394	0.132675
875.010055	0.133047
875.194697	0.133028
875.379322	0.133205
875.563928	0.133177
875.748516	0.133284
875.933085	0.133693
876.117637	0.133557
876.302170	0.133574
876.486685	0.133468
876.671182	0.133184
876.855661	0.133168
877.040121	0.133068
877.224563	0.133186
877.408987	0.133249
877.593393	0.133314
877.777780	0.133919
877.962150	0.134164
878.146501	0.134460
878.330833	0.134668
878.515148	0.135241
878.699444	0.135534
878.883722	0.135514
879.067982	0.135686
879.252224	0.135604
879.436447	0.135710
879.620653	0.135912
879.804840	0.136159
879.989008	0.136477
880.173159	0.136245
880.357291	0.136176
880.541405	0.136401
880.725501	0.136583
880.909579	0.137011
881.093638	0.137007
881.277680	0.136928
881.461703	0.137013
881.645707	0.137255
881.829694	0.137324
882.013662	0.137776
882.197612	0.137917
882.381544	0.137913
882.565458	0.138162
882.749353	0.138222
882.933230	0.138537
883.117089	0.138689
883.300930	0.138705
883.484753	0.138711
883.668557	0.138781
883.852343	0.138870
884.036111	0.138940
884.219861	0.138798
884.403592	0.138829
884.587305	0.139016
884.771000	0.138923
884.954677	0.138745
885.138335	0.138913
885.321976	0.138789
885.505598	0.138519
885.689201	0.138744
885.872787	0.138576
886.056354	0.138520
886.239904	0.138252
886.423434	0.138157
886.606947	0.138161
886.790442	0.138282
886.973918	0.138330
887.157376	0.138463
887.340816	0.138237
887.524237	0.138366
887.707641	0.138536
887.891026	0.138381
888.074393	0.138348
888.257741	0.138349
888.441072	0.138177
888.624384	0.138108
888.807678	0.138054
888.990954	0.137796
889.174211	0.137510
889.357451	0.137043
889.540672	0.137188
889.723875	0.136967
889.907059	0.137115
890.090226	0.137046
890.273374	0.136988
890.456504	0.136824
890.639616	0.136683
890.822709	0.136930
891.005785	0.136881
891.188842	0.136689
891.371881	0.136962
891.554901	0.136921
891.737904	0.136759
891.920888	0.136816
892.103854	0.136910
892.286802	0.137267
892.469731	0.136825
892.652643	0.137112
892.835536	0.137142
893.018410	0.136849
893.201267	0.136850
893.384106	0.136977
893.566926	0.136856
893.749728	0.136753
893.932511	0.136965
894.115277	0.137034
894.298024	0.137086
894.480753	0.137141
894.663464	0.137200
894.846157	0.136571
895.028831	0.136473
895.211487	0.136558
895.394125	0.136419
895.576745	0.136084
895.759346	0.136206
895.941930	0.135894
896.124495	0.135709
896.307041	0.135473
896.489570	0.135705
896.672080	0.135629
896.854573	0.135122
897.037046	0.135350
897.219502	0.135290
897.401940	0.135240
897.584359	0.135288
897.766760	0.135206
897.949143	0.135270
898.131507	0.135049
898.313854	0.134618
898.496182	0.134335
898.678492	0.134080
898.860783	0.133757
899.043057	0.133671
899.225312	0.133285
899.407549	0.133005
899.589768	0.132435
899.771968	0.132340
899.954151	0.132428
900.136315	0.132926
900.318461	0.132555
900.500588	0.132652
900.682698	0.132824
900.864789	0.132865
901.046862	0.132796
901.228917	0.133186
901.410953	0.132820
901.592971	0.132527
901.774972	0.132032
901.956953	0.132261
902.138917	0.131866
902.320862	0.131183
902.502790	0.130636
902.684699	0.130203
902.866589	0.129871
903.048462	0.129720
903.230316	0.130184
903.412152	0.130060
903.593970	0.129817
903.775770	0.129945
903.957551	0.130002
904.139314	0.130285
904.321059	0.130809
904.502786	0.130457
904.684494	0.130327
904.866185	0.129674
905.047857	0.129343
905.229510	0.129060
905.411146	0.128623
905.592763	0.128012
905.774363	0.128120
905.955943	0.127446
906.137506	0.127388
906.319051	0.127400
906.500577	0.127152
906.682085	0.127323
906.863575	0.127337
907.045046	0.127038
907.226500	0.127301
907.407935	0.126495
907.589352	0.126419
907.770750	0.126342
907.952131	0.126292
908.133493	0.126234
908.314837	0.125826
908.496163	0.125765
908.677470	0.126496
908.858760	0.126030
909.040031	0.126221
909.221284	0.126261
909.402518	0.125847
909.583735	0.125495
909.764933	0.125375
909.946113	0.125259
910.127275	0.124869
910.308418	0.123955
910.489544	0.123712
910.670651	0.123189
910.851740	0.122726
911.032810	0.122724
911.213863	0.122791
911.394897	0.122639
911.575913	0.122428
911.756911	0.121361
911.937890	0.121353
912.118851	0.121473
912.299794	0.121244
912.480719	0.120768
912.661626	0.120853
912.842514	0.120554
913.023384	0.120240
913.204236	0.119945
913.385070	0.120373
913.565886	0.119997
913.746683	0.119452
913.927462	0.119252
914.108223	0.119215
914.288965	0.118657
914.469690	0.118358
914.650396	0.117691
914.831084	0.117457
915.011754	0.117133
915.192405	0.116695
915.373038	0.116114
915.553653	0.115560
915.734250	0.115264
915.914829	0.114561
916.095389	0.114037
916.275931	0.114059
916.456455	0.113538
916.636961	0.113294
916.817448	0.113273
916.997917	0.113482
917.178368	0.113670
917.358801	0.113047
917.539216	0.113086
917.719612	0.113100
917.899990	0.112718
918.080350	0.112237
918.260692	0.111615
918.441015	0.111201
918.621320	0.110828
918.801607	0.110243
918.981876	0.110334
919.162127	0.109855
919.342359	0.109437
919.522573	0.109276
919.702769	0.109302
919.882947	0.109252
920.063106	0.108902
920.243247	0.108502
920.423370	0.108382
920.603475	0.108190
920.783562	0.108139
920.963630	0.107417
921.143680	0.106848
921.323712	0.106385
921.503725	0.106248
921.683721	0.105473
921.863698	0.105044
922.043657	0.104903
922.223598	0.104229
922.403520	0.103434
922.583424	0.103118
922.763311	0.102472
922.943178	0.102474
923.123028	0.101620
923.302859	0.101584
923.482673	0.101376
923.662467	0.100854
923.842244	0.100836
924.022003	0.100580
924.201743	0.099926
924.381465	0.100036
924.561169	0.098785
924.740854	0.098966
924.920522	0.098377
925.100171	0.098052
925.279802	0.097120
925.459414	0.096490
925.639009	0.096840
925.818585	0.096605
925.998143	0.095967
926.177683	0.096228
926.357205	0.095788
926.536708	0.095967
926.716193	0.095205
926.895660	0.095068
927.075109	0.094337
927.254539	0.093337
927.433951	0.093248
927.613345	0.092479
927.792721	0.092052
927.972079	0.090942
928.151418	0.089840
928.330739	0.089828
928.510042	0.089363
928.689327	0.089194
928.868593	0.088634
929.047841	0.087950
929.227071	0.087754
929.406283	0.087164
929.585476	0.087196
929.764652	0.086490
929.943809	0.085572
930.122948	0.085345
930.302068	0.084423
930.481171	0.084217
930.660255	0.083827
930.839321	0.083171
931.018369	0.082597
931.197398	0.082198
931.376409	0.082319
931.555402	0.082089
931.734377	0.081835
931.913334	0.081658
932.092272	0.080702
932.271192	0.080283
932.450094	0.080067
932.628978	0.079209
932.807844	0.078442
932.986691	0.077605
933.165520	0.076883
933.344331	0.076474
933.523123	0.075854
933.701898	0.075064
933.880654	0.074193
934.059392	0.074014
934.238111	0.073663
934.416813	0.072814
934.595496	0.072009
934.774161	0.071779
934.952808	0.070629
935.131437	0.070024
935.310047	0.069904
935.488639	0.069696
935.667213	0.068566
935.845769	0.068435
936.024306	0.068484
936.202825	0.068162
936.381326	0.067979
936.559809	0.067181
936.738274	0.066804
936.916720	0.066198
937.095148	0.065597
937.273558	0.065380
937.451950	0.065195
937.630323	0.064329
937.808678	0.063955
937.987015	0.062889
938.165334	0.062608
938.343635	0.062196
938.521917	0.062174
938.700181	0.061992
938.878427	0.061079
939.056655	0.059832
939.234864	0.059751
939.413055	0.059799
939.591228	0.059865
939.769383	0.059802
939.947519	0.059695
940.125638	0.059315
940.303738	0.058687
940.481820	0.059093
940.659883	0.058472
940.837929	0.057939
941.015956	0.056979
941.193965	0.056825
941.371955	0.056215
941.549928	0.055761
941.727882	0.054313
941.905818	0.053030
942.083736	0.052288
942.261636	0.052330
942.439517	0.051624
942.617380	0.051309
942.795225	0.049220
942.973052	0.048507
943.150860	0.047423
943.328651	0.047590
943.506423	0.047481
943.684176	0.045857
943.861912	0.045092
944.039629	0.044948
944.217328	0.043909
944.395009	0.044025
944.572672	0.043662
944.750317	0.042928
944.927943	0.041532
945.105551	0.040870
945.283141	0.041400
945.460712	0.040604
945.638265	0.038546
945.815801	0.038226
945.993317	0.037286
946.170816	0.036282
946.348297	0.035969
946.525759	0.035848
946.703203	0.035125
946.880629	0.034498
947.058036	0.033846
947.235425	0.033838
947.412797	0.033480
947.590149	0.033266
947.767484	0.033902
947.944800	0.032797
948.122099	0.032512
948.299379	0.032012
948.476640	0.031298
948.653884	0.031250
948.831109	0.031150
949.008316	0.030253
949.185505	0.029615
949.362676	0.028051
949.539828	0.027724
949.716962	0.026881
949.894078	0.027246
950.071176	0.026290
950.248256	0.026318
950.425317	0.025403
950.602360	0.025190
950.779385	0.023376
950.956391	0.022446
951.133380	0.021041
951.310350	0.020890
951.487302	0.020234
951.664235	0.020067
951.841151	0.019324
952.018048	0.020068
952.194927	0.019314
952.371788	0.020259
952.548631	0.021227
952.725455	0.021544
952.902261	0.020958
953.079049	0.020884
953.255819	0.020002
953.432570	0.020363
953.609303	0.018310
953.786018	0.018448
953.962715	0.018673
954.139394	0.017054
954.316054	0.016308
954.492696	0.014338
954.669320	0.013255
954.845926	0.014464
955.022513	0.012510
955.199083	0.013714
955.375634	0.011862
955.552166	0.011513
955.728681	0.011830
955.905177	0.012698
956.081655	0.014876
956.258115	0.014898
956.434557	0.013349
956.610980	0.014822
956.787385	0.014578
956.963772	0.015509
957.140141	0.015081
957.316492	0.015823
957.492824	0.015321
957.669138	0.014317
957.845434	0.012479
958.021712	0.012715
958.197971	0.010538
958.374212	0.008319
958.550435	0.007886
958.726640	0.006609
958.902826	0.004999
959.078995	0.004932
959.255145	0.004091
959.431277	0.002796
959.607390	0.001572
959.783486	0.001212
959.959563	0.001449
960.135622	0.001614
960.311662	0.001800
960.487685	0.001547
960.663689	0.000190
960.839675	-0.000452
961.015643	0.002331
961.191593	0.002669
961.367524	0.004302
961.543437	0.002993
961.719332	0.002608
961.895209	0.000929
962.071067	0.002798
962.246907	0.003996
962.422730	0.006173
962.598533	0.005206
962.774319	0.004022
962.950086	0.003804
963.125835	0.005574
963.301566	0.005389
963.477279	0.007734
963.652973	0.006406
963.828650	0.005465
964.004308	0.004057
964.179947	0.003925
964.355569	0.006069
964.531172	0.004159
964.706757	0.003392
964.882324	0.002115
965.057873	0.001595
965.233403	0.000380
965.408916	0.001606
965.584410	0.003703
965.759885	0.004348
965.935343	0.003696
966.110782	0.005029
966.286203	0.003726
966.461606	0.003411
966.636991	0.002728
966.812357	0.003392
966.987705	0.002879
967.163035	0.000779
967.338347	0.000776
967.513641	0.000084
967.688916	-0.000584
967.864173	-0.001040
968.039412	-0.000080
968.214632	0.002653
968.389835	0.003782
968.565019	0.001009
968.740185	0.000306
968.915333	0.000682
969.090462	0.002186
969.265573	0.000809
969.440667	0.002989
969.615741	0.003256
969.790798	0.001775
969.965836	0.001538
970.140856	0.003542
970.315858	0.006124
970.490842	0.005350
970.665808	0.003631
970.840755	0.004618
971.015684	0.004412
971.190595	0.005029
971.365487	0.003208
971.540362	0.001470
971.715218	-0.000119
971.890056	-0.002508
972.064875	-0.001442
972.239677	-0.001389
972.414460	-0.001036
972.589225	0.000065
972.763972	-0.000993
972.938700	0.000342
973.113411	0.000503
973.288103	0.002584
973.462777	0.003959
973.637432	0.002601
973.812070	0.004154
973.986689	0.002221
974.161290	0.001302
974.335873	0.001974
974.510437	0.001572
974.684984	0.002422
974.859512	0.002261
975.034022	0.001374
975.208513	0.001796
975.382987	0.000775
975.557442	0.002614
975.731879	0.003123
975.906298	0.002683
976.080698	0.002809
976.255080	0.002825
976.429445	0.003793
976.603790	0.005380
976.778118	0.006675
976.952427	0.007313
977.126719	0.008914
977.300992	0.006905
977.475246	0.007362
977.649483	0.005942
977.823701	0.006213
977.997901	0.004482
978.172083	0.003962
978.346247	0.004787
978.520392	0.004208
978.694519	0.002642
978.868628	0.005411
979.042719	0.006384
979.216791	0.007229
979.390845	0.006158
979.564882	0.007015
979.738899	0.006017
979.912899	0.002530
980.086880	0.004364
980.260843	0.004690
980.434788	0.002762
980.608715	0.000393
980.782623	0.001462
980.956514	0.002297
981.130386	0.002016
981.304240	0.003114
981.478075	0.004735
981.651892	0.001779
981.825692	0.001303
981.999472	0.003327
982.173235	0.002564
982.346980	0.003123
982.520706	0.002202
982.694414	0.001464
982.868104	0.000388
983.041775	-0.001332
983.215428	0.001711
983.389064	0.001695
983.562680	0.000324
983.736279	0.000938
983.909860	0.000323
984.083422	0.000109
984.256966	0.002220
984.430491	0.003017
984.603999	0.004005
984.777488	0.002796
984.950959	0.002971
985.124412	0.004025
985.297847	0.005949
985.471263	0.004424
985.644661	0.005805
985.818041	0.003318
985.991403	0.001944
986.164747	0.002799
986.338072	0.001960
986.511379	0.001852
986.684668	0.000639
986.857938	0.000216
987.031191	-0.000156
987.204425	-0.002379
987.377641	-0.002093
987.550839	-0.000854
987.724018	-0.000954
987.897179	-0.000741
988.070322	-0.000756
988.243447	0.000178
988.416554	0.000800
988.589642	0.001673
988.762712	0.001278
988.935764	0.000107
989.108798	-0.000303
989.281813	-0.001614
989.454811	-0.000629
989.627790	0.000976
989.800751	0.000765
989.973693	-0.001120
990.146617	-0.000692
990.319524	0.002003
990.492412	0.003366
990.665281	0.002346
990.838133	0.004454
991.010966	0.003815
991.183781	0.001765
991.356578	0.000320
991.529356	0.001879
991.702117	0.000008
991.874859	-0.001786
992.047583	0.000178
992.220288	0.001481
992.392976	0.001251
992.565645	0.000556
992.738296	0.000915
992.910929	0.002844
993.083543	0.002018
993.256139	0.003968
993.428718	0.004188
993.601277	0.003416
993.773819	0.002083
993.946342	0.001636
994.118848	0.000396
994.291335	0.000370
994.463803	-0.000948
994.636254	0.000291
994.808686	0.000580
994.981100	0.001404
995.153496	0.000983
995.325874	0.002107
995.498233	0.001940
995.670574	0.002997
995.842897	0.002721
996.015202	0.004035
996.187488	0.004066
996.359757	0.003599
996.532007	0.003697
996.704239	0.003667
996.876452	0.002889
997.048648	0.001500
997.220825	0.000815
997.392984	0.001385
997.565124	0.000820
997.737247	0.000012
997.909351	0.000380
998.081437	-0.000574
998.253505	-0.000834
998.425554	0.000344
998.597586	0.002182
998.769599	0.003607
998.941594	0.002445
999.113571	0.001056
999.285529	0.001179
999.457469	0.000657
999.629391	0.000269
999.801295	0.001613
999.973181	0.000148
1000.145048	-0.000982
1000.316897	-0.001470
1000.488728	0.000046
1000.660541	0.001095
1000.832335	-0.000470
1001.004111	-0.000141
1001.175869	0.001546
1001.347609	0.001685
1001.519331	0.003050
1001.691034	0.003525
1001.862719	0.003076
1002.034386	0.003959
1002.206035	0.003610
1002.377665	0.004948
1002.549277	0.003792
1002.720871	0.002494
1002.892447	0.000068
1003.064004	0.001021
1003.235544	0.001842
1003.407065	0.003347
1003.578568	0.001443
1003.750052	0.001190
1003.921519	0.000766
1004.092967	0.001837
1004.264397	0.001922
1004.435809	0.003509
1004.607202	0.001603
1004.778577	0.000436
1004.949934	-0.000856
1005.121273	-0.000899
1005.292594	-0.000371
1005.463896	-0.000273
1005.635180	-0.000436
1005.806446	-0.000553
1005.977694	0.000551
1006.148923	0.001113
1006.320135	0.001687
1006.491328	0.001245
1006.662503	0.002314
1006.833659	0.001680
1007.004798	0.001139
1007.175918	0.000911
1007.347020	0.002569
1007.518103	0.002382
1007.689169	0.001837
1007.860216	0.001442
1008.031245	0.002560
1008.202256	0.001007
1008.373248	0.001027
1008.544223	0.001662
1008.715179	0.002285
1008.886117	0.000289
1009.057036	-0.001664
1009.227938	-0.001157
1009.398821	-0.000676
1009.569686	-0.001701
1009.740533	-0.000621
1009.911361	0.001381
1010.082172	0.001459
1010.252964	-0.000244
1010.423738	0.000450
1010.594493	0.001107
1010.765231	0.000121
1010.935950	0.000983
1011.106651	0.000798
1011.277334	0.000343
1011.447998	-0.001829
1011.618645	-0.001381
1011.789273	0.000143
1011.959882	0.001235
1012.130474	0.000089
1012.301048	0.000878
1012.471603	-0.000993
1012.642140	-0.001053
1012.812658	-0.000414
1012.983159	0.000684
1013.153641	-0.001187
1013.324105	-0.000030
1013.494551	-0.001415
1013.664979	0.000761
1013.835388	0.000613
1014.005779	-0.000103
1014.176152	-0.000594
1014.346507	-0.001811
1014.516843	-0.003704
1014.687162	-0.001309
1014.857462	-0.002215
1015.027744	-0.001142
1015.198007	-0.002937
1015.368252	-0.002385
1015.538480	-0.000573
1015.708689	0.001346
1015.878879	0.002740
1016.049052	0.005034
1016.219206	0.003514
1016.389342	0.002615
1016.559460	0.001971
1016.729559	0.002046
1016.899641	0.001558
1017.069704	0.001440
1017.239749	-0.000088
1017.409775	-0.001319
1017.579784	-0.002011
1017.749774	-0.003119
1017.919746	-0.002289
1018.089700	-0.003190
1018.259635	-0.002566
1018.429553	-0.002053
1018.599452	-0.003593
1018.769333	-0.002774
1018.939195	-0.002420
1019.109040	-0.003271
1019.278866	-0.001437
1019.448674	-0.001194
1019.618464	-0.000267
1019.788235	-0.000844
1019.957989	-0.000929
1020.127724	0.001056
1020.297441	0.001427
1020.467139	0.001160
1020.636820	0.001983
1020.806482	-0.000164
1020.976126	-0.000496
1021.145752	0.000022
1021.315359	0.000607
1021.484948	-0.001530
1021.654519	-0.003964
1021.824072	-0.004670
1021.993607	-0.003474
1022.163123	-0.003885
1022.332621	-0.001949
1022.502101	-0.002860
1022.671563	-0.004190
1022.841007	-0.003789
1023.010432	-0.002318
1023.179839	-0.000744
1023.349228	0.000596
1023.518598	-0.001491
1023.687951	-0.001360
1023.857285	-0.002814
1024.026601	-0.002020
1024.195899	-0.000649
1024.365178	-0.001966
1024.534439	-0.001076
1024.703682	-0.001917
1024.872907	-0.003017
1025.042114	-0.003238
1025.211302	-0.003230
1025.380472	-0.000988
1025.549624	-0.001784
1025.718758	-0.002677
1025.887873	-0.002214
1026.056970	-0.004630
1026.226049	-0.004053
1026.395110	-0.003870
1026.564153	-0.001860
1026.733177	-0.000911
1026.902183	-0.003353
1027.071171	-0.003224
1027.240141	-0.003677
1027.409092	-0.004390
1027.578026	-0.003597
1027.746940	-0.003383
1027.915837	-0.002924
1028.084716	-0.003411
1028.253576	-0.004982
1028.422418	-0.004338
1028.591242	-0.005001
1028.760048	-0.002878
1028.928835	-0.002535
1029.097604	-0.001764
1029.266355	-0.003176
1029.435088	-0.004358
1029.603803	-0.003494
1029.772499	-0.001973
1029.941177	-0.000942
1030.109837	0.000031
1030.278478	-0.000699
1030.447102	0.000088
1030.615707	-0.000151
1030.784294	0.000762
1030.952863	0.000199
1031.121413	-0.001376
1031.289945	-0.000945
1031.458460	-0.000006
1031.626955	-0.000640
1031.795433	-0.000914
1031.963892	-0.001541
1032.132334	-0.002383
1032.300756	-0.002806
1032.469161	-0.002607
1032.637548	-0.001544
1032.805916	-0.003730
1032.974266	-0.004467
1033.142598	-0.004159
1033.310911	-0.005393
1033.479207	-0.003680
1033.647484	-0.001771
1033.815743	-0.000499
1033.983983	0.000214
1034.152206	-0.000511
1034.320410	0.000346
1034.488596	0.000529
1034.656764	0.000971
1034.824914	0.000679
1034.993045	0.000765
1035.161158	0.001595
1035.329253	0.001050
1035.497330	-0.000622
1035.665388	-0.000883
1035.833428	-0.002282
1036.001450	-0.004079
1036.169454	-0.004775
1036.337440	-0.004560
1036.505407	-0.006072
1036.673356	-0.007895
1036.841287	-0.008619
1037.009200	-0.007439
1037.177094	-0.007035
1037.344970	-0.005910
1037.512828	-0.004047
1037.680668	-0.002602
1037.848489	-0.001099
1038.016293	-0.002063
1038.184078	-0.002378
1038.351845	-0.003649
1038.519593	-0.005085
1038.687324	-0.004281
1038.855036	-0.004668
1039.022730	-0.006990
1039.190406	-0.007444
1039.358063	-0.007934
1039.525702	-0.008200
1039.693323	-0.007825
1039.860926	-0.005423
1040.028511	-0.003907
1040.196077	-0.005910
1040.363625	-0.004685
1040.531155	-0.004071
1040.698667	-0.004576
1040.866161	-0.005359
1041.033636	-0.004177
1041.201093	-0.003779
1041.368532	-0.002791
1041.535952	-0.001673
1041.703355	-0.000031
1041.870739	-0.000582
1042.038105	0.000468
1042.205452	0.000907
1042.372782	0.001275
1042.540093	0.001887
1042.707386	0.001716
1042.874661	0.000663
1043.041918	0.000756
1043.209156	-0.000329
1043.376376	-0.000160
1043.543578	-0.000314
1043.710762	0.000090
1043.877927	0.001129
1044.045074	-0.000093
1044.212203	-0.000013
1044.379314	-0.000920
1044.546407	-0.001301
1044.713481	-0.000007
1044.880537	0.000268
1045.047575	0.000350
1045.214595	-0.000836
1045.381596	-0.003074
1045.548579	-0.001806
1045.715544	-0.001560
1045.882491	-0.000214
1046.049420	-0.001428
1046.216330	-0.001633
1046.383222	-0.002095
1046.550096	-0.001534
1046.716951	-0.000521
1046.883789	0.000514
1047.050608	0.000738
1047.217409	-0.000173
1047.384192	0.000028
1047.550956	0.001363
1047.717703	0.001041
1047.884431	0.000561
1048.051140	-0.000856
1048.217832	-0.001252
1048.384505	-0.000391
1048.551161	0.000106
1048.717798	0.000790
1048.884416	0.000691
1049.051017	0.000672
1049.217599	0.002319
1049.384163	0.002506
1049.550709	0.004004
1049.717237	0.004777
1049.883746	0.004754
1050.050237	0.004271
1050.216710	0.003922
1050.383165	0.003160
1050.549601	0.002481
1050.716019	0.001925
1050.882420	0.002721
1051.048801	0.002154
1051.215165	0.000853
1051.381510	0.000903
1051.547837	-0.000436
1051.714146	-0.000596
1051.880437	-0.000952
1052.046709	0.000198
1052.212964	0.000376
1052.379200	0.001184
1052.545417	0.001281
1052.711617	0.003807
1052.877798	0.003337
1053.043961	0.003273
1053.210106	0.004906
1053.376233	0.004770
1053.542341	0.003945
1053.708432	0.002481
1053.874504	-0.000064
1054.040557	0.000625
1054.206593	-0.001073
1054.372610	-0.001210
1054.538609	0.000164
1054.704590	-0.001314
1054.870553	-0.002125
1055.036497	-0.003987
1055.202424	-0.003020
1055.368331	-0.000501
1055.534221	0.000282
1055.700093	-0.001110
1055.865946	-0.001056
1056.031781	-0.001342
1056.197598	-0.002420
1056.363397	-0.001430
1056.529177	0.000955
1056.694939	-0.000785
1056.860683	-0.002195
1057.026409	-0.003454
1057.192116	-0.002062
1057.357806	-0.002720
1057.523477	-0.003334
1057.689130	-0.002478
1057.854764	-0.002460
1058.020381	-0.002487
1058.185979	-0.000978
1058.351559	-0.000763
1058.517120	0.000774
1058.682664	0.000530
1058.848189	0.001431
1059.013696	0.000041
1059.179185	0.000614
1059.344656	0.000874
1059.510108	0.000083
1059.675542	-0.000729
1059.840958	-0.001102
1060.006356	-0.002562
1060.171735	-0.002313
1060.337096	-0.002707
1060.502439	-0.000710
1060.667764	-0.001505
1060.833071	-0.002152
1060.998359	-0.003014
1061.163629	-0.002778
1061.328881	-0.002827
1061.494115	-0.002836
1061.659330	-0.003825
1061.824527	-0.003597
1061.989706	-0.002691
1062.154867	-0.002397
1062.320010	-0.003343
1062.485134	0.000678
1062.650240	0.001206
1062.815328	0.002046
1062.980398	0.000342
1063.145449	0.003322
1063.310482	0.003735
1063.475497	0.002101
1063.640494	0.002055
1063.805473	0.003627
1063.970433	0.000018
1064.135375	0.001559
1064.300299	0.001624
1064.465204	0.002078
1064.630092	-0.000129
1064.794961	-0.001549
1064.959812	-0.002105
1065.124645	0.000049
1065.289459	-0.000118
1065.454256	-0.000523
1065.619034	-0.001766
1065.783793	-0.001653
1065.948535	0.000602
1066.113258	0.002184
1066.277964	0.002211
1066.442651	0.003599
1066.607319	0.002299
1066.771970	0.001789
1066.936602	0.002638
1067.101216	0.002237
1067.265812	0.001115
1067.430389	-0.000263
1067.594949	-0.000287
1067.759490	0.001331
1067.924013	0.001043
1068.088518	0.000291
1068.253004	0.002278
1068.417472	0.003578
1068.581922	0.004160
1068.746354	0.005796
1068.910768	0.005590
1069.075163	0.005854
1069.239540	0.005835
1069.403899	0.006308
1069.568240	0.007426
1069.732562	0.006779
1069.896866	0.005077
1070.061152	0.003964
1070.225420	0.004104
1070.389670	0.004542
1070.553901	0.002193
1070.718114	0.001398
1070.882309	0.000162
1071.046486	0.000945
1071.210644	0.001302
1071.374784	0.002086
1071.538906	0.001980
1071.703010	0.001082
1071.867096	0.001058
1072.031163	0.001864
1072.195212	0.001899
1072.359243	0.003185
1072.523256	0.003037
1072.687250	0.001117
1072.851226	0.001546
1073.015184	0.002465
1073.179124	0.003451
1073.343045	0.003280
1073.506949	0.003349
1073.670834	0.003955
1073.834701	0.004450
1073.998549	0.003920
1074.162380	0.005781
1074.326192	0.005596
1074.489986	0.005721
1074.653761	0.003935
1074.817519	0.005472
1074.981258	0.004618
1075.144979	0.003987
1075.308682	0.005060
1075.472367	0.004312
1075.636033	0.005050
1075.799681	0.004636
1075.963311	0.004033
1076.126923	0.005405
1076.290516	0.004645
1076.454092	0.004922
1076.617649	0.005459
1076.781187	0.002866
1076.944708	0.003946
1077.108210	0.001355
1077.271695	0.002175
1077.435160	0.000858
1077.598608	0.000303
1077.762038	-0.000633
1077.925449	-0.001538
1078.088842	-0.003050
1078.252217	-0.001461
1078.415573	-0.001020
1078.578912	-0.000283
1078.742232	-0.003315
1078.905534	-0.001349
1079.068817	-0.000832
1079.232083	-0.001757
1079.395330	-0.000609
1079.558559	0.001091
1079.721770	0.001945
1079.884962	0.002248
1080.048136	0.001142
1080.211293	0.003740
1080.374430	0.004930
1080.537550	0.004249
1080.700651	0.006366
1080.863735	0.006167
1081.026800	0.005166
1081.189846	0.004193
1081.352875	0.001722
1081.515885	0.004520
1081.678877	0.005786
1081.841851	0.003660
1082.004807	0.004585
1082.167744	0.004822
1082.330663	0.006379
1082.493564	0.005311
1082.656447	0.004101
1082.819312	0.004143
1082.982158	0.002460
1083.144986	0.002472
1083.307796	0.003337
1083.470587	0.002400
1083.633361	0.002043
1083.796116	0.002113
1083.958853	0.004736
1084.121571	0.006815
1084.284272	0.007414
1084.446954	0.008042
1084.609618	0.006786
1084.772264	0.008993
1084.934892	0.010657
1085.097501	0.012355
1085.260092	0.011499
1085.422665	0.010571
1085.585220	0.009714
1085.747756	0.013001
1085.910274	0.013381
1086.072774	0.013639
1086.235256	0.011482
1086.397720	0.011737
1086.560165	0.010397
1086.722592	0.011495
1086.885001	0.013377
1087.047392	0.012973
1087.209764	0.008035
1087.372119	0.007516
1087.534455	0.008079
1087.696772	0.007260
1087.859072	0.007381
1088.021353	0.007470
1088.183616	0.007524
1088.345861	0.006065
1088.508088	0.006371
1088.670296	0.009550
1088.832486	0.010296
1088.994658	0.008656
1089.156812	0.008498
1089.318948	0.005799
1089.481065	0.003812
1089.643164	0.001944
1089.805245	0.002393
1089.967308	0.001536
1090.129352	-0.000506
1090.291378	0.000298
1090.453386	0.004397
1090.615376	0.004796
1090.777347	0.005738
1090.939301	0.008772
1091.101236	0.008586
1091.263153	0.010035
1091.425051	0.007531
1091.586932	0.008516
1091.748794	0.006166
1091.910638	0.002039
1092.072463	0.003951
1092.234271	0.004642
1092.396060	0.003852
1092.557831	0.005801
1092.719584	0.005914
1092.881319	0.006148
1093.043035	0.006967
1093.204733	0.008435
1093.366413	0.007391
1093.528075	0.006085
1093.689718	0.006456
1093.851343	0.007459
1094.012950	0.007978
1094.174539	0.007419
1094.336110	0.010590
1094.497662	0.011048
1094.659196	0.009830
1094.820712	0.011233
1094.982210	0.012496
1095.143689	0.013808
1095.305151	0.011769
1095.466594	0.010498
1095.628018	0.010405
1095.789425	0.011708
1095.950813	0.011452
1096.112183	0.013687
1096.273535	0.016570
1096.434869	0.014784
1096.596184	0.010719
1096.757482	0.012182
1096.918761	0.012866
1097.080021	0.010154
1097.241264	0.010764
1097.402488	0.012173
1097.563694	0.010616
1097.724882	0.008732
1097.886052	0.011849
1098.047203	0.014680
1098.208336	0.012176
1098.369451	0.009999
1098.530548	0.011974
1098.691627	0.009764
1098.852687	0.007513
1099.013729	0.009310
1099.174753	0.012892
1099.335758	0.010745
1099.496746	0.009129
1099.657715	0.011724
1099.818666	0.014628
1099.979599	0.016184
1100.140513	0.016944
1100.301409	0.020852
1100.462287	0.019908
1100.623147	0.017455
1100.783989	0.016264
1100.944812	0.017558
1101.105617	0.017174
1101.266404	0.015607
1101.427173	0.013246
1101.587923	0.014824
1101.748656	0.011131
1101.909370	0.010712
1102.070066	0.009738
1102.230743	0.009082
1102.391403	0.010889
1102.552044	0.008920
1102.712667	0.004413
1102.873271	0.006939
1103.033858	0.004408
1103.194426	0.006601
1103.354976	0.006705
1103.515508	0.005242
1103.676021	0.008027
1103.836517	0.005860
1103.996994	0.008826
1104.157453	0.014572
1104.317893	0.012223
1104.478316	0.014519
1104.638720	0.013476
1104.799106	0.014245
1104.959474	0.016900
1105.119823	0.015207
1105.280155	0.016093
1105.440468	0.013715
1105.600763	0.014924
1105.761039	0.016498
1105.921298	0.019049
1106.081538	0.020668
1106.241760	0.020442
1106.401964	0.022611
1106.562149	0.025055
1106.722316	0.025196
1106.882465	0.029003
1107.042596	0.028264
1107.202709	0.029022
1107.362803	0.026989
1107.522879	0.024334
1107.682937	0.024633
1107.842977	0.022102
1108.002999	0.021832
1108.163002	0.022954
1108.322987	0.020419
1108.482954	0.018858
1108.642902	0.020654
1108.802833	0.022316
1108.962745	0.021286
1109.122639	0.020368
1109.282515	0.021198
1109.442372	0.018133
1109.602211	0.016677
1109.762032	0.017097
1109.921835	0.018920
1110.081620	0.018171
1110.241386	0.011630
1110.401134	0.010631
1110.560864	0.015918
1110.720576	0.017887
1110.880269	0.017179
1111.039945	0.019363
1111.199602	0.020200
1111.359240	0.021284
1111.518861	0.021271
1111.678463	0.026932
1111.838047	0.031459
1111.997613	0.027389
1112.157161	0.027435
1112.316690	0.031495
1112.476202	0.031625
1112.635695	0.030181
1112.795169	0.027877
1112.954626	0.030079
1113.114064	0.028691
1113.273484	0.030675
1113.432886	0.031235
1113.592270	0.027839
1113.751635	0.025231
1113.910983	0.023813
1114.070312	0.023032
1114.229622	0.022831
1114.388915	0.016773
1114.548189	0.017545
1114.707445	0.015489
1114.866683	0.014469
1115.025903	0.014890
1115.185104	0.019495
1115.344287	0.017440
1115.503452	0.021238
1115.662599	0.020604
1115.821727	0.026187
1115.980838	0.024142
1116.139930	0.023601
1116.299004	0.021003
1116.458059	0.023904
1116.617097	0.022008
1116.776116	0.023630
1116.935117	0.023589
1117.094099	0.024442
1117.253064	0.020530
1117.412010	0.021065
1117.570938	0.021544
1117.729848	0.024082
1117.888740	0.022908
1118.047613	0.024771
1118.206468	0.025186
1118.365305	0.022704
1118.524124	0.022334
1118.682924	0.023870
1118.841707	0.023618
1119.000471	0.019653
1119.159216	0.017295
1119.317944	0.020257
1119.476653	0.019469
1119.635344	0.023458
1119.794017	0.024070
1119.952672	0.025808
1120.111308	0.025651
1120.269927	0.026121
1120.428527	0.031994
1120.587108	0.036845
1120.745672	0.036096
1120.904217	0.039392
1121.062744	0.034401
1121.221253	0.032728
1121.379744	0.033551
1121.538216	0.028642
1121.696671	0.024792
1121.855107	0.023411
1122.013524	0.025989
1122.171924	0.022583
1122.330305	0.016666
1122.488668	0.012969
1122.647013	0.015304
1122.805340	0.014241
1122.963648	0.015651
1123.121938	0.018900
1123.280210	0.017713
1123.438464	0.017183
1123.596700	0.017342
1123.754917	0.019336
1123.913116	0.025625
1124.071297	0.023309
1124.229459	0.024529
1124.387604	0.024579
1124.545730	0.028008
1124.703838	0.028834
1124.861928	0.028473
1125.019999	0.027034
1125.178052	0.025931
1125.336088	0.024612
1125.494104	0.025651
1125.652103	0.024509
1125.810083	0.028849
1125.968045	0.029305
1126.125989	0.031734
1126.283915	0.030244
1126.441823	0.030375
1126.599712	0.035303
1126.757583	0.037910
1126.915436	0.043782
1127.073270	0.041295
1127.231087	0.042796
1127.388885	0.041482
1127.546665	0.039117
1127.704426	0.041665
1127.862170	0.042745
1128.019895	0.038628
1128.177602	0.038098
1128.335291	0.032407
1128.492961	0.033780
1128.650614	0.030732
1128.808248	0.030390
1128.965864	0.029592
1129.123461	0.027030
1129.281041	0.030645
1129.438602	0.027613
1129.596145	0.028703
1129.753670	0.026701
1129.911176	0.028634
1130.068665	0.026442
1130.226135	0.028904
1130.383587	0.029821
1130.541020	0.028832
1130.698436	0.020541
1130.855833	0.023554
1131.013212	0.019992
1131.170573	0.023390
1131.327915	0.024820
1131.485239	0.032172
1131.642545	0.029620
1131.799833	0.025971
1131.957103	0.022041
1132.114354	0.029796
1132.271588	0.032445
1132.428803	0.030306
1132.585999	0.031797
1132.743178	0.034483
1132.900338	0.030159
1133.057480	0.034557
1133.214604	0.037629
1133.371710	0.038888
1133.528797	0.031934
1133.685866	0.029109
1133.842917	0.032950
1133.999950	0.032442
1134.156964	0.029321
1134.313960	0.030018
1134.470938	0.026840
1134.627898	0.026046
1134.784840	0.028921
1134.941763	0.031471
1135.098668	0.033981
1135.255555	0.030518
1135.412424	0.031874
1135.569274	0.028775
1135.726107	0.030510
1135.882921	0.030040
1136.039716	0.032455
1136.196494	0.033095
1136.353253	0.034358
1136.509995	0.033702
1136.666717	0.035579
1136.823422	0.029558
1136.980109	0.034135
1137.136777	0.032808
1137.293427	0.031844
1137.450059	0.027501
1137.606672	0.029368
1137.763267	0.032451
1137.919844	0.028630
1138.076403	0.033229
1138.232944	0.034333
1138.389466	0.033282
1138.545971	0.034599
1138.702457	0.033796
1138.858924	0.040401
1139.015374	0.039424
1139.171805	0.040081
1139.328218	0.044211
1139.484613	0.044604
1139.640990	0.049569
1139.797348	0.043119
1139.953688	0.043738
1140.110010	0.045877
1140.266314	0.038753
1140.422600	0.036793
1140.578867	0.043782
1140.735116	0.047343
1140.891347	0.045720
1141.047559	0.045343
1141.203754	0.050038
1141.359930	0.048987
1141.516088	0.047251
1141.672228	0.051694
1141.828349	0.053382
1141.984452	0.045931
1142.140537	0.041015
1142.296604	0.038008
1142.452653	0.039364
1142.608683	0.037660
1142.764695	0.039310
1142.920689	0.037991
1143.076665	0.043433
1143.232622	0.045136
1143.388562	0.041870
1143.544483	0.042842
1143.700385	0.045978
1143.856270	0.044095
1144.012136	0.049064
1144.167985	0.041203
1144.323814	0.046785
1144.479626	0.040095
1144.635420	0.031724
1144.791195	0.031200
1144.946952	0.029002
1145.102691	0.024495
1145.258411	0.026571
1145.414113	0.027200
1145.569798	0.034204
1145.725463	0.030985
1145.881111	0.032137
1146.036741	0.036359
1146.192352	0.038445
1146.347945	0.043944
1146.503519	0.044128
1146.659076	0.034361
1146.814614	0.035799
1146.970134	0.032521
1147.125636	0.033130
1147.281120	0.029571
1147.436585	0.026067
1147.592032	0.022807
1147.747461	0.019638
1147.902872	0.021718
1148.058265	0.029880
1148.213639	0.027294
1148.368995	0.035763
1148.524333	0.031460
1148.679653	0.037988
1148.834954	0.050552
1148.990237	0.063249
1149.145502	0.065556
1149.300749	0.065398
1149.455977	0.063286
1149.611188	0.062256
1149.766380	0.045469
1149.921553	0.051685
1150.076709	0.051915
1150.231846	0.041731
1150.386966	0.035236
1150.542066	0.032522
1150.697149	0.029305
1150.852214	0.035831
1151.007260	0.032244
1151.162288	0.045775
1151.317298	0.043585
1151.472289	0.039561
1151.627263	0.042319
1151.782218	0.041695
1151.937155	0.048257
1152.092073	0.057467
1152.246974	0.052536
1152.401856	0.049818
1152.556720	0.046080
1152.711566	0.046126
1152.866393	0.044645
1153.021203	0.048720
1153.175994	0.056555
1153.330767	0.053064
1153.485521	0.050576
1153.640258	0.053981
1153.794976	0.059986
1153.949676	0.055656
1154.104358	0.059159
1154.259021	0.062669
1154.413667	0.061377
1154.568294	0.054844
1154.722903	0.049082
1154.877493	0.052217
1155.032066	0.037609
1155.186620	0.039615
1155.341156	0.040266
1155.495674	0.035774
1155.650173	0.035678
1155.804654	0.031653
1155.959118	0.026035
1156.113562	0.027654
1156.267989	0.019281
1156.422397	0.029386
1156.576788	0.028735
1156.731160	0.029630
1156.885513	0.031863
1157.039849	0.031424
1157.194166	0.043744
1157.348465	0.041319
1157.502746	0.038753
1157.657009	0.038984
1157.811253	0.042438
1157.965479	0.041502
1158.119687	0.043550
1158.273877	0.045499
1158.428048	0.045175
1158.582201	0.038687
1158.736337	0.044757
1158.890453	0.050395
1159.044552	0.049070
1159.198632	0.042381
1159.352694	0.036231
1159.506738	0.032391
1159.660764	0.031711
1159.814771	0.031500
1159.968761	0.025887
1160.122732	0.025503
1160.276685	0.022080
1160.430619	0.033622
1160.584535	0.027343
1160.738434	0.032845
1160.892313	0.036180
1161.046175	0.042098
1161.200019	0.046651
1161.353844	0.054735
1161.507651	0.068123
1161.661440	0.071141
1161.815210	0.065221
1161.968962	0.063935
1162.122697	0.074962
1162.276412	0.079036
1162.430110	0.065476
1162.583789	0.058952
1162.737451	0.056239
1162.891094	0.038478
1163.044718	0.037858
1163.198325	0.039838
1163.351913	0.044395
1163.505483	0.033374
1163.659035	0.041805
1163.812569	0.051732
1163.966084	0.059354
1164.119581	0.057767
1164.273060	0.069933
1164.426521	0.078582
1164.579964	0.078440
1164.733388	0.088974
1164.886794	0.095324
1165.040182	0.095799
1165.193551	0.091304
1165.346903	0.074714
1165.500236	0.072016
1165.653551	0.062565
1165.806848	0.055354
1165.960126	0.057667
1166.113386	0.044652
1166.266628	0.029904
1166.419852	0.014438
1166.573058	0.013163
1166.726245	0.020236
1166.879414	0.023231
1167.032565	0.029211
1167.185698	0.028676
1167.338812	0.017697
1167.491909	0.023203
1167.644987	0.030832
1167.798046	0.039999
1167.951088	0.046541
1168.104111	0.048874
1168.257117	0.042828
1168.410103	0.029535
1168.563072	0.025025
1168.716023	0.033939
1168.868955	0.023695
1169.021869	0.018770
1169.174765	0.019614
1169.327642	0.015142
1169.480501	0.013266
1169.633343	0.015502
1169.786165	0.019840
1169.938970	0.016186
1170.091757	0.019543
1170.244525	0.034666
1170.397275	0.052114
1170.550007	0.041716
1170.702720	0.035566
1170.855415	0.045602
1171.008092	0.037774
1171.160751	0.035175
1171.313392	0.035166
1171.466014	0.110399
1171.618619	-0.023420
1171.771205	-0.023420
1171.923772	-0.023420
