sample name	sample
index	788
start time	 03-31-2021  02:07:14 PM


Wavelength (nm)	Absorbance
494.344910	0.013017
494.563924	0.013017
494.782919	0.013017
495.001897	-0.263059
495.220856	-0.016670
495.439797	0.011196
495.658719	-0.021074
495.877624	-0.029241
496.096510	0.094214
496.315378	0.157067
496.534227	0.167026
496.753059	0.156002
496.971872	0.139696
497.190667	0.237483
497.409444	0.242973
497.628203	0.247889
497.846943	0.250885
498.065665	0.249030
498.284369	0.250433
498.503055	0.248720
498.721723	0.250871
498.940372	0.249184
499.159003	0.249332
499.377616	0.248878
499.596210	0.247891
499.814787	0.247486
500.033345	0.246647
500.251885	0.246238
500.470406	0.246740
500.688910	0.245684
500.907395	0.247685
501.125862	0.247672
501.344311	0.247054
501.562742	0.247350
501.781154	0.247648
501.999548	0.248207
502.217924	0.247590
502.436282	0.247892
502.654621	0.247469
502.872942	0.247467
503.091245	0.248161
503.309530	0.248837
503.527797	0.249729
503.746045	0.248857
503.964275	0.249246
504.182487	0.249734
504.400681	0.250714
504.618856	0.250224
504.837013	0.250263
505.055152	0.251337
505.273273	0.252047
505.491376	0.252717
505.709460	0.253521
505.927526	0.253681
506.145574	0.253746
506.363604	0.252820
506.581615	0.255109
506.799608	0.255424
507.017583	0.254267
507.235540	0.254940
507.453478	0.255867
507.671399	0.256195
507.889301	0.255852
508.107185	0.256038
508.325050	0.256435
508.542898	0.255225
508.760727	0.256133
508.978538	0.256753
509.196330	0.256180
509.414105	0.255685
509.631861	0.256393
509.849599	0.257777
510.067319	0.258240
510.285021	0.258965
510.502704	0.259879
510.720369	0.260003
510.938016	0.260372
511.155645	0.261457
511.373255	0.261684
511.590848	0.262127
511.808422	0.262242
512.025977	0.261931
512.243515	0.261995
512.461034	0.262446
512.678536	0.262863
512.896018	0.263397
513.113483	0.263544
513.330930	0.264080
513.548358	0.263961
513.765768	0.264300
513.983160	0.265236
514.200533	0.265682
514.417889	0.265447
514.635226	0.265711
514.852545	0.265658
515.069845	0.266691
515.287128	0.266419
515.504392	0.266758
515.721638	0.266563
515.938866	0.268031
516.156075	0.268244
516.373267	0.268684
516.590440	0.268876
516.807594	0.269091
517.024731	0.269270
517.241850	0.269637
517.458950	0.270627
517.676032	0.271367
517.893095	0.270217
518.110141	0.269868
518.327168	0.270840
518.544177	0.270031
518.761168	0.270965
518.978141	0.271306
519.195095	0.271976
519.412031	0.272439
519.628949	0.273285
519.845849	0.273704
520.062731	0.274539
520.279594	0.274681
520.496439	0.275936
520.713266	0.276012
520.930074	0.276602
521.146865	0.276831
521.363637	0.276462
521.580391	0.276369
521.797127	0.277609
522.013844	0.278332
522.230543	0.278835
522.447224	0.279709
522.663887	0.279687
522.880532	0.279325
523.097158	0.279793
523.313766	0.279859
523.530356	0.280532
523.746928	0.280511
523.963481	0.280852
524.180017	0.281214
524.396534	0.281815
524.613032	0.282181
524.829513	0.282603
525.045975	0.283400
525.262420	0.285019
525.478845	0.285896
525.695253	0.286139
525.911643	0.286802
526.128014	0.286955
526.344367	0.286870
526.560702	0.287127
526.777018	0.287272
526.993316	0.287578
527.209597	0.287284
527.425858	0.287358
527.642102	0.287894
527.858328	0.288844
528.074535	0.289393
528.290724	0.290164
528.506894	0.291464
528.723047	0.292824
528.939181	0.292799
529.155297	0.293229
529.371395	0.293983
529.587475	0.294397
529.803536	0.294474
530.019579	0.294854
530.235604	0.294834
530.451611	0.295081
530.667600	0.295522
530.883570	0.295989
531.099522	0.296116
531.315456	0.295931
531.531372	0.296796
531.747269	0.297398
531.963148	0.297821
532.179009	0.299177
532.394852	0.299889
532.610676	0.300152
532.826482	0.300335
533.042271	0.301311
533.258040	0.301937
533.473792	0.302185
533.689525	0.302280
533.905240	0.302649
534.120937	0.302598
534.336616	0.302405
534.552277	0.302909
534.767919	0.304051
534.983543	0.304485
535.199149	0.305174
535.414736	0.305354
535.630306	0.305691
535.845857	0.306342
536.061390	0.306415
536.276904	0.307841
536.492401	0.308376
536.707879	0.308935
536.923339	0.309354
537.138781	0.309690
537.354204	0.310908
537.569610	0.311049
537.784997	0.311889
538.000366	0.313375
538.215716	0.313425
538.431049	0.313899
538.646363	0.314057
538.861659	0.313987
539.076937	0.314372
539.292196	0.314732
539.507438	0.316404
539.722661	0.317258
539.937866	0.317356
540.153052	0.317255
540.368221	0.317675
540.583371	0.318292
540.798503	0.319410
541.013617	0.320162
541.228712	0.320979
541.443789	0.321755
541.658848	0.321816
541.873889	0.322366
542.088912	0.322913
542.303916	0.324226
542.518902	0.325124
542.733870	0.325734
542.948820	0.326726
543.163752	0.326384
543.378665	0.325837
543.593560	0.326137
543.808437	0.326593
544.023295	0.327794
544.238136	0.327678
544.452958	0.328590
544.667762	0.329272
544.882548	0.329450
545.097315	0.330499
545.312064	0.331611
545.526795	0.332428
545.741508	0.333204
545.956203	0.333339
546.170879	0.333214
546.385537	0.333654
546.600177	0.333604
546.814799	0.334083
547.029402	0.334650
547.243988	0.335054
547.458555	0.335295
547.673103	0.335221
547.887634	0.336340
548.102146	0.336687
548.316640	0.335873
548.531116	0.336510
548.745574	0.337041
548.960013	0.337158
549.174435	0.337174
549.388838	0.338125
549.603222	0.338902
549.817589	0.338855
550.031937	0.339824
550.246267	0.341243
550.460579	0.341768
550.674873	0.342169
550.889148	0.343534
551.103405	0.344237
551.317644	0.344111
551.531865	0.344793
551.746068	0.345134
551.960252	0.344656
552.174418	0.344936
552.388566	0.345466
552.602696	0.345979
552.816807	0.345916
553.030900	0.346016
553.244975	0.346742
553.459032	0.346754
553.673070	0.347070
553.887091	0.347946
554.101093	0.348385
554.315077	0.348665
554.529042	0.349196
554.742990	0.349509
554.956919	0.350333
555.170830	0.350939
555.384722	0.351450
555.598597	0.352174
555.812453	0.352857
556.026291	0.353624
556.240111	0.354068
556.453913	0.353935
556.667696	0.354540
556.881461	0.355083
557.095208	0.355499
557.308937	0.356426
557.522647	0.357174
557.736339	0.357797
557.950013	0.358109
558.163669	0.358365
558.377307	0.359307
558.590926	0.359944
558.804527	0.359687
559.018110	0.359996
559.231675	0.360294
559.445221	0.360559
559.658749	0.360798
559.872259	0.361014
560.085751	0.361697
560.299225	0.361694
560.512680	0.361603
560.726117	0.362353
560.939536	0.362803
561.152937	0.362453
561.366319	0.363254
561.579683	0.363559
561.793029	0.364297
562.006357	0.364236
562.219667	0.365079
562.432958	0.365308
562.646231	0.366031
562.859486	0.366377
563.072723	0.367056
563.285941	0.366826
563.499141	0.367677
563.712323	0.367626
563.925487	0.368429
564.138632	0.368445
564.351760	0.369203
564.564869	0.369149
564.777960	0.369780
564.991032	0.370256
565.204087	0.370705
565.417123	0.371029
565.630141	0.371536
565.843140	0.371973
566.056122	0.372700
566.269085	0.372841
566.482030	0.373240
566.694957	0.373612
566.907866	0.374283
567.120756	0.375248
567.333628	0.375609
567.546482	0.376226
567.759318	0.376921
567.972135	0.376911
568.184935	0.377865
568.397716	0.378789
568.610478	0.378671
568.823223	0.378491
569.035949	0.377674
569.248657	0.377940
569.461347	0.377964
569.674019	0.377860
569.886672	0.378696
570.099308	0.378587
570.311925	0.378067
570.524523	0.378622
570.737104	0.379378
570.949666	0.380093
571.162210	0.380021
571.374736	0.380569
571.587244	0.381452
571.799733	0.381589
572.012205	0.382001
572.224658	0.382999
572.437092	0.383165
572.649509	0.383794
572.861907	0.384778
573.074287	0.386014
573.286649	0.386063
573.498993	0.385956
573.711318	0.386580
573.923625	0.387107
574.135914	0.386965
574.348185	0.387802
574.560438	0.388020
574.772672	0.388100
574.984888	0.387618
575.197086	0.388469
575.409266	0.388818
575.621427	0.389340
575.833570	0.389360
576.045695	0.390150
576.257802	0.390199
576.469890	0.390635
576.681961	0.391060
576.894013	0.391661
577.106046	0.392144
577.318062	0.392280
577.530059	0.392594
577.742039	0.392315
577.954000	0.392652
578.165942	0.393158
578.377867	0.393134
578.589773	0.393387
578.801661	0.394210
579.013531	0.393857
579.225382	0.394514
579.437216	0.394018
579.649031	0.395183
579.860828	0.395842
580.072606	0.395914
580.284367	0.396532
580.496109	0.397209
580.707833	0.397647
580.919539	0.398189
581.131227	0.398529
581.342896	0.399670
581.554547	0.399400
581.766180	0.399234
581.977795	0.399792
582.189391	0.400058
582.400969	0.399903
582.612529	0.399860
582.824071	0.400538
583.035595	0.400765
583.247100	0.400966
583.458587	0.402036
583.670056	0.402763
583.881506	0.402805
584.092939	0.403167
584.304353	0.404042
584.515749	0.404349
584.727127	0.404438
584.938486	0.404523
585.149828	0.404505
585.361151	0.404418
585.572456	0.404407
585.783742	0.404901
585.995011	0.404893
586.206261	0.404750
586.417493	0.405076
586.628706	0.405091
586.839902	0.406061
587.051079	0.406251
587.262238	0.407043
587.473379	0.407893
587.684502	0.408120
587.895606	0.409172
588.106692	0.410022
588.317760	0.410077
588.528810	0.410839
588.739841	0.411174
588.950855	0.411948
589.161850	0.412202
589.372827	0.412044
589.583785	0.413158
589.794726	0.413063
590.005648	0.412955
590.216552	0.413438
590.427437	0.413690
590.638305	0.413908
590.849154	0.413825
591.059985	0.413967
591.270798	0.414833
591.481592	0.414829
591.692369	0.415116
591.903127	0.415574
592.113867	0.416132
592.324588	0.416638
592.535292	0.417051
592.745977	0.417737
592.956644	0.418318
593.167293	0.418158
593.377923	0.418249
593.588536	0.418410
593.799130	0.418572
594.009706	0.418671
594.220263	0.418828
594.430803	0.419162
594.641324	0.418735
594.851827	0.419156
595.062312	0.419523
595.272778	0.420079
595.483227	0.420298
595.693657	0.420631
595.904069	0.420816
596.114462	0.421379
596.324838	0.421586
596.535195	0.422465
596.745534	0.422251
596.955855	0.422586
597.166157	0.422586
597.376441	0.423120
597.586707	0.423343
597.796955	0.423991
598.007185	0.424639
598.217396	0.425032
598.427589	0.425727
598.637764	0.426450
598.847921	0.426863
599.058060	0.427366
599.268180	0.427522
599.478282	0.427902
599.688366	0.428453
599.898431	0.428380
600.108479	0.428564
600.318508	0.428506
600.528519	0.428455
600.738511	0.428532
600.948486	0.428788
601.158442	0.429428
601.368380	0.429310
601.578300	0.429153
601.788202	0.429406
601.998085	0.429653
602.207950	0.429787
602.417797	0.430532
602.627626	0.431065
602.837436	0.431070
603.047228	0.431552
603.257002	0.432280
603.466758	0.432824
603.676496	0.433067
603.886215	0.433356
604.095916	0.433649
604.305599	0.433135
604.515264	0.433629
604.724910	0.433852
604.934538	0.433767
605.144148	0.434276
605.353740	0.434664
605.563314	0.434907
605.772869	0.435218
605.982406	0.435798
606.191925	0.436479
606.401425	0.436152
606.610908	0.437065
606.820372	0.437690
607.029818	0.438204
607.239246	0.438303
607.448655	0.438422
607.658047	0.438624
607.867420	0.438484
608.076775	0.438445
608.286111	0.439426
608.495430	0.439436
608.704730	0.439306
608.914012	0.439301
609.123275	0.439472
609.332521	0.439933
609.541748	0.440094
609.750957	0.440464
609.960148	0.441192
610.169321	0.440849
610.378475	0.440912
610.587611	0.441381
610.796729	0.440921
611.005829	0.441122
611.214910	0.441188
611.423974	0.441263
611.633019	0.441290
611.842045	0.440925
612.051054	0.441205
612.260044	0.441552
612.469017	0.441362
612.677970	0.441803
612.886906	0.442481
613.095824	0.442840
613.304723	0.443420
613.513604	0.443998
613.722467	0.445107
613.931311	0.445417
614.140138	0.445508
614.348946	0.445862
614.557736	0.446353
614.766507	0.446337
614.975261	0.446804
615.183996	0.446742
615.392713	0.447158
615.601412	0.447030
615.810092	0.447448
616.018754	0.447557
616.227399	0.448141
616.436024	0.448583
616.644632	0.448882
616.853222	0.448819
617.061793	0.449157
617.270346	0.449404
617.478880	0.449731
617.687397	0.449881
617.895895	0.450690
618.104375	0.450883
618.312837	0.450875
618.521281	0.450793
618.729706	0.451200
618.938113	0.451755
619.146502	0.451645
619.354873	0.452020
619.563226	0.452110
619.771560	0.452140
619.979876	0.452331
620.188174	0.452640
620.396453	0.453097
620.604715	0.453239
620.812958	0.453483
621.021183	0.453912
621.229390	0.454200
621.437578	0.454353
621.645748	0.454586
621.853900	0.454842
622.062034	0.455017
622.270150	0.455852
622.478247	0.456161
622.686326	0.456621
622.894387	0.456668
623.102430	0.456690
623.310454	0.457301
623.518461	0.457812
623.726449	0.458091
623.934418	0.458393
624.142370	0.458601
624.350303	0.458788
624.558218	0.458637
624.766115	0.458736
624.973994	0.459073
625.181855	0.459240
625.389697	0.459341
625.597521	0.459541
625.805327	0.460282
626.013114	0.459839
626.220883	0.460492
626.428634	0.460845
626.636367	0.461286
626.844082	0.461694
627.051778	0.462083
627.259457	0.462692
627.467117	0.463065
627.674758	0.462755
627.882382	0.462843
628.089987	0.462605
628.297574	0.463052
628.505143	0.463712
628.712694	0.464229
628.920226	0.464264
629.127740	0.464196
629.335236	0.464653
629.542714	0.464962
629.750174	0.465760
629.957615	0.466214
630.165038	0.466193
630.372443	0.465943
630.579829	0.465958
630.787198	0.466201
630.994548	0.466438
631.201880	0.466525
631.409194	0.466787
631.616489	0.466816
631.823766	0.467124
632.031025	0.467478
632.238266	0.468142
632.445489	0.468204
632.652693	0.468191
632.859879	0.468190
633.067047	0.468124
633.274197	0.468641
633.481329	0.469074
633.688442	0.469561
633.895537	0.469851
634.102614	0.469977
634.309672	0.470265
634.516713	0.470978
634.723735	0.471277
634.930739	0.471788
635.137724	0.472039
635.344692	0.472134
635.551641	0.471825
635.758572	0.471923
635.965485	0.472197
636.172379	0.472797
636.379256	0.473129
636.586114	0.473699
636.792954	0.474096
636.999775	0.474185
637.206579	0.474750
637.413364	0.474963
637.620131	0.475416
637.826880	0.476002
638.033610	0.475693
638.240323	0.476118
638.447017	0.476584
638.653692	0.476654
638.860350	0.476870
639.066990	0.477117
639.273611	0.477628
639.480214	0.477864
639.686798	0.477820
639.893365	0.478281
640.099913	0.478147
640.306443	0.477485
640.512955	0.477761
640.719449	0.478375
640.925924	0.478616
641.132381	0.479161
641.338820	0.479170
641.545241	0.479545
641.751644	0.480016
641.958028	0.480900
642.164394	0.482095
642.370742	0.482468
642.577071	0.482828
642.783383	0.483057
642.989676	0.483283
643.195951	0.483776
643.402207	0.484158
643.608446	0.484185
643.814666	0.483721
644.020868	0.483404
644.227052	0.483827
644.433218	0.483454
644.639365	0.483853
644.845494	0.484125
645.051605	0.484388
645.257698	0.484374
645.463772	0.485032
645.669828	0.485447
645.875866	0.486078
646.081886	0.486387
646.287888	0.486991
646.493871	0.487382
646.699836	0.487649
646.905783	0.487971
647.111712	0.488723
647.317622	0.488932
647.523514	0.489866
647.729388	0.490135
647.935244	0.490240
648.141082	0.490798
648.346901	0.491066
648.552702	0.491303
648.758485	0.491727
648.964250	0.492052
649.169996	0.492626
649.375724	0.492561
649.581434	0.492765
649.787126	0.493426
649.992800	0.493789
650.198455	0.493740
650.404092	0.494160
650.609711	0.494734
650.815311	0.494669
651.020894	0.494585
651.226458	0.494967
651.432004	0.495319
651.637532	0.495602
651.843041	0.495447
652.048532	0.496002
652.254006	0.496248
652.459460	0.496195
652.664897	0.496544
652.870315	0.496761
653.075716	0.496902
653.281097	0.497083
653.486461	0.497511
653.691807	0.498115
653.897134	0.498528
654.102443	0.498965
654.307734	0.499514
654.513006	0.500031
654.718261	0.500663
654.923497	0.500926
655.128715	0.501438
655.333915	0.501225
655.539096	0.501765
655.744259	0.502247
655.949404	0.502748
656.154531	0.502901
656.359640	0.503126
656.564730	0.503748
656.769802	0.503979
656.974856	0.504240
657.179892	0.505031
657.384909	0.505154
657.589908	0.505159
657.794889	0.504811
657.999852	0.505293
658.204797	0.505697
658.409723	0.505848
658.614631	0.506675
658.819521	0.506982
659.024393	0.507201
659.229246	0.507586
659.434081	0.508471
659.638898	0.509516
659.843697	0.509694
660.048478	0.510181
660.253240	0.510081
660.457984	0.510093
660.662710	0.510420
660.867417	0.510692
661.072107	0.511160
661.276778	0.511043
661.481431	0.511280
661.686066	0.511812
661.890682	0.511804
662.095281	0.512128
662.299861	0.512605
662.504422	0.513431
662.708966	0.514058
662.913491	0.514684
663.117999	0.515070
663.322488	0.515618
663.526958	0.516017
663.731411	0.516696
663.935845	0.517274
664.140261	0.517626
664.344659	0.517775
664.549038	0.517909
664.753400	0.518147
664.957743	0.518647
665.162068	0.518693
665.366375	0.518968
665.570663	0.519225
665.774933	0.519609
665.979185	0.520082
666.183419	0.520677
666.387635	0.520909
666.591832	0.521189
666.796011	0.521710
667.000172	0.521801
667.204315	0.522295
667.408439	0.522983
667.612545	0.523550
667.816634	0.523797
668.020703	0.523810
668.224755	0.524351
668.428788	0.524926
668.632803	0.524893
668.836800	0.525415
669.040779	0.525779
669.244739	0.525999
669.448681	0.526472
669.652605	0.527083
669.856511	0.527684
670.060399	0.527854
670.264268	0.527791
670.468119	0.528327
670.671952	0.529112
670.875767	0.529629
671.079563	0.529795
671.283341	0.530098
671.487101	0.530544
671.690843	0.530740
671.894567	0.531226
672.098272	0.531541
672.301959	0.531979
672.505628	0.532119
672.709278	0.531857
672.912911	0.532557
673.116525	0.532789
673.320121	0.532834
673.523699	0.533153
673.727258	0.533696
673.930799	0.534244
674.134322	0.534726
674.337827	0.534963
674.541314	0.535594
674.744782	0.535769
674.948232	0.536358
675.151664	0.537049
675.355078	0.537494
675.558474	0.537875
675.761851	0.538153
675.965210	0.538231
676.168551	0.538833
676.371873	0.539294
676.575178	0.539548
676.778464	0.539821
676.981732	0.540248
677.184981	0.540834
677.388213	0.541427
677.591426	0.542057
677.794621	0.542567
677.997798	0.542896
678.200956	0.543286
678.404097	0.544024
678.607219	0.544418
678.810323	0.544262
679.013408	0.544505
679.216476	0.544455
679.419525	0.544791
679.622556	0.545312
679.825569	0.546076
680.028563	0.546616
680.231540	0.546938
680.434498	0.547170
680.637438	0.547965
680.840359	0.548321
681.043263	0.548813
681.246148	0.549163
681.449015	0.548953
681.651864	0.548704
681.854694	0.549104
682.057506	0.549133
682.260301	0.549270
682.463076	0.549575
682.665834	0.550006
682.868573	0.550265
683.071295	0.550522
683.273998	0.551661
683.476682	0.552051
683.679349	0.552487
683.881997	0.552981
684.084627	0.553691
684.287239	0.553948
684.489833	0.554354
684.692408	0.554937
684.894965	0.555293
685.097504	0.555512
685.300025	0.556234
685.502527	0.556614
685.705012	0.556981
685.907478	0.557199
686.109925	0.557695
686.312355	0.557836
686.514766	0.558147
686.717159	0.558722
686.919534	0.558905
687.121891	0.559304
687.324230	0.559715
687.526550	0.560192
687.728852	0.560693
687.931136	0.560866
688.133401	0.560909
688.335649	0.561267
688.537878	0.561475
688.740089	0.561683
688.942281	0.561852
689.144456	0.562106
689.346612	0.561982
689.548750	0.562524
689.750870	0.563069
689.952971	0.564010
690.155055	0.564260
690.357120	0.564605
690.559167	0.564712
690.761195	0.565029
690.963206	0.565078
691.165198	0.565763
691.367172	0.566119
691.569128	0.566423
691.771065	0.566711
691.972984	0.566883
692.174885	0.567184
692.376768	0.567971
692.578633	0.568095
692.780479	0.568498
692.982308	0.569120
693.184118	0.568824
693.385909	0.569073
693.587683	0.568937
693.789438	0.569516
693.991175	0.569851
694.192894	0.569924
694.394595	0.570472
694.596277	0.570781
694.797941	0.571052
694.999587	0.571641
695.201215	0.571796
695.402824	0.572338
695.604416	0.572674
695.805989	0.572923
696.007543	0.573297
696.209080	0.573489
696.410598	0.573737
696.612099	0.573933
696.813580	0.574520
697.015044	0.575000
697.216490	0.575550
697.417917	0.575872
697.619326	0.576049
697.820717	0.576232
698.022089	0.576687
698.223444	0.577160
698.424780	0.577702
698.626098	0.577736
698.827397	0.578151
699.028679	0.578112
699.229942	0.578285
699.431187	0.578822
699.632414	0.579181
699.833622	0.579322
700.034813	0.579562
700.235985	0.579743
700.437139	0.580039
700.638274	0.580398
700.839392	0.580813
701.040491	0.580913
701.241572	0.581500
701.442635	0.582164
701.643679	0.582638
701.844706	0.582896
702.045714	0.582740
702.246704	0.583005
702.447675	0.583007
702.648629	0.583334
702.849564	0.583760
703.050481	0.583616
703.251380	0.583414
703.452260	0.583659
703.653122	0.583971
703.853966	0.584515
704.054792	0.585116
704.255600	0.585174
704.456389	0.585287
704.657160	0.585290
704.857913	0.585330
705.058648	0.585659
705.259365	0.585718
705.460063	0.585786
705.660743	0.585713
705.861405	0.585724
706.062048	0.586145
706.262674	0.586345
706.463281	0.586805
706.663870	0.587255
706.864441	0.587387
707.064993	0.587625
707.265527	0.587700
707.466043	0.588273
707.666541	0.588369
707.867021	0.588567
708.067482	0.588732
708.267925	0.588911
708.468350	0.588976
708.668757	0.589360
708.869145	0.589567
709.069516	0.590000
709.269868	0.589959
709.470201	0.590184
709.670517	0.590323
709.870814	0.590552
710.071093	0.590884
710.271354	0.591562
710.471597	0.591531
710.671821	0.591733
710.872028	0.591744
711.072216	0.591875
711.272385	0.591808
711.472537	0.592088
711.672670	0.592338
711.872785	0.592207
712.072882	0.591939
712.272961	0.592538
712.473021	0.592795
712.673063	0.592866
712.873087	0.593171
713.073093	0.593484
713.273081	0.593397
713.473050	0.593497
713.673001	0.593682
713.872934	0.593935
714.072849	0.593849
714.272745	0.594017
714.472623	0.594066
714.672483	0.594135
714.872325	0.594208
715.072148	0.594447
715.271954	0.594660
715.471741	0.594872
715.671509	0.594758
715.871260	0.594502
716.070992	0.594489
716.270707	0.595060
716.470403	0.595168
716.670080	0.595007
716.869740	0.594867
717.069381	0.594825
717.269004	0.594771
717.468609	0.594881
717.668195	0.595182
717.867764	0.595041
718.067314	0.594757
718.266846	0.594749
718.466360	0.595399
718.665855	0.595839
718.865332	0.595574
719.064791	0.595706
719.264232	0.595963
719.463655	0.596376
719.663059	0.596530
719.862445	0.596836
720.061813	0.596981
720.261163	0.596686
720.460494	0.596793
720.659807	0.597464
720.859102	0.597374
721.058379	0.597412
721.257638	0.597103
721.456878	0.597421
721.656100	0.597586
721.855304	0.597925
722.054490	0.598125
722.253657	0.597984
722.452806	0.597968
722.651937	0.598384
722.851050	0.598325
723.050145	0.598322
723.249221	0.598100
723.448279	0.598357
723.647319	0.597710
723.846340	0.597688
724.045344	0.597658
724.244329	0.597903
724.443296	0.597783
724.642245	0.597642
724.841175	0.597724
725.040088	0.597758
725.238982	0.597455
725.437857	0.597922
725.636715	0.597854
725.835554	0.598254
726.034376	0.597975
726.233179	0.598149
726.431963	0.598231
726.630730	0.598218
726.829478	0.598626
727.028208	0.598528
727.226920	0.598360
727.425614	0.598535
727.624289	0.598380
727.822946	0.598702
728.021585	0.598799
728.220206	0.598819
728.418808	0.598841
728.617392	0.598641
728.815958	0.598885
729.014506	0.599345
729.213036	0.599386
729.411547	0.599677
729.610040	0.599688
729.808515	0.599611
730.006972	0.599268
730.205410	0.599528
730.403831	0.599021
730.602233	0.598871
730.800616	0.598121
730.998982	0.597645
731.197329	0.597359
731.395658	0.596958
731.593969	0.597076
731.792262	0.597827
731.990536	0.597877
732.188793	0.597986
732.387031	0.598023
732.585250	0.598429
732.783452	0.598507
732.981635	0.598393
733.179800	0.598290
733.377947	0.597946
733.576076	0.597957
733.774186	0.597848
733.972278	0.598245
734.170352	0.597916
734.368408	0.598081
734.566446	0.598610
734.764465	0.598761
734.962466	0.599081
735.160449	0.598953
735.358413	0.598910
735.556360	0.598710
735.754288	0.598697
735.952198	0.599282
736.150090	0.599224
736.347963	0.599115
736.545818	0.598854
736.743655	0.598591
736.941474	0.598971
737.139275	0.598521
737.337057	0.598933
737.534821	0.598738
737.732567	0.598783
737.930295	0.598791
738.128005	0.598940
738.325696	0.599269
738.523369	0.599397
738.721024	0.599308
738.918660	0.599625
739.116279	0.599435
739.313879	0.599486
739.511461	0.599162
739.709024	0.598902
739.906570	0.598830
740.104097	0.598623
740.301606	0.598885
740.499097	0.599088
740.696569	0.599236
740.894024	0.599283
741.091460	0.599654
741.288878	0.599851
741.486277	0.599986
741.683659	0.600210
741.881022	0.599965
742.078367	0.599930
742.275694	0.599726
742.473002	0.599806
742.670293	0.599588
742.867565	0.599520
743.064819	0.599706
743.262054	0.599959
743.459272	0.599915
743.656471	0.600404
743.853652	0.600471
744.050815	0.600599
744.247959	0.600534
744.445085	0.600791
744.642194	0.600710
744.839283	0.600335
745.036355	0.600086
745.233408	0.599948
745.430444	0.599562
745.627461	0.599550
745.824459	0.599661
746.021440	0.599585
746.218402	0.599618
746.415346	0.599566
746.612272	0.599637
746.809180	0.599893
747.006069	0.599325
747.202940	0.599719
747.399793	0.599915
747.596628	0.599843
747.793444	0.599485
747.990243	0.599155
748.187023	0.599243
748.383784	0.599049
748.580528	0.598474
748.777253	0.598814
748.973960	0.598788
749.170649	0.598503
749.367320	0.598283
749.563973	0.598401
749.760607	0.598781
749.957223	0.598812
750.153821	0.599180
750.350400	0.599492
750.546962	0.599376
750.743505	0.599482
750.940030	0.599321
751.136536	0.599474
751.333025	0.599602
751.529495	0.599255
751.725947	0.599193
751.922381	0.599041
752.118796	0.599305
752.315194	0.599353
752.511573	0.599202
752.707934	0.599065
752.904276	0.598882
753.100601	0.599076
753.296907	0.599014
753.493195	0.599272
753.689465	0.599694
753.885716	0.599966
754.081949	0.600288
754.278164	0.600269
754.474361	0.600494
754.670540	0.600559
754.866700	0.600707
755.062843	0.601149
755.258967	0.601184
755.455072	0.600932
755.651160	0.600553
755.847229	0.600947
756.043280	0.601243
756.239313	0.601365
756.435328	0.601723
756.631324	0.602044
756.827302	0.602235
757.023262	0.601976
757.219204	0.602210
757.415127	0.602234
757.611033	0.601913
757.806920	0.601747
758.002788	0.601661
758.198639	0.601172
758.394471	0.601124
758.590286	0.600297
758.786081	0.600316
758.981859	0.600263
759.177619	0.600238
759.373360	0.600450
759.569083	0.600929
759.764788	0.601216
759.960474	0.601556
760.156143	0.601093
760.351793	0.601919
760.547425	0.602313
760.743038	0.602352
760.938634	0.602846
761.134211	0.602850
761.329770	0.602384
761.525311	0.602686
761.720833	0.602952
761.916338	0.603077
762.111824	0.603051
762.307292	0.602854
762.502741	0.602620
762.698173	0.602374
762.893586	0.602075
763.088981	0.602070
763.284358	0.601727
763.479716	0.602102
763.675057	0.602407
763.870379	0.602201
764.065683	0.602328
764.260968	0.602581
764.456236	0.602860
764.651485	0.603286
764.846716	0.604027
765.041929	0.604069
765.237123	0.604055
765.432299	0.603567
765.627457	0.604121
765.822597	0.604111
766.017719	0.604217
766.212822	0.603809
766.407907	0.603888
766.602974	0.603210
766.798023	0.603632
766.993054	0.603309
767.188066	0.603898
767.383060	0.603630
767.578036	0.604027
767.772993	0.604402
767.967933	0.604994
768.162854	0.605162
768.357757	0.605509
768.552642	0.605594
768.747508	0.605555
768.942356	0.605672
769.137186	0.605845
769.331998	0.605761
769.526792	0.605599
769.721567	0.605875
769.916324	0.605825
770.111063	0.606352
770.305784	0.606151
770.500486	0.606380
770.695171	0.606479
770.889837	0.606850
771.084484	0.606713
771.279114	0.607119
771.473725	0.606870
771.668318	0.607044
771.862893	0.607216
772.057450	0.607608
772.251988	0.608093
772.446509	0.608380
772.641011	0.608382
772.835494	0.608722
773.029960	0.608565
773.224407	0.608851
773.418836	0.609251
773.613247	0.609259
773.807640	0.609394
774.002014	0.609544
774.196370	0.609674
774.390708	0.610227
774.585028	0.610368
774.779330	0.610329
774.973613	0.610853
775.167878	0.611012
775.362125	0.611224
775.556354	0.611558
775.750564	0.611805
775.944756	0.612271
776.138930	0.612088
776.333086	0.612678
776.527223	0.613549
776.721343	0.613355
776.915444	0.613308
777.109526	0.613469
777.303591	0.613587
777.497637	0.614005
777.691666	0.614185
777.885676	0.614528
778.079667	0.614720
778.273641	0.614412
778.467596	0.614970
778.661533	0.615494
778.855452	0.616079
779.049352	0.615935
779.243235	0.615941
779.437099	0.615974
779.630945	0.616359
779.824773	0.616600
780.018582	0.617087
780.212373	0.617330
780.406146	0.617200
780.599901	0.616844
780.793638	0.617455
780.987356	0.617830
781.181056	0.618100
781.374738	0.618200
781.568402	0.618514
781.762047	0.619186
781.955674	0.619387
782.149283	0.619531
782.342874	0.619670
782.536447	0.619813
782.730001	0.619773
782.923537	0.620000
783.117055	0.620026
783.310555	0.620080
783.504036	0.620097
783.697499	0.620567
783.890944	0.621283
784.084371	0.622039
784.277780	0.622354
784.471170	0.622458
784.664542	0.622680
784.857896	0.623009
785.051231	0.623685
785.244549	0.623465
785.437848	0.623477
785.631129	0.623646
785.824392	0.624075
786.017636	0.624340
786.210863	0.624584
786.404071	0.624822
786.597260	0.625085
786.790432	0.624711
786.983585	0.625215
787.176721	0.625508
787.369838	0.625548
787.562936	0.625884
787.756017	0.626165
787.949079	0.626764
788.142123	0.626793
788.335149	0.627239
788.528156	0.627458
788.721146	0.627678
788.914117	0.627777
789.107070	0.628123
789.300005	0.627839
789.492921	0.628029
789.685819	0.627810
789.878699	0.628022
790.071561	0.628046
790.264405	0.628573
790.457230	0.628731
790.650037	0.629045
790.842826	0.629705
791.035597	0.629953
791.228349	0.630323
791.421084	0.630933
791.613800	0.631382
791.806497	0.631496
791.999177	0.631949
792.191838	0.632111
792.384481	0.632234
792.577106	0.632048
792.769713	0.632606
792.962301	0.633319
793.154871	0.633391
793.347423	0.633894
793.539957	0.634710
793.732473	0.634706
793.924970	0.635294
794.117449	0.635826
794.309910	0.636233
794.502353	0.636357
794.694777	0.636002
794.887183	0.636788
795.079571	0.636705
795.271941	0.637217
795.464293	0.637795
795.656626	0.638256
795.848941	0.638628
796.041238	0.638898
796.233516	0.639819
796.425777	0.640455
796.618019	0.640572
796.810243	0.641276
797.002449	0.641097
797.194636	0.641257
797.386805	0.641233
797.578956	0.641061
797.771089	0.641370
797.963204	0.640846
798.155300	0.641110
798.347378	0.641468
798.539438	0.641615
798.731480	0.642229
798.923503	0.642601
799.115509	0.643081
799.307496	0.643782
799.499465	0.644330
799.691415	0.645113
799.883348	0.645646
800.075262	0.645597
800.267158	0.645848
800.459035	0.645920
800.650895	0.646387
800.842736	0.647025
801.034559	0.647223
801.226364	0.647237
801.418150	0.647466
801.609919	0.647276
801.801669	0.648220
801.993401	0.648480
802.185114	0.648867
802.376810	0.649169
802.568487	0.649401
802.760146	0.650014
802.951787	0.650424
803.143409	0.651054
803.335014	0.651585
803.526600	0.651662
803.718168	0.652572
803.909717	0.653256
804.101249	0.653307
804.292762	0.653400
804.484257	0.653497
804.675734	0.653587
804.867192	0.653692
805.058632	0.654069
805.250054	0.654039
805.441458	0.654179
805.632844	0.654007
805.824211	0.654645
806.015561	0.655213
806.206891	0.655154
806.398204	0.656099
806.589499	0.656722
806.780775	0.657191
806.972033	0.657927
807.163273	0.658092
807.354495	0.658381
807.545698	0.658482
807.736883	0.658906
807.928050	0.659562
808.119199	0.659660
808.310329	0.659223
808.501441	0.659424
808.692535	0.659521
808.883611	0.659539
809.074669	0.660049
809.265708	0.660521
809.456729	0.660460
809.647732	0.660261
809.838717	0.660369
810.029683	0.660968
810.220632	0.661032
810.411562	0.661616
810.602474	0.662283
810.793367	0.662557
810.984242	0.662651
811.175100	0.663039
811.365938	0.664191
811.556759	0.664439
811.747562	0.664725
811.938346	0.665078
812.129112	0.665290
812.319860	0.665808
812.510589	0.666001
812.701300	0.665782
812.891994	0.665853
813.082668	0.666126
813.273325	0.666469
813.463964	0.666706
813.654584	0.666880
813.845186	0.666760
814.035769	0.666885
814.226335	0.667390
814.416882	0.668003
814.607411	0.668510
814.797922	0.668599
814.988415	0.669017
815.178889	0.669147
815.369345	0.669749
815.559783	0.670251
815.750203	0.670324
815.940605	0.670523
816.130988	0.671618
816.321353	0.671671
816.511700	0.671713
816.702028	0.671883
816.892339	0.672718
817.082631	0.672944
817.272905	0.672900
817.463161	0.672789
817.653398	0.673435
817.843617	0.673065
818.033819	0.673340
818.224001	0.673695
818.414166	0.674047
818.604312	0.673812
818.794440	0.674400
818.984550	0.674884
819.174642	0.675796
819.364716	0.675729
819.554771	0.675711
819.744808	0.675865
819.934827	0.676037
820.124827	0.676413
820.314810	0.676973
820.504774	0.677042
820.694720	0.677293
820.884647	0.677314
821.074557	0.678017
821.264448	0.678181
821.454321	0.678867
821.644176	0.679091
821.834012	0.679360
822.023831	0.679195
822.213631	0.679672
822.403413	0.680216
822.593176	0.680201
822.782922	0.679657
822.972649	0.680102
823.162358	0.679866
823.352049	0.680303
823.541721	0.680158
823.731376	0.680263
823.921012	0.680102
824.110629	0.680514
824.300229	0.680796
824.489811	0.681436
824.679374	0.681674
824.868919	0.681861
825.058445	0.681851
825.247954	0.682283
825.437444	0.682517
825.626916	0.682697
825.816370	0.682727
826.005806	0.683155
826.195223	0.683360
826.384622	0.683466
826.574003	0.684035
826.763366	0.684154
826.952711	0.684233
827.142037	0.684536
827.331345	0.684477
827.520635	0.684462
827.709906	0.684726
827.899160	0.684924
828.088395	0.685323
828.277612	0.684882
828.466810	0.685206
828.655991	0.685502
828.845153	0.685677
829.034297	0.685938
829.223423	0.686242
829.412531	0.686042
829.601620	0.685983
829.790691	0.686354
829.979744	0.687164
830.168779	0.687507
830.357795	0.687742
830.546793	0.687783
830.735773	0.687765
830.924735	0.687520
831.113679	0.687722
831.302604	0.687558
831.491511	0.687560
831.680400	0.687354
831.869271	0.687309
832.058123	0.687718
832.246957	0.688095
832.435773	0.688439
832.624571	0.688892
832.813351	0.688513
833.002112	0.688480
833.190855	0.688740
833.379580	0.688858
833.568287	0.688866
833.756975	0.688386
833.945645	0.688073
834.134297	0.688083
834.322931	0.687892
834.511547	0.688286
834.700144	0.688632
834.888723	0.688830
835.077284	0.689478
835.265826	0.689988
835.454351	0.689755
835.642857	0.689994
835.831345	0.690572
836.019815	0.690781
836.208266	0.691534
836.396699	0.691510
836.585114	0.691451
836.773511	0.691141
836.961890	0.691348
837.150250	0.692062
837.338592	0.692239
837.526916	0.692207
837.715222	0.691958
837.903510	0.691593
838.091779	0.692173
838.280030	0.692003
838.468263	0.692218
838.656477	0.691549
838.844674	0.691099
839.032852	0.691581
839.221012	0.691723
839.409153	0.692517
839.597277	0.692955
839.785382	0.692471
839.973469	0.692758
840.161538	0.692642
840.349589	0.693422
840.537621	0.694027
840.725635	0.693880
840.913631	0.693225
841.101609	0.692549
841.289568	0.692559
841.477509	0.693613
841.665432	0.693619
841.853337	0.693586
842.041224	0.693570
842.229092	0.693130
842.416942	0.692981
842.604774	0.693071
842.792588	0.693865
842.980383	0.693884
843.168160	0.693027
843.355919	0.692937
843.543660	0.693125
843.731382	0.692808
843.919087	0.692734
844.106773	0.693194
844.294441	0.694086
844.482090	0.693208
844.669722	0.693566
844.857335	0.694046
845.044930	0.694003
845.232507	0.694496
845.420065	0.695133
845.607605	0.695655
845.795127	0.695772
845.982631	0.696001
846.170117	0.696443
846.357584	0.695939
846.545033	0.695626
846.732464	0.695757
846.919877	0.695776
847.107272	0.695738
847.294648	0.695578
847.482006	0.695310
847.669346	0.694587
847.856667	0.694560
848.043971	0.694335
848.231256	0.694505
848.418523	0.694791
848.605771	0.694331
848.793002	0.693403
848.980214	0.693636
849.167408	0.693668
849.354584	0.693632
849.541742	0.694164
849.728881	0.695310
849.916002	0.695132
850.103105	0.694766
850.290190	0.694753
850.477256	0.695455
850.664304	0.695531
850.851334	0.695921
851.038346	0.695448
851.225340	0.695015
851.412315	0.693442
851.599272	0.693420
851.786211	0.693314
851.973132	0.693649
852.160034	0.693301
852.346918	0.692798
852.533784	0.692453
852.720632	0.692979
852.907462	0.692487
853.094273	0.692687
853.281066	0.692808
853.467841	0.692748
853.654598	0.692348
853.841336	0.692298
854.028056	0.692605
854.214758	0.692512
854.401442	0.692920
854.588107	0.693458
854.774755	0.693749
854.961384	0.693462
855.147995	0.694264
855.334587	0.695105
855.521162	0.695215
855.707718	0.695189
855.894256	0.695447
856.080775	0.695078
856.267277	0.695008
856.453760	0.695494
856.640225	0.695652
856.826672	0.695094
857.013101	0.694457
857.199511	0.694022
857.385903	0.694149
857.572277	0.693554
857.758633	0.693367
857.944970	0.693427
858.131290	0.693105
858.317591	0.693371
858.503873	0.692352
858.690138	0.691923
858.876384	0.692462
859.062612	0.692460
859.248822	0.691856
859.435014	0.691914
859.621188	0.691794
859.807343	0.690976
859.993480	0.690203
860.179599	0.690630
860.365699	0.689968
860.551781	0.689408
860.737846	0.689292
860.923891	0.689404
861.109919	0.688400
861.295929	0.688237
861.481920	0.688139
861.667893	0.688581
861.853848	0.688700
862.039784	0.688554
862.225702	0.688069
862.411603	0.687456
862.597484	0.687535
862.783348	0.688174
862.969193	0.687552
863.155021	0.687631
863.340830	0.686893
863.526620	0.686194
863.712393	0.686338
863.898147	0.686553
864.083883	0.686219
864.269601	0.686254
864.455301	0.685521
864.640982	0.685763
864.826645	0.685935
865.012290	0.685553
865.197917	0.685498
865.383526	0.685690
865.569116	0.685105
865.754688	0.685790
865.940242	0.685699
866.125777	0.686626
866.311295	0.686103
866.496794	0.685832
866.682275	0.686186
866.867737	0.686622
867.053182	0.686671
867.238608	0.686960
867.424016	0.686034
867.609406	0.685730
867.794778	0.684923
867.980131	0.685375
868.165466	0.684461
868.350783	0.684203
868.536082	0.683651
868.721362	0.683423
868.906625	0.683158
869.091869	0.683330
869.277094	0.683100
869.462302	0.682871
869.647491	0.682383
869.832662	0.683345
870.017815	0.683137
870.202950	0.682431
870.388066	0.682257
870.573165	0.682195
870.758245	0.682291
870.943306	0.681670
871.128350	0.681368
871.313375	0.681436
871.498382	0.681119
871.683371	0.681031
871.868342	0.681855
872.053294	0.681531
872.238229	0.681112
872.423144	0.680502
872.608042	0.680968
872.792922	0.680807
872.977783	0.679875
873.162626	0.679469
873.347451	0.678645
873.532258	0.678179
873.717046	0.677658
873.901816	0.677496
874.086568	0.677027
874.271302	0.675870
874.456017	0.674429
874.640715	0.674699
874.825394	0.674587
875.010055	0.675049
875.194697	0.674903
875.379322	0.675130
875.563928	0.675174
875.748516	0.674431
875.933085	0.674521
876.117637	0.674970
876.302170	0.674132
876.486685	0.673265
876.671182	0.672507
876.855661	0.671620
877.040121	0.670361
877.224563	0.670078
877.408987	0.670489
877.593393	0.670954
877.777780	0.670728
877.962150	0.670808
878.146501	0.670593
878.330833	0.670549
878.515148	0.669986
878.699444	0.670149
878.883722	0.669266
879.067982	0.668942
879.252224	0.668353
879.436447	0.668667
879.620653	0.668127
879.804840	0.668320
879.989008	0.667378
880.173159	0.667769
880.357291	0.667517
880.541405	0.667045
880.725501	0.666069
880.909579	0.665534
881.093638	0.665133
881.277680	0.665139
881.461703	0.664195
881.645707	0.664299
881.829694	0.663544
882.013662	0.662939
882.197612	0.663193
882.381544	0.663909
882.565458	0.663547
882.749353	0.663011
882.933230	0.662403
883.117089	0.662652
883.300930	0.662461
883.484753	0.662693
883.668557	0.662981
883.852343	0.662455
884.036111	0.661753
884.219861	0.661826
884.403592	0.661495
884.587305	0.661783
884.771000	0.661442
884.954677	0.661623
885.138335	0.661753
885.321976	0.660828
885.505598	0.660545
885.689201	0.659946
885.872787	0.659564
886.056354	0.659266
886.239904	0.658279
886.423434	0.657822
886.606947	0.657367
886.790442	0.656147
886.973918	0.656858
887.157376	0.656400
887.340816	0.656027
887.524237	0.655014
887.707641	0.654548
887.891026	0.654330
888.074393	0.653747
888.257741	0.652926
888.441072	0.652496
888.624384	0.652299
888.807678	0.651537
888.990954	0.651190
889.174211	0.651595
889.357451	0.651434
889.540672	0.651667
889.723875	0.650055
889.907059	0.649851
890.090226	0.649686
890.273374	0.647701
890.456504	0.647447
890.639616	0.647022
890.822709	0.646026
891.005785	0.645801
891.188842	0.644688
891.371881	0.645414
891.554901	0.645559
891.737904	0.644815
891.920888	0.644546
892.103854	0.644231
892.286802	0.643527
892.469731	0.643080
892.652643	0.642465
892.835536	0.642102
893.018410	0.642664
893.201267	0.640668
893.384106	0.640280
893.566926	0.639947
893.749728	0.639548
893.932511	0.639570
894.115277	0.640067
894.298024	0.640040
894.480753	0.640356
894.663464	0.639135
894.846157	0.639541
895.028831	0.639358
895.211487	0.639412
895.394125	0.638291
895.576745	0.637637
895.759346	0.636439
895.941930	0.635421
896.124495	0.634291
896.307041	0.633631
896.489570	0.634004
896.672080	0.633464
896.854573	0.633461
897.037046	0.634342
897.219502	0.634108
897.401940	0.633499
897.584359	0.632720
897.766760	0.631769
897.949143	0.631751
898.131507	0.629783
898.313854	0.629531
898.496182	0.628750
898.678492	0.627559
898.860783	0.626351
899.043057	0.625423
899.225312	0.624873
899.407549	0.624779
899.589768	0.623736
899.771968	0.623095
899.954151	0.621929
900.136315	0.620767
900.318461	0.620884
900.500588	0.620393
900.682698	0.619670
900.864789	0.618559
901.046862	0.617517
901.228917	0.616938
901.410953	0.616394
901.592971	0.616468
901.774972	0.616086
901.956953	0.614763
902.138917	0.614202
902.320862	0.613417
902.502790	0.613226
902.684699	0.612844
902.866589	0.612158
903.048462	0.612455
903.230316	0.611906
903.412152	0.611326
903.593970	0.610505
903.775770	0.610378
903.957551	0.609884
904.139314	0.609386
904.321059	0.609026
904.502786	0.608231
904.684494	0.606817
904.866185	0.605759
905.047857	0.605178
905.229510	0.604035
905.411146	0.603719
905.592763	0.603523
905.774363	0.602995
905.955943	0.602140
906.137506	0.601740
906.319051	0.602215
906.500577	0.601432
906.682085	0.600322
906.863575	0.600585
907.045046	0.599206
907.226500	0.598532
907.407935	0.598019
907.589352	0.596802
907.770750	0.595667
907.952131	0.594557
908.133493	0.594013
908.314837	0.593666
908.496163	0.592600
908.677470	0.591735
908.858760	0.590881
909.040031	0.590269
909.221284	0.590581
909.402518	0.589941
909.583735	0.588892
909.764933	0.587662
909.946113	0.586442
910.127275	0.585527
910.308418	0.584419
910.489544	0.583772
910.670651	0.581987
910.851740	0.580549
911.032810	0.580072
911.213863	0.578905
911.394897	0.578312
911.575913	0.578275
911.756911	0.577211
911.937890	0.576870
912.118851	0.575276
912.299794	0.575036
912.480719	0.574205
912.661626	0.573504
912.842514	0.573346
913.023384	0.572375
913.204236	0.571234
913.385070	0.571301
913.565886	0.570869
913.746683	0.570929
913.927462	0.570252
914.108223	0.569740
914.288965	0.568935
914.469690	0.567855
914.650396	0.567063
914.831084	0.565826
915.011754	0.565076
915.192405	0.563673
915.373038	0.562767
915.553653	0.562241
915.734250	0.561386
915.914829	0.559849
916.095389	0.558942
916.275931	0.557555
916.456455	0.556224
916.636961	0.555288
916.817448	0.554482
916.997917	0.552978
917.178368	0.551949
917.358801	0.550846
917.539216	0.551313
917.719612	0.550597
917.899990	0.550194
918.080350	0.549696
918.260692	0.548794
918.441015	0.546992
918.621320	0.546499
918.801607	0.545741
918.981876	0.544902
919.162127	0.543547
919.342359	0.541656
919.522573	0.541508
919.702769	0.541929
919.882947	0.540587
920.063106	0.540517
920.243247	0.540068
920.423370	0.538953
920.603475	0.537202
920.783562	0.535928
920.963630	0.535835
921.143680	0.534808
921.323712	0.533258
921.503725	0.532288
921.683721	0.531761
921.863698	0.530451
922.043657	0.529605
922.223598	0.529436
922.403520	0.528384
922.583424	0.527620
922.763311	0.526720
922.943178	0.525131
923.123028	0.524333
923.302859	0.523448
923.482673	0.521967
923.662467	0.520671
923.842244	0.519817
924.022003	0.520025
924.201743	0.519160
924.381465	0.518056
924.561169	0.517867
924.740854	0.516645
924.920522	0.515689
925.100171	0.515748
925.279802	0.514330
925.459414	0.512871
925.639009	0.510380
925.818585	0.509426
925.998143	0.507514
926.177683	0.504675
926.357205	0.504066
926.536708	0.502508
926.716193	0.501161
926.895660	0.500159
927.075109	0.500225
927.254539	0.498887
927.433951	0.496820
927.613345	0.495471
927.792721	0.495505
927.972079	0.494340
928.151418	0.493258
928.330739	0.491606
928.510042	0.490885
928.689327	0.489456
928.868593	0.488115
929.047841	0.487773
929.227071	0.487774
929.406283	0.486174
929.585476	0.485228
929.764652	0.483663
929.943809	0.482239
930.122948	0.481188
930.302068	0.478954
930.481171	0.478543
930.660255	0.476702
930.839321	0.475933
931.018369	0.475034
931.197398	0.472873
931.376409	0.472721
931.555402	0.472456
931.734377	0.471630
931.913334	0.470503
932.092272	0.469288
932.271192	0.468610
932.450094	0.466444
932.628978	0.465124
932.807844	0.464368
932.986691	0.462385
933.165520	0.461751
933.344331	0.460487
933.523123	0.459336
933.701898	0.458977
933.880654	0.458083
934.059392	0.456104
934.238111	0.455130
934.416813	0.454569
934.595496	0.453508
934.774161	0.451587
934.952808	0.449985
935.131437	0.449866
935.310047	0.449118
935.488639	0.447598
935.667213	0.448238
935.845769	0.448159
936.024306	0.446129
936.202825	0.445000
936.381326	0.442791
936.559809	0.442139
936.738274	0.439261
936.916720	0.436742
937.095148	0.435140
937.273558	0.432267
937.451950	0.431134
937.630323	0.429768
937.808678	0.428978
937.987015	0.427989
938.165334	0.427606
938.343635	0.426557
938.521917	0.425805
938.700181	0.424596
938.878427	0.422602
939.056655	0.420359
939.234864	0.419230
939.413055	0.417388
939.591228	0.415800
939.769383	0.412517
939.947519	0.412973
940.125638	0.411083
940.303738	0.409568
940.481820	0.409050
940.659883	0.406843
940.837929	0.406444
941.015956	0.406553
941.193965	0.405108
941.371955	0.403451
941.549928	0.400031
941.727882	0.397887
941.905818	0.396924
942.083736	0.395467
942.261636	0.393748
942.439517	0.392006
942.617380	0.389342
942.795225	0.389410
942.973052	0.389324
943.150860	0.389046
943.328651	0.389361
943.506423	0.388665
943.684176	0.387448
943.861912	0.387163
944.039629	0.385415
944.217328	0.384362
944.395009	0.383813
944.572672	0.382757
944.750317	0.380131
944.927943	0.379157
945.105551	0.376057
945.283141	0.374967
945.460712	0.372034
945.638265	0.369428
945.815801	0.367651
945.993317	0.365301
946.170816	0.363651
946.348297	0.362016
946.525759	0.358666
946.703203	0.356637
946.880629	0.355425
947.058036	0.356015
947.235425	0.354987
947.412797	0.353083
947.590149	0.350091
947.767484	0.348105
947.944800	0.348836
948.122099	0.346806
948.299379	0.346401
948.476640	0.343403
948.653884	0.340634
948.831109	0.340786
949.008316	0.339938
949.185505	0.338530
949.362676	0.335479
949.539828	0.331197
949.716962	0.329019
949.894078	0.326714
950.071176	0.324485
950.248256	0.322199
950.425317	0.320167
950.602360	0.317828
950.779385	0.316929
950.956391	0.315720
951.133380	0.317568
951.310350	0.317602
951.487302	0.316765
951.664235	0.318441
951.841151	0.317826
952.018048	0.315162
952.194927	0.312170
952.371788	0.312347
952.548631	0.310614
952.725455	0.306434
952.902261	0.303153
953.079049	0.299491
953.255819	0.298412
953.432570	0.296575
953.609303	0.294462
953.786018	0.294229
953.962715	0.291411
954.139394	0.291011
954.316054	0.289202
954.492696	0.289682
954.669320	0.291274
954.845926	0.289379
955.022513	0.289402
955.199083	0.287061
955.375634	0.287275
955.552166	0.287732
955.728681	0.285572
955.905177	0.282418
956.081655	0.279222
956.258115	0.277429
956.434557	0.273877
956.610980	0.269675
956.787385	0.269836
956.963772	0.268154
957.140141	0.264309
957.316492	0.261246
957.492824	0.262111
957.669138	0.261512
957.845434	0.259766
958.021712	0.261299
958.197971	0.262835
958.374212	0.262367
958.550435	0.258656
958.726640	0.257646
958.902826	0.258649
959.078995	0.258205
959.255145	0.259055
959.431277	0.259681
959.607390	0.257408
959.783486	0.254585
959.959563	0.255125
960.135622	0.254861
960.311662	0.256524
960.487685	0.253770
960.663689	0.253346
960.839675	0.250559
961.015643	0.246778
961.191593	0.244675
961.367524	0.245991
961.543437	0.245434
961.719332	0.250197
961.895209	0.246481
962.071067	0.245608
962.246907	0.247053
962.422730	0.246922
962.598533	0.248860
962.774319	0.246867
962.950086	0.245187
963.125835	0.241010
963.301566	0.236590
963.477279	0.236551
963.652973	0.240256
963.828650	0.234875
964.004308	0.235253
964.179947	0.234163
964.355569	0.235995
964.531172	0.237479
964.706757	0.238961
964.882324	0.237585
965.057873	0.237406
965.233403	0.235106
965.408916	0.236825
965.584410	0.236431
965.759885	0.234697
965.935343	0.231637
966.110782	0.227999
966.286203	0.228817
966.461606	0.230157
966.636991	0.229031
966.812357	0.226877
966.987705	0.227182
967.163035	0.228382
967.338347	0.228692
967.513641	0.229511
967.688916	0.233450
967.864173	0.231609
968.039412	0.228127
968.214632	0.228185
968.389835	0.229861
968.565019	0.232105
968.740185	0.230615
968.915333	0.233303
969.090462	0.235364
969.265573	0.235738
969.440667	0.236021
969.615741	0.234984
969.790798	0.233660
969.965836	0.233807
970.140856	0.229727
970.315858	0.228063
970.490842	0.226177
970.665808	0.224419
970.840755	0.222616
971.015684	0.223072
971.190595	0.225567
971.365487	0.225235
971.540362	0.225238
971.715218	0.227747
971.890056	0.227932
972.064875	0.229031
972.239677	0.229002
972.414460	0.229175
972.589225	0.227415
972.763972	0.227660
972.938700	0.231096
973.113411	0.228012
973.288103	0.224459
973.462777	0.222911
973.637432	0.221232
973.812070	0.223384
973.986689	0.223472
974.161290	0.223627
974.335873	0.223420
974.510437	0.221874
974.684984	0.227800
974.859512	0.228186
975.034022	0.228588
975.208513	0.227188
975.382987	0.225199
975.557442	0.222739
975.731879	0.221932
975.906298	0.220705
976.080698	0.223219
976.255080	0.218856
976.429445	0.219292
976.603790	0.221617
976.778118	0.222821
976.952427	0.222848
977.126719	0.224918
977.300992	0.226529
977.475246	0.228265
977.649483	0.225180
977.823701	0.222466
977.997901	0.225768
978.172083	0.224459
978.346247	0.224936
978.520392	0.227666
978.694519	0.228347
978.868628	0.226851
979.042719	0.225337
979.216791	0.225777
979.390845	0.229831
979.564882	0.227106
979.738899	0.227308
979.912899	0.225985
980.086880	0.224292
980.260843	0.221916
980.434788	0.224041
980.608715	0.225250
980.782623	0.224560
980.956514	0.221788
981.130386	0.218977
981.304240	0.222428
981.478075	0.224715
981.651892	0.222560
981.825692	0.222886
981.999472	0.219938
982.173235	0.220448
982.346980	0.220099
982.520706	0.222370
982.694414	0.223130
982.868104	0.219433
983.041775	0.215803
983.215428	0.219331
983.389064	0.219056
983.562680	0.222065
983.736279	0.220387
983.909860	0.222502
984.083422	0.222157
984.256966	0.224066
984.430491	0.223037
984.603999	0.221102
984.777488	0.218283
984.950959	0.218813
985.124412	0.217383
985.297847	0.217457
985.471263	0.217276
985.644661	0.217669
985.818041	0.216403
985.991403	0.219262
986.164747	0.222181
986.338072	0.222761
986.511379	0.224647
986.684668	0.224999
986.857938	0.224557
987.031191	0.223547
987.204425	0.222131
987.377641	0.224786
987.550839	0.221136
987.724018	0.221433
987.897179	0.224526
988.070322	0.222469
988.243447	0.222940
988.416554	0.222198
988.589642	0.222331
988.762712	0.222326
988.935764	0.220943
989.108798	0.222324
989.281813	0.223541
989.454811	0.220622
989.627790	0.220156
989.800751	0.223099
989.973693	0.226384
990.146617	0.228359
990.319524	0.229614
990.492412	0.229793
990.665281	0.231496
990.838133	0.231937
991.010966	0.233016
991.183781	0.232960
991.356578	0.229444
991.529356	0.229630
991.702117	0.228389
991.874859	0.229260
992.047583	0.228749
992.220288	0.228406
992.392976	0.227803
992.565645	0.227189
992.738296	0.228611
992.910929	0.226924
993.083543	0.226280
993.256139	0.224657
993.428718	0.223802
993.601277	0.225172
993.773819	0.224366
993.946342	0.224364
994.118848	0.221334
994.291335	0.220155
994.463803	0.219950
994.636254	0.220517
994.808686	0.221430
994.981100	0.220005
995.153496	0.220208
995.325874	0.219129
995.498233	0.218209
995.670574	0.220031
995.842897	0.219733
996.015202	0.222260
996.187488	0.220281
996.359757	0.217846
996.532007	0.219959
996.704239	0.219237
996.876452	0.221447
997.048648	0.220523
997.220825	0.220631
997.392984	0.220907
997.565124	0.220914
997.737247	0.221037
997.909351	0.224197
998.081437	0.223659
998.253505	0.223056
998.425554	0.220850
998.597586	0.225480
998.769599	0.227045
998.941594	0.227266
999.113571	0.225286
999.285529	0.225355
999.457469	0.224887
999.629391	0.224337
999.801295	0.223837
999.973181	0.224662
1000.145048	0.220651
1000.316897	0.220011
1000.488728	0.222624
1000.660541	0.223296
1000.832335	0.225889
1001.004111	0.226494
1001.175869	0.225980
1001.347609	0.227541
1001.519331	0.229532
1001.691034	0.230527
1001.862719	0.230824
1002.034386	0.228168
1002.206035	0.228700
1002.377665	0.226444
1002.549277	0.225394
1002.720871	0.226273
1002.892447	0.227722
1003.064004	0.227169
1003.235544	0.229014
1003.407065	0.227953
1003.578568	0.226601
1003.750052	0.227739
1003.921519	0.227802
1004.092967	0.226430
1004.264397	0.224913
1004.435809	0.222713
1004.607202	0.221684
1004.778577	0.221271
1004.949934	0.222368
1005.121273	0.225071
1005.292594	0.224921
1005.463896	0.220268
1005.635180	0.221333
1005.806446	0.223142
1005.977694	0.224926
1006.148923	0.225059
1006.320135	0.225544
1006.491328	0.223490
1006.662503	0.223202
1006.833659	0.221606
1007.004798	0.226523
1007.175918	0.226308
1007.347020	0.225750
1007.518103	0.223589
1007.689169	0.222914
1007.860216	0.224217
1008.031245	0.227576
1008.202256	0.227060
1008.373248	0.228089
1008.544223	0.227574
1008.715179	0.227262
1008.886117	0.226569
1009.057036	0.225528
1009.227938	0.227202
1009.398821	0.223958
1009.569686	0.223011
1009.740533	0.220968
1009.911361	0.218295
1010.082172	0.217654
1010.252964	0.219669
1010.423738	0.221132
1010.594493	0.223405
1010.765231	0.223015
1010.935950	0.223514
1011.106651	0.224695
1011.277334	0.225072
1011.447998	0.226547
1011.618645	0.227029
1011.789273	0.225974
1011.959882	0.226877
1012.130474	0.225893
1012.301048	0.224288
1012.471603	0.226993
1012.642140	0.228623
1012.812658	0.230173
1012.983159	0.228508
1013.153641	0.228196
1013.324105	0.226695
1013.494551	0.224597
1013.664979	0.223001
1013.835388	0.226164
1014.005779	0.220711
1014.176152	0.216407
1014.346507	0.214223
1014.516843	0.216815
1014.687162	0.217646
1014.857462	0.218859
1015.027744	0.217578
1015.198007	0.219621
1015.368252	0.217410
1015.538480	0.220684
1015.708689	0.223720
1015.878879	0.225875
1016.049052	0.223063
1016.219206	0.224087
1016.389342	0.223634
1016.559460	0.226889
1016.729559	0.228482
1016.899641	0.228619
1017.069704	0.226026
1017.239749	0.224022
1017.409775	0.221982
1017.579784	0.224011
1017.749774	0.221642
1017.919746	0.223025
1018.089700	0.222189
1018.259635	0.220676
1018.429553	0.221924
1018.599452	0.225455
1018.769333	0.226222
1018.939195	0.227372
1019.109040	0.225767
1019.278866	0.227648
1019.448674	0.225678
1019.618464	0.224258
1019.788235	0.224262
1019.957989	0.224652
1020.127724	0.224601
1020.297441	0.223740
1020.467139	0.224170
1020.636820	0.223840
1020.806482	0.222974
1020.976126	0.222751
1021.145752	0.224771
1021.315359	0.224673
1021.484948	0.222335
1021.654519	0.219814
1021.824072	0.219072
1021.993607	0.221506
1022.163123	0.222885
1022.332621	0.222189
1022.502101	0.222435
1022.671563	0.221158
1022.841007	0.221581
1023.010432	0.225123
1023.179839	0.225446
1023.349228	0.225743
1023.518598	0.224911
1023.687951	0.225007
1023.857285	0.226488
1024.026601	0.228336
1024.195899	0.227531
1024.365178	0.226511
1024.534439	0.223358
1024.703682	0.225343
1024.872907	0.223204
1025.042114	0.221533
1025.211302	0.225237
1025.380472	0.222180
1025.549624	0.221168
1025.718758	0.221044
1025.887873	0.222276
1026.056970	0.224309
1026.226049	0.223399
1026.395110	0.224892
1026.564153	0.225763
1026.733177	0.222015
1026.902183	0.225659
1027.071171	0.227182
1027.240141	0.226661
1027.409092	0.225207
1027.578026	0.224202
1027.746940	0.222996
1027.915837	0.223923
1028.084716	0.224862
1028.253576	0.226476
1028.422418	0.223921
1028.591242	0.221835
1028.760048	0.225066
1028.928835	0.226964
1029.097604	0.226988
1029.266355	0.229094
1029.435088	0.230853
1029.603803	0.231588
1029.772499	0.228903
1029.941177	0.227976
1030.109837	0.229238
1030.278478	0.228386
1030.447102	0.225706
1030.615707	0.223630
1030.784294	0.222230
1030.952863	0.219820
1031.121413	0.218689
1031.289945	0.219967
1031.458460	0.222328
1031.626955	0.221811
1031.795433	0.221991
1031.963892	0.222860
1032.132334	0.222854
1032.300756	0.222409
1032.469161	0.224525
1032.637548	0.223352
1032.805916	0.221886
1032.974266	0.223562
1033.142598	0.222358
1033.310911	0.222163
1033.479207	0.223741
1033.647484	0.224545
1033.815743	0.223441
1033.983983	0.222620
1034.152206	0.222230
1034.320410	0.225380
1034.488596	0.223542
1034.656764	0.223877
1034.824914	0.223434
1034.993045	0.221407
1035.161158	0.222030
1035.329253	0.223104
1035.497330	0.222425
1035.665388	0.221828
1035.833428	0.220622
1036.001450	0.219153
1036.169454	0.221759
1036.337440	0.219886
1036.505407	0.219360
1036.673356	0.218653
1036.841287	0.216760
1037.009200	0.216072
1037.177094	0.218347
1037.344970	0.217859
1037.512828	0.217146
1037.680668	0.214811
1037.848489	0.214705
1038.016293	0.216070
1038.184078	0.215408
1038.351845	0.216184
1038.519593	0.216877
1038.687324	0.216768
1038.855036	0.218115
1039.022730	0.219554
1039.190406	0.219500
1039.358063	0.219097
1039.525702	0.220513
1039.693323	0.223699
1039.860926	0.226601
1040.028511	0.228431
1040.196077	0.225378
1040.363625	0.226435
1040.531155	0.225528
1040.698667	0.227626
1040.866161	0.227995
1041.033636	0.227878
1041.201093	0.225381
1041.368532	0.223506
1041.535952	0.220071
1041.703355	0.224000
1041.870739	0.219819
1042.038105	0.223231
1042.205452	0.221203
1042.372782	0.220411
1042.540093	0.221329
1042.707386	0.223999
1042.874661	0.224893
1043.041918	0.226055
1043.209156	0.224153
1043.376376	0.228475
1043.543578	0.225335
1043.710762	0.225460
1043.877927	0.228297
1044.045074	0.225813
1044.212203	0.222838
1044.379314	0.223033
1044.546407	0.222663
1044.713481	0.221481
1044.880537	0.220539
1045.047575	0.222464
1045.214595	0.222446
1045.381596	0.223007
1045.548579	0.221354
1045.715544	0.223786
1045.882491	0.221797
1046.049420	0.221673
1046.216330	0.219900
1046.383222	0.219772
1046.550096	0.220476
1046.716951	0.218800
1046.883789	0.215343
1047.050608	0.218562
1047.217409	0.215965
1047.384192	0.217721
1047.550956	0.219435
1047.717703	0.223191
1047.884431	0.223349
1048.051140	0.222058
1048.217832	0.222037
1048.384505	0.223927
1048.551161	0.223932
1048.717798	0.226299
1048.884416	0.226674
1049.051017	0.226036
1049.217599	0.221993
1049.384163	0.221308
1049.550709	0.221225
1049.717237	0.225680
1049.883746	0.226731
1050.050237	0.226312
1050.216710	0.225496
1050.383165	0.226233
1050.549601	0.226954
1050.716019	0.232343
1050.882420	0.232480
1051.048801	0.232988
1051.215165	0.230093
1051.381510	0.228708
1051.547837	0.230290
1051.714146	0.227554
1051.880437	0.225784
1052.046709	0.225602
1052.212964	0.223998
1052.379200	0.224275
1052.545417	0.223832
1052.711617	0.224316
1052.877798	0.226597
1053.043961	0.224867
1053.210106	0.228927
1053.376233	0.231362
1053.542341	0.231361
1053.708432	0.231676
1053.874504	0.227891
1054.040557	0.228610
1054.206593	0.227884
1054.372610	0.225317
1054.538609	0.224240
1054.704590	0.226073
1054.870553	0.222572
1055.036497	0.224480
1055.202424	0.223183
1055.368331	0.226825
1055.534221	0.224123
1055.700093	0.225955
1055.865946	0.227689
1056.031781	0.229613
1056.197598	0.224060
1056.363397	0.225716
1056.529177	0.224646
1056.694939	0.224971
1056.860683	0.222182
1057.026409	0.224300
1057.192116	0.224372
1057.357806	0.222566
1057.523477	0.221410
1057.689130	0.224910
1057.854764	0.225305
1058.020381	0.222116
1058.185979	0.223846
1058.351559	0.225360
1058.517120	0.226196
1058.682664	0.227143
1058.848189	0.228804
1059.013696	0.230191
1059.179185	0.228056
1059.344656	0.228640
1059.510108	0.230396
1059.675542	0.231896
1059.840958	0.232839
1060.006356	0.233473
1060.171735	0.234163
1060.337096	0.232749
1060.502439	0.232370
1060.667764	0.232889
1060.833071	0.233483
1060.998359	0.237468
1061.163629	0.234498
1061.328881	0.234430
1061.494115	0.233741
1061.659330	0.233077
1061.824527	0.233051
1061.989706	0.232922
1062.154867	0.232473
1062.320010	0.231221
1062.485134	0.229496
1062.650240	0.229749
1062.815328	0.228979
1062.980398	0.228827
1063.145449	0.228895
1063.310482	0.229248
1063.475497	0.229148
1063.640494	0.230635
1063.805473	0.231449
1063.970433	0.233188
1064.135375	0.233161
1064.300299	0.234674
1064.465204	0.234836
1064.630092	0.235116
1064.794961	0.235469
1064.959812	0.236833
1065.124645	0.235977
1065.289459	0.235590
1065.454256	0.231345
1065.619034	0.234574
1065.783793	0.236308
1065.948535	0.237779
1066.113258	0.235980
1066.277964	0.237384
1066.442651	0.235924
1066.607319	0.235549
1066.771970	0.235236
1066.936602	0.237579
1067.101216	0.237139
1067.265812	0.234083
1067.430389	0.231592
1067.594949	0.232148
1067.759490	0.232312
1067.924013	0.231786
1068.088518	0.233089
1068.253004	0.233035
1068.417472	0.231532
1068.581922	0.232249
1068.746354	0.234800
1068.910768	0.238904
1069.075163	0.239411
1069.239540	0.239722
1069.403899	0.240587
1069.568240	0.239431
1069.732562	0.239672
1069.896866	0.240757
1070.061152	0.237465
1070.225420	0.235377
1070.389670	0.235228
1070.553901	0.234807
1070.718114	0.236226
1070.882309	0.236932
1071.046486	0.238741
1071.210644	0.239569
1071.374784	0.237476
1071.538906	0.237750
1071.703010	0.241257
1071.867096	0.237508
1072.031163	0.238926
1072.195212	0.236886
1072.359243	0.236909
1072.523256	0.235773
1072.687250	0.234723
1072.851226	0.238078
1073.015184	0.239440
1073.179124	0.238151
1073.343045	0.239972
1073.506949	0.237396
1073.670834	0.237766
1073.834701	0.238498
1073.998549	0.240542
1074.162380	0.239849
1074.326192	0.239676
1074.489986	0.241031
1074.653761	0.241899
1074.817519	0.242790
1074.981258	0.243704
1075.144979	0.246115
1075.308682	0.242024
1075.472367	0.241300
1075.636033	0.243795
1075.799681	0.244085
1075.963311	0.243216
1076.126923	0.241129
1076.290516	0.240556
1076.454092	0.240392
1076.617649	0.235453
1076.781187	0.235700
1076.944708	0.235373
1077.108210	0.236412
1077.271695	0.237834
1077.435160	0.238336
1077.598608	0.237998
1077.762038	0.240103
1077.925449	0.241374
1078.088842	0.246350
1078.252217	0.250233
1078.415573	0.252754
1078.578912	0.254007
1078.742232	0.251447
1078.905534	0.250315
1079.068817	0.249538
1079.232083	0.246252
1079.395330	0.245472
1079.558559	0.243519
1079.721770	0.244270
1079.884962	0.242229
1080.048136	0.240346
1080.211293	0.242227
1080.374430	0.245133
1080.537550	0.245087
1080.700651	0.251463
1080.863735	0.253883
1081.026800	0.254019
1081.189846	0.255043
1081.352875	0.257324
1081.515885	0.256176
1081.678877	0.256920
1081.841851	0.252962
1082.004807	0.257850
1082.167744	0.253059
1082.330663	0.253294
1082.493564	0.253082
1082.656447	0.251483
1082.819312	0.252184
1082.982158	0.256233
1083.144986	0.254686
1083.307796	0.254708
1083.470587	0.251743
1083.633361	0.250610
1083.796116	0.250056
1083.958853	0.252192
1084.121571	0.249605
1084.284272	0.250498
1084.446954	0.247237
1084.609618	0.247448
1084.772264	0.248692
1084.934892	0.250194
1085.097501	0.250164
1085.260092	0.248857
1085.422665	0.248296
1085.585220	0.252252
1085.747756	0.249558
1085.910274	0.250239
1086.072774	0.248782
1086.235256	0.248701
1086.397720	0.247388
1086.560165	0.250931
1086.722592	0.251286
1086.885001	0.252178
1087.047392	0.251907
1087.209764	0.252152
1087.372119	0.254553
1087.534455	0.255883
1087.696772	0.257402
1087.859072	0.258508
1088.021353	0.258395
1088.183616	0.258582
1088.345861	0.258146
1088.508088	0.259357
1088.670296	0.259440
1088.832486	0.259185
1088.994658	0.261300
1089.156812	0.262048
1089.318948	0.266520
1089.481065	0.264741
1089.643164	0.267618
1089.805245	0.262340
1089.967308	0.259287
1090.129352	0.259769
1090.291378	0.255874
1090.453386	0.257545
1090.615376	0.254325
1090.777347	0.251866
1090.939301	0.254013
1091.101236	0.252105
1091.263153	0.259879
1091.425051	0.260885
1091.586932	0.257235
1091.748794	0.257383
1091.910638	0.255750
1092.072463	0.261314
1092.234271	0.261186
1092.396060	0.258031
1092.557831	0.261327
1092.719584	0.259201
1092.881319	0.257930
1093.043035	0.260263
1093.204733	0.263832
1093.366413	0.265658
1093.528075	0.263135
1093.689718	0.258048
1093.851343	0.256490
1094.012950	0.250455
1094.174539	0.253615
1094.336110	0.256581
1094.497662	0.254324
1094.659196	0.253053
1094.820712	0.251200
1094.982210	0.251476
1095.143689	0.256444
1095.305151	0.259890
1095.466594	0.264437
1095.628018	0.260224
1095.789425	0.258991
1095.950813	0.264532
1096.112183	0.264735
1096.273535	0.263825
1096.434869	0.261108
1096.596184	0.261734
1096.757482	0.263004
1096.918761	0.265660
1097.080021	0.269440
1097.241264	0.271881
1097.402488	0.268247
1097.563694	0.272227
1097.724882	0.276595
1097.886052	0.281005
1098.047203	0.283616
1098.208336	0.280430
1098.369451	0.276366
1098.530548	0.271849
1098.691627	0.272456
1098.852687	0.276443
1099.013729	0.271875
1099.174753	0.268951
1099.335758	0.266420
1099.496746	0.265360
1099.657715	0.269594
1099.818666	0.269890
1099.979599	0.269032
1100.140513	0.266592
1100.301409	0.261579
1100.462287	0.266095
1100.623147	0.267683
1100.783989	0.270703
1100.944812	0.270893
1101.105617	0.268810
1101.266404	0.269383
1101.427173	0.278674
1101.587923	0.283734
1101.748656	0.287567
1101.909370	0.289810
1102.070066	0.287065
1102.230743	0.282632
1102.391403	0.281590
1102.552044	0.284218
1102.712667	0.282490
1102.873271	0.279537
1103.033858	0.271082
1103.194426	0.272494
1103.354976	0.265393
1103.515508	0.264451
1103.676021	0.269100
1103.836517	0.266123
1103.996994	0.264558
1104.157453	0.269106
1104.317893	0.263899
1104.478316	0.268878
1104.638720	0.264387
1104.799106	0.267182
1104.959474	0.270701
1105.119823	0.268387
1105.280155	0.272015
1105.440468	0.267011
1105.600763	0.263644
1105.761039	0.269728
1105.921298	0.272086
1106.081538	0.277559
1106.241760	0.277693
1106.401964	0.276963
1106.562149	0.274916
1106.722316	0.273852
1106.882465	0.278054
1107.042596	0.284197
1107.202709	0.284774
1107.362803	0.279779
1107.522879	0.279725
1107.682937	0.281559
1107.842977	0.280431
1108.002999	0.282284
1108.163002	0.285288
1108.322987	0.286006
1108.482954	0.280931
1108.642902	0.275326
1108.802833	0.277761
1108.962745	0.277811
1109.122639	0.275701
1109.282515	0.277405
1109.442372	0.278066
1109.602211	0.279122
1109.762032	0.278716
1109.921835	0.279688
1110.081620	0.280547
1110.241386	0.283429
1110.401134	0.281489
1110.560864	0.280651
1110.720576	0.283957
1110.880269	0.285925
1111.039945	0.285244
1111.199602	0.287138
1111.359240	0.293123
1111.518861	0.294236
1111.678463	0.295166
1111.838047	0.293748
1111.997613	0.293186
1112.157161	0.286182
1112.316690	0.290320
1112.476202	0.289482
1112.635695	0.284495
1112.795169	0.281382
1112.954626	0.282004
1113.114064	0.281680
1113.273484	0.284920
1113.432886	0.288801
1113.592270	0.291470
1113.751635	0.289569
1113.910983	0.292682
1114.070312	0.305292
1114.229622	0.301167
1114.388915	0.297552
1114.548189	0.299702
1114.707445	0.299862
1114.866683	0.301704
1115.025903	0.305938
1115.185104	0.304241
1115.344287	0.300905
1115.503452	0.294695
1115.662599	0.295770
1115.821727	0.304800
1115.980838	0.298932
1116.139930	0.296919
1116.299004	0.296362
1116.458059	0.291913
1116.617097	0.286606
1116.776116	0.288625
1116.935117	0.282427
1117.094099	0.285741
1117.253064	0.282523
1117.412010	0.284225
1117.570938	0.288101
1117.729848	0.286380
1117.888740	0.289545
1118.047613	0.294376
1118.206468	0.293489
1118.365305	0.296855
1118.524124	0.297501
1118.682924	0.300230
1118.841707	0.298938
1119.000471	0.302062
1119.159216	0.305266
1119.317944	0.307141
1119.476653	0.305107
1119.635344	0.297596
1119.794017	0.300177
1119.952672	0.296843
1120.111308	0.290377
1120.269927	0.293787
1120.428527	0.285973
1120.587108	0.286076
1120.745672	0.288629
1120.904217	0.295527
1121.062744	0.305128
1121.221253	0.303253
1121.379744	0.301638
1121.538216	0.304605
1121.696671	0.307479
1121.855107	0.312593
1122.013524	0.308384
1122.171924	0.299168
1122.330305	0.295889
1122.488668	0.291279
1122.647013	0.292771
1122.805340	0.300855
1122.963648	0.304823
1123.121938	0.296796
1123.280210	0.294265
1123.438464	0.293375
1123.596700	0.297550
1123.754917	0.299411
1123.913116	0.299683
1124.071297	0.304869
1124.229459	0.298156
1124.387604	0.291036
1124.545730	0.305342
1124.703838	0.309269
1124.861928	0.309777
1125.019999	0.307304
1125.178052	0.311575
1125.336088	0.312266
1125.494104	0.312299
1125.652103	0.317616
1125.810083	0.322684
1125.968045	0.317036
1126.125989	0.317833
1126.283915	0.318444
1126.441823	0.317730
1126.599712	0.306725
1126.757583	0.307254
1126.915436	0.303933
1127.073270	0.306881
1127.231087	0.308892
1127.388885	0.305442
1127.546665	0.303280
1127.704426	0.318407
1127.862170	0.315982
1128.019895	0.315432
1128.177602	0.309671
1128.335291	0.306288
1128.492961	0.303332
1128.650614	0.296902
1128.808248	0.296334
1128.965864	0.291485
1129.123461	0.282144
1129.281041	0.291176
1129.438602	0.289816
1129.596145	0.293665
1129.753670	0.298395
1129.911176	0.301681
1130.068665	0.301643
1130.226135	0.294823
1130.383587	0.301611
1130.541020	0.288677
1130.698436	0.286698
1130.855833	0.294601
1131.013212	0.300569
1131.170573	0.310251
1131.327915	0.304608
1131.485239	0.312066
1131.642545	0.318154
1131.799833	0.318519
1131.957103	0.324757
1132.114354	0.322219
1132.271588	0.322142
1132.428803	0.316857
1132.585999	0.308234
1132.743178	0.315468
1132.900338	0.315665
1133.057480	0.319397
1133.214604	0.313771
1133.371710	0.316271
1133.528797	0.314121
1133.685866	0.318370
1133.842917	0.322456
1133.999950	0.319037
1134.156964	0.314337
1134.313960	0.309516
1134.470938	0.309336
1134.627898	0.314333
1134.784840	0.319364
1134.941763	0.327535
1135.098668	0.327155
1135.255555	0.327283
1135.412424	0.332033
1135.569274	0.328160
1135.726107	0.331000
1135.882921	0.331256
1136.039716	0.325532
1136.196494	0.325131
1136.353253	0.326294
1136.509995	0.317874
1136.666717	0.321141
1136.823422	0.319023
1136.980109	0.319108
1137.136777	0.328688
1137.293427	0.334100
1137.450059	0.330098
1137.606672	0.320324
1137.763267	0.304010
1137.919844	0.302337
1138.076403	0.297209
1138.232944	0.289941
1138.389466	0.290416
1138.545971	0.281725
1138.702457	0.270971
1138.858924	0.282203
1139.015374	0.288164
1139.171805	0.314324
1139.328218	0.317979
1139.484613	0.323034
1139.640990	0.327234
1139.797348	0.316485
1139.953688	0.306043
1140.110010	0.312372
1140.266314	0.314875
1140.422600	0.309311
1140.578867	0.293065
1140.735116	0.295527
1140.891347	0.282923
1141.047559	0.286886
1141.203754	0.298805
1141.359930	0.306301
1141.516088	0.308718
1141.672228	0.306169
1141.828349	0.312551
1141.984452	0.302707
1142.140537	0.303641
1142.296604	0.309920
1142.452653	0.307034
1142.608683	0.300731
1142.764695	0.299029
1142.920689	0.301914
1143.076665	0.306259
1143.232622	0.312124
1143.388562	0.332815
1143.544483	0.342542
1143.700385	0.344290
1143.856270	0.350600
1144.012136	0.350685
1144.167985	0.364360
1144.323814	0.350542
1144.479626	0.344406
1144.635420	0.339212
1144.791195	0.331269
1144.946952	0.318699
1145.102691	0.318952
1145.258411	0.310818
1145.414113	0.323908
1145.569798	0.314216
1145.725463	0.323248
1145.881111	0.314919
1146.036741	0.309471
1146.192352	0.303259
1146.347945	0.297413
1146.503519	0.291300
1146.659076	0.297944
1146.814614	0.287010
1146.970134	0.289635
1147.125636	0.282775
1147.281120	0.298499
1147.436585	0.298495
1147.592032	0.302211
1147.747461	0.320636
1147.902872	0.326926
1148.058265	0.322853
1148.213639	0.319768
1148.368995	0.327557
1148.524333	0.334150
1148.679653	0.328989
1148.834954	0.341077
1148.990237	0.343265
1149.145502	0.350867
1149.300749	0.369868
1149.455977	0.377818
1149.611188	0.386279
1149.766380	0.382693
1149.921553	0.378413
1150.076709	0.380197
1150.231846	0.357894
1150.386966	0.355709
1150.542066	0.331185
1150.697149	0.317138
1150.852214	0.318130
1151.007260	0.326283
1151.162288	0.315148
1151.317298	0.318345
1151.472289	0.307038
1151.627263	0.320790
1151.782218	0.324980
1151.937155	0.344906
1152.092073	0.348202
1152.246974	0.341023
1152.401856	0.326815
1152.556720	0.328553
1152.711566	0.317116
1152.866393	0.318136
1153.021203	0.315781
1153.175994	0.314234
1153.330767	0.298964
1153.485521	0.300950
1153.640258	0.301018
1153.794976	0.310747
1153.949676	0.311465
1154.104358	0.326753
1154.259021	0.332658
1154.413667	0.315051
1154.568294	0.309434
1154.722903	0.329527
1154.877493	0.318503
1155.032066	0.322057
1155.186620	0.322877
1155.341156	0.330402
1155.495674	0.327012
1155.650173	0.335971
1155.804654	0.366943
1155.959118	0.370302
1156.113562	0.352691
1156.267989	0.351367
1156.422397	0.338020
1156.576788	0.337982
1156.731160	0.328804
1156.885513	0.326062
1157.039849	0.318338
1157.194166	0.322413
1157.348465	0.328971
1157.502746	0.321627
1157.657009	0.318928
1157.811253	0.323155
1157.965479	0.318097
1158.119687	0.338429
1158.273877	0.347629
1158.428048	0.347464
1158.582201	0.341322
1158.736337	0.331636
1158.890453	0.329478
1159.044552	0.343759
1159.198632	0.350918
1159.352694	0.341728
1159.506738	0.310427
1159.660764	0.299525
1159.814771	0.300150
1159.968761	0.289379
1160.122732	0.295032
1160.276685	0.304076
1160.430619	0.293713
1160.584535	0.298820
1160.738434	0.309165
1160.892313	0.337216
1161.046175	0.348769
1161.200019	0.335136
1161.353844	0.339477
1161.507651	0.349547
1161.661440	0.339176
1161.815210	0.340212
1161.968962	0.320065
1162.122697	0.315638
1162.276412	0.317142
1162.430110	0.307863
1162.583789	0.319075
1162.737451	0.310116
1162.891094	0.308397
1163.044718	0.313106
1163.198325	0.330049
1163.351913	0.351291
1163.505483	0.360917
1163.659035	0.343636
1163.812569	0.340071
1163.966084	0.326567
1164.119581	0.352544
1164.273060	0.346693
1164.426521	0.352994
1164.579964	0.328568
1164.733388	0.331836
1164.886794	0.331682
1165.040182	0.328495
1165.193551	0.338680
1165.346903	0.346559
1165.500236	0.339227
1165.653551	0.341616
1165.806848	0.342683
1165.960126	0.358786
1166.113386	0.348217
1166.266628	0.345236
1166.419852	0.347701
1166.573058	0.318835
1166.726245	0.313317
1166.879414	0.313974
1167.032565	0.317311
1167.185698	0.302224
1167.338812	0.314501
1167.491909	0.308313
1167.644987	0.312742
1167.798046	0.312019
1167.951088	0.334331
1168.104111	0.338524
1168.257117	0.333607
1168.410103	0.322343
1168.563072	0.321234
1168.716023	0.316695
1168.868955	0.309975
1169.021869	0.298677
1169.174765	0.299743
1169.327642	0.301004
1169.480501	0.306018
1169.633343	0.295446
1169.786165	0.277908
1169.938970	0.300962
1170.091757	0.286983
1170.244525	0.292440
1170.397275	0.293221
1170.550007	0.293949
1170.702720	0.293502
1170.855415	0.291212
1171.008092	0.296915
1171.160751	0.320283
1171.313392	0.309573
1171.466014	0.296449
1171.618619	0.335249
1171.771205	0.335249
1171.923772	0.335249
