sample name	sample
index	563
start time	 03-16-2021  02:28:35 PM


Wavelength (nm)	Absorbance
494.344910	0.082094
494.563924	0.082094
494.782919	0.082094
495.001897	-0.076877
495.220856	-0.000942
495.439797	-0.016677
495.658719	-0.027378
495.877624	-0.062482
496.096510	-0.055033
496.315378	-0.072965
496.534227	-0.083902
496.753059	-0.089018
496.971872	-0.087633
497.190667	-0.014003
497.409444	0.014585
497.628203	0.022103
497.846943	0.030280
498.065665	0.031381
498.284369	0.032729
498.503055	0.034588
498.721723	0.034611
498.940372	0.035990
499.159003	0.036672
499.377616	0.035078
499.596210	0.035384
499.814787	0.033619
500.033345	0.034437
500.251885	0.036782
500.470406	0.035606
500.688910	0.036660
500.907395	0.035847
501.125862	0.036352
501.344311	0.037002
501.562742	0.037481
501.781154	0.039874
501.999548	0.039076
502.217924	0.038278
502.436282	0.039536
502.654621	0.038642
502.872942	0.039632
503.091245	0.039020
503.309530	0.039826
503.527797	0.039911
503.746045	0.038126
503.964275	0.037735
504.182487	0.037459
504.400681	0.036071
504.618856	0.036601
504.837013	0.036150
505.055152	0.035765
505.273273	0.035809
505.491376	0.035099
505.709460	0.034757
505.927526	0.035560
506.145574	0.035681
506.363604	0.035932
506.581615	0.036583
506.799608	0.036968
507.017583	0.036899
507.235540	0.037159
507.453478	0.037220
507.671399	0.038211
507.889301	0.038529
508.107185	0.038264
508.325050	0.038166
508.542898	0.038007
508.760727	0.038134
508.978538	0.037508
509.196330	0.037548
509.414105	0.037578
509.631861	0.037675
509.849599	0.037509
510.067319	0.037914
510.285021	0.037668
510.502704	0.037154
510.720369	0.037070
510.938016	0.037982
511.155645	0.037545
511.373255	0.037793
511.590848	0.037330
511.808422	0.036855
512.025977	0.036256
512.243515	0.036866
512.461034	0.037140
512.678536	0.036645
512.896018	0.036997
513.113483	0.036972
513.330930	0.036647
513.548358	0.037401
513.765768	0.037338
513.983160	0.037247
514.200533	0.037009
514.417889	0.036408
514.635226	0.036653
514.852545	0.036033
515.069845	0.035851
515.287128	0.036141
515.504392	0.036597
515.721638	0.037420
515.938866	0.037817
516.156075	0.038078
516.373267	0.038384
516.590440	0.038342
516.807594	0.038397
517.024731	0.038323
517.241850	0.037842
517.458950	0.037560
517.676032	0.036765
517.893095	0.036201
518.110141	0.035886
518.327168	0.035947
518.544177	0.036486
518.761168	0.036627
518.978141	0.037260
519.195095	0.037729
519.412031	0.037727
519.628949	0.038034
519.845849	0.039073
520.062731	0.039949
520.279594	0.039619
520.496439	0.039308
520.713266	0.039647
520.930074	0.039478
521.146865	0.039900
521.363637	0.039680
521.580391	0.039700
521.797127	0.039096
522.013844	0.038579
522.230543	0.039267
522.447224	0.039737
522.663887	0.039460
522.880532	0.039476
523.097158	0.039370
523.313766	0.039382
523.530356	0.039853
523.746928	0.039568
523.963481	0.039947
524.180017	0.040089
524.396534	0.039699
524.613032	0.039331
524.829513	0.038796
525.045975	0.039121
525.262420	0.038982
525.478845	0.038416
525.695253	0.038622
525.911643	0.038236
526.128014	0.038285
526.344367	0.037977
526.560702	0.038634
526.777018	0.039047
526.993316	0.038769
527.209597	0.038620
527.425858	0.039033
527.642102	0.040147
527.858328	0.040879
528.074535	0.040715
528.290724	0.041017
528.506894	0.040771
528.723047	0.040871
528.939181	0.041084
529.155297	0.041941
529.371395	0.042140
529.587475	0.040950
529.803536	0.040714
530.019579	0.040762
530.235604	0.041478
530.451611	0.041964
530.667600	0.041608
530.883570	0.041691
531.099522	0.041024
531.315456	0.040730
531.531372	0.041010
531.747269	0.041036
531.963148	0.041400
532.179009	0.040797
532.394852	0.040696
532.610676	0.041761
532.826482	0.041812
533.042271	0.042164
533.258040	0.042317
533.473792	0.041813
533.689525	0.041843
533.905240	0.042242
534.120937	0.042626
534.336616	0.042124
534.552277	0.042237
534.767919	0.042384
534.983543	0.042412
535.199149	0.042635
535.414736	0.043540
535.630306	0.043546
535.845857	0.042789
536.061390	0.043065
536.276904	0.044197
536.492401	0.044229
536.707879	0.044569
536.923339	0.044960
537.138781	0.044869
537.354204	0.044882
537.569610	0.045184
537.784997	0.045117
538.000366	0.044488
538.215716	0.044546
538.431049	0.044565
538.646363	0.044429
538.861659	0.044000
539.076937	0.043742
539.292196	0.043168
539.507438	0.042970
539.722661	0.043045
539.937866	0.043453
540.153052	0.043025
540.368221	0.042907
540.583371	0.042973
540.798503	0.043486
541.013617	0.044312
541.228712	0.044651
541.443789	0.044724
541.658848	0.045027
541.873889	0.044861
542.088912	0.044489
542.303916	0.044048
542.518902	0.043791
542.733870	0.043725
542.948820	0.043363
543.163752	0.043858
543.378665	0.043942
543.593560	0.044108
543.808437	0.044395
544.023295	0.044841
544.238136	0.045415
544.452958	0.045001
544.667762	0.045217
544.882548	0.045373
545.097315	0.045406
545.312064	0.045966
545.526795	0.045821
545.741508	0.045954
545.956203	0.045855
546.170879	0.045595
546.385537	0.045671
546.600177	0.044925
546.814799	0.045064
547.029402	0.045037
547.243988	0.044473
547.458555	0.044491
547.673103	0.044013
547.887634	0.044213
548.102146	0.044480
548.316640	0.045014
548.531116	0.046001
548.745574	0.045707
548.960013	0.045753
549.174435	0.046123
549.388838	0.046676
549.603222	0.046837
549.817589	0.046785
550.031937	0.046726
550.246267	0.046916
550.460579	0.046342
550.674873	0.046231
550.889148	0.046076
551.103405	0.045895
551.317644	0.045365
551.531865	0.045692
551.746068	0.045534
551.960252	0.045271
552.174418	0.045056
552.388566	0.044794
552.602696	0.045442
552.816807	0.045440
553.030900	0.045537
553.244975	0.045203
553.459032	0.045411
553.673070	0.045674
553.887091	0.046187
554.101093	0.046253
554.315077	0.046782
554.529042	0.046274
554.742990	0.046297
554.956919	0.046008
555.170830	0.046484
555.384722	0.046614
555.598597	0.047058
555.812453	0.046501
556.026291	0.046648
556.240111	0.046712
556.453913	0.046921
556.667696	0.046972
556.881461	0.047100
557.095208	0.047347
557.308937	0.046881
557.522647	0.046710
557.736339	0.046987
557.950013	0.046715
558.163669	0.046572
558.377307	0.046676
558.590926	0.046765
558.804527	0.046576
559.018110	0.047076
559.231675	0.047193
559.445221	0.047813
559.658749	0.047814
559.872259	0.048068
560.085751	0.047805
560.299225	0.047849
560.512680	0.048037
560.726117	0.048413
560.939536	0.048243
561.152937	0.048559
561.366319	0.047834
561.579683	0.047895
561.793029	0.047743
562.006357	0.048182
562.219667	0.048613
562.432958	0.048681
562.646231	0.048673
562.859486	0.048238
563.072723	0.048053
563.285941	0.048277
563.499141	0.048736
563.712323	0.048998
563.925487	0.048875
564.138632	0.048639
564.351760	0.048544
564.564869	0.048746
564.777960	0.048911
564.991032	0.049232
565.204087	0.049231
565.417123	0.048955
565.630141	0.048444
565.843140	0.048822
566.056122	0.048619
566.269085	0.048509
566.482030	0.048527
566.694957	0.048292
566.907866	0.047893
567.120756	0.047562
567.333628	0.047290
567.546482	0.047852
567.759318	0.047665
567.972135	0.047905
568.184935	0.048120
568.397716	0.047920
568.610478	0.047684
568.823223	0.047560
569.035949	0.048140
569.248657	0.048547
569.461347	0.048663
569.674019	0.048807
569.886672	0.048482
570.099308	0.048480
570.311925	0.048664
570.524523	0.049173
570.737104	0.049605
570.949666	0.049368
571.162210	0.049423
571.374736	0.049542
571.587244	0.049903
571.799733	0.050179
572.012205	0.049857
572.224658	0.050027
572.437092	0.050066
572.649509	0.049990
572.861907	0.049838
573.074287	0.049754
573.286649	0.049454
573.498993	0.049112
573.711318	0.048958
573.923625	0.049398
574.135914	0.049332
574.348185	0.049405
574.560438	0.049339
574.772672	0.049377
574.984888	0.049411
575.197086	0.049696
575.409266	0.049602
575.621427	0.049882
575.833570	0.049842
576.045695	0.050254
576.257802	0.050351
576.469890	0.050635
576.681961	0.050572
576.894013	0.050491
577.106046	0.050373
577.318062	0.050584
577.530059	0.050228
577.742039	0.050187
577.954000	0.050095
578.165942	0.050114
578.377867	0.049807
578.589773	0.050029
578.801661	0.050407
579.013531	0.050524
579.225382	0.050243
579.437216	0.050592
579.649031	0.050923
579.860828	0.050801
580.072606	0.050968
580.284367	0.051010
580.496109	0.050998
580.707833	0.051116
580.919539	0.051064
581.131227	0.051364
581.342896	0.051686
581.554547	0.051394
581.766180	0.051407
581.977795	0.050882
582.189391	0.050928
582.400969	0.050911
582.612529	0.050542
582.824071	0.050506
583.035595	0.050491
583.247100	0.050086
583.458587	0.050110
583.670056	0.050262
583.881506	0.050542
584.092939	0.050577
584.304353	0.050958
584.515749	0.051156
584.727127	0.051155
584.938486	0.051054
585.149828	0.051156
585.361151	0.051509
585.572456	0.051281
585.783742	0.051308
585.995011	0.051510
586.206261	0.051278
586.417493	0.051111
586.628706	0.051044
586.839902	0.051162
587.051079	0.050961
587.262238	0.050601
587.473379	0.050742
587.684502	0.051033
587.895606	0.050896
588.106692	0.050966
588.317760	0.050968
588.528810	0.051032
588.739841	0.051352
588.950855	0.051764
589.161850	0.051543
589.372827	0.051376
589.583785	0.051541
589.794726	0.051763
590.005648	0.051391
590.216552	0.051573
590.427437	0.051576
590.638305	0.051216
590.849154	0.051052
591.059985	0.051448
591.270798	0.051660
591.481592	0.051561
591.692369	0.051315
591.903127	0.051714
592.113867	0.051702
592.324588	0.051854
592.535292	0.051967
592.745977	0.052035
592.956644	0.052300
593.167293	0.052235
593.377923	0.051580
593.588536	0.052157
593.799130	0.052389
594.009706	0.052212
594.220263	0.052275
594.430803	0.052382
594.641324	0.052655
594.851827	0.052227
595.062312	0.052365
595.272778	0.052842
595.483227	0.052576
595.693657	0.052109
595.904069	0.052229
596.114462	0.052371
596.324838	0.052265
596.535195	0.051835
596.745534	0.051909
596.955855	0.051869
597.166157	0.051885
597.376441	0.051911
597.586707	0.052589
597.796955	0.052918
598.007185	0.052956
598.217396	0.053193
598.427589	0.053326
598.637764	0.053370
598.847921	0.053321
599.058060	0.053570
599.268180	0.053696
599.478282	0.053485
599.688366	0.053344
599.898431	0.052991
600.108479	0.052879
600.318508	0.053346
600.528519	0.053426
600.738511	0.053762
600.948486	0.053715
601.158442	0.053680
601.368380	0.053742
601.578300	0.053938
601.788202	0.054147
601.998085	0.054300
602.207950	0.054172
602.417797	0.054161
602.627626	0.054182
602.837436	0.054189
603.047228	0.054067
603.257002	0.054072
603.466758	0.054151
603.676496	0.053973
603.886215	0.054149
604.095916	0.054210
604.305599	0.054168
604.515264	0.053873
604.724910	0.053828
604.934538	0.053961
605.144148	0.053962
605.353740	0.053902
605.563314	0.054174
605.772869	0.053685
605.982406	0.053915
606.191925	0.054287
606.401425	0.054616
606.610908	0.054484
606.820372	0.054524
607.029818	0.054628
607.239246	0.054426
607.448655	0.054367
607.658047	0.054637
607.867420	0.054306
608.076775	0.054120
608.286111	0.053876
608.495430	0.053937
608.704730	0.054080
608.914012	0.054333
609.123275	0.054547
609.332521	0.054913
609.541748	0.055247
609.750957	0.055354
609.960148	0.055515
610.169321	0.055602
610.378475	0.055944
610.587611	0.055826
610.796729	0.055515
611.005829	0.055435
611.214910	0.055401
611.423974	0.055155
611.633019	0.055100
611.842045	0.054860
612.051054	0.055005
612.260044	0.054852
612.469017	0.054878
612.677970	0.054932
612.886906	0.055266
613.095824	0.055070
613.304723	0.055221
613.513604	0.055043
613.722467	0.055395
613.931311	0.055369
614.140138	0.055459
614.348946	0.055445
614.557736	0.055498
614.766507	0.055284
614.975261	0.055414
615.183996	0.055483
615.392713	0.055608
615.601412	0.055695
615.810092	0.055675
616.018754	0.055917
616.227399	0.056010
616.436024	0.055780
616.644632	0.055793
616.853222	0.055858
617.061793	0.055789
617.270346	0.056015
617.478880	0.056176
617.687397	0.056147
617.895895	0.055712
618.104375	0.055786
618.312837	0.055926
618.521281	0.056318
618.729706	0.056248
618.938113	0.056383
619.146502	0.056521
619.354873	0.056449
619.563226	0.056554
619.771560	0.056744
619.979876	0.057032
620.188174	0.057320
620.396453	0.057185
620.604715	0.057523
620.812958	0.057538
621.021183	0.057532
621.229390	0.057545
621.437578	0.057688
621.645748	0.057547
621.853900	0.057646
622.062034	0.057392
622.270150	0.057105
622.478247	0.056937
622.686326	0.056650
622.894387	0.056713
623.102430	0.056701
623.310454	0.056819
623.518461	0.057175
623.726449	0.056912
623.934418	0.057116
624.142370	0.057283
624.350303	0.057169
624.558218	0.057237
624.766115	0.057106
624.973994	0.056859
625.181855	0.056737
625.389697	0.056718
625.597521	0.056879
625.805327	0.056719
626.013114	0.056825
626.220883	0.057004
626.428634	0.057208
626.636367	0.057364
626.844082	0.057324
627.051778	0.057506
627.259457	0.057432
627.467117	0.057309
627.674758	0.057364
627.882382	0.057279
628.089987	0.057401
628.297574	0.057546
628.505143	0.057640
628.712694	0.057873
628.920226	0.057792
629.127740	0.057858
629.335236	0.058049
629.542714	0.058417
629.750174	0.058606
629.957615	0.058354
630.165038	0.058303
630.372443	0.058356
630.579829	0.058366
630.787198	0.058218
630.994548	0.058149
631.201880	0.057817
631.409194	0.057638
631.616489	0.057658
631.823766	0.057623
632.031025	0.057583
632.238266	0.057580
632.445489	0.057671
632.652693	0.057631
632.859879	0.057969
633.067047	0.058138
633.274197	0.058135
633.481329	0.058144
633.688442	0.058351
633.895537	0.058222
634.102614	0.058083
634.309672	0.057868
634.516713	0.058076
634.723735	0.057833
634.930739	0.057844
635.137724	0.057750
635.344692	0.057660
635.551641	0.057764
635.758572	0.057862
635.965485	0.057947
636.172379	0.058101
636.379256	0.058213
636.586114	0.058434
636.792954	0.058599
636.999775	0.058918
637.206579	0.059209
637.413364	0.059121
637.620131	0.059385
637.826880	0.059479
638.033610	0.059671
638.240323	0.059532
638.447017	0.059612
638.653692	0.059575
638.860350	0.059345
639.066990	0.059406
639.273611	0.059447
639.480214	0.059460
639.686798	0.059453
639.893365	0.059615
640.099913	0.059992
640.306443	0.059757
640.512955	0.059693
640.719449	0.059832
640.925924	0.059490
641.132381	0.059542
641.338820	0.059505
641.545241	0.059530
641.751644	0.059375
641.958028	0.059095
642.164394	0.059252
642.370742	0.059491
642.577071	0.059635
642.783383	0.059998
642.989676	0.060204
643.195951	0.060385
643.402207	0.060595
643.608446	0.060709
643.814666	0.060761
644.020868	0.060715
644.227052	0.060656
644.433218	0.060799
644.639365	0.060464
644.845494	0.060203
645.051605	0.060173
645.257698	0.060074
645.463772	0.060238
645.669828	0.060395
645.875866	0.060637
646.081886	0.060927
646.287888	0.060714
646.493871	0.060899
646.699836	0.061106
646.905783	0.061023
647.111712	0.061089
647.317622	0.060874
647.523514	0.060838
647.729388	0.060648
647.935244	0.060560
648.141082	0.060729
648.346901	0.060854
648.552702	0.060832
648.758485	0.060822
648.964250	0.060897
649.169996	0.061333
649.375724	0.061346
649.581434	0.061494
649.787126	0.061391
649.992800	0.061372
650.198455	0.061126
650.404092	0.061137
650.609711	0.061156
650.815311	0.061292
651.020894	0.061086
651.226458	0.061124
651.432004	0.061199
651.637532	0.061276
651.843041	0.061265
652.048532	0.061484
652.254006	0.061561
652.459460	0.061884
652.664897	0.061729
652.870315	0.061811
653.075716	0.061786
653.281097	0.061732
653.486461	0.061831
653.691807	0.061889
653.897134	0.062004
654.102443	0.062156
654.307734	0.062077
654.513006	0.062121
654.718261	0.061987
654.923497	0.062114
655.128715	0.062127
655.333915	0.062438
655.539096	0.062517
655.744259	0.062745
655.949404	0.062665
656.154531	0.062578
656.359640	0.062707
656.564730	0.063103
656.769802	0.063264
656.974856	0.063548
657.179892	0.063063
657.384909	0.063150
657.589908	0.063251
657.794889	0.063345
657.999852	0.063413
658.204797	0.063455
658.409723	0.063354
658.614631	0.063337
658.819521	0.063136
659.024393	0.063429
659.229246	0.063544
659.434081	0.063357
659.638898	0.063508
659.843697	0.063619
660.048478	0.063614
660.253240	0.063603
660.457984	0.063606
660.662710	0.063694
660.867417	0.063628
661.072107	0.063382
661.276778	0.063440
661.481431	0.063371
661.686066	0.063345
661.890682	0.063623
662.095281	0.063630
662.299861	0.063672
662.504422	0.063771
662.708966	0.063987
662.913491	0.064132
663.117999	0.064173
663.322488	0.064104
663.526958	0.064240
663.731411	0.063982
663.935845	0.063883
664.140261	0.063887
664.344659	0.063848
664.549038	0.063732
664.753400	0.063780
664.957743	0.063949
665.162068	0.064296
665.366375	0.064331
665.570663	0.064583
665.774933	0.064927
665.979185	0.065043
666.183419	0.065116
666.387635	0.065194
666.591832	0.065332
666.796011	0.065111
667.000172	0.065032
667.204315	0.064906
667.408439	0.064603
667.612545	0.064597
667.816634	0.064650
668.020703	0.064718
668.224755	0.064835
668.428788	0.064869
668.632803	0.065155
668.836800	0.065112
669.040779	0.065357
669.244739	0.065453
669.448681	0.065379
669.652605	0.065344
669.856511	0.065522
670.060399	0.065546
670.264268	0.065560
670.468119	0.065349
670.671952	0.065427
670.875767	0.065394
671.079563	0.065407
671.283341	0.065430
671.487101	0.065717
671.690843	0.065661
671.894567	0.065683
672.098272	0.065786
672.301959	0.066086
672.505628	0.066063
672.709278	0.066065
672.912911	0.066197
673.116525	0.066256
673.320121	0.066076
673.523699	0.066114
673.727258	0.065886
673.930799	0.065988
674.134322	0.066032
674.337827	0.066343
674.541314	0.066645
674.744782	0.066877
674.948232	0.067018
675.151664	0.067012
675.355078	0.066847
675.558474	0.067269
675.761851	0.067328
675.965210	0.067307
676.168551	0.067182
676.371873	0.067014
676.575178	0.066850
676.778464	0.066857
676.981732	0.066999
677.184981	0.067248
677.388213	0.067099
677.591426	0.067176
677.794621	0.067161
677.997798	0.067217
678.200956	0.067188
678.404097	0.067343
678.607219	0.067236
678.810323	0.067350
679.013408	0.067514
679.216476	0.067662
679.419525	0.067749
679.622556	0.067835
679.825569	0.067819
680.028563	0.068066
680.231540	0.068125
680.434498	0.068437
680.637438	0.068419
680.840359	0.068275
681.043263	0.068285
681.246148	0.068109
681.449015	0.068224
681.651864	0.068326
681.854694	0.068271
682.057506	0.068279
682.260301	0.068160
682.463076	0.068431
682.665834	0.068631
682.868573	0.068700
683.071295	0.068627
683.273998	0.068716
683.476682	0.068754
683.679349	0.068736
683.881997	0.068558
684.084627	0.068380
684.287239	0.068107
684.489833	0.067870
684.692408	0.067811
684.894965	0.068126
685.097504	0.068099
685.300025	0.067927
685.502527	0.068097
685.705012	0.068483
685.907478	0.068814
686.109925	0.068903
686.312355	0.069389
686.514766	0.069662
686.717159	0.069665
686.919534	0.069539
687.121891	0.069845
687.324230	0.069741
687.526550	0.069614
687.728852	0.069672
687.931136	0.069675
688.133401	0.069353
688.335649	0.069246
688.537878	0.069288
688.740089	0.069433
688.942281	0.069516
689.144456	0.069722
689.346612	0.069788
689.548750	0.069936
689.750870	0.070171
689.952971	0.070347
690.155055	0.070615
690.357120	0.070688
690.559167	0.070788
690.761195	0.070760
690.963206	0.070626
691.165198	0.070634
691.367172	0.070466
691.569128	0.070098
691.771065	0.070127
691.972984	0.070105
692.174885	0.070025
692.376768	0.070045
692.578633	0.070111
692.780479	0.070232
692.982308	0.070375
693.184118	0.070285
693.385909	0.070510
693.587683	0.070397
693.789438	0.070279
693.991175	0.070424
694.192894	0.070389
694.394595	0.070274
694.596277	0.070250
694.797941	0.070376
694.999587	0.070445
695.201215	0.070382
695.402824	0.070573
695.604416	0.070599
695.805989	0.070596
696.007543	0.070506
696.209080	0.070672
696.410598	0.070742
696.612099	0.070610
696.813580	0.070587
697.015044	0.070899
697.216490	0.070933
697.417917	0.070925
697.619326	0.070869
697.820717	0.070886
698.022089	0.070731
698.223444	0.070798
698.424780	0.070878
698.626098	0.071172
698.827397	0.071076
699.028679	0.071195
699.229942	0.071258
699.431187	0.071185
699.632414	0.071335
699.833622	0.071420
700.034813	0.071448
700.235985	0.071452
700.437139	0.071181
700.638274	0.071129
700.839392	0.070866
701.040491	0.070986
701.241572	0.071182
701.442635	0.071249
701.643679	0.071294
701.844706	0.071306
702.045714	0.071268
702.246704	0.071447
702.447675	0.071560
702.648629	0.071724
702.849564	0.071553
703.050481	0.071540
703.251380	0.071408
703.452260	0.071446
703.653122	0.071501
703.853966	0.071769
704.054792	0.071665
704.255600	0.071495
704.456389	0.071451
704.657160	0.071393
704.857913	0.071278
705.058648	0.071485
705.259365	0.071462
705.460063	0.071466
705.660743	0.071180
705.861405	0.071337
706.062048	0.071478
706.262674	0.071580
706.463281	0.071741
706.663870	0.071825
706.864441	0.071716
707.064993	0.071584
707.265527	0.071489
707.466043	0.071644
707.666541	0.071552
707.867021	0.071783
708.067482	0.071674
708.267925	0.071855
708.468350	0.071898
708.668757	0.072114
708.869145	0.072185
709.069516	0.072359
709.269868	0.072224
709.470201	0.072252
709.670517	0.071920
709.870814	0.072129
710.071093	0.071922
710.271354	0.071772
710.471597	0.071616
710.671821	0.071821
710.872028	0.071557
711.072216	0.071687
711.272385	0.071655
711.472537	0.071646
711.672670	0.071609
711.872785	0.071596
712.072882	0.071534
712.272961	0.071290
712.473021	0.071324
712.673063	0.071498
712.873087	0.071398
713.073093	0.071251
713.273081	0.071254
713.473050	0.071092
713.673001	0.071178
713.872934	0.071110
714.072849	0.071308
714.272745	0.071050
714.472623	0.070977
714.672483	0.070831
714.872325	0.070916
715.072148	0.070850
715.271954	0.070922
715.471741	0.070750
715.671509	0.070979
715.871260	0.070960
716.070992	0.071041
716.270707	0.070959
716.470403	0.070834
716.670080	0.070782
716.869740	0.070870
717.069381	0.070834
717.269004	0.070744
717.468609	0.070780
717.668195	0.070648
717.867764	0.070727
718.067314	0.070658
718.266846	0.070911
718.466360	0.070968
718.665855	0.071058
718.865332	0.071032
719.064791	0.071148
719.264232	0.071193
719.463655	0.071288
719.663059	0.071160
719.862445	0.071223
720.061813	0.070960
720.261163	0.071013
720.460494	0.071063
720.659807	0.071133
720.859102	0.071160
721.058379	0.071045
721.257638	0.070815
721.456878	0.070693
721.656100	0.070453
721.855304	0.070504
722.054490	0.070222
722.253657	0.070216
722.452806	0.069927
722.651937	0.069763
722.851050	0.069434
723.050145	0.069392
723.249221	0.069342
723.448279	0.069491
723.647319	0.069430
723.846340	0.069559
724.045344	0.069330
724.244329	0.069327
724.443296	0.069488
724.642245	0.069601
724.841175	0.069592
725.040088	0.069585
725.238982	0.069623
725.437857	0.069729
725.636715	0.069624
725.835554	0.069556
726.034376	0.069599
726.233179	0.069313
726.431963	0.069185
726.630730	0.069264
726.829478	0.069397
727.028208	0.069241
727.226920	0.069148
727.425614	0.069108
727.624289	0.068945
727.822946	0.068730
728.021585	0.068585
728.220206	0.068830
728.418808	0.068758
728.617392	0.068787
728.815958	0.068660
729.014506	0.068566
729.213036	0.068437
729.411547	0.068496
729.610040	0.068783
729.808515	0.069055
730.006972	0.068848
730.205410	0.068634
730.403831	0.068397
730.602233	0.068318
730.800616	0.068406
730.998982	0.068421
731.197329	0.068416
731.395658	0.068043
731.593969	0.067839
731.792262	0.067796
731.990536	0.067794
732.188793	0.067714
732.387031	0.067765
732.585250	0.067599
732.783452	0.067621
732.981635	0.067756
733.179800	0.067611
733.377947	0.067595
733.576076	0.067408
733.774186	0.067485
733.972278	0.067187
734.170352	0.067048
734.368408	0.066889
734.566446	0.066616
734.764465	0.066402
734.962466	0.066393
735.160449	0.066219
735.358413	0.066486
735.556360	0.066375
735.754288	0.066569
735.952198	0.066533
736.150090	0.066436
736.347963	0.066427
736.545818	0.066382
736.743655	0.066540
736.941474	0.066552
737.139275	0.066298
737.337057	0.066228
737.534821	0.066122
737.732567	0.066324
737.930295	0.066274
738.128005	0.066273
738.325696	0.066267
738.523369	0.066074
738.721024	0.066050
738.918660	0.066067
739.116279	0.065876
739.313879	0.065999
739.511461	0.065624
739.709024	0.065687
739.906570	0.065856
740.104097	0.065743
740.301606	0.065868
740.499097	0.065563
740.696569	0.065166
740.894024	0.065385
741.091460	0.065392
741.288878	0.065394
741.486277	0.065359
741.683659	0.065367
741.881022	0.065221
742.078367	0.065147
742.275694	0.065154
742.473002	0.065218
742.670293	0.064940
742.867565	0.064736
743.064819	0.064844
743.262054	0.064770
743.459272	0.064601
743.656471	0.064602
743.853652	0.064636
744.050815	0.064722
744.247959	0.064770
744.445085	0.064748
744.642194	0.064486
744.839283	0.064374
745.036355	0.064256
745.233408	0.064131
745.430444	0.064136
745.627461	0.064020
745.824459	0.063836
746.021440	0.063806
746.218402	0.063860
746.415346	0.063922
746.612272	0.063654
746.809180	0.063739
747.006069	0.063730
747.202940	0.063417
747.399793	0.063287
747.596628	0.063264
747.793444	0.063206
747.990243	0.063138
748.187023	0.063268
748.383784	0.063470
748.580528	0.063191
748.777253	0.063256
748.973960	0.063633
749.170649	0.063719
749.367320	0.064070
749.563973	0.064268
749.760607	0.064366
749.957223	0.064008
750.153821	0.064124
750.350400	0.064411
750.546962	0.064202
750.743505	0.064027
750.940030	0.063990
751.136536	0.063899
751.333025	0.063673
751.529495	0.063709
751.725947	0.064204
751.922381	0.063995
752.118796	0.063822
752.315194	0.063933
752.511573	0.063781
752.707934	0.063792
752.904276	0.063658
753.100601	0.063715
753.296907	0.063749
753.493195	0.063527
753.689465	0.063802
753.885716	0.063835
754.081949	0.063763
754.278164	0.063873
754.474361	0.063861
754.670540	0.064010
754.866700	0.063930
755.062843	0.063896
755.258967	0.063813
755.455072	0.063534
755.651160	0.063336
755.847229	0.063471
756.043280	0.063246
756.239313	0.063128
756.435328	0.062901
756.631324	0.063017
756.827302	0.062741
757.023262	0.062829
757.219204	0.062654
757.415127	0.062774
757.611033	0.062499
757.806920	0.062572
758.002788	0.062430
758.198639	0.062361
758.394471	0.062382
758.590286	0.062470
758.786081	0.062252
758.981859	0.062482
759.177619	0.062659
759.373360	0.062447
759.569083	0.062426
759.764788	0.062514
759.960474	0.062670
760.156143	0.062430
760.351793	0.062544
760.547425	0.062375
760.743038	0.062438
760.938634	0.062076
761.134211	0.062283
761.329770	0.062464
761.525311	0.062302
761.720833	0.062240
761.916338	0.062374
762.111824	0.062228
762.307292	0.062386
762.502741	0.062347
762.698173	0.062762
762.893586	0.062883
763.088981	0.062910
763.284358	0.063141
763.479716	0.063018
763.675057	0.062977
763.870379	0.062943
764.065683	0.063147
764.260968	0.062924
764.456236	0.062745
764.651485	0.062899
764.846716	0.062602
765.041929	0.062458
765.237123	0.062562
765.432299	0.062481
765.627457	0.062318
765.822597	0.062167
766.017719	0.062200
766.212822	0.062244
766.407907	0.062359
766.602974	0.062364
766.798023	0.062446
766.993054	0.062257
767.188066	0.062326
767.383060	0.062458
767.578036	0.062437
767.772993	0.062414
767.967933	0.062429
768.162854	0.062031
768.357757	0.061960
768.552642	0.061847
768.747508	0.061929
768.942356	0.061892
769.137186	0.062134
769.331998	0.062413
769.526792	0.062395
769.721567	0.062261
769.916324	0.062544
770.111063	0.062672
770.305784	0.062958
770.500486	0.063104
770.695171	0.063260
770.889837	0.062951
771.084484	0.062514
771.279114	0.062615
771.473725	0.062719
771.668318	0.062536
771.862893	0.062509
772.057450	0.062173
772.251988	0.062100
772.446509	0.061936
772.641011	0.061874
772.835494	0.061816
773.029960	0.061824
773.224407	0.061714
773.418836	0.061690
773.613247	0.061733
773.807640	0.061862
774.002014	0.061853
774.196370	0.061621
774.390708	0.061910
774.585028	0.062088
774.779330	0.062038
774.973613	0.061914
775.167878	0.061718
775.362125	0.061701
775.556354	0.061697
775.750564	0.061615
775.944756	0.062005
776.138930	0.061902
776.333086	0.062049
776.527223	0.061893
776.721343	0.061977
776.915444	0.062088
777.109526	0.062273
777.303591	0.062271
777.497637	0.062263
777.691666	0.062149
777.885676	0.062266
778.079667	0.062139
778.273641	0.062484
778.467596	0.062357
778.661533	0.062649
778.855452	0.062569
779.049352	0.062519
779.243235	0.062554
779.437099	0.062506
779.630945	0.062312
779.824773	0.062460
780.018582	0.062416
780.212373	0.062740
780.406146	0.062572
780.599901	0.062479
780.793638	0.062801
780.987356	0.062927
781.181056	0.062799
781.374738	0.062848
781.568402	0.062839
781.762047	0.062783
781.955674	0.062702
782.149283	0.062879
782.342874	0.063164
782.536447	0.063109
782.730001	0.063102
782.923537	0.063304
783.117055	0.063503
783.310555	0.063549
783.504036	0.063608
783.697499	0.063872
783.890944	0.063758
784.084371	0.063674
784.277780	0.063482
784.471170	0.063659
784.664542	0.063714
784.857896	0.063579
785.051231	0.063558
785.244549	0.063693
785.437848	0.063515
785.631129	0.063513
785.824392	0.063546
786.017636	0.063772
786.210863	0.063528
786.404071	0.063596
786.597260	0.063669
786.790432	0.063651
786.983585	0.063591
787.176721	0.063643
787.369838	0.063624
787.562936	0.063698
787.756017	0.063654
787.949079	0.063831
788.142123	0.063666
788.335149	0.063701
788.528156	0.063746
788.721146	0.063724
788.914117	0.063651
789.107070	0.063892
789.300005	0.063701
789.492921	0.063723
789.685819	0.063936
789.878699	0.063889
790.071561	0.063871
790.264405	0.063872
790.457230	0.063973
790.650037	0.064145
790.842826	0.064152
791.035597	0.064337
791.228349	0.064363
791.421084	0.064211
791.613800	0.064366
791.806497	0.064562
791.999177	0.064707
792.191838	0.064574
792.384481	0.064712
792.577106	0.064485
792.769713	0.064287
792.962301	0.064388
793.154871	0.064463
793.347423	0.064441
793.539957	0.064443
793.732473	0.064418
793.924970	0.064571
794.117449	0.064486
794.309910	0.064875
794.502353	0.065327
794.694777	0.065164
794.887183	0.064895
795.079571	0.064991
795.271941	0.064981
795.464293	0.065013
795.656626	0.064907
795.848941	0.064954
796.041238	0.064786
796.233516	0.064608
796.425777	0.065044
796.618019	0.065266
796.810243	0.065446
797.002449	0.065413
797.194636	0.065335
797.386805	0.065668
797.578956	0.065615
797.771089	0.065682
797.963204	0.065706
798.155300	0.065341
798.347378	0.065430
798.539438	0.065271
798.731480	0.065343
798.923503	0.065550
799.115509	0.065627
799.307496	0.065865
799.499465	0.065922
799.691415	0.066052
799.883348	0.066389
800.075262	0.066140
800.267158	0.066207
800.459035	0.066262
800.650895	0.066393
800.842736	0.066215
801.034559	0.066050
801.226364	0.066069
801.418150	0.066195
801.609919	0.066017
801.801669	0.066135
801.993401	0.066163
802.185114	0.066000
802.376810	0.065732
802.568487	0.065756
802.760146	0.065650
802.951787	0.065676
803.143409	0.065736
803.335014	0.065368
803.526600	0.065685
803.718168	0.065915
803.909717	0.066016
804.101249	0.066383
804.292762	0.066494
804.484257	0.066660
804.675734	0.066654
804.867192	0.066476
805.058632	0.067084
805.250054	0.067026
805.441458	0.066857
805.632844	0.066922
805.824211	0.066739
806.015561	0.066648
806.206891	0.066915
806.398204	0.067150
806.589499	0.067249
806.780775	0.067126
806.972033	0.067242
807.163273	0.067423
807.354495	0.067669
807.545698	0.067796
807.736883	0.068190
807.928050	0.068249
808.119199	0.068306
808.310329	0.068381
808.501441	0.068630
808.692535	0.068670
808.883611	0.068870
809.074669	0.068788
809.265708	0.068889
809.456729	0.068865
809.647732	0.069023
809.838717	0.069092
810.029683	0.069292
810.220632	0.069493
810.411562	0.069690
810.602474	0.069971
810.793367	0.070135
810.984242	0.070057
811.175100	0.069878
811.365938	0.069876
811.556759	0.069827
811.747562	0.069637
811.938346	0.069646
812.129112	0.069670
812.319860	0.069234
812.510589	0.069597
812.701300	0.069717
812.891994	0.070017
813.082668	0.069886
813.273325	0.069828
813.463964	0.070196
813.654584	0.070015
813.845186	0.069939
814.035769	0.070085
814.226335	0.069965
814.416882	0.070221
814.607411	0.070239
814.797922	0.070444
814.988415	0.070640
815.178889	0.070435
815.369345	0.070384
815.559783	0.070755
815.750203	0.070826
815.940605	0.070875
816.130988	0.070801
816.321353	0.070747
816.511700	0.070716
816.702028	0.070708
816.892339	0.070771
817.082631	0.070857
817.272905	0.070822
817.463161	0.070947
817.653398	0.071199
817.843617	0.071217
818.033819	0.071408
818.224001	0.071394
818.414166	0.071460
818.604312	0.071749
818.794440	0.071743
818.984550	0.071731
819.174642	0.071659
819.364716	0.071343
819.554771	0.071171
819.744808	0.071318
819.934827	0.071489
820.124827	0.071547
820.314810	0.071508
820.504774	0.071761
820.694720	0.071770
820.884647	0.072101
821.074557	0.072359
821.264448	0.072907
821.454321	0.072683
821.644176	0.072521
821.834012	0.072676
822.023831	0.072747
822.213631	0.072973
822.403413	0.073054
822.593176	0.072948
822.782922	0.072926
822.972649	0.072684
823.162358	0.072940
823.352049	0.073145
823.541721	0.073340
823.731376	0.073412
823.921012	0.073098
824.110629	0.073241
824.300229	0.073277
824.489811	0.073356
824.679374	0.073362
824.868919	0.073223
825.058445	0.073661
825.247954	0.073416
825.437444	0.073384
825.626916	0.073540
825.816370	0.073606
826.005806	0.073798
826.195223	0.073929
826.384622	0.074211
826.574003	0.074217
826.763366	0.073873
826.952711	0.074219
827.142037	0.074333
827.331345	0.074763
827.520635	0.074799
827.709906	0.074933
827.899160	0.074686
828.088395	0.074930
828.277612	0.075193
828.466810	0.075161
828.655991	0.075222
828.845153	0.075349
829.034297	0.075279
829.223423	0.075163
829.412531	0.074987
829.601620	0.075359
829.790691	0.075123
829.979744	0.075166
830.168779	0.075211
830.357795	0.075110
830.546793	0.075210
830.735773	0.075335
830.924735	0.075516
831.113679	0.075733
831.302604	0.075748
831.491511	0.075785
831.680400	0.075907
831.869271	0.076243
832.058123	0.076358
832.246957	0.076133
832.435773	0.075923
832.624571	0.076082
832.813351	0.076178
833.002112	0.076243
833.190855	0.076576
833.379580	0.076478
833.568287	0.076296
833.756975	0.076524
833.945645	0.076724
834.134297	0.076995
834.322931	0.077040
834.511547	0.076892
834.700144	0.076953
834.888723	0.076965
835.077284	0.077148
835.265826	0.077556
835.454351	0.077125
835.642857	0.077065
835.831345	0.077116
836.019815	0.077085
836.208266	0.077258
836.396699	0.077289
836.585114	0.077494
836.773511	0.077605
836.961890	0.077633
837.150250	0.078077
837.338592	0.078201
837.526916	0.078296
837.715222	0.078265
837.903510	0.078662
838.091779	0.078862
838.280030	0.078706
838.468263	0.078752
838.656477	0.078621
838.844674	0.078540
839.032852	0.078709
839.221012	0.078704
839.409153	0.078955
839.597277	0.078887
839.785382	0.078926
839.973469	0.078882
840.161538	0.079051
840.349589	0.079258
840.537621	0.079369
840.725635	0.079646
840.913631	0.079839
841.101609	0.080139
841.289568	0.080145
841.477509	0.079978
841.665432	0.080254
841.853337	0.080231
842.041224	0.080416
842.229092	0.080559
842.416942	0.080735
842.604774	0.080586
842.792588	0.080332
842.980383	0.080297
843.168160	0.080755
843.355919	0.080851
843.543660	0.080804
843.731382	0.080678
843.919087	0.080850
844.106773	0.080989
844.294441	0.081131
844.482090	0.081286
844.669722	0.081752
844.857335	0.081729
845.044930	0.081790
845.232507	0.082159
845.420065	0.082287
845.607605	0.082374
845.795127	0.082191
845.982631	0.082407
846.170117	0.082516
846.357584	0.082404
846.545033	0.082676
846.732464	0.082832
846.919877	0.082875
847.107272	0.083171
847.294648	0.083105
847.482006	0.083218
847.669346	0.083140
847.856667	0.083426
848.043971	0.083566
848.231256	0.083452
848.418523	0.083078
848.605771	0.083298
848.793002	0.083335
848.980214	0.083687
849.167408	0.083877
849.354584	0.084183
849.541742	0.083938
849.728881	0.084008
849.916002	0.084178
850.103105	0.084640
850.290190	0.084851
850.477256	0.085022
850.664304	0.085387
850.851334	0.085285
851.038346	0.085476
851.225340	0.086051
851.412315	0.086292
851.599272	0.086356
851.786211	0.086528
851.973132	0.086644
852.160034	0.086615
852.346918	0.086624
852.533784	0.087141
852.720632	0.087132
852.907462	0.086973
853.094273	0.086760
853.281066	0.086906
853.467841	0.087396
853.654598	0.087375
853.841336	0.087378
854.028056	0.087348
854.214758	0.087535
854.401442	0.087969
854.588107	0.088298
854.774755	0.088618
854.961384	0.088694
855.147995	0.088506
855.334587	0.088524
855.521162	0.088640
855.707718	0.088419
855.894256	0.088321
856.080775	0.088198
856.267277	0.088139
856.453760	0.088172
856.640225	0.088461
856.826672	0.088738
857.013101	0.088957
857.199511	0.089413
857.385903	0.089844
857.572277	0.089960
857.758633	0.089973
857.944970	0.090354
858.131290	0.090739
858.317591	0.090677
858.503873	0.090527
858.690138	0.090683
858.876384	0.090781
859.062612	0.091072
859.248822	0.090905
859.435014	0.091199
859.621188	0.091480
859.807343	0.091334
859.993480	0.091439
860.179599	0.091389
860.365699	0.091469
860.551781	0.091328
860.737846	0.091257
860.923891	0.091659
861.109919	0.091699
861.295929	0.091127
861.481920	0.091454
861.667893	0.091615
861.853848	0.091603
862.039784	0.091615
862.225702	0.091818
862.411603	0.091959
862.597484	0.092099
862.783348	0.092483
862.969193	0.092851
863.155021	0.093063
863.340830	0.093137
863.526620	0.093445
863.712393	0.093616
863.898147	0.093884
864.083883	0.093896
864.269601	0.093821
864.455301	0.093661
864.640982	0.093530
864.826645	0.093349
865.012290	0.093448
865.197917	0.093641
865.383526	0.093447
865.569116	0.093419
865.754688	0.093555
865.940242	0.093537
866.125777	0.093318
866.311295	0.093698
866.496794	0.093704
866.682275	0.093789
866.867737	0.093902
867.053182	0.093949
867.238608	0.093927
867.424016	0.094204
867.609406	0.094461
867.794778	0.094569
867.980131	0.094606
868.165466	0.094981
868.350783	0.095067
868.536082	0.095202
868.721362	0.095757
868.906625	0.095770
869.091869	0.095752
869.277094	0.095915
869.462302	0.096160
869.647491	0.096044
869.832662	0.096116
870.017815	0.096310
870.202950	0.096180
870.388066	0.096191
870.573165	0.096583
870.758245	0.096906
870.943306	0.096673
871.128350	0.096935
871.313375	0.097376
871.498382	0.097094
871.683371	0.096967
871.868342	0.097322
872.053294	0.097148
872.238229	0.096914
872.423144	0.096567
872.608042	0.096866
872.792922	0.096753
872.977783	0.096668
873.162626	0.097239
873.347451	0.097571
873.532258	0.097391
873.717046	0.097593
873.901816	0.097776
874.086568	0.097884
874.271302	0.097852
874.456017	0.097897
874.640715	0.097862
874.825394	0.097502
875.010055	0.097661
875.194697	0.097740
875.379322	0.097396
875.563928	0.097498
875.748516	0.097328
875.933085	0.097481
876.117637	0.097663
876.302170	0.097754
876.486685	0.097878
876.671182	0.097653
876.855661	0.097657
877.040121	0.098242
877.224563	0.098457
877.408987	0.098884
877.593393	0.098764
877.777780	0.098854
877.962150	0.099053
878.146501	0.099286
878.330833	0.099471
878.515148	0.099641
878.699444	0.099439
878.883722	0.099446
879.067982	0.099078
879.252224	0.099333
879.436447	0.099223
879.620653	0.099110
879.804840	0.098760
879.989008	0.098767
880.173159	0.098493
880.357291	0.098461
880.541405	0.098225
880.725501	0.098152
880.909579	0.098207
881.093638	0.098277
881.277680	0.098301
881.461703	0.098538
881.645707	0.098318
881.829694	0.098607
882.013662	0.098673
882.197612	0.098999
882.381544	0.099543
882.565458	0.099589
882.749353	0.099528
882.933230	0.099508
883.117089	0.099317
883.300930	0.099924
883.484753	0.099668
883.668557	0.099839
883.852343	0.099800
884.036111	0.099529
884.219861	0.099648
884.403592	0.099658
884.587305	0.099725
884.771000	0.100324
884.954677	0.099825
885.138335	0.100081
885.321976	0.100044
885.505598	0.099746
885.689201	0.100198
885.872787	0.099893
886.056354	0.100217
886.239904	0.100349
886.423434	0.100254
886.606947	0.100313
886.790442	0.100821
886.973918	0.100908
887.157376	0.101126
887.340816	0.100792
887.524237	0.100996
887.707641	0.100934
887.891026	0.100968
888.074393	0.101078
888.257741	0.101046
888.441072	0.100928
888.624384	0.101046
888.807678	0.101105
888.990954	0.101099
889.174211	0.100828
889.357451	0.100527
889.540672	0.100389
889.723875	0.100065
889.907059	0.100172
890.090226	0.100480
890.273374	0.100600
890.456504	0.100510
890.639616	0.100789
890.822709	0.101371
891.005785	0.101488
891.188842	0.101824
891.371881	0.101646
891.554901	0.101672
891.737904	0.101007
891.920888	0.100804
892.103854	0.100559
892.286802	0.100506
892.469731	0.099994
892.652643	0.100309
892.835536	0.100292
893.018410	0.100701
893.201267	0.100943
893.384106	0.101313
893.566926	0.101252
893.749728	0.101715
893.932511	0.101484
894.115277	0.101406
894.298024	0.101104
894.480753	0.100399
894.663464	0.099999
894.846157	0.099972
895.028831	0.099787
895.211487	0.099411
895.394125	0.099145
895.576745	0.099147
895.759346	0.099691
895.941930	0.099545
896.124495	0.099816
896.307041	0.099608
896.489570	0.099512
896.672080	0.099222
896.854573	0.099713
897.037046	0.099872
897.219502	0.099857
897.401940	0.099330
897.584359	0.099765
897.766760	0.099831
897.949143	0.100101
898.131507	0.099754
898.313854	0.099951
898.496182	0.099410
898.678492	0.098970
898.860783	0.099074
899.043057	0.099264
899.225312	0.099002
899.407549	0.099026
899.589768	0.098959
899.771968	0.098948
899.954151	0.098926
900.136315	0.099257
900.318461	0.099374
900.500588	0.099409
900.682698	0.099169
900.864789	0.099078
901.046862	0.098646
901.228917	0.098908
901.410953	0.098753
901.592971	0.098643
901.774972	0.098174
901.956953	0.097716
902.138917	0.097360
902.320862	0.097393
902.502790	0.097822
902.684699	0.098407
902.866589	0.098208
903.048462	0.099095
903.230316	0.098953
903.412152	0.099331
903.593970	0.100068
903.775770	0.100163
903.957551	0.100076
904.139314	0.099796
904.321059	0.099015
904.502786	0.098414
904.684494	0.097163
904.866185	0.096928
905.047857	0.096528
905.229510	0.095948
905.411146	0.095875
905.592763	0.095850
905.774363	0.095513
905.955943	0.095742
906.137506	0.096155
906.319051	0.096552
906.500577	0.096564
906.682085	0.096699
906.863575	0.096870
907.045046	0.096652
907.226500	0.096875
907.407935	0.096855
907.589352	0.096813
907.770750	0.096394
907.952131	0.096088
908.133493	0.096059
908.314837	0.095577
908.496163	0.095291
908.677470	0.095199
908.858760	0.094401
909.040031	0.093643
909.221284	0.093338
909.402518	0.093717
909.583735	0.093470
909.764933	0.093538
909.946113	0.093866
910.127275	0.093881
910.308418	0.093769
910.489544	0.093974
910.670651	0.093997
910.851740	0.094280
911.032810	0.093706
911.213863	0.093866
911.394897	0.093457
911.575913	0.093286
911.756911	0.092687
911.937890	0.092568
912.118851	0.092343
912.299794	0.092539
912.480719	0.091991
912.661626	0.091889
912.842514	0.091593
913.023384	0.091734
913.204236	0.091166
913.385070	0.091147
913.565886	0.090936
913.746683	0.090698
913.927462	0.090641
914.108223	0.090316
914.288965	0.090333
914.469690	0.090222
914.650396	0.089420
914.831084	0.089634
915.011754	0.089875
915.192405	0.090278
915.373038	0.090016
915.553653	0.089477
915.734250	0.089236
915.914829	0.089207
916.095389	0.089125
916.275931	0.089229
916.456455	0.088673
916.636961	0.088384
916.817448	0.087953
916.997917	0.088009
917.178368	0.087781
917.358801	0.087973
917.539216	0.087376
917.719612	0.087174
917.899990	0.086833
918.080350	0.087274
918.260692	0.086902
918.441015	0.086224
918.621320	0.085538
918.801607	0.085590
918.981876	0.085595
919.162127	0.085627
919.342359	0.085392
919.522573	0.085086
919.702769	0.084209
919.882947	0.084533
920.063106	0.084394
920.243247	0.084763
920.423370	0.084514
920.603475	0.083951
920.783562	0.083357
920.963630	0.083514
921.143680	0.083881
921.323712	0.083900
921.503725	0.083545
921.683721	0.083091
921.863698	0.082735
922.043657	0.082734
922.223598	0.081866
922.403520	0.081993
922.583424	0.081114
922.763311	0.080633
922.943178	0.080306
923.123028	0.079319
923.302859	0.079189
923.482673	0.078956
923.662467	0.078073
923.842244	0.077976
924.022003	0.077760
924.201743	0.077578
924.381465	0.077339
924.561169	0.077161
924.740854	0.077112
924.920522	0.076788
925.100171	0.076284
925.279802	0.076342
925.459414	0.077085
925.639009	0.076244
925.818585	0.076243
925.998143	0.075899
926.177683	0.075880
926.357205	0.075975
926.536708	0.075559
926.716193	0.075471
926.895660	0.075577
927.075109	0.074774
927.254539	0.075150
927.433951	0.074142
927.613345	0.073966
927.792721	0.073029
927.972079	0.072398
928.151418	0.072373
928.330739	0.072253
928.510042	0.072019
928.689327	0.072071
928.868593	0.071271
929.047841	0.071084
929.227071	0.070912
929.406283	0.071083
929.585476	0.070919
929.764652	0.071236
929.943809	0.070485
930.122948	0.069838
930.302068	0.069696
930.481171	0.069264
930.660255	0.069619
930.839321	0.068965
931.018369	0.068565
931.197398	0.068353
931.376409	0.067427
931.555402	0.067419
931.734377	0.067190
931.913334	0.066624
932.092272	0.066456
932.271192	0.065804
932.450094	0.065129
932.628978	0.065246
932.807844	0.064588
932.986691	0.064336
933.165520	0.063629
933.344331	0.063462
933.523123	0.063079
933.701898	0.062456
933.880654	0.061662
934.059392	0.061522
934.238111	0.061550
934.416813	0.061614
934.595496	0.060985
934.774161	0.060957
934.952808	0.060508
935.131437	0.060477
935.310047	0.060635
935.488639	0.061379
935.667213	0.061278
935.845769	0.060824
936.024306	0.060400
936.202825	0.060009
936.381326	0.060011
936.559809	0.059351
936.738274	0.059304
936.916720	0.059028
937.095148	0.057812
937.273558	0.057897
937.451950	0.056820
937.630323	0.056627
937.808678	0.056470
937.987015	0.055746
938.165334	0.055041
938.343635	0.053453
938.521917	0.052636
938.700181	0.052578
938.878427	0.051840
939.056655	0.051457
939.234864	0.051602
939.413055	0.050602
939.591228	0.050463
939.769383	0.050317
939.947519	0.050734
940.125638	0.051414
940.303738	0.051482
940.481820	0.051907
940.659883	0.052252
940.837929	0.050204
941.015956	0.051434
941.193965	0.050695
941.371955	0.050466
941.549928	0.050009
941.727882	0.048460
941.905818	0.048167
942.083736	0.047390
942.261636	0.046844
942.439517	0.047771
942.617380	0.046894
942.795225	0.046717
942.973052	0.046683
943.150860	0.045091
943.328651	0.045675
943.506423	0.045439
943.684176	0.044900
943.861912	0.044099
944.039629	0.043553
944.217328	0.044156
944.395009	0.044415
944.572672	0.045190
944.750317	0.045333
944.927943	0.044838
945.105551	0.043147
945.283141	0.043186
945.460712	0.043352
945.638265	0.042773
945.815801	0.040669
945.993317	0.039960
946.170816	0.037812
946.348297	0.038155
946.525759	0.037912
946.703203	0.038729
946.880629	0.036459
947.058036	0.036383
947.235425	0.036773
947.412797	0.037425
947.590149	0.037290
947.767484	0.037139
947.944800	0.037420
948.122099	0.038321
948.299379	0.037605
948.476640	0.038890
948.653884	0.038472
948.831109	0.037408
949.008316	0.037033
949.185505	0.036783
949.362676	0.037530
949.539828	0.036771
949.716962	0.034995
949.894078	0.035330
950.071176	0.036075
950.248256	0.035287
950.425317	0.036225
950.602360	0.035843
950.779385	0.034773
950.956391	0.033883
951.133380	0.033625
951.310350	0.033550
951.487302	0.033235
951.664235	0.032838
951.841151	0.032822
952.018048	0.032845
952.194927	0.033347
952.371788	0.034125
952.548631	0.034845
952.725455	0.033514
952.902261	0.034615
953.079049	0.034486
953.255819	0.033638
953.432570	0.033555
953.609303	0.031159
953.786018	0.029459
953.962715	0.028426
954.139394	0.027334
954.316054	0.029267
954.492696	0.027323
954.669320	0.026468
954.845926	0.025815
955.022513	0.024711
955.199083	0.025852
955.375634	0.026333
955.552166	0.026136
955.728681	0.026376
955.905177	0.025466
956.081655	0.025494
956.258115	0.025002
956.434557	0.024148
956.610980	0.024830
956.787385	0.024138
956.963772	0.023758
957.140141	0.025120
957.316492	0.025117
957.492824	0.024950
957.669138	0.025394
957.845434	0.025748
958.021712	0.025457
958.197971	0.026372
958.374212	0.025681
958.550435	0.026219
958.726640	0.025436
958.902826	0.026301
959.078995	0.026418
959.255145	0.025729
959.431277	0.026375
959.607390	0.026343
959.783486	0.025307
959.959563	0.026124
960.135622	0.026004
960.311662	0.025513
960.487685	0.024335
960.663689	0.023830
960.839675	0.024069
961.015643	0.022435
961.191593	0.023212
961.367524	0.024813
961.543437	0.025318
961.719332	0.025834
961.895209	0.024137
962.071067	0.024190
962.246907	0.024821
962.422730	0.025948
962.598533	0.026821
962.774319	0.026959
962.950086	0.025517
963.125835	0.025402
963.301566	0.025815
963.477279	0.027354
963.652973	0.025417
963.828650	0.026246
964.004308	0.026407
964.179947	0.026685
964.355569	0.026206
964.531172	0.025101
964.706757	0.027648
964.882324	0.024990
965.057873	0.025417
965.233403	0.026249
965.408916	0.025531
965.584410	0.023677
965.759885	0.024707
965.935343	0.025942
966.110782	0.027341
966.286203	0.024887
966.461606	0.026779
966.636991	0.027617
966.812357	0.028838
966.987705	0.028208
967.163035	0.029005
967.338347	0.028651
967.513641	0.027814
967.688916	0.027235
967.864173	0.027316
968.039412	0.028215
968.214632	0.029516
968.389835	0.029870
968.565019	0.028846
968.740185	0.027369
968.915333	0.026061
969.090462	0.026170
969.265573	0.026961
969.440667	0.028413
969.615741	0.028621
969.790798	0.027132
969.965836	0.026470
970.140856	0.027568
970.315858	0.030528
970.490842	0.033087
970.665808	0.032896
970.840755	0.032311
971.015684	0.031376
971.190595	0.030619
971.365487	0.029155
971.540362	0.027510
971.715218	0.026739
971.890056	0.026870
972.064875	0.026076
972.239677	0.026674
972.414460	0.027670
972.589225	0.027608
972.763972	0.026022
972.938700	0.026755
973.113411	0.029276
973.288103	0.030656
973.462777	0.031980
973.637432	0.031896
973.812070	0.031264
973.986689	0.029368
974.161290	0.028018
974.335873	0.028686
974.510437	0.029456
974.684984	0.029770
974.859512	0.028195
975.034022	0.025661
975.208513	0.025139
975.382987	0.027473
975.557442	0.029654
975.731879	0.030248
975.906298	0.029285
976.080698	0.031101
976.255080	0.030571
976.429445	0.032984
976.603790	0.034415
976.778118	0.035192
976.952427	0.034772
977.126719	0.032026
977.300992	0.032129
977.475246	0.033075
977.649483	0.033088
977.823701	0.030008
977.997901	0.028206
978.172083	0.027271
978.346247	0.025543
978.520392	0.024165
978.694519	0.025041
978.868628	0.025739
979.042719	0.026497
979.216791	0.024281
979.390845	0.025445
979.564882	0.025543
979.738899	0.024675
979.912899	0.025600
980.086880	0.027010
980.260843	0.027697
980.434788	0.027950
980.608715	0.029269
980.782623	0.030794
980.956514	0.030934
981.130386	0.030816
981.304240	0.030805
981.478075	0.030602
981.651892	0.031758
981.825692	0.032481
981.999472	0.031203
982.173235	0.029558
982.346980	0.029989
982.520706	0.031100
982.694414	0.031260
982.868104	0.033504
983.041775	0.033510
983.215428	0.029325
983.389064	0.028844
983.562680	0.030014
983.736279	0.029466
983.909860	0.028163
984.083422	0.027136
984.256966	0.027475
984.430491	0.028614
984.603999	0.028100
984.777488	0.031359
984.950959	0.029776
985.124412	0.029179
985.297847	0.031686
985.471263	0.031617
985.644661	0.031740
985.818041	0.033025
985.991403	0.031584
986.164747	0.032674
986.338072	0.032910
986.511379	0.032746
986.684668	0.033044
986.857938	0.031528
987.031191	0.032326
987.204425	0.034167
987.377641	0.031924
987.550839	0.031758
987.724018	0.031063
987.897179	0.030030
988.070322	0.031805
988.243447	0.030320
988.416554	0.031427
988.589642	0.030314
988.762712	0.030325
988.935764	0.030538
989.108798	0.029551
989.281813	0.028621
989.454811	0.026808
989.627790	0.026361
989.800751	0.028472
989.973693	0.028411
990.146617	0.029371
990.319524	0.029681
990.492412	0.030841
990.665281	0.028826
990.838133	0.031804
991.010966	0.032947
991.183781	0.034909
991.356578	0.033957
991.529356	0.031889
991.702117	0.032559
991.874859	0.033118
992.047583	0.030025
992.220288	0.032872
992.392976	0.032772
992.565645	0.034364
992.738296	0.034070
992.910929	0.033845
993.083543	0.035690
993.256139	0.033785
993.428718	0.032224
993.601277	0.035660
993.773819	0.035994
993.946342	0.032311
994.118848	0.033056
994.291335	0.033054
994.463803	0.035055
994.636254	0.035995
994.808686	0.035987
994.981100	0.036259
995.153496	0.035568
995.325874	0.036112
995.498233	0.040366
995.670574	0.038992
995.842897	0.037828
996.015202	0.035320
996.187488	0.034573
996.359757	0.034943
996.532007	0.034579
996.704239	0.034539
996.876452	0.034558
997.048648	0.030570
997.220825	0.029864
997.392984	0.029638
997.565124	0.032005
997.737247	0.031061
997.909351	0.031262
998.081437	0.030254
998.253505	0.031493
998.425554	0.030505
998.597586	0.032350
998.769599	0.033266
998.941594	0.033445
999.113571	0.031405
999.285529	0.032612
999.457469	0.031851
999.629391	0.033942
999.801295	0.032199
999.973181	0.030531
1000.145048	0.030366
1000.316897	0.028358
1000.488728	0.027847
1000.660541	0.028213
1000.832335	0.029268
1001.004111	0.031609
1001.175869	0.030330
1001.347609	0.030347
1001.519331	0.030848
1001.691034	0.030018
1001.862719	0.031059
1002.034386	0.031681
1002.206035	0.032071
1002.377665	0.031149
1002.549277	0.031350
1002.720871	0.033052
1002.892447	0.032245
1003.064004	0.032205
1003.235544	0.034606
1003.407065	0.035309
1003.578568	0.035941
1003.750052	0.036625
1003.921519	0.034764
1004.092967	0.031339
1004.264397	0.030245
1004.435809	0.029873
1004.607202	0.029630
1004.778577	0.029801
1004.949934	0.029293
1005.121273	0.028149
1005.292594	0.026197
1005.463896	0.026570
1005.635180	0.028852
1005.806446	0.029210
1005.977694	0.032610
1006.148923	0.033423
1006.320135	0.031328
1006.491328	0.029766
1006.662503	0.028229
1006.833659	0.029265
1007.004798	0.028326
1007.175918	0.026343
1007.347020	0.026250
1007.518103	0.023044
1007.689169	0.023054
1007.860216	0.023969
1008.031245	0.025898
1008.202256	0.028447
1008.373248	0.028046
1008.544223	0.028557
1008.715179	0.029894
1008.886117	0.030235
1009.057036	0.032320
1009.227938	0.031569
1009.398821	0.031562
1009.569686	0.031416
1009.740533	0.030324
1009.911361	0.032586
1010.082172	0.033130
1010.252964	0.033212
1010.423738	0.032327
1010.594493	0.030178
1010.765231	0.031688
1010.935950	0.029058
1011.106651	0.030026
1011.277334	0.029720
1011.447998	0.028457
1011.618645	0.030010
1011.789273	0.030239
1011.959882	0.032333
1012.130474	0.033907
1012.301048	0.034068
1012.471603	0.038106
1012.642140	0.038445
1012.812658	0.039939
1012.983159	0.038945
1013.153641	0.037534
1013.324105	0.039299
1013.494551	0.038893
1013.664979	0.039940
1013.835388	0.038580
1014.005779	0.037875
1014.176152	0.035556
1014.346507	0.033582
1014.516843	0.034440
1014.687162	0.034928
1014.857462	0.033116
1015.027744	0.033123
1015.198007	0.031641
1015.368252	0.032769
1015.538480	0.034693
1015.708689	0.036371
1015.878879	0.037173
1016.049052	0.036950
1016.219206	0.036362
1016.389342	0.036137
1016.559460	0.034725
1016.729559	0.035881
1016.899641	0.035021
1017.069704	0.033146
1017.239749	0.033092
1017.409775	0.031506
1017.579784	0.029285
1017.749774	0.028811
1017.919746	0.028690
1018.089700	0.027960
1018.259635	0.029058
1018.429553	0.030687
1018.599452	0.029697
1018.769333	0.029721
1018.939195	0.031657
1019.109040	0.032646
1019.278866	0.033280
1019.448674	0.033716
1019.618464	0.031852
1019.788235	0.030116
1019.957989	0.028533
1020.127724	0.030332
1020.297441	0.028870
1020.467139	0.028535
1020.636820	0.030715
1020.806482	0.029905
1020.976126	0.029864
1021.145752	0.032684
1021.315359	0.033290
1021.484948	0.033965
1021.654519	0.032896
1021.824072	0.033768
1021.993607	0.034168
1022.163123	0.033180
1022.332621	0.033512
1022.502101	0.032497
1022.671563	0.031431
1022.841007	0.032092
1023.010432	0.032306
1023.179839	0.030284
1023.349228	0.030551
1023.518598	0.030989
1023.687951	0.030706
1023.857285	0.030877
1024.026601	0.032261
1024.195899	0.034874
1024.365178	0.034544
1024.534439	0.033931
1024.703682	0.034553
1024.872907	0.032267
1025.042114	0.032619
1025.211302	0.031817
1025.380472	0.033967
1025.549624	0.033434
1025.718758	0.030885
1025.887873	0.030822
1026.056970	0.032443
1026.226049	0.033992
1026.395110	0.036511
1026.564153	0.035985
1026.733177	0.036521
1026.902183	0.034071
1027.071171	0.034237
1027.240141	0.035961
1027.409092	0.037207
1027.578026	0.034114
1027.746940	0.033713
1027.915837	0.033355
1028.084716	0.032302
1028.253576	0.032655
1028.422418	0.032710
1028.591242	0.033632
1028.760048	0.033135
1028.928835	0.032571
1029.097604	0.034396
1029.266355	0.035423
1029.435088	0.035991
1029.603803	0.036225
1029.772499	0.035815
1029.941177	0.037896
1030.109837	0.037189
1030.278478	0.036675
1030.447102	0.033905
1030.615707	0.033024
1030.784294	0.031655
1030.952863	0.030302
1031.121413	0.030573
1031.289945	0.030146
1031.458460	0.029874
1031.626955	0.029562
1031.795433	0.029581
1031.963892	0.031173
1032.132334	0.031967
1032.300756	0.032037
1032.469161	0.033087
1032.637548	0.033375
1032.805916	0.035114
1032.974266	0.033818
1033.142598	0.032585
1033.310911	0.033587
1033.479207	0.032267
1033.647484	0.032695
1033.815743	0.032755
1033.983983	0.032884
1034.152206	0.033823
1034.320410	0.032344
1034.488596	0.032040
1034.656764	0.033649
1034.824914	0.031832
1034.993045	0.032253
1035.161158	0.031758
1035.329253	0.029540
1035.497330	0.029975
1035.665388	0.029263
1035.833428	0.029492
1036.001450	0.029028
1036.169454	0.027128
1036.337440	0.029304
1036.505407	0.030616
1036.673356	0.031673
1036.841287	0.031691
1037.009200	0.029679
1037.177094	0.029456
1037.344970	0.030316
1037.512828	0.032910
1037.680668	0.034595
1037.848489	0.033157
1038.016293	0.031355
1038.184078	0.031962
1038.351845	0.032975
1038.519593	0.033244
1038.687324	0.033335
1038.855036	0.034873
1039.022730	0.033227
1039.190406	0.029710
1039.358063	0.031049
1039.525702	0.032714
1039.693323	0.032127
1039.860926	0.034457
1040.028511	0.034516
1040.196077	0.033477
1040.363625	0.031239
1040.531155	0.031243
1040.698667	0.033435
1040.866161	0.033109
1041.033636	0.032634
1041.201093	0.030478
1041.368532	0.029941
1041.535952	0.029173
1041.703355	0.029860
1041.870739	0.027823
1042.038105	0.027217
1042.205452	0.028533
1042.372782	0.028167
1042.540093	0.028991
1042.707386	0.027256
1042.874661	0.027159
1043.041918	0.028314
1043.209156	0.030352
1043.376376	0.031994
1043.543578	0.031701
1043.710762	0.029940
1043.877927	0.029327
1044.045074	0.028635
1044.212203	0.030935
1044.379314	0.030235
1044.546407	0.031991
1044.713481	0.030544
1044.880537	0.033128
1045.047575	0.033213
1045.214595	0.034295
1045.381596	0.033495
1045.548579	0.033771
1045.715544	0.033298
1045.882491	0.034302
1046.049420	0.032561
1046.216330	0.031467
1046.383222	0.028395
1046.550096	0.029671
1046.716951	0.031070
1046.883789	0.031836
1047.050608	0.033105
1047.217409	0.035060
1047.384192	0.035248
1047.550956	0.035261
1047.717703	0.036127
1047.884431	0.037216
1048.051140	0.036980
1048.217832	0.034859
1048.384505	0.034587
1048.551161	0.032523
1048.717798	0.029640
1048.884416	0.027568
1049.051017	0.028574
1049.217599	0.028885
1049.384163	0.028693
1049.550709	0.029402
1049.717237	0.029959
1049.883746	0.031417
1050.050237	0.032507
1050.216710	0.033339
1050.383165	0.034109
1050.549601	0.031469
1050.716019	0.031498
1050.882420	0.030064
1051.048801	0.029179
1051.215165	0.029086
1051.381510	0.028622
1051.547837	0.027539
1051.714146	0.028392
1051.880437	0.027036
1052.046709	0.027724
1052.212964	0.028335
1052.379200	0.029753
1052.545417	0.030411
1052.711617	0.031482
1052.877798	0.030340
1053.043961	0.030988
1053.210106	0.030172
1053.376233	0.031650
1053.542341	0.032683
1053.708432	0.031594
1053.874504	0.033264
1054.040557	0.033317
1054.206593	0.032771
1054.372610	0.032609
1054.538609	0.032905
1054.704590	0.033459
1054.870553	0.032374
1055.036497	0.032373
1055.202424	0.032830
1055.368331	0.031189
1055.534221	0.030676
1055.700093	0.029753
1055.865946	0.029946
1056.031781	0.029971
1056.197598	0.029283
1056.363397	0.031236
1056.529177	0.031748
1056.694939	0.032004
1056.860683	0.031548
1057.026409	0.030180
1057.192116	0.030321
1057.357806	0.031792
1057.523477	0.033825
1057.689130	0.035763
1057.854764	0.035510
1058.020381	0.034769
1058.185979	0.034005
1058.351559	0.033626
1058.517120	0.034927
1058.682664	0.037790
1058.848189	0.037308
1059.013696	0.034736
1059.179185	0.034941
1059.344656	0.034535
1059.510108	0.034115
1059.675542	0.033799
1059.840958	0.035000
1060.006356	0.034900
1060.171735	0.031663
1060.337096	0.031470
1060.502439	0.032462
1060.667764	0.032186
1060.833071	0.030354
1060.998359	0.030987
1061.163629	0.030245
1061.328881	0.030578
1061.494115	0.031277
1061.659330	0.030808
1061.824527	0.027885
1061.989706	0.026296
1062.154867	0.024757
1062.320010	0.026080
1062.485134	0.025606
1062.650240	0.026360
1062.815328	0.026149
1062.980398	0.026059
1063.145449	0.027827
1063.310482	0.033098
1063.475497	0.033405
1063.640494	0.036082
1063.805473	0.035440
1063.970433	0.035060
1064.135375	0.035499
1064.300299	0.036873
1064.465204	0.036546
1064.630092	0.037461
1064.794961	0.035971
1064.959812	0.037039
1065.124645	0.034251
1065.289459	0.034332
1065.454256	0.033568
1065.619034	0.032646
1065.783793	0.029954
1065.948535	0.027677
1066.113258	0.024870
1066.277964	0.022908
1066.442651	0.021019
1066.607319	0.023652
1066.771970	0.025731
1066.936602	0.029112
1067.101216	0.030183
1067.265812	0.032649
1067.430389	0.036204
1067.594949	0.037961
1067.759490	0.039289
1067.924013	0.042337
1068.088518	0.040786
1068.253004	0.038990
1068.417472	0.037027
1068.581922	0.037122
1068.746354	0.035772
1068.910768	0.033605
1069.075163	0.035847
1069.239540	0.037078
1069.403899	0.032878
1069.568240	0.032950
1069.732562	0.034644
1069.896866	0.034992
1070.061152	0.035979
1070.225420	0.035396
1070.389670	0.036960
1070.553901	0.035204
1070.718114	0.032068
1070.882309	0.032429
1071.046486	0.031206
1071.210644	0.030647
1071.374784	0.030026
1071.538906	0.029318
1071.703010	0.029751
1071.867096	0.028703
1072.031163	0.028925
1072.195212	0.031780
1072.359243	0.033942
1072.523256	0.033790
1072.687250	0.033048
1072.851226	0.034519
1073.015184	0.035062
1073.179124	0.034854
1073.343045	0.033579
1073.506949	0.032315
1073.670834	0.030355
1073.834701	0.030293
1073.998549	0.032808
1074.162380	0.034167
1074.326192	0.032169
1074.489986	0.032688
1074.653761	0.031631
1074.817519	0.033134
1074.981258	0.034623
1075.144979	0.034841
1075.308682	0.034709
1075.472367	0.035357
1075.636033	0.034582
1075.799681	0.034971
1075.963311	0.035335
1076.126923	0.035050
1076.290516	0.036979
1076.454092	0.036001
1076.617649	0.036939
1076.781187	0.036743
1076.944708	0.034185
1077.108210	0.031402
1077.271695	0.031992
1077.435160	0.030386
1077.598608	0.030595
1077.762038	0.028569
1077.925449	0.028473
1078.088842	0.027445
1078.252217	0.027012
1078.415573	0.029146
1078.578912	0.031970
1078.742232	0.032205
1078.905534	0.031437
1079.068817	0.031622
1079.232083	0.031407
1079.395330	0.031401
1079.558559	0.031527
1079.721770	0.032452
1079.884962	0.029466
1080.048136	0.028011
1080.211293	0.028053
1080.374430	0.026152
1080.537550	0.028713
1080.700651	0.028118
1080.863735	0.025796
1081.026800	0.025614
1081.189846	0.023303
1081.352875	0.024455
1081.515885	0.026192
1081.678877	0.027388
1081.841851	0.031750
1082.004807	0.030769
1082.167744	0.030424
1082.330663	0.034051
1082.493564	0.036150
1082.656447	0.037807
1082.819312	0.037374
1082.982158	0.036951
1083.144986	0.037708
1083.307796	0.036450
1083.470587	0.035425
1083.633361	0.035281
1083.796116	0.034181
1083.958853	0.031412
1084.121571	0.033856
1084.284272	0.034159
1084.446954	0.033443
1084.609618	0.031002
1084.772264	0.030357
1084.934892	0.029999
1085.097501	0.030071
1085.260092	0.029298
1085.422665	0.030725
1085.585220	0.027649
1085.747756	0.027590
1085.910274	0.027000
1086.072774	0.027106
1086.235256	0.027664
1086.397720	0.031122
1086.560165	0.034025
1086.722592	0.033038
1086.885001	0.031663
1087.047392	0.032074
1087.209764	0.029894
1087.372119	0.029300
1087.534455	0.028480
1087.696772	0.030923
1087.859072	0.029844
1088.021353	0.027922
1088.183616	0.031567
1088.345861	0.032520
1088.508088	0.034119
1088.670296	0.034729
1088.832486	0.034599
1088.994658	0.038459
1089.156812	0.037019
1089.318948	0.033866
1089.481065	0.034254
1089.643164	0.030359
1089.805245	0.030809
1089.967308	0.027976
1090.129352	0.031250
1090.291378	0.034662
1090.453386	0.029539
1090.615376	0.027087
1090.777347	0.025684
1090.939301	0.026203
1091.101236	0.023683
1091.263153	0.022043
1091.425051	0.023576
1091.586932	0.021979
1091.748794	0.020736
1091.910638	0.021127
1092.072463	0.022405
1092.234271	0.025755
1092.396060	0.024311
1092.557831	0.028919
1092.719584	0.029264
1092.881319	0.031946
1093.043035	0.032745
1093.204733	0.031170
1093.366413	0.034445
1093.528075	0.032499
1093.689718	0.030637
1093.851343	0.033819
1094.012950	0.034156
1094.174539	0.033042
1094.336110	0.029836
1094.497662	0.029151
1094.659196	0.028821
1094.820712	0.026220
1094.982210	0.026954
1095.143689	0.030725
1095.305151	0.028189
1095.466594	0.026251
1095.628018	0.029718
1095.789425	0.032226
1095.950813	0.030402
1096.112183	0.031091
1096.273535	0.030404
1096.434869	0.030816
1096.596184	0.028206
1096.757482	0.027101
1096.918761	0.027937
1097.080021	0.025387
1097.241264	0.023694
1097.402488	0.027293
1097.563694	0.027894
1097.724882	0.029701
1097.886052	0.030880
1098.047203	0.031268
1098.208336	0.034558
1098.369451	0.037156
1098.530548	0.040404
1098.691627	0.039997
1098.852687	0.035985
1099.013729	0.037690
1099.174753	0.037942
1099.335758	0.035577
1099.496746	0.036661
1099.657715	0.034227
1099.818666	0.035531
1099.979599	0.034048
1100.140513	0.034866
1100.301409	0.040930
1100.462287	0.040946
1100.623147	0.038995
1100.783989	0.039518
1100.944812	0.037447
1101.105617	0.036707
1101.266404	0.034270
1101.427173	0.032123
1101.587923	0.032020
1101.748656	0.028160
1101.909370	0.025306
1102.070066	0.026752
1102.230743	0.028110
1102.391403	0.028514
1102.552044	0.028642
1102.712667	0.029074
1102.873271	0.029937
1103.033858	0.028088
1103.194426	0.026751
1103.354976	0.031647
1103.515508	0.030321
1103.676021	0.029999
1103.836517	0.032038
1103.996994	0.033518
1104.157453	0.034007
1104.317893	0.034688
1104.478316	0.037806
1104.638720	0.038606
1104.799106	0.033640
1104.959474	0.039134
1105.119823	0.036487
1105.280155	0.032910
1105.440468	0.030849
1105.600763	0.027800
1105.761039	0.025029
1105.921298	0.020851
1106.081538	0.018646
1106.241760	0.019205
1106.401964	0.016045
1106.562149	0.020601
1106.722316	0.021696
1106.882465	0.021911
1107.042596	0.020168
1107.202709	0.021729
1107.362803	0.023829
1107.522879	0.025312
1107.682937	0.024337
1107.842977	0.022435
1108.002999	0.022170
1108.163002	0.021222
1108.322987	0.019693
1108.482954	0.024793
1108.642902	0.025173
1108.802833	0.025831
1108.962745	0.028476
1109.122639	0.031358
1109.282515	0.033924
1109.442372	0.030355
1109.602211	0.029479
1109.762032	0.033575
1109.921835	0.034281
1110.081620	0.032072
1110.241386	0.032993
1110.401134	0.032623
1110.560864	0.033882
1110.720576	0.028113
1110.880269	0.030694
1111.039945	0.033733
1111.199602	0.033812
1111.359240	0.030647
1111.518861	0.033413
1111.678463	0.034729
1111.838047	0.034215
1111.997613	0.035168
1112.157161	0.038413
1112.316690	0.039155
1112.476202	0.035582
1112.635695	0.031311
1112.795169	0.030181
1112.954626	0.032653
1113.114064	0.029781
1113.273484	0.029659
1113.432886	0.025365
1113.592270	0.026704
1113.751635	0.024764
1113.910983	0.030810
1114.070312	0.034041
1114.229622	0.035930
1114.388915	0.034062
1114.548189	0.033564
1114.707445	0.035590
1114.866683	0.034999
1115.025903	0.037529
1115.185104	0.034065
1115.344287	0.031370
1115.503452	0.030447
1115.662599	0.031186
1115.821727	0.035080
1115.980838	0.034995
1116.139930	0.033557
1116.299004	0.036622
1116.458059	0.033016
1116.617097	0.035296
1116.776116	0.034543
1116.935117	0.034280
1117.094099	0.033146
1117.253064	0.031575
1117.412010	0.030476
1117.570938	0.028580
1117.729848	0.026511
1117.888740	0.027231
1118.047613	0.025409
1118.206468	0.026981
1118.365305	0.027463
1118.524124	0.026480
1118.682924	0.025035
1118.841707	0.026410
1119.000471	0.026071
1119.159216	0.026906
1119.317944	0.026882
1119.476653	0.029219
1119.635344	0.029705
1119.794017	0.028098
1119.952672	0.030953
1120.111308	0.028071
1120.269927	0.028880
1120.428527	0.028584
1120.587108	0.027915
1120.745672	0.029993
1120.904217	0.030589
1121.062744	0.026543
1121.221253	0.025827
1121.379744	0.024750
1121.538216	0.027766
1121.696671	0.027760
1121.855107	0.029964
1122.013524	0.027976
1122.171924	0.021980
1122.330305	0.024655
1122.488668	0.027311
1122.647013	0.029370
1122.805340	0.030003
1122.963648	0.032120
1123.121938	0.031666
1123.280210	0.030328
1123.438464	0.030328
1123.596700	0.037475
1123.754917	0.031331
1123.913116	0.034571
1124.071297	0.036097
1124.229459	0.034242
1124.387604	0.025677
1124.545730	0.025662
1124.703838	0.027642
1124.861928	0.030318
1125.019999	0.024421
1125.178052	0.031097
1125.336088	0.023743
1125.494104	0.023993
1125.652103	0.025611
1125.810083	0.027190
1125.968045	0.025350
1126.125989	0.023370
1126.283915	0.019966
1126.441823	0.018255
1126.599712	0.013201
1126.757583	0.016561
1126.915436	0.015171
1127.073270	0.012591
1127.231087	0.015781
1127.388885	0.019442
1127.546665	0.019578
1127.704426	0.024003
1127.862170	0.025367
1128.019895	0.025862
1128.177602	0.026318
1128.335291	0.026079
1128.492961	0.026033
1128.650614	0.030104
1128.808248	0.029104
1128.965864	0.028796
1129.123461	0.027753
1129.281041	0.028704
1129.438602	0.028167
1129.596145	0.029664
1129.753670	0.028146
1129.911176	0.030446
1130.068665	0.027965
1130.226135	0.025878
1130.383587	0.024303
1130.541020	0.020311
1130.698436	0.024409
1130.855833	0.024299
1131.013212	0.022857
1131.170573	0.022164
1131.327915	0.020632
1131.485239	0.019312
1131.642545	0.022985
1131.799833	0.024472
1131.957103	0.026946
1132.114354	0.029256
1132.271588	0.030187
1132.428803	0.029175
1132.585999	0.030999
1132.743178	0.029347
1132.900338	0.028041
1133.057480	0.022838
1133.214604	0.026166
1133.371710	0.024550
1133.528797	0.018807
1133.685866	0.022636
1133.842917	0.025809
1133.999950	0.023128
1134.156964	0.026473
1134.313960	0.029796
1134.470938	0.033889
1134.627898	0.033209
1134.784840	0.038125
1134.941763	0.041340
1135.098668	0.038291
1135.255555	0.037178
1135.412424	0.041127
1135.569274	0.035115
1135.726107	0.031160
1135.882921	0.034657
1136.039716	0.029822
1136.196494	0.029692
1136.353253	0.029035
1136.509995	0.027705
1136.666717	0.024835
1136.823422	0.024473
1136.980109	0.031085
1137.136777	0.025592
1137.293427	0.023107
1137.450059	0.026905
1137.606672	0.022462
1137.763267	0.017621
1137.919844	0.017427
1138.076403	0.022822
1138.232944	0.019780
1138.389466	0.020272
1138.545971	0.024613
1138.702457	0.023609
1138.858924	0.026724
1139.015374	0.030902
1139.171805	0.037637
1139.328218	0.042234
1139.484613	0.039300
1139.640990	0.043664
1139.797348	0.042330
1139.953688	0.042778
1140.110010	0.041910
1140.266314	0.040756
1140.422600	0.035269
1140.578867	0.026607
1140.735116	0.026134
1140.891347	0.023026
1141.047559	0.020833
1141.203754	0.019816
1141.359930	0.019263
1141.516088	0.019281
1141.672228	0.014513
1141.828349	0.019709
1141.984452	0.024405
1142.140537	0.013788
1142.296604	0.019536
1142.452653	0.017274
1142.608683	0.015650
1142.764695	0.016104
1142.920689	0.014158
1143.076665	0.013378
1143.232622	0.012550
1143.388562	0.015362
1143.544483	0.024956
1143.700385	0.018364
1143.856270	0.014152
1144.012136	0.015820
1144.167985	0.018185
1144.323814	0.017454
1144.479626	0.014291
1144.635420	0.014588
1144.791195	0.010503
1144.946952	0.006318
1145.102691	0.006351
1145.258411	0.013852
1145.414113	0.010374
1145.569798	0.008999
1145.725463	0.008095
1145.881111	0.013456
1146.036741	0.008071
1146.192352	0.007867
1146.347945	0.008248
1146.503519	0.008843
1146.659076	0.005656
1146.814614	0.007157
1146.970134	0.002952
1147.125636	0.005910
1147.281120	0.010737
1147.436585	0.010176
1147.592032	0.006743
1147.747461	0.006523
1147.902872	0.008523
1148.058265	0.013848
1148.213639	0.018619
1148.368995	0.024920
1148.524333	0.021980
1148.679653	0.015881
1148.834954	0.022029
1148.990237	0.027787
1149.145502	0.028844
1149.300749	0.029017
1149.455977	0.030694
1149.611188	0.030184
1149.766380	0.027866
1149.921553	0.027843
1150.076709	0.028097
1150.231846	0.026378
1150.386966	0.023975
1150.542066	0.029643
1150.697149	0.031574
1150.852214	0.026892
1151.007260	0.020279
1151.162288	0.025248
1151.317298	0.034098
1151.472289	0.033605
1151.627263	0.034081
1151.782218	0.033877
1151.937155	0.032380
1152.092073	0.032840
1152.246974	0.031460
1152.401856	0.037093
1152.556720	0.030937
1152.711566	0.024040
1152.866393	0.025249
1153.021203	0.029545
1153.175994	0.037410
1153.330767	0.034079
1153.485521	0.030233
1153.640258	0.036635
1153.794976	0.031529
1153.949676	0.035367
1154.104358	0.034870
1154.259021	0.032357
1154.413667	0.026430
1154.568294	0.028126
1154.722903	0.030554
1154.877493	0.032883
1155.032066	0.029612
1155.186620	0.025128
1155.341156	0.023856
1155.495674	0.027279
1155.650173	0.028882
1155.804654	0.025474
1155.959118	0.015818
1156.113562	0.014632
1156.267989	0.012659
1156.422397	0.013493
1156.576788	0.026645
1156.731160	0.022138
1156.885513	0.022255
1157.039849	0.023422
1157.194166	0.031468
1157.348465	0.035359
1157.502746	0.035977
1157.657009	0.038707
1157.811253	0.035440
1157.965479	0.029608
1158.119687	0.029152
1158.273877	0.022235
1158.428048	0.025706
1158.582201	0.021025
1158.736337	0.019496
1158.890453	0.019287
1159.044552	0.016659
1159.198632	0.014393
1159.352694	0.016045
1159.506738	0.020135
1159.660764	0.027584
1159.814771	0.027570
1159.968761	0.028316
1160.122732	0.028197
1160.276685	0.026279
1160.430619	0.026335
1160.584535	0.037659
1160.738434	0.030447
1160.892313	0.029239
1161.046175	0.023649
1161.200019	0.019808
1161.353844	0.023550
1161.507651	0.022377
1161.661440	0.024367
1161.815210	0.023678
1161.968962	0.017495
1162.122697	0.028023
1162.276412	0.032634
1162.430110	0.032555
1162.583789	0.034881
1162.737451	0.033692
1162.891094	0.038985
1163.044718	0.039327
1163.198325	0.038161
1163.351913	0.030764
1163.505483	0.016412
1163.659035	0.018283
1163.812569	0.016523
1163.966084	0.011917
1164.119581	0.015622
1164.273060	0.004500
1164.426521	0.003548
1164.579964	0.004192
1164.733388	0.006342
1164.886794	0.012955
1165.040182	0.006732
1165.193551	0.012827
1165.346903	0.013014
1165.500236	0.007308
1165.653551	0.017447
1165.806848	0.015827
1165.960126	0.011487
1166.113386	0.010813
1166.266628	0.008750
1166.419852	-0.001016
1166.573058	-0.002999
1166.726245	-0.001588
1166.879414	-0.004558
1167.032565	-0.008578
1167.185698	-0.012574
1167.338812	-0.009464
1167.491909	-0.006246
1167.644987	-0.007750
1167.798046	0.010740
1167.951088	0.015368
1168.104111	0.005967
1168.257117	0.004251
1168.410103	0.001663
1168.563072	0.001857
1168.716023	0.013406
1168.868955	0.003552
1169.021869	0.003299
1169.174765	-0.004228
1169.327642	-0.006968
1169.480501	-0.000890
1169.633343	0.003791
1169.786165	0.004795
1169.938970	0.007623
1170.091757	-0.005056
1170.244525	0.004044
1170.397275	0.009518
1170.550007	0.009628
1170.702720	0.007765
1170.855415	0.010799
1171.008092	0.012525
1171.160751	0.018585
1171.313392	0.021864
1171.466014	0.014587
1171.618619	0.041284
1171.771205	0.041284
1171.923772	0.041284
