sample name	sample
index	487
start time	 03-11-2021  02:00:54 PM
880	0.031689
Peak Time (s)	92.535
Peak Height 	0.03169
calc peak height	90,93
Baseline Time (s)	10.537
Baseline Value 	-0.006747
subtract baseline	10,4
Abs	0.034009
Peak Time (s)	92.035
Peak Height 	0.03401
calc peak height	90,93
Baseline Time (s)	10.034
Baseline Value 	0.004459
subtract baseline	10,3
PK_550	0.024889
Peak Time (s)	92.035
Peak Height 	0.02489
calc peak height	90,93
Baseline Time (s)	11.035
Baseline Value 	2.713E-4
subtract baseline	10,2
PK_880	0.045911
Peak Time (s)	90.037
Peak Height 	0.04591
calc peak height	90,93
Baseline Time (s)	10.537
Baseline Value 	0.003591
subtract baseline	10,1


Time (s)	A880-A510	A880-A775	A880-A975	A880	I510	I775	I975	I880	
0.036500	-0.001474	0.000434	-0.003343	0.003168	7040.496453	45413.094514	3964.337525	24101.640705
0.537500	-0.004075	-0.000404	-0.004929	0.005663	6992.056407	45088.284081	3953.943765	23980.084042
1.037000	-0.001896	-0.000379	-0.001989	0.006369	7005.999867	45022.272419	3959.620332	23945.822991
1.535000	0.001971	0.000674	0.000369	0.002570	7079.333226	45495.024930	3975.420404	24130.854976
2.035500	-0.001766	-0.000289	-0.005442	0.001901	7049.830402	45466.293810	3962.210591	24163.607609
2.535500	-0.001485	-0.000920	0.000667	0.001002	7061.154078	45492.594352	3980.254289	24207.720402
3.036500	-0.000605	0.000223	-0.000717	0.000618	7073.321255	45642.379144	3977.661843	24226.564258
3.536500	-0.001055	-0.000498	-0.000226	0.000210	7072.913487	45611.638171	3979.991176	24246.608361
4.036500	-0.000791	0.000922	-0.001590	0.001318	7064.789996	45642.268584	3973.596261	24192.193050
4.537000	-0.001121	-0.000044	-0.003344	0.000488	7069.597192	45628.971370	3971.213737	24232.956391
5.037000	-0.001264	0.001017	-0.000558	0.001542	7058.095250	45629.619385	3975.683447	24181.216841
5.536500	-0.000249	0.001114	-0.004545	0.001086	7072.235010	45683.992578	3966.591737	24203.585877
6.035000	0.001403	0.000610	-0.009464	0.001180	7087.279143	45625.193840	3953.813784	24198.975268
6.535500	-0.000867	0.000476	-0.005879	0.000555	7071.397784	45673.452842	3964.535208	24229.662807
7.035500	0.000453	0.000564	-0.001215	0.000423	7085.404784	45695.141401	3976.877601	24236.137656
7.536000	0.000312	0.000283	0.000172	0.000412	7084.147289	45668.458861	3980.499671	24236.656793
8.036500	-0.001755	-0.000447	-0.001307	-0.001052	7078.329987	45740.768206	3980.461508	24308.766945
8.536500	-0.000550	0.000255	-0.003702	0.000307	7076.844819	45676.168517	3970.759638	24241.857761
9.037000	0.001253	0.000301	0.000075	0.000391	7093.448578	45672.341384	3980.300490	24237.695802
9.537000	0.001567	-0.000233	-0.006712	-0.000092	7101.173195	45667.286135	3964.058937	24261.446684
10.034500	0.000378	0.000190	0.000000	0.000741	7081.611944	45627.005279	3979.200479	24220.520187
10.537500	0.000000	-0.000195	-0.002596	0.000000	7085.116831	45662.052540	3974.401383	24256.943466
11.035000	-0.001162	0.000000	0.001486	-0.000260	7076.412099	45706.833611	3985.668415	24269.749660
11.535000	-0.000043	-0.000309	0.000568	-0.000141	7086.066313	45664.699294	3982.967626	24263.899822
12.036000	-0.000763	0.000850	-0.003104	0.000755	7070.480812	45690.640508	3971.144606	24219.848488
12.536000	-0.000644	0.000158	-0.001495	0.000049	7078.427618	45691.968435	3977.120126	24254.528233
13.036000	0.000247	0.000540	-0.002962	-0.001737	7104.332964	45905.867499	3977.946972	24342.586594
13.536500	-0.000327	0.000166	-0.004121	0.000085	7081.134213	45689.165693	3970.250765	24252.751132
14.042000	-0.001029	0.000913	-0.004375	0.001355	7062.140270	45637.683463	3966.336285	24190.358881
14.536500	-0.000704	0.000889	-0.002041	0.002999	7049.477872	45474.068450	3968.108580	24109.871965
15.040000	-0.000507	0.000441	-0.000845	0.001083	7069.782523	45618.074649	3976.127787	24203.724997
15.537500	-0.000766	0.000558	-0.004866	0.000418	7073.688063	45694.961773	3967.480621	24236.385039
16.035000	-0.002635	-0.000375	0.000444	0.001116	7049.029589	45534.739803	3979.379296	24202.111569
16.535500	0.001052	0.000435	-0.003106	0.000144	7093.896169	45709.857895	3972.712334	24249.856531
17.036000	-0.000682	0.000659	0.005611	0.000779	7071.024108	45669.405212	3993.743291	24218.659011
17.536000	0.001669	0.000645	0.004067	-0.003108	7131.533997	46052.069368	3999.913102	24410.414465
18.036000	0.000138	0.000382	-0.005305	0.001651	7070.522167	45556.491827	3963.200177	24175.858004
18.537000	-0.003898	0.000032	0.001005	0.000893	7039.076998	45596.556342	3981.415082	24213.053875
19.037000	-0.000146	0.000373	-0.003145	0.001432	7069.888553	45577.155501	3969.297173	24186.583584
19.540000	-0.000059	0.000257	-0.001459	0.001305	7071.955358	45578.251377	3973.968388	24192.841738
20.035000	-0.002156	0.000483	-0.001450	0.001493	7050.004517	45581.978552	3973.506181	24183.622657
20.535500	-0.001513	0.000496	-0.004854	0.001061	7060.313986	45625.654226	3965.862269	24204.786666
21.035500	-0.000294	0.000406	0.002837	0.001571	7067.136898	45566.759979	3984.417164	24179.795501
21.535500	-0.001657	0.000451	-0.002220	0.001104	7058.522188	45617.095631	3972.523447	24202.712788
22.036000	-0.000652	0.000223	-0.001715	0.001488	7064.484405	45556.904385	3972.834569	24183.847631
22.536000	-0.000365	0.000756	-0.000234	0.001600	7066.164737	45598.221826	3976.368659	24178.338844
23.036500	-0.001942	-0.000090	-0.006099	0.000724	7059.430612	45601.170175	3963.540372	24221.349963
23.536500	0.000621	0.000144	-0.004368	0.001251	7079.026498	45572.370628	3966.622085	24195.453097
24.037500	-0.001926	-0.000116	0.001581	0.000842	7058.459538	45587.063372	3983.044709	24215.561035
24.534500	0.000235	0.000169	-0.000350	0.000898	7078.713990	45609.555258	3977.885880	24212.784832
25.034500	-0.001278	0.001205	-0.003562	0.001879	7054.722135	45614.943797	3967.080849	24164.706335
25.534500	0.001042	0.000299	0.000423	0.001342	7082.219964	45578.760157	3978.739615	24191.014129
26.035500	-0.001027	0.000804	-0.000831	0.002029	7055.681795	45560.841108	3973.718427	24157.315254
26.535500	-0.001643	0.000343	0.001976	0.001381	7055.994106	45579.154935	3982.670775	24189.097572
27.036000	0.000163	-0.000139	-0.002707	0.000514	7081.724200	45616.992817	3972.789193	24231.667349
27.536500	-0.001926	0.000516	-0.001052	0.000378	7062.912870	45694.826823	3977.416238	24238.370961
28.036500	0.002170	0.001107	0.000833	-0.001914	7124.772401	45979.560931	3988.282584	24351.350975
28.536500	-0.000026	0.000602	0.000038	0.002435	7061.402306	45501.240307	3974.913338	24137.453164
29.056500	-0.000279	-0.000127	0.000351	-0.000137	7083.748316	45682.231787	3982.391516	24263.705139
29.534500	0.000598	0.000498	0.000438	0.000082	7090.102786	45722.147821	3982.048153	24252.915402
30.035000	0.000580	0.000899	-0.001886	0.000525	7085.650195	45718.018671	3974.877206	24231.114645
30.535500	-0.001286	0.000018	-0.003577	0.002033	7053.167251	45483.355095	3966.644549	24157.139947
31.057000	0.000775	0.001112	0.002975	0.000835	7084.530847	45708.485656	3986.695251	24215.883106
31.535500	-0.000845	0.000611	0.001719	0.003132	7046.867772	45433.877976	3977.459203	24103.402890
32.036500	0.000190	0.000607	0.001439	0.002009	7067.575842	45543.493424	3979.643682	24158.340674
32.574000	-0.001823	0.001089	-0.006422	0.004000	7029.219270	45395.708616	3954.374797	24061.023404
33.037000	-0.001731	0.000591	-0.000115	0.000305	7065.487050	45709.319506	3980.032128	24241.925560
33.540000	0.001737	0.000768	0.000553	0.000575	7096.358538	45700.232520	3981.066847	24228.678958
34.037000	-0.000729	-0.000127	-0.004067	-0.000152	7079.548202	45683.681242	3971.001560	24264.428941
34.535000	-0.000227	0.000462	0.000756	0.002002	7063.631862	45529.953501	3977.892198	24158.651825
35.035000	-0.001001	0.000555	-0.000226	0.002637	7050.104964	45476.801447	3973.711146	24127.581212
35.535500	-0.000754	0.000597	-0.003332	0.001893	7059.614658	45553.869353	3967.632309	24163.981845
36.035500	-0.001527	-0.000079	-0.000623	0.001666	7054.380722	45509.869874	3975.193286	24175.142778
36.536000	-0.000201	0.000098	-0.004662	0.002450	7059.572908	45450.417829	3962.800921	24136.715078
37.036000	-0.000858	0.000668	0.000770	0.002385	7053.888911	45512.617262	3976.934699	24139.902812
37.536500	-0.000286	0.000202	-0.002196	0.002603	7057.290880	45445.641433	3968.728276	24129.245337
38.039500	0.000037	0.000018	-0.005504	0.001664	7069.420013	45519.466152	3962.656291	24175.199991
38.537000	-0.002463	0.000234	0.001602	0.003775	7025.267286	45334.206819	3975.492237	24072.002354
39.034000	-0.001025	0.000104	-0.003139	0.002018	7055.808083	45493.302848	3967.807149	24157.867325
39.535000	0.000230	0.000747	0.000018	0.002392	7064.277334	45519.606449	3974.973380	24139.554598
40.035500	-0.001687	0.000112	-0.002274	0.001931	7050.298052	45502.571878	3970.252709	24162.132728
40.535500	-0.003729	0.000191	0.001179	0.002970	7020.872849	45408.597649	3976.480152	24111.289455
41.035500	-0.000435	0.000869	-0.001943	0.002638	7055.522947	45507.517848	3969.286208	24127.531278
41.536500	-0.001731	0.000183	-0.000072	0.001778	7051.353615	45524.585671	3976.329962	24169.659080
42.036500	0.000047	0.000847	-0.002427	0.002602	7060.498872	45508.934674	3968.137051	24129.301588
42.539500	-0.000277	0.000364	-0.004472	0.002011	7063.062825	45519.395180	3964.408979	24158.206092
43.037000	-0.001993	-0.000041	-0.000078	0.001965	7047.038626	45484.217235	3975.828525	24160.458231
43.537000	-0.001252	0.000094	-0.005581	0.001954	7054.250333	45498.613585	3961.721634	24161.031864
44.037500	-0.001994	0.000974	0.000498	0.002318	7043.650195	45549.164461	3976.405548	24143.180548
44.535000	-0.002854	0.000528	-0.000537	0.003772	7021.574251	45363.155123	3969.986671	24072.135998
45.035500	0.002092	0.001163	0.000956	-0.000347	7108.748844	45830.051330	3984.511977	24274.004416
45.535500	-0.001706	0.000202	-0.003259	0.000432	7064.506589	45658.663435	3971.577086	24235.711896
46.036000	-0.000532	0.000664	-0.002894	0.002976	7051.357963	45454.341258	3965.980683	24111.020291
46.536500	-0.004350	-0.000016	-0.000377	0.005509	6990.917196	45140.974450	3965.938371	23987.594606
47.036500	0.000539	0.000377	-0.002502	0.000870	7081.910815	45632.666227	3972.397752	24214.154557
47.536500	-0.000657	0.000765	0.001616	0.000704	7071.989351	45687.234227	3983.494230	24222.340999
48.048500	-0.000255	0.000175	-0.000489	0.001723	7066.049862	45529.205272	3975.393206	24172.329548
48.537500	-0.000705	0.000821	-0.001802	0.005238	7028.085297	45248.764342	3962.984763	24000.766672
49.034500	-0.001294	0.000766	-0.001033	0.003138	7042.504462	45448.368241	3970.339949	24103.073716
49.556500	0.000833	0.000822	-0.000705	0.000971	7083.786064	45666.567038	3976.777985	24209.222595
50.035500	0.000240	0.000799	-0.001836	0.003187	7056.736023	45446.907928	3968.152837	24100.700084
50.535500	-0.002219	0.000441	-0.000304	0.004311	7022.484849	45302.030801	3969.200260	24045.859580
51.036000	0.002986	0.001950	-0.000436	-0.001100	7124.791274	45982.438124	3982.849815	24311.133627
51.536500	0.000215	0.001164	0.002685	-0.000545	7092.465795	45849.678033	3989.542477	24283.758031
52.039500	-0.000505	0.000589	0.003878	0.001099	7069.642203	45631.051591	3988.363041	24202.929216
52.536500	-0.001035	0.000399	0.002863	0.003347	7042.982538	45392.083560	3979.866600	24092.866967
53.037000	-0.007673	-0.003167	0.000352	0.042929	6623.539959	41377.682687	3875.783490	22245.670181
53.534500	-0.026287	-0.002567	-0.020297	0.184791	5469.630761	30706.298956	3556.545026	16851.195532
54.035000	-0.058908	-0.023600	-0.030396	-0.070340	7197.057855	50537.175032	4089.791650	28014.078223
54.535000	-0.064250	-0.070033	-0.031804	-0.227280	8997.007367	64327.200442	4622.370209	38951.591018
55.035500	-0.026664	-0.076790	-0.002963	-0.240101	9748.798468	65190.309114	4800.504288	40032.113367
55.536000	-0.033369	-0.026789	-0.005309	-0.142992	8290.142236	58791.797047	4401.918521	32589.524995
56.036000	-0.019928	-0.027814	-0.011250	-0.164094	8737.341495	61434.159926	4456.942543	34068.373911
56.539500	-0.012344	-0.010962	-0.010488	-0.110877	8153.961919	56736.195189	4274.469785	30472.399606
57.036000	-0.002898	-0.006625	-0.002187	-0.108667	8242.424689	57000.273276	4294.546256	30332.382374
57.536500	0.004037	-0.000611	-0.004686	-0.086469	8057.531048	55022.924171	4214.861771	28964.824295
58.037500	0.005105	0.000756	-0.000425	-0.078170	7972.168510	54198.302933	4202.258813	28471.227273
58.535000	0.004516	0.004273	0.003360	-0.057023	7723.995389	52159.376078	4149.385755	27255.335688
59.035000	0.011826	0.006504	0.004879	-0.042261	7641.726512	50759.655525	4110.456264	26440.954157
59.535500	0.012242	0.007000	0.009043	-0.037768	7597.310587	50321.630533	4109.504188	26198.554291
60.035500	0.015767	0.008914	0.011831	-0.031635	7569.111108	49863.526364	4099.863547	25871.643112
60.536000	0.013249	0.009427	0.012002	-0.018225	7400.556249	48490.731040	4062.431827	25172.803319
61.039000	0.018923	0.011971	0.015171	-0.019008	7468.143207	48840.956292	4073.484272	25212.986253
61.536500	0.026454	0.015347	0.020111	-0.013895	7493.714502	48657.820412	4072.998017	24951.686280
62.036500	0.021105	0.014992	0.018852	-0.012962	7427.580152	48522.472290	4066.857504	24904.359525
62.537500	0.018491	0.015520	0.016694	-0.000779	7275.529841	47315.652115	4027.433117	24295.323881
63.037500	0.024672	0.019378	0.014007	0.028496	7048.317416	44793.282957	3944.110485	22899.777792
63.534500	0.023910	0.017726	0.020632	0.014248	7179.531788	46024.889968	3997.826518	23567.241176
64.035500	0.028366	0.020127	0.015289	-0.017115	7548.458721	49507.745872	4068.509372	25115.925843
64.536000	0.027187	0.020979	0.017171	-0.009425	7454.254639	48780.242934	4052.359551	24725.752790
65.065500	0.032261	0.021887	0.016170	-0.011123	7526.003320	49056.087427	4054.288130	24811.302938
65.536000	0.031361	0.022009	0.016901	-0.009034	7494.198853	48847.836218	4050.538626	24706.125092
66.037500	0.031630	0.022597	0.020040	-0.006305	7468.188514	48622.007489	4051.669674	24569.439318
66.537000	0.031578	0.023330	0.022194	0.001239	7388.783401	47911.239212	4036.884337	24196.067194
67.037500	0.034287	0.023157	0.021798	-0.001584	7446.472512	48186.535099	4043.517870	24335.021527
67.537000	0.035259	0.023273	0.016620	0.000292	7436.990634	48003.462024	4024.340509	24242.572268
68.034500	0.036082	0.024032	0.017172	0.003120	7416.042982	47789.412519	4018.218415	24103.983113
68.535000	0.035891	0.023739	0.025720	0.004349	7401.265458	47632.511264	4038.020119	24044.032544
69.035500	0.037074	0.023839	0.023421	0.005914	7397.298503	47481.962624	4027.524023	23967.912039
69.535500	0.034920	0.023264	0.021246	0.006120	7372.855351	47401.920349	4021.101083	23957.905931
70.036500	0.034539	0.023976	0.023247	0.008406	7345.402582	47241.199230	4020.336534	23847.310591
70.536000	0.034552	0.023812	0.024291	0.008377	7345.839896	47227.416142	4023.223283	23848.707354
71.036500	0.037710	0.023676	0.027205	0.008916	7372.794628	47158.626054	4029.639458	23822.691524
71.536500	0.034641	0.023273	0.026516	0.009043	7339.916564	47104.610083	4027.431757	23816.557872
72.037000	0.033545	0.022860	0.025091	0.010287	7315.991164	46936.442176	4020.235937	23756.695495
72.535000	0.030908	0.022709	0.020771	0.015451	7237.177074	46401.477084	3995.026182	23510.059195
73.035000	0.037879	0.023516	0.027454	0.010744	7355.701774	46956.688568	4025.372457	23734.784770
73.537500	0.037733	0.022934	0.027305	0.010785	7353.770101	46893.611669	4024.857868	23732.792891
74.036000	0.037504	0.024087	0.024862	0.011829	7340.712534	46904.633616	4015.489292	23682.771420
74.535500	0.034863	0.023508	0.021871	0.015213	7279.367692	46505.353471	3998.550873	23521.363915
75.039000	0.038839	0.024107	0.026780	0.012061	7352.037841	46883.261576	4020.009937	23671.665172
75.536500	0.039203	0.024867	0.025748	0.012885	7347.306586	46876.734112	4015.032714	23632.259581
76.036000	0.040290	0.024864	0.027879	0.013445	7352.708264	46819.722405	4019.241790	23605.490377
76.537000	0.037191	0.024721	0.022990	0.017827	7276.477989	46365.097135	3994.613550	23397.539478
77.037500	0.041206	0.024964	0.024224	0.012623	7370.629105	46913.031864	4011.662636	23644.786054
77.534500	0.041275	0.025477	0.030095	0.013458	7362.715995	46880.380683	4025.172450	23604.870354
78.035000	0.040054	0.025484	0.028715	0.014178	7342.774793	46808.409244	4019.520223	23570.590622
78.535500	0.041230	0.024918	0.026213	0.017528	7320.530170	46414.684943	4003.909107	23411.667715
79.035500	0.041012	0.025578	0.023546	0.013654	7357.999069	46870.838641	4007.110506	23595.553031
79.539000	0.039375	0.024687	0.024531	0.013084	7347.025600	46838.414549	4011.250539	23622.744834
80.036000	0.039571	0.024886	0.028281	0.013549	7344.262284	46811.484248	4020.042695	23600.546147
80.536500	0.037759	0.025384	0.028527	0.019138	7268.973537	46300.281088	4005.774941	23335.677462
81.037000	0.041595	0.024688	0.029434	0.013784	7362.658484	46767.756425	4022.511408	23589.324839
81.537000	0.042852	0.026155	0.027812	0.015199	7361.034132	46773.062585	4014.362977	23522.003069
82.037500	0.043826	0.025586	0.034325	0.015435	7368.635424	46691.828816	4031.268707	23510.789284
82.535000	0.039952	0.025311	0.028268	0.019910	7283.331781	46215.986561	4003.041481	23299.391805
83.035500	0.042098	0.025452	0.030722	0.015469	7350.503560	46675.001962	4021.445273	23509.191339
83.535000	0.043890	0.026158	0.028957	0.016351	7359.858309	46657.247177	4014.345092	23467.330715
84.038500	0.043656	0.025248	0.031531	0.016093	7360.104018	46591.678542	4021.942200	23479.580033
84.536000	0.041655	0.025336	0.026533	0.019140	7308.427520	46295.308805	4000.488025	23335.588093
85.036500	0.042897	0.025942	0.029426	0.017215	7340.783781	46548.711364	4013.290232	23426.444585
85.536500	0.043849	0.026198	0.026624	0.018338	7339.023605	46461.691897	4002.852508	23373.397939
86.037000	0.043115	0.025938	0.031705	0.018966	7325.088495	46372.822594	4014.699799	23343.778507
86.536500	0.041022	0.025740	0.027225	0.022220	7270.798488	46029.017579	3994.197614	23191.085302
87.037500	0.043979	0.025499	0.026387	0.019265	7330.865529	46299.129749	3999.774256	23329.731214
87.535000	0.046063	0.025630	0.028275	0.020752	7336.981208	46163.945636	4000.833110	23259.855060
88.034500	0.044846	0.025897	0.028653	0.021510	7316.786541	46115.060738	3999.828514	23224.299607
88.535500	0.043721	0.025224	0.027286	0.025202	7267.943519	45683.342494	3986.548297	23052.154973
89.036000	0.045566	0.024852	0.027013	0.022226	7316.832984	45940.384703	3993.624740	23190.825615
89.536500	0.045349	0.025347	0.030953	0.023505	7301.605843	45862.854947	4000.636631	23131.121795
90.036500	0.045911	0.024532	0.027248	0.024897	7293.179330	45645.313504	3987.246952	23066.327432
90.536500	0.044693	0.024820	0.030879	0.025345	7276.308864	45629.581408	3995.589296	23045.521835
91.037000	0.043700	0.024211	0.027116	0.025839	7261.313349	45521.285812	3984.445790	23022.608099
91.536500	0.045538	0.024457	0.028398	0.026907	7269.071810	45440.865935	3985.003723	22973.157410
92.035000	0.044487	0.024889	0.034009	0.028881	7238.665948	45290.148580	3994.519185	22882.046586
92.535500	0.043334	0.024806	0.032460	0.031689	7199.163100	45009.248674	3983.126079	22753.193028
93.035500	0.045288	0.025361	0.030248	0.031007	7225.414453	45129.298023	3979.153675	22784.441987
93.536000	0.045874	0.025464	0.031232	0.032437	7216.995895	45000.611088	3977.997753	22719.039905
94.036000	0.045521	0.025028	0.030537	0.033819	7199.733372	44824.821269	3972.629828	22655.999394
94.536000	0.043639	0.025615	0.029785	0.037691	7142.988062	44509.248793	3960.774894	22480.545315
95.036500	0.047300	0.026448	0.035351	0.036759	7188.227675	44678.486209	3977.471975	22522.624565
95.547500	0.045988	0.024685	0.031323	0.037411	7168.824235	44447.152650	3965.421458	22493.196716
96.045500	0.045097	0.025318	0.030476	0.039154	7142.944977	44341.211624	3958.807774	22414.646542
96.537500	0.042003	0.024263	0.028577	0.041323	7091.696308	44034.964685	3948.496794	22317.367115
97.034500	0.046599	0.025719	0.037056	0.041176	7137.847705	44186.983233	3970.473528	22323.944514
97.535500	0.046123	0.024529	0.026740	0.041257	7132.402745	44066.459034	3944.040906	22320.322329
98.038000	0.045201	0.025216	0.034440	0.044324	7093.595519	43841.670755	3955.739884	22183.563310
98.536000	0.043614	0.023531	0.028368	0.045614	7065.836961	43562.528857	3937.206782	22126.338765
