sample name	sample
index	1389
start time	 05-10-2021  10:32:58 AM
880	0.053896
Peak Time (s)	92.036
Peak Height 	0.0539
calc peak height	90,93
Baseline Time (s)	8.536
Baseline Value 	-0.004924
subtract baseline	10,4
Abs	0.032917
Peak Time (s)	90.536
Peak Height 	0.03292
calc peak height	90,93
Baseline Time (s)	10.537
Baseline Value 	0.003045
subtract baseline	10,3
PK_550	0.026783
Peak Time (s)	90.536
Peak Height 	0.02678
calc peak height	90,93
Baseline Time (s)	11.537
Baseline Value 	0.00129
subtract baseline	10,2
PK_880	0.027668
Peak Time (s)	90.035
Peak Height 	0.02767
calc peak height	90,93
Baseline Time (s)	11.037
Baseline Value 	0.001637
subtract baseline	10,1


Time (s)	A880-A510	A880-A775	A880-A975	A880	I510	I775	I975	I880	
0.041500	-0.000614	-0.000328	-0.000603	0.001925	6400.102044	45308.122031	3882.955573	23308.931367
0.536500	-0.002016	-0.000641	-0.007636	0.007203	6345.924540	44766.250115	3853.115848	23061.902479
1.037000	-0.003445	-0.000997	-0.001369	0.003362	6365.385195	45103.177932	3877.551740	23241.360618
1.538000	0.000278	-0.001023	-0.000094	0.000402	6419.896750	45388.986839	3887.961131	23380.763182
2.037000	0.001016	-0.000743	0.003258	0.000169	6427.894347	45439.249432	3896.856225	23391.800576
2.537500	-0.003185	-0.001173	-0.004585	0.005921	6346.833557	44838.547814	3863.522156	23121.643479
3.035000	0.001869	-0.000279	-0.000153	-0.000942	6444.103778	45593.627769	3891.141116	23444.395441
3.538500	-0.001210	-0.000628	-0.000324	0.000560	6406.397323	45412.145984	3887.005973	23373.308540
4.043500	-0.000058	-0.000735	-0.003253	0.000008	6420.379272	45455.744185	3881.153825	23399.400058
4.542000	-0.001554	-0.000576	0.004397	0.001405	6396.678582	45334.748303	3896.612943	23333.456911
5.039500	-0.001218	0.000015	0.001081	0.000516	6406.689673	45479.466548	3890.587160	23375.398211
5.536500	0.000232	-0.000508	-0.008576	0.000066	6422.286637	45472.318352	3868.029290	23396.659049
6.037500	-0.000918	-0.000912	-0.004444	0.000036	6413.089895	45435.674235	3878.167597	23398.090586
6.537500	-0.000047	-0.001262	-0.002423	-0.000652	6425.899926	45468.732298	3884.819308	23430.653256
7.037500	0.001168	0.000157	-0.002378	0.000205	6428.846251	45523.804483	3882.819584	23390.089380
7.537000	0.001978	0.000248	-0.001944	0.000615	6432.137002	45492.511497	3882.877663	23370.698051
8.038500	-0.000307	-0.000961	-0.000113	-0.000695	6424.110006	45502.446010	3890.627888	23432.675426
8.536000	0.001760	0.000186	-0.001477	0.000000	6435.417081	45546.768399	3885.542389	23399.782681
9.038500	-0.002411	-0.001391	0.001563	-0.001095	6410.112937	45499.558563	3895.782052	23451.641926
9.536500	-0.000073	0.000161	0.000293	0.000355	6417.402413	45509.509958	3889.034031	23382.977958
10.036500	0.001257	-0.000155	0.000064	0.000024	6431.065678	45510.988582	3889.285868	23398.628940
10.537000	0.002199	0.000336	0.000000	0.000101	6438.207275	45551.524689	3888.938081	23394.986476
11.037500	0.000000	-0.001035	-0.003173	-0.001204	6430.828864	45545.079367	3884.331022	23456.793082
11.537000	-0.000176	0.000000	-0.002284	-0.000303	6421.965729	45558.262927	3884.300519	23414.122479
12.034500	0.003129	0.000036	0.005509	-0.000157	6448.037482	45547.533785	3903.291404	23407.222643
12.538000	0.001749	-0.000298	-0.002348	-0.000563	6439.975159	45554.546885	3884.783847	23426.425696
13.038500	0.001320	-0.000169	0.002155	-0.001812	6446.759680	45689.994928	3899.043786	23485.672558
13.535500	0.001945	0.000119	0.000215	-0.001225	6447.072189	45660.502871	3892.754598	23457.795460
14.036500	0.000939	-0.000592	0.001559	-0.001133	6437.994720	45581.603348	3895.867329	23453.453077
14.535500	-0.001845	-0.000883	-0.003163	0.001164	6396.272444	45328.290163	3878.543116	23344.819569
15.036500	0.000171	-0.001144	-0.001962	-0.000719	6428.243517	45486.818762	3886.120152	23433.808415
15.543000	0.000858	-0.000785	-0.000616	-0.001196	6437.847433	45568.871530	3890.624583	23456.445348
16.037000	-0.000078	0.000022	-0.001604	-0.001334	6431.258371	45661.739867	3888.521697	23462.973446
16.540500	0.001358	0.000401	-0.001045	-0.001002	6440.369339	45666.280604	3889.080387	23447.208610
17.035000	0.002182	0.000352	0.001231	0.000809	6432.222380	45483.759102	3890.233142	23361.561121
17.538000	0.000169	-0.000271	0.002289	-0.003445	6450.752229	45840.922508	3903.460305	23563.363482
18.035500	0.000071	0.000176	-0.001718	-0.000315	6424.098939	45576.754644	3885.725337	23414.695661
18.538000	-0.002069	-0.000016	-0.000645	0.000917	6396.460345	45437.169742	3885.334275	23356.470998
19.036500	-0.000535	0.000047	-0.001203	0.001006	6408.274844	45434.604727	3883.741984	23352.267681
19.536500	-0.000227	-0.000950	0.002905	0.000800	6412.487903	45357.253445	3894.405329	23361.971392
20.038500	-0.000416	0.000070	0.000123	0.001231	6407.404811	45414.833845	3886.452240	23341.625427
20.537500	0.002713	-0.000292	0.001581	0.000838	6436.362808	45417.800669	3891.028039	23360.175700
21.037000	0.000636	-0.000459	0.000273	0.001360	6414.971715	45350.592258	3886.505517	23335.569595
21.538000	-0.001996	-0.000247	-0.001776	0.000244	6402.553938	45480.402297	3884.205637	23388.246037
22.038500	0.000389	-0.000560	-0.000429	0.000742	6418.018191	45400.951586	3886.296266	23364.694109
22.538500	-0.000160	-0.000500	-0.002313	0.000993	6411.450671	45382.315600	3881.044724	23352.848721
23.036000	-0.002515	-0.000400	-0.003259	0.000661	6394.898099	45424.541050	3879.537865	23368.519225
23.536500	-0.001605	-0.000615	-0.000638	0.000884	6400.518557	45381.797243	3885.433443	23358.027853
24.036500	0.000341	0.000035	-0.000428	0.001094	6414.733962	45424.816571	3885.432617	23348.123776
24.537000	-0.001245	0.000269	-0.002303	0.001613	6397.495797	45396.901411	3879.547040	23323.619282
25.037000	0.000064	-0.001017	0.001102	0.000387	6418.268346	45391.053822	3890.958392	23381.490139
25.537500	0.000420	-0.000412	0.001257	0.000528	6420.028522	45436.401590	3890.993181	23374.809113
26.037500	-0.000997	-0.000427	-0.000547	0.001067	6403.987870	45382.294122	3885.206015	23349.375432
26.538000	-0.001533	-0.001391	-0.001756	-0.000056	6408.797783	45397.807001	3884.993993	23402.441478
27.038000	0.000767	0.000134	0.001741	0.001200	6417.360564	45424.123328	3890.527359	23343.090806
27.535500	-0.001946	-0.000374	-0.004401	0.001083	6396.104702	45385.963911	3875.713017	23348.640829
28.035000	0.001530	-0.000375	0.001612	-0.002690	6455.781614	45756.150842	3899.880082	23527.419327
28.535500	-0.001109	0.000001	0.003000	0.000205	6410.127859	45508.521273	3896.121129	23390.066459
29.063500	-0.000313	-0.000358	-0.001826	-0.000495	6422.421324	45542.042962	3885.904154	23423.226018
29.537000	0.000593	0.000111	0.004737	-0.000393	6429.030347	45577.998836	3901.947663	23418.364383
30.037000	-0.000446	0.000709	-0.002961	-0.000330	6419.966564	45630.529956	3882.701170	23415.379702
30.537500	0.002750	-0.000256	0.001999	-0.000817	6450.365361	45583.521703	3896.175524	23438.456411
31.037000	0.001630	0.000852	-0.000185	0.000119	6433.368606	45600.500004	3888.437246	23394.163438
31.538000	-0.000331	0.000238	0.003104	0.002458	6398.058955	45311.389901	3890.787012	23283.832268
32.035000	-0.001554	0.000091	0.000002	0.002442	6388.220052	45298.668301	3883.173310	23284.626849
32.543000	0.000284	-0.000545	0.004453	-0.000198	6424.886559	45494.571484	3900.753199	23409.163777
33.036000	0.000721	-0.000797	0.002578	-0.001289	6437.481317	45576.781652	3898.793291	23460.837513
33.536500	0.002900	0.000576	0.000077	0.000056	6444.376612	45579.601624	3889.239959	23397.142206
34.036500	-0.000546	-0.000295	-0.001248	-0.000836	6423.302524	45581.537630	3888.169021	23439.345897
34.536000	0.001785	-0.000517	-0.000522	-0.001920	6451.513613	45666.365455	3892.652485	23490.807413
35.033500	-0.000859	0.000424	0.001387	0.002379	6394.398579	45337.274938	3886.739848	23287.579260
35.540500	-0.000538	-0.000032	-0.001914	0.001657	6402.915114	45363.260776	3880.394457	23321.553525
36.037000	-0.000162	-0.000369	-0.005175	0.001495	6407.319384	45346.085451	3872.820863	23329.193073
36.543000	-0.001801	-0.000285	-0.002473	0.001738	6391.943374	45330.620508	3878.827263	23317.747364
37.036000	-0.001353	0.000152	-0.000085	0.001670	6396.148478	45379.847119	3884.855525	23320.923908
37.536000	-0.002781	-0.000381	-0.003091	0.000980	6390.126181	45395.245136	3879.167167	23353.460113
38.036500	-0.000721	-0.000203	-0.000996	0.001601	6401.879760	45351.949592	3882.784950	23324.182512
38.535500	-0.000802	-0.000625	-0.003436	0.001219	6404.340499	45348.138005	3877.740627	23342.213173
39.036000	-0.001577	-0.000682	-0.002684	0.001234	6397.886519	45341.069332	3879.542909	23341.502126
39.537000	0.000038	0.000161	-0.001488	0.001872	6405.871716	45361.099163	3880.913090	23311.446829
40.037500	0.001143	0.000061	0.001742	0.001375	6419.018959	45399.932414	3890.097600	23334.868835
40.537500	-0.001634	0.000098	-0.005091	0.001834	6392.522837	45358.614789	3872.201322	23313.221975
41.040500	-0.000449	-0.000058	-0.003269	0.001617	6403.978680	45364.661762	3877.174948	23323.466445
41.535500	-0.001021	0.000687	0.002369	0.001770	6398.045170	45422.432191	3890.670784	23316.243063
42.036000	0.000260	0.000211	-0.001966	0.001434	6411.278186	45408.753400	3880.813767	23332.047424
42.536000	-0.000890	-0.000135	-0.001910	0.001238	6403.467006	45394.120787	3881.432860	23341.319326
43.037000	-0.000684	-0.000243	-0.003117	0.001474	6403.223077	45360.464754	3877.894725	23330.177281
43.539500	0.000041	-0.000017	0.000043	0.001607	6408.068268	45369.508544	3885.326907	23323.902883
44.037000	-0.000610	-0.000195	0.000693	0.001447	6404.048643	45367.886254	3887.327388	23331.474419
44.537500	-0.000629	0.000077	0.001621	0.001598	6402.655374	45379.662072	3889.246500	23324.352136
45.039500	0.001094	0.000005	-0.002010	-0.002164	6447.802347	45741.777966	3889.567760	23502.374859
45.537000	0.000232	-0.000096	0.005362	-0.000502	6426.957860	45568.347661	3903.787884	23423.539940
46.059000	0.000809	0.000234	0.000953	-0.000232	6429.489401	45574.314031	3892.123850	23410.779526
46.535500	0.000519	0.000510	0.000281	-0.000475	6429.097641	45625.250182	3891.060057	23422.257604
47.035500	0.000489	0.000261	-0.000349	0.000767	6418.640045	45478.946232	3886.434286	23363.557965
47.536500	0.001135	0.000484	0.001619	-0.000285	6432.610483	45604.046471	3893.906818	23413.267195
48.036500	-0.001756	-0.000406	0.000296	-0.000043	6406.860280	45492.906348	3890.027953	23401.810174
48.537000	0.002366	0.000106	0.002231	0.000763	6434.121245	45464.090595	3892.824537	23363.712848
49.036500	-0.001088	-0.000158	-0.000247	0.001919	6396.280597	45325.330663	3883.845594	23309.195683
49.537500	0.002618	0.000262	-0.003604	0.000047	6442.119041	45549.566527	3880.198357	23397.554906
50.034500	-0.001677	-0.000597	0.003390	0.000096	6406.367579	45460.637202	3897.365099	23395.236174
50.541000	0.002449	0.000738	-0.001474	0.000222	6439.278648	45579.238029	3885.004063	23389.300817
51.035000	-0.000127	-0.000401	0.005273	-0.000771	6426.222464	45564.887914	3904.238901	23436.294036
51.536000	0.002305	0.000036	0.003134	-0.002199	6458.138990	45748.276737	3902.456313	23504.039038
52.036000	0.001614	0.000209	-0.000123	0.001585	6421.153009	45393.773708	3884.972287	23324.937598
52.539000	0.003066	0.001581	0.005740	0.000310	6443.648578	45653.358996	3902.699440	23385.118289
53.036500	0.018660	-0.016665	0.032931	0.313831	4659.900938	22837.459169	3377.701688	12830.746295
53.537000	0.007382	-0.012044	-0.010755	0.100919	5729.084671	35774.420705	3645.687272	19140.483908
54.036500	0.001387	-0.021453	-0.001953	-0.061367	6975.986901	49628.128200	4046.629706	26517.410871
54.537500	-0.025354	-0.045429	-0.009410	-0.179803	7945.827085	60971.886250	4405.150424	33934.965995
55.037000	-0.006237	-0.045463	0.008185	-0.190934	8313.379574	62473.762902	4513.869822	34741.783476
55.535000	-0.000754	-0.032748	0.010827	-0.141227	7784.454980	57612.787973	4339.411675	31293.624028
56.038000	-0.003253	-0.023083	0.005849	-0.090758	7217.940041	52709.997185	4156.733350	28174.007930
56.535500	-0.004369	-0.013640	0.003651	-0.088359	7182.730837	53523.754807	4142.607903	28034.520658
57.038500	-0.000197	-0.010890	0.001146	-0.102677	7371.159752	55551.379047	4179.210539	28878.393476
57.535500	0.007121	-0.000842	0.002262	-0.081710	7231.290600	54245.048483	4118.267873	27651.998940
58.036000	0.006807	0.001524	-0.000113	-0.061216	7026.345082	52147.571221	4051.430007	26509.191220
58.540000	0.008709	-0.000341	0.007927	-0.077190	7201.807490	53772.511342	4121.707890	27395.289177
59.033500	0.013291	0.001484	0.006150	-0.066827	7144.274905	52782.852280	4085.693912	26816.724606
59.537500	0.012294	0.003392	0.008193	-0.046547	6938.986048	50718.375071	4033.450104	25723.702133
60.040500	0.011709	0.005800	0.008526	-0.010501	6608.269882	47157.496816	3937.286568	23902.530259
60.538000	0.017293	0.006756	0.017514	0.007467	6502.618258	45458.812433	3914.322142	23049.604945
61.038000	0.020115	0.010902	0.014598	0.019407	6426.750295	44702.588885	3877.362406	22502.078265
61.536000	0.020112	0.010235	0.021409	0.026148	6371.637192	43996.297532	3877.533563	22199.512420
62.039000	0.015817	0.009727	0.018024	0.034532	6270.320764	43164.245143	3849.133666	21829.722627
62.539500	0.022556	0.010025	0.024992	0.042640	6259.561777	42447.401822	3846.424459	21478.833880
63.036500	0.019964	0.011707	0.026656	0.054281	6149.647735	41551.704115	3823.004661	20986.354923
63.536500	0.019352	0.013077	0.020836	0.076392	5981.461957	39751.024511	3760.235596	20086.518509
64.069500	0.016656	0.018407	0.017899	0.093733	5840.278047	38746.882763	3717.124227	19412.135292
64.534500	0.019160	0.020004	0.020585	0.083740	5927.566625	39715.368840	3743.843474	19797.459678
65.037500	0.020740	0.021019	0.026861	0.072682	6018.429410	40751.945922	3781.654019	20234.291398
65.535000	0.023651	0.023277	0.021402	0.066320	6086.799640	41510.010938	3783.666446	20490.717469
66.037500	0.018178	0.024171	0.025557	0.064360	6060.730308	41764.351517	3797.399023	20570.486181
66.535500	0.023415	0.023890	0.021488	0.053729	6180.193720	42700.742839	3812.351162	21009.416715
67.036500	0.023384	0.025410	0.019338	0.051442	6197.535296	43050.702988	3812.665744	21105.234046
67.539500	0.025239	0.025290	0.020318	0.048042	6238.281310	43354.853995	3822.774977	21248.648582
68.037500	0.019633	0.025373	0.020399	0.051580	6167.698520	43034.652067	3814.788615	21099.447104
68.537000	0.023887	0.025494	0.016769	0.045839	6244.925511	43579.408410	3819.658184	21342.172111
69.040500	0.021261	0.025097	0.021787	0.045938	6223.694749	43533.031710	3831.099970	21337.963562
69.540000	0.019529	0.026437	0.018925	0.046226	6208.044918	43631.547481	3823.758245	21325.712533
70.038000	0.017891	0.025864	0.012405	0.051675	6153.694188	43071.118205	3796.342287	21095.437325
70.535500	0.020148	0.026806	0.017976	0.047618	6202.064816	43535.692544	3818.333962	21266.597964
71.035000	0.020508	0.026491	0.013187	0.048728	6196.293316	43402.799811	3804.804095	21219.633921
71.536000	0.018564	0.025905	0.020472	0.048717	6181.427745	43349.185925	3821.566244	21220.067623
72.036000	0.018904	0.025632	0.021254	0.050227	6172.464855	43183.666053	3819.880568	21156.333601
72.537000	0.019057	0.025698	0.015996	0.052828	6153.799922	42949.516037	3801.866565	21047.110544
73.037500	0.019324	0.025453	0.016194	0.054948	6139.731162	42732.178629	3797.508641	20958.528929
73.537000	0.017858	0.024882	0.011825	0.055583	6123.855090	42621.832659	3786.256344	20932.080444
74.041000	0.019322	0.024807	0.020629	0.057627	6119.490199	42428.701694	3801.488636	20847.221341
74.538000	0.020229	0.025051	0.018599	0.059280	6113.868209	42300.770074	3793.159152	20778.854118
75.036000	0.019312	0.024891	0.014901	0.061204	6092.593720	42112.289692	3780.583081	20699.644817
75.538500	0.020116	0.024805	0.020853	0.061329	6097.670093	42093.327556	3793.622719	20694.527984
76.036500	0.016833	0.024343	0.020813	0.068248	6022.277143	41433.534138	3778.072074	20412.635498
76.535500	0.018858	0.024114	0.025681	0.062704	6078.038237	41907.504803	3801.431470	20638.127227
77.036500	0.019878	0.024923	0.022048	0.063721	6078.068031	41888.843586	3790.930863	20596.568129
77.536500	0.022653	0.025695	0.022373	0.063739	6098.618192	41956.501963	3791.618622	20595.814042
78.037000	0.018106	0.024620	0.020089	0.068885	6026.924700	41401.673539	3775.058580	20386.891690
78.537000	0.020320	0.024485	0.019305	0.062053	6093.786687	41999.305427	3788.517838	20664.813922
79.038000	0.021529	0.024893	0.023919	0.061441	6107.413588	42091.173433	3800.299372	20689.927029
79.541000	0.020967	0.025462	0.023078	0.061288	6104.344730	42156.299791	3798.740217	20696.202062
80.035500	0.019260	0.025256	0.013230	0.067028	6049.025644	41623.050392	3764.066538	20461.988547
80.535500	0.025044	0.025862	0.020606	0.060622	6140.078158	42252.710293	3794.659469	20723.598592
81.035500	0.023879	0.025353	0.021757	0.059520	6139.600773	42306.381381	3799.753833	20768.981088
81.536500	0.023739	0.026139	0.023439	0.059073	6141.923959	42418.300001	3804.590265	20787.405470
82.036500	0.025836	0.026671	0.026801	0.058839	6159.641385	42488.052425	3812.816760	20797.083129
82.537000	0.024881	0.025729	0.025148	0.057448	6162.965289	42528.992356	3812.215931	20854.639224
83.037500	0.023731	0.026334	0.021979	0.056967	6157.865596	42628.058564	3806.064143	20874.579401
83.537000	0.023426	0.025217	0.025285	0.055785	6164.553820	42633.987598	3816.356411	20923.672129
84.038000	0.025844	0.025537	0.028376	0.054761	6190.918862	42756.967076	3825.884645	20966.305192
84.538500	0.024741	0.025165	0.019855	0.053513	6192.032825	42837.401968	3809.100927	21018.413563
85.038000	0.023484	0.024306	0.021803	0.052585	6189.505928	42843.714465	3815.706057	21057.259384
85.539000	0.022184	0.024739	0.024969	0.052080	6183.396820	42930.045322	3824.197696	21078.449894
86.036500	0.022932	0.025323	0.026731	0.051404	6194.347463	43046.238241	3829.877947	21106.845044
86.537000	0.025296	0.026107	0.031417	0.051885	6208.870583	43074.177387	3839.748409	21086.614768
87.037000	0.023336	0.025303	0.028627	0.051573	6196.152156	43028.737150	3833.921272	21099.728689
87.537000	0.025099	0.026509	0.029803	0.051065	6213.697542	43187.302114	3837.877754	21121.062741
88.037500	0.023464	0.025534	0.030954	0.055776	6164.908919	42663.816938	3829.532105	20924.062847
88.535000	0.027083	0.026921	0.026075	0.050827	6230.947811	43247.554683	3829.693639	21131.089096
89.041000	0.024835	0.025923	0.025689	0.050694	6214.531408	43167.377459	3829.103241	21136.704909
89.535500	0.026586	0.025700	0.026533	0.049653	6236.222904	43243.184015	3833.511722	21180.540655
90.035500	0.027668	0.026401	0.031480	0.049381	6246.792212	43333.604984	3845.822115	21192.028387
90.536000	0.025424	0.026783	0.032917	0.049491	6228.432970	43358.901351	3848.976263	21187.390015
91.036500	0.024768	0.026480	0.025675	0.049474	6223.472954	43332.325818	3831.922822	21188.122028
91.539500	0.025774	0.025838	0.028692	0.048024	6242.597188	43407.491098	3842.433946	21249.406616
92.036000	0.023563	0.026301	0.025915	0.053896	6180.053400	42906.687067	3822.180672	21002.438584
92.536500	0.027329	0.026040	0.025518	0.048161	6253.699860	43413.670732	3834.633681	21243.628037
93.040000	0.027629	0.026929	0.029853	0.048899	6250.260340	43427.645644	3843.108261	21212.373152
93.538000	0.030136	0.027943	0.026176	0.048912	6269.841502	43521.052040	3834.413844	21211.829681
94.038000	0.023670	0.026800	0.023481	0.053537	6183.625087	42985.692682	3817.380010	21017.425566
94.536000	0.027093	0.027068	0.028892	0.047818	6254.525178	43541.488533	3843.393614	21258.114174
95.036000	0.026691	0.028218	0.028002	0.049255	6240.153989	43514.769225	3837.899770	21197.369803
95.575000	0.027709	0.028105	0.025142	0.048943	6250.541227	43533.353776	3831.917107	21210.520996
96.036500	0.026292	0.027683	0.027534	0.054666	6195.103214	42962.983431	3824.148550	20970.272797
96.553000	0.029876	0.028977	0.026356	0.049485	6263.293993	43564.206097	3833.493544	21187.656140
97.040000	0.029482	0.028494	0.028120	0.049549	6259.696317	43513.035954	3837.484213	21184.942115
97.538000	0.029478	0.028888	0.027280	0.049974	6256.332045	43510.207431	3834.513168	21167.032410
98.037500	0.025721	0.028908	0.025473	0.053933	6196.348703	43143.880372	3821.068938	21000.869609
98.556500	0.027726	0.028791	0.026564	0.050221	6240.689329	43478.056003	3832.255134	21156.620271
99.039000	0.030138	0.029445	0.025358	0.051199	6251.902528	43447.850854	3827.154384	21115.464227
