sample name	sample
index	1021
start time	 04-19-2021  12:06:13 PM


Wavelength (nm)	Absorbance
494.344910	-0.034832
494.563924	-0.034832
494.782919	-0.034832
495.001897	0.051487
495.220856	-0.019526
495.439797	-0.011222
495.658719	-0.004460
495.877624	-0.004131
496.096510	-0.002591
496.315378	-0.005124
496.534227	0.001540
496.753059	0.017085
496.971872	0.024257
497.190667	0.026418
497.409444	0.024634
497.628203	0.022540
497.846943	0.022359
498.065665	0.020464
498.284369	0.019700
498.503055	0.020339
498.721723	0.018541
498.940372	0.017731
499.159003	0.016806
499.377616	0.015874
499.596210	0.015637
499.814787	0.015695
500.033345	0.016318
500.251885	0.017256
500.470406	0.017039
500.688910	0.017846
500.907395	0.018027
501.125862	0.018752
501.344311	0.018498
501.562742	0.018835
501.781154	0.018140
501.999548	0.017711
502.217924	0.016312
502.436282	0.015689
502.654621	0.016617
502.872942	0.017339
503.091245	0.016766
503.309530	0.016866
503.527797	0.016684
503.746045	0.016812
503.964275	0.016678
504.182487	0.016916
504.400681	0.017136
504.618856	0.015847
504.837013	0.015287
505.055152	0.015409
505.273273	0.015706
505.491376	0.015282
505.709460	0.015580
505.927526	0.016093
506.145574	0.016812
506.363604	0.017182
506.581615	0.017192
506.799608	0.016622
507.017583	0.016567
507.235540	0.016255
507.453478	0.016269
507.671399	0.016605
507.889301	0.016316
508.107185	0.016628
508.325050	0.016044
508.542898	0.016663
508.760727	0.016987
508.978538	0.017341
509.196330	0.016984
509.414105	0.017651
509.631861	0.017707
509.849599	0.017741
510.067319	0.017676
510.285021	0.017728
510.502704	0.017523
510.720369	0.017457
510.938016	0.016395
511.155645	0.017018
511.373255	0.016861
511.590848	0.015960
511.808422	0.015564
512.025977	0.014690
512.243515	0.015016
512.461034	0.014711
512.678536	0.014231
512.896018	0.014652
513.113483	0.014549
513.330930	0.014911
513.548358	0.015141
513.765768	0.015240
513.983160	0.015641
514.200533	0.015872
514.417889	0.016506
514.635226	0.017110
514.852545	0.018232
515.069845	0.018852
515.287128	0.018372
515.504392	0.018455
515.721638	0.018671
515.938866	0.018966
516.156075	0.018201
516.373267	0.017791
516.590440	0.017907
516.807594	0.017166
517.024731	0.016050
517.241850	0.016298
517.458950	0.016552
517.676032	0.016406
517.893095	0.016347
518.110141	0.017307
518.327168	0.017691
518.544177	0.017616
518.761168	0.017486
518.978141	0.018506
519.195095	0.018489
519.412031	0.017965
519.628949	0.018294
519.845849	0.017907
520.062731	0.017324
520.279594	0.016871
520.496439	0.017014
520.713266	0.017020
520.930074	0.016803
521.146865	0.016469
521.363637	0.016945
521.580391	0.017258
521.797127	0.017720
522.013844	0.017894
522.230543	0.017979
522.447224	0.018007
522.663887	0.018151
522.880532	0.018292
523.097158	0.018607
523.313766	0.018866
523.530356	0.018572
523.746928	0.018055
523.963481	0.018077
524.180017	0.018150
524.396534	0.017363
524.613032	0.016764
524.829513	0.017154
525.045975	0.017109
525.262420	0.016649
525.478845	0.017103
525.695253	0.017400
525.911643	0.017578
526.128014	0.018084
526.344367	0.018862
526.560702	0.019432
526.777018	0.019391
526.993316	0.019371
527.209597	0.019974
527.425858	0.019421
527.642102	0.020125
527.858328	0.020255
528.074535	0.019840
528.290724	0.019963
528.506894	0.020194
528.723047	0.019743
528.939181	0.020211
529.155297	0.019976
529.371395	0.020551
529.587475	0.019805
529.803536	0.020039
530.019579	0.020031
530.235604	0.019936
530.451611	0.019688
530.667600	0.019797
530.883570	0.019437
531.099522	0.019423
531.315456	0.019071
531.531372	0.019622
531.747269	0.019679
531.963148	0.020077
532.179009	0.019773
532.394852	0.019400
532.610676	0.019432
532.826482	0.019520
533.042271	0.019839
533.258040	0.019762
533.473792	0.019760
533.689525	0.019589
533.905240	0.019204
534.120937	0.019435
534.336616	0.019844
534.552277	0.020008
534.767919	0.019831
534.983543	0.020020
535.199149	0.020019
535.414736	0.019560
535.630306	0.019490
535.845857	0.019674
536.061390	0.019886
536.276904	0.020116
536.492401	0.019896
536.707879	0.019968
536.923339	0.019423
537.138781	0.019465
537.354204	0.019694
537.569610	0.019758
537.784997	0.019432
538.000366	0.019183
538.215716	0.019603
538.431049	0.020013
538.646363	0.020136
538.861659	0.020500
539.076937	0.020260
539.292196	0.020020
539.507438	0.020194
539.722661	0.020655
539.937866	0.020806
540.153052	0.020624
540.368221	0.020032
540.583371	0.020023
540.798503	0.019681
541.013617	0.019983
541.228712	0.019905
541.443789	0.019488
541.658848	0.019749
541.873889	0.019774
542.088912	0.019612
542.303916	0.020145
542.518902	0.020305
542.733870	0.020677
542.948820	0.020594
543.163752	0.021056
543.378665	0.021046
543.593560	0.020486
543.808437	0.020051
544.023295	0.020375
544.238136	0.020160
544.452958	0.020281
544.667762	0.019977
544.882548	0.020183
545.097315	0.020344
545.312064	0.020436
545.526795	0.020523
545.741508	0.020922
545.956203	0.020780
546.170879	0.020979
546.385537	0.021016
546.600177	0.021412
546.814799	0.021217
547.029402	0.020803
547.243988	0.021071
547.458555	0.020992
547.673103	0.021031
547.887634	0.020918
548.102146	0.020917
548.316640	0.020836
548.531116	0.020538
548.745574	0.020811
548.960013	0.021199
549.174435	0.021434
549.388838	0.021744
549.603222	0.022041
549.817589	0.021887
550.031937	0.021805
550.246267	0.021782
550.460579	0.022069
550.674873	0.021988
550.889148	0.021737
551.103405	0.021366
551.317644	0.021372
551.531865	0.020958
551.746068	0.021274
551.960252	0.021326
552.174418	0.021134
552.388566	0.020897
552.602696	0.020455
552.816807	0.020532
553.030900	0.020825
553.244975	0.020454
553.459032	0.020923
553.673070	0.020600
553.887091	0.020103
554.101093	0.020055
554.315077	0.019988
554.529042	0.020389
554.742990	0.019984
554.956919	0.019676
555.170830	0.019908
555.384722	0.019502
555.598597	0.019618
555.812453	0.019809
556.026291	0.020241
556.240111	0.020456
556.453913	0.020558
556.667696	0.020686
556.881461	0.020552
557.095208	0.020209
557.308937	0.020155
557.522647	0.020064
557.736339	0.020182
557.950013	0.019973
558.163669	0.019903
558.377307	0.019858
558.590926	0.020252
558.804527	0.020304
559.018110	0.020450
559.231675	0.020611
559.445221	0.020485
559.658749	0.020392
559.872259	0.020311
560.085751	0.020151
560.299225	0.020010
560.512680	0.019799
560.726117	0.019724
560.939536	0.020148
561.152937	0.020446
561.366319	0.020851
561.579683	0.020543
561.793029	0.020604
562.006357	0.020304
562.219667	0.020281
562.432958	0.020240
562.646231	0.020331
562.859486	0.019767
563.072723	0.019435
563.285941	0.019004
563.499141	0.019071
563.712323	0.018788
563.925487	0.018829
564.138632	0.018792
564.351760	0.018609
564.564869	0.018462
564.777960	0.018723
564.991032	0.018523
565.204087	0.018364
565.417123	0.018757
565.630141	0.018704
565.843140	0.018884
566.056122	0.018827
566.269085	0.018813
566.482030	0.019000
566.694957	0.018977
566.907866	0.018880
567.120756	0.019168
567.333628	0.018854
567.546482	0.018921
567.759318	0.018438
567.972135	0.018688
568.184935	0.018891
568.397716	0.018752
568.610478	0.018484
568.823223	0.018598
569.035949	0.018364
569.248657	0.018412
569.461347	0.018370
569.674019	0.018753
569.886672	0.018328
570.099308	0.017982
570.311925	0.017805
570.524523	0.018018
570.737104	0.017847
570.949666	0.017948
571.162210	0.017706
571.374736	0.017763
571.587244	0.017580
571.799733	0.017519
572.012205	0.017448
572.224658	0.017376
572.437092	0.017410
572.649509	0.017331
572.861907	0.017357
573.074287	0.017574
573.286649	0.017486
573.498993	0.017481
573.711318	0.017649
573.923625	0.017569
574.135914	0.017738
574.348185	0.017675
574.560438	0.017852
574.772672	0.017540
574.984888	0.017403
575.197086	0.017115
575.409266	0.017024
575.621427	0.016902
575.833570	0.017193
576.045695	0.017155
576.257802	0.017071
576.469890	0.017077
576.681961	0.017177
576.894013	0.017315
577.106046	0.017550
577.318062	0.017798
577.530059	0.017607
577.742039	0.017671
577.954000	0.017484
578.165942	0.017578
578.377867	0.017741
578.589773	0.017853
578.801661	0.017894
579.013531	0.017928
579.225382	0.017771
579.437216	0.017992
579.649031	0.017981
579.860828	0.018021
580.072606	0.017936
580.284367	0.017569
580.496109	0.017535
580.707833	0.017473
580.919539	0.017247
581.131227	0.017236
581.342896	0.017058
581.554547	0.016875
581.766180	0.016974
581.977795	0.016908
582.189391	0.016825
582.400969	0.016708
582.612529	0.016615
582.824071	0.016613
583.035595	0.016538
583.247100	0.016745
583.458587	0.016658
583.670056	0.016359
583.881506	0.016169
584.092939	0.016505
584.304353	0.016493
584.515749	0.016357
584.727127	0.016697
584.938486	0.016866
585.149828	0.016763
585.361151	0.016629
585.572456	0.016868
585.783742	0.017102
585.995011	0.016858
586.206261	0.016984
586.417493	0.017261
586.628706	0.017036
586.839902	0.016906
587.051079	0.017165
587.262238	0.017575
587.473379	0.017782
587.684502	0.017562
587.895606	0.017584
588.106692	0.017599
588.317760	0.017319
588.528810	0.017251
588.739841	0.017558
588.950855	0.017307
589.161850	0.017265
589.372827	0.017216
589.583785	0.017575
589.794726	0.017794
590.005648	0.017800
590.216552	0.018009
590.427437	0.018400
590.638305	0.018213
590.849154	0.017898
591.059985	0.017819
591.270798	0.017977
591.481592	0.018180
591.692369	0.018147
591.903127	0.018028
592.113867	0.017918
592.324588	0.017682
592.535292	0.017926
592.745977	0.018252
592.956644	0.018263
593.167293	0.017990
593.377923	0.017427
593.588536	0.017344
593.799130	0.017343
594.009706	0.017679
594.220263	0.017473
594.430803	0.017138
594.641324	0.017584
594.851827	0.017548
595.062312	0.017507
595.272778	0.017869
595.483227	0.018001
595.693657	0.018215
595.904069	0.017811
596.114462	0.018057
596.324838	0.018181
596.535195	0.017903
596.745534	0.017879
596.955855	0.018065
597.166157	0.018135
597.376441	0.018217
597.586707	0.018033
597.796955	0.018294
598.007185	0.018166
598.217396	0.018424
598.427589	0.018354
598.637764	0.018648
598.847921	0.018632
599.058060	0.018525
599.268180	0.018217
599.478282	0.018417
599.688366	0.018380
599.898431	0.018327
600.108479	0.018286
600.318508	0.018248
600.528519	0.018059
600.738511	0.018065
600.948486	0.017978
601.158442	0.018323
601.368380	0.018442
601.578300	0.018389
601.788202	0.018610
601.998085	0.018331
602.207950	0.018167
602.417797	0.018152
602.627626	0.018098
602.837436	0.018094
603.047228	0.017922
603.257002	0.017757
603.466758	0.017899
603.676496	0.017810
603.886215	0.018012
604.095916	0.018191
604.305599	0.018280
604.515264	0.018413
604.724910	0.018670
604.934538	0.018682
605.144148	0.018703
605.353740	0.018641
605.563314	0.018570
605.772869	0.018485
605.982406	0.018593
606.191925	0.018696
606.401425	0.018720
606.610908	0.018524
606.820372	0.018300
607.029818	0.018300
607.239246	0.018185
607.448655	0.018299
607.658047	0.018338
607.867420	0.018307
608.076775	0.017904
608.286111	0.017838
608.495430	0.017649
608.704730	0.017801
608.914012	0.017851
609.123275	0.017850
609.332521	0.017884
609.541748	0.017621
609.750957	0.017574
609.960148	0.017859
610.169321	0.017782
610.378475	0.017705
610.587611	0.017682
610.796729	0.017556
611.005829	0.017453
611.214910	0.017205
611.423974	0.017282
611.633019	0.017057
611.842045	0.016837
612.051054	0.016525
612.260044	0.016621
612.469017	0.016534
612.677970	0.016480
612.886906	0.016551
613.095824	0.016754
613.304723	0.016841
613.513604	0.017026
613.722467	0.017012
613.931311	0.017358
614.140138	0.017430
614.348946	0.017391
614.557736	0.017261
614.766507	0.017305
614.975261	0.017315
615.183996	0.017281
615.392713	0.017369
615.601412	0.017497
615.810092	0.017502
616.018754	0.017660
616.227399	0.017838
616.436024	0.018086
616.644632	0.018046
616.853222	0.017943
617.061793	0.017841
617.270346	0.017648
617.478880	0.017831
617.687397	0.017837
617.895895	0.017775
618.104375	0.017780
618.312837	0.017914
618.521281	0.018108
618.729706	0.018174
618.938113	0.018432
619.146502	0.018648
619.354873	0.018494
619.563226	0.018511
619.771560	0.018373
619.979876	0.018368
620.188174	0.018243
620.396453	0.018240
620.604715	0.018263
620.812958	0.018117
621.021183	0.018028
621.229390	0.018099
621.437578	0.018022
621.645748	0.018230
621.853900	0.018400
622.062034	0.018321
622.270150	0.018259
622.478247	0.018326
622.686326	0.018282
622.894387	0.018353
623.102430	0.018565
623.310454	0.018553
623.518461	0.018504
623.726449	0.018383
623.934418	0.018396
624.142370	0.018288
624.350303	0.018064
624.558218	0.018223
624.766115	0.018217
624.973994	0.017596
625.181855	0.017599
625.389697	0.017442
625.597521	0.017224
625.805327	0.017089
626.013114	0.017243
626.220883	0.017293
626.428634	0.017190
626.636367	0.017112
626.844082	0.017567
627.051778	0.017611
627.259457	0.017600
627.467117	0.017913
627.674758	0.018289
627.882382	0.018343
628.089987	0.018553
628.297574	0.018702
628.505143	0.018832
628.712694	0.018935
628.920226	0.018912
629.127740	0.019134
629.335236	0.019085
629.542714	0.019076
629.750174	0.019016
629.957615	0.019125
630.165038	0.019033
630.372443	0.018921
630.579829	0.018967
630.787198	0.019020
630.994548	0.019050
631.201880	0.018995
631.409194	0.018989
631.616489	0.019059
631.823766	0.019100
632.031025	0.019248
632.238266	0.019284
632.445489	0.019115
632.652693	0.019269
632.859879	0.019268
633.067047	0.019487
633.274197	0.019648
633.481329	0.019892
633.688442	0.019696
633.895537	0.019705
634.102614	0.019860
634.309672	0.019968
634.516713	0.019870
634.723735	0.019805
634.930739	0.019673
635.137724	0.019557
635.344692	0.019419
635.551641	0.019479
635.758572	0.019440
635.965485	0.019492
636.172379	0.019549
636.379256	0.019708
636.586114	0.019991
636.792954	0.020317
636.999775	0.020318
637.206579	0.020433
637.413364	0.020610
637.620131	0.020609
637.826880	0.020605
638.033610	0.020571
638.240323	0.020443
638.447017	0.020297
638.653692	0.019989
638.860350	0.020014
639.066990	0.019842
639.273611	0.019800
639.480214	0.019884
639.686798	0.020054
639.893365	0.020055
640.099913	0.020074
640.306443	0.020229
640.512955	0.020327
640.719449	0.020179
640.925924	0.020081
641.132381	0.020212
641.338820	0.020569
641.545241	0.020510
641.751644	0.020638
641.958028	0.020745
642.164394	0.020471
642.370742	0.020530
642.577071	0.020645
642.783383	0.020810
642.989676	0.020883
643.195951	0.020639
643.402207	0.020740
643.608446	0.020654
643.814666	0.020752
644.020868	0.020956
644.227052	0.021125
644.433218	0.021250
644.639365	0.021481
644.845494	0.021444
645.051605	0.021543
645.257698	0.021501
645.463772	0.021624
645.669828	0.021756
645.875866	0.021853
646.081886	0.021728
646.287888	0.021813
646.493871	0.021761
646.699836	0.021801
646.905783	0.021674
647.111712	0.021726
647.317622	0.021874
647.523514	0.021783
647.729388	0.021716
647.935244	0.021942
648.141082	0.022054
648.346901	0.022107
648.552702	0.021972
648.758485	0.022080
648.964250	0.022086
649.169996	0.021963
649.375724	0.021991
649.581434	0.022199
649.787126	0.022164
649.992800	0.021931
650.198455	0.021895
650.404092	0.022022
650.609711	0.022109
650.815311	0.022216
651.020894	0.022447
651.226458	0.022558
651.432004	0.022461
651.637532	0.022225
651.843041	0.022287
652.048532	0.022214
652.254006	0.022213
652.459460	0.022092
652.664897	0.021848
652.870315	0.021759
653.075716	0.021850
653.281097	0.021764
653.486461	0.021851
653.691807	0.021991
653.897134	0.022228
654.102443	0.022359
654.307734	0.022589
654.513006	0.022848
654.718261	0.022840
654.923497	0.022782
655.128715	0.023034
655.333915	0.023308
655.539096	0.023404
655.744259	0.023380
655.949404	0.023488
656.154531	0.023385
656.359640	0.023618
656.564730	0.023594
656.769802	0.023645
656.974856	0.023558
657.179892	0.023520
657.384909	0.023519
657.589908	0.023702
657.794889	0.023699
657.999852	0.023786
658.204797	0.023485
658.409723	0.023626
658.614631	0.023641
658.819521	0.023808
659.024393	0.023896
659.229246	0.023851
659.434081	0.023663
659.638898	0.023502
659.843697	0.023476
660.048478	0.023695
660.253240	0.023819
660.457984	0.023783
660.662710	0.023800
660.867417	0.023827
661.072107	0.023962
661.276778	0.024106
661.481431	0.024337
661.686066	0.024581
661.890682	0.024529
662.095281	0.024501
662.299861	0.024671
662.504422	0.024561
662.708966	0.024454
662.913491	0.024355
663.117999	0.024292
663.322488	0.024061
663.526958	0.023908
663.731411	0.023799
663.935845	0.023723
664.140261	0.023764
664.344659	0.023809
664.549038	0.023688
664.753400	0.023748
664.957743	0.023761
665.162068	0.023914
665.366375	0.024062
665.570663	0.024133
665.774933	0.024169
665.979185	0.024031
666.183419	0.024094
666.387635	0.024484
666.591832	0.024463
666.796011	0.024590
667.000172	0.024768
667.204315	0.024848
667.408439	0.025163
667.612545	0.025362
667.816634	0.025548
668.020703	0.025668
668.224755	0.025597
668.428788	0.025726
668.632803	0.025617
668.836800	0.025625
669.040779	0.025595
669.244739	0.025382
669.448681	0.025305
669.652605	0.025196
669.856511	0.025336
670.060399	0.025447
670.264268	0.025430
670.468119	0.025559
670.671952	0.025459
670.875767	0.025443
671.079563	0.025571
671.283341	0.025491
671.487101	0.025600
671.690843	0.025512
671.894567	0.025368
672.098272	0.025355
672.301959	0.025437
672.505628	0.025696
672.709278	0.025746
672.912911	0.025781
673.116525	0.025940
673.320121	0.026035
673.523699	0.026076
673.727258	0.026091
673.930799	0.026236
674.134322	0.026029
674.337827	0.025958
674.541314	0.025911
674.744782	0.025880
674.948232	0.025783
675.151664	0.025757
675.355078	0.025618
675.558474	0.025719
675.761851	0.025616
675.965210	0.025756
676.168551	0.025557
676.371873	0.025661
676.575178	0.025696
676.778464	0.025811
676.981732	0.025698
677.184981	0.025721
677.388213	0.025601
677.591426	0.025556
677.794621	0.025549
677.997798	0.025610
678.200956	0.025508
678.404097	0.025454
678.607219	0.025374
678.810323	0.025412
679.013408	0.025346
679.216476	0.025412
679.419525	0.025532
679.622556	0.025470
679.825569	0.025487
680.028563	0.025531
680.231540	0.025548
680.434498	0.025526
680.637438	0.025681
680.840359	0.025823
681.043263	0.025910
681.246148	0.025915
681.449015	0.025926
681.651864	0.026042
681.854694	0.026115
682.057506	0.026171
682.260301	0.026207
682.463076	0.026175
682.665834	0.026181
682.868573	0.026031
683.071295	0.026119
683.273998	0.026331
683.476682	0.026105
683.679349	0.026241
683.881997	0.026267
684.084627	0.026549
684.287239	0.026581
684.489833	0.026617
684.692408	0.026815
684.894965	0.026875
685.097504	0.026851
685.300025	0.027165
685.502527	0.027082
685.705012	0.027088
685.907478	0.026921
686.109925	0.027035
686.312355	0.027283
686.514766	0.027227
686.717159	0.027219
686.919534	0.027195
687.121891	0.027189
687.324230	0.027166
687.526550	0.027200
687.728852	0.027294
687.931136	0.027086
688.133401	0.026832
688.335649	0.026956
688.537878	0.026948
688.740089	0.027036
688.942281	0.026835
689.144456	0.026871
689.346612	0.026726
689.548750	0.026494
689.750870	0.026516
689.952971	0.026531
690.155055	0.026281
690.357120	0.026137
690.559167	0.026070
690.761195	0.026231
690.963206	0.026068
691.165198	0.026103
691.367172	0.026114
691.569128	0.026071
691.771065	0.026226
691.972984	0.026270
692.174885	0.026421
692.376768	0.026473
692.578633	0.026497
692.780479	0.026546
692.982308	0.026577
693.184118	0.026622
693.385909	0.026822
693.587683	0.026634
693.789438	0.026721
693.991175	0.026821
694.192894	0.026942
694.394595	0.027001
694.596277	0.027023
694.797941	0.027139
694.999587	0.027315
695.201215	0.027094
695.402824	0.027060
695.604416	0.027207
695.805989	0.027143
696.007543	0.026889
696.209080	0.026692
696.410598	0.026730
696.612099	0.026667
696.813580	0.026640
697.015044	0.026684
697.216490	0.026943
697.417917	0.026826
697.619326	0.026747
697.820717	0.026783
698.022089	0.026913
698.223444	0.026990
698.424780	0.027157
698.626098	0.027082
698.827397	0.027241
699.028679	0.027228
699.229942	0.027261
699.431187	0.027356
699.632414	0.027574
699.833622	0.027660
700.034813	0.027703
700.235985	0.027580
700.437139	0.027766
700.638274	0.027766
700.839392	0.027722
701.040491	0.027941
701.241572	0.027908
701.442635	0.027858
701.643679	0.027897
701.844706	0.028003
702.045714	0.028086
702.246704	0.028080
702.447675	0.028159
702.648629	0.028238
702.849564	0.028055
703.050481	0.028226
703.251380	0.028282
703.452260	0.028272
703.653122	0.028163
703.853966	0.028240
704.054792	0.028285
704.255600	0.028285
704.456389	0.028187
704.657160	0.028318
704.857913	0.028202
705.058648	0.028105
705.259365	0.028044
705.460063	0.028058
705.660743	0.028203
705.861405	0.028298
706.062048	0.028274
706.262674	0.028288
706.463281	0.028244
706.663870	0.028344
706.864441	0.028420
707.064993	0.028474
707.265527	0.028549
707.466043	0.028292
707.666541	0.028069
707.867021	0.028048
708.067482	0.028136
708.267925	0.028276
708.468350	0.028172
708.668757	0.028170
708.869145	0.028106
709.069516	0.027968
709.269868	0.028024
709.470201	0.027931
709.670517	0.027908
709.870814	0.027862
710.071093	0.027507
710.271354	0.027306
710.471597	0.027180
710.671821	0.027216
710.872028	0.027249
711.072216	0.027169
711.272385	0.027226
711.472537	0.027211
711.672670	0.027109
711.872785	0.027356
712.072882	0.027484
712.272961	0.027467
712.473021	0.027421
712.673063	0.027582
712.873087	0.027590
713.073093	0.027634
713.273081	0.027568
713.473050	0.027480
713.673001	0.027362
713.872934	0.027326
714.072849	0.027426
714.272745	0.027431
714.472623	0.027347
714.672483	0.027413
714.872325	0.027385
715.072148	0.027439
715.271954	0.027482
715.471741	0.027651
715.671509	0.027711
715.871260	0.027724
716.070992	0.027891
716.270707	0.027821
716.470403	0.027922
716.670080	0.027913
716.869740	0.027813
717.069381	0.027792
717.269004	0.027800
717.468609	0.027746
717.668195	0.027621
717.867764	0.027525
718.067314	0.027420
718.266846	0.027193
718.466360	0.027162
718.665855	0.027151
718.865332	0.027135
719.064791	0.026912
719.264232	0.027071
719.463655	0.027020
719.663059	0.026789
719.862445	0.026756
720.061813	0.026825
720.261163	0.026917
720.460494	0.026891
720.659807	0.026909
720.859102	0.026790
721.058379	0.026663
721.257638	0.026541
721.456878	0.026566
721.656100	0.026508
721.855304	0.026338
722.054490	0.026095
722.253657	0.025971
722.452806	0.025646
722.651937	0.025575
722.851050	0.025214
723.050145	0.025181
723.249221	0.025036
723.448279	0.024796
723.647319	0.024535
723.846340	0.024338
724.045344	0.024284
724.244329	0.024413
724.443296	0.024276
724.642245	0.024308
724.841175	0.024133
725.040088	0.023990
725.238982	0.023951
725.437857	0.024161
725.636715	0.024202
725.835554	0.024081
726.034376	0.023921
726.233179	0.023767
726.431963	0.023648
726.630730	0.023697
726.829478	0.023724
727.028208	0.023883
727.226920	0.023746
727.425614	0.023643
727.624289	0.023713
727.822946	0.023781
728.021585	0.024026
728.220206	0.024113
728.418808	0.024222
728.617392	0.024368
728.815958	0.024310
729.014506	0.024290
729.213036	0.024385
729.411547	0.024503
729.610040	0.024538
729.808515	0.024494
730.006972	0.024466
730.205410	0.024393
730.403831	0.024373
730.602233	0.024500
730.800616	0.024507
730.998982	0.024365
731.197329	0.024524
731.395658	0.024585
731.593969	0.024325
731.792262	0.024338
731.990536	0.024295
732.188793	0.024188
732.387031	0.024031
732.585250	0.023953
732.783452	0.024010
732.981635	0.023703
733.179800	0.023659
733.377947	0.023735
733.576076	0.023668
733.774186	0.023790
733.972278	0.023769
734.170352	0.023611
734.368408	0.023695
734.566446	0.023734
734.764465	0.023696
734.962466	0.023605
735.160449	0.023705
735.358413	0.023719
735.556360	0.023683
735.754288	0.023704
735.952198	0.023808
736.150090	0.023812
736.347963	0.023855
736.545818	0.023841
736.743655	0.023927
736.941474	0.023994
737.139275	0.024094
737.337057	0.023869
737.534821	0.023769
737.732567	0.023741
737.930295	0.023845
738.128005	0.023913
738.325696	0.023802
738.523369	0.023724
738.721024	0.023629
738.918660	0.023616
739.116279	0.023671
739.313879	0.023639
739.511461	0.023737
739.709024	0.023481
739.906570	0.023314
740.104097	0.023625
740.301606	0.023729
740.499097	0.023839
740.696569	0.024006
740.894024	0.024289
741.091460	0.024452
741.288878	0.024437
741.486277	0.024689
741.683659	0.024826
741.881022	0.024767
742.078367	0.024918
742.275694	0.025123
742.473002	0.025041
742.670293	0.024872
742.867565	0.025072
743.064819	0.025311
743.262054	0.025101
743.459272	0.025100
743.656471	0.025104
743.853652	0.024872
744.050815	0.024683
744.247959	0.024701
744.445085	0.024776
744.642194	0.024679
744.839283	0.024440
745.036355	0.024611
745.233408	0.024655
745.430444	0.024488
745.627461	0.024460
745.824459	0.024407
746.021440	0.024299
746.218402	0.024219
746.415346	0.023978
746.612272	0.024010
746.809180	0.023874
747.006069	0.023758
747.202940	0.023851
747.399793	0.023927
747.596628	0.023949
747.793444	0.023814
747.990243	0.023771
748.187023	0.023744
748.383784	0.023605
748.580528	0.023560
748.777253	0.023590
748.973960	0.023531
749.170649	0.023325
749.367320	0.023217
749.563973	0.023276
749.760607	0.023037
749.957223	0.022971
750.153821	0.022903
750.350400	0.022754
750.546962	0.022450
750.743505	0.022329
750.940030	0.022439
751.136536	0.022396
751.333025	0.022189
751.529495	0.022283
751.725947	0.022270
751.922381	0.022338
752.118796	0.022426
752.315194	0.022505
752.511573	0.022433
752.707934	0.022346
752.904276	0.022280
753.100601	0.022404
753.296907	0.022390
753.493195	0.022276
753.689465	0.022112
753.885716	0.022113
754.081949	0.022067
754.278164	0.022166
754.474361	0.022242
754.670540	0.022366
754.866700	0.022374
755.062843	0.022396
755.258967	0.022498
755.455072	0.022727
755.651160	0.022777
755.847229	0.022831
756.043280	0.022821
756.239313	0.022667
756.435328	0.022494
756.631324	0.022478
756.827302	0.022590
757.023262	0.022530
757.219204	0.022347
757.415127	0.022198
757.611033	0.022329
757.806920	0.022206
758.002788	0.022278
758.198639	0.022403
758.394471	0.022501
758.590286	0.022489
758.786081	0.022558
758.981859	0.022356
759.177619	0.022534
759.373360	0.022314
759.569083	0.022245
759.764788	0.022085
759.960474	0.021811
760.156143	0.021614
760.351793	0.021316
760.547425	0.021213
760.743038	0.021322
760.938634	0.021077
761.134211	0.021204
761.329770	0.021107
761.525311	0.021127
761.720833	0.021225
761.916338	0.021130
762.111824	0.021331
762.307292	0.021337
762.502741	0.021405
762.698173	0.021511
762.893586	0.021278
763.088981	0.021289
763.284358	0.021085
763.479716	0.021055
763.675057	0.020953
763.870379	0.020797
764.065683	0.020746
764.260968	0.020482
764.456236	0.020467
764.651485	0.020523
764.846716	0.020508
765.041929	0.020723
765.237123	0.020700
765.432299	0.020843
765.627457	0.020718
765.822597	0.020641
766.017719	0.020788
766.212822	0.020515
766.407907	0.020494
766.602974	0.020534
766.798023	0.020547
766.993054	0.020635
767.188066	0.020617
767.383060	0.020773
767.578036	0.020912
767.772993	0.020937
767.967933	0.020997
768.162854	0.021006
768.357757	0.021017
768.552642	0.020959
768.747508	0.020738
768.942356	0.020675
769.137186	0.020459
769.331998	0.020460
769.526792	0.020421
769.721567	0.020212
769.916324	0.020139
770.111063	0.019914
770.305784	0.019720
770.500486	0.019881
770.695171	0.019879
770.889837	0.020003
771.084484	0.019769
771.279114	0.019681
771.473725	0.019668
771.668318	0.019517
771.862893	0.019563
772.057450	0.019578
772.251988	0.019313
772.446509	0.019301
772.641011	0.019057
772.835494	0.019176
773.029960	0.019322
773.224407	0.019703
773.418836	0.019856
773.613247	0.020235
773.807640	0.020640
774.002014	0.020920
774.196370	0.020918
774.390708	0.021276
774.585028	0.021241
774.779330	0.021271
774.973613	0.021236
775.167878	0.021442
775.362125	0.021393
775.556354	0.021228
775.750564	0.021199
775.944756	0.021167
776.138930	0.021181
776.333086	0.021323
776.527223	0.021189
776.721343	0.021126
776.915444	0.021146
777.109526	0.020845
777.303591	0.020684
777.497637	0.020600
777.691666	0.020684
777.885676	0.020559
778.079667	0.020569
778.273641	0.020636
778.467596	0.020618
778.661533	0.020665
778.855452	0.020959
779.049352	0.021217
779.243235	0.021391
779.437099	0.021610
779.630945	0.021899
779.824773	0.021955
780.018582	0.022126
780.212373	0.022220
780.406146	0.022213
780.599901	0.022300
780.793638	0.022254
780.987356	0.022259
781.181056	0.022192
781.374738	0.022168
781.568402	0.022430
781.762047	0.022555
781.955674	0.022752
782.149283	0.022835
782.342874	0.022899
782.536447	0.023006
782.730001	0.023208
782.923537	0.023327
783.117055	0.023419
783.310555	0.023285
783.504036	0.023148
783.697499	0.023088
783.890944	0.023042
784.084371	0.022938
784.277780	0.022968
784.471170	0.022752
784.664542	0.022659
784.857896	0.022467
785.051231	0.022712
785.244549	0.022891
785.437848	0.022846
785.631129	0.022756
785.824392	0.022809
786.017636	0.022604
786.210863	0.022645
786.404071	0.022715
786.597260	0.022886
786.790432	0.022534
786.983585	0.022353
787.176721	0.022354
787.369838	0.022253
787.562936	0.022205
787.756017	0.022397
787.949079	0.022268
788.142123	0.022083
788.335149	0.021992
788.528156	0.022034
788.721146	0.022063
788.914117	0.022010
789.107070	0.022001
789.300005	0.021958
789.492921	0.021817
789.685819	0.022078
789.878699	0.022053
790.071561	0.021852
790.264405	0.021787
790.457230	0.021763
790.650037	0.021763
790.842826	0.021891
791.035597	0.021850
791.228349	0.021908
791.421084	0.021667
791.613800	0.021815
791.806497	0.021845
791.999177	0.021807
792.191838	0.021702
792.384481	0.021875
792.577106	0.021893
792.769713	0.021919
792.962301	0.021934
793.154871	0.022173
793.347423	0.022276
793.539957	0.022329
793.732473	0.022349
793.924970	0.022490
794.117449	0.022269
794.309910	0.022314
794.502353	0.022206
794.694777	0.022315
794.887183	0.022342
795.079571	0.022371
795.271941	0.022530
795.464293	0.022685
795.656626	0.022657
795.848941	0.022851
796.041238	0.022760
796.233516	0.022814
796.425777	0.022647
796.618019	0.022482
796.810243	0.022427
797.002449	0.022386
797.194636	0.022202
797.386805	0.022144
797.578956	0.022154
797.771089	0.022335
797.963204	0.022647
798.155300	0.022762
798.347378	0.022732
798.539438	0.022628
798.731480	0.022617
798.923503	0.022817
799.115509	0.022922
799.307496	0.022751
799.499465	0.022551
799.691415	0.022408
799.883348	0.022319
800.075262	0.022373
800.267158	0.022379
800.459035	0.022306
800.650895	0.022165
800.842736	0.022066
801.034559	0.022255
801.226364	0.022245
801.418150	0.022171
801.609919	0.022368
801.801669	0.022506
801.993401	0.022503
802.185114	0.022596
802.376810	0.022678
802.568487	0.022742
802.760146	0.022732
802.951787	0.022702
803.143409	0.022936
803.335014	0.023078
803.526600	0.022916
803.718168	0.023020
803.909717	0.022897
804.101249	0.023027
804.292762	0.023158
804.484257	0.023284
804.675734	0.023682
804.867192	0.023781
805.058632	0.023699
805.250054	0.023814
805.441458	0.023992
805.632844	0.024446
805.824211	0.024739
806.015561	0.024762
806.206891	0.024717
806.398204	0.024794
806.589499	0.024635
806.780775	0.024648
806.972033	0.024845
807.163273	0.024773
807.354495	0.024697
807.545698	0.024551
807.736883	0.024678
807.928050	0.024778
808.119199	0.024774
808.310329	0.024996
808.501441	0.025048
808.692535	0.025078
808.883611	0.025390
809.074669	0.025462
809.265708	0.025600
809.456729	0.025654
809.647732	0.025760
809.838717	0.025867
810.029683	0.026003
810.220632	0.026094
810.411562	0.026242
810.602474	0.026175
810.793367	0.026386
810.984242	0.026256
811.175100	0.026213
811.365938	0.026336
811.556759	0.026296
811.747562	0.026236
811.938346	0.026216
812.129112	0.026254
812.319860	0.026272
812.510589	0.026242
812.701300	0.026154
812.891994	0.026239
813.082668	0.026180
813.273325	0.026057
813.463964	0.025953
813.654584	0.026000
813.845186	0.026075
814.035769	0.026076
814.226335	0.025900
814.416882	0.026145
814.607411	0.026086
814.797922	0.025936
814.988415	0.025932
815.178889	0.025771
815.369345	0.025941
815.559783	0.025729
815.750203	0.025844
815.940605	0.025815
816.130988	0.025851
816.321353	0.025968
816.511700	0.026005
816.702028	0.026053
816.892339	0.026326
817.082631	0.026194
817.272905	0.026334
817.463161	0.026150
817.653398	0.026281
817.843617	0.026096
818.033819	0.026233
818.224001	0.026602
818.414166	0.026822
818.604312	0.027074
818.794440	0.027095
818.984550	0.027043
819.174642	0.027089
819.364716	0.027238
819.554771	0.027442
819.744808	0.027248
819.934827	0.027031
820.124827	0.026905
820.314810	0.026767
820.504774	0.026770
820.694720	0.026863
820.884647	0.026949
821.074557	0.026869
821.264448	0.026868
821.454321	0.027015
821.644176	0.026964
821.834012	0.027239
822.023831	0.027279
822.213631	0.027295
822.403413	0.027400
822.593176	0.027241
822.782922	0.027384
822.972649	0.027328
823.162358	0.027215
823.352049	0.027336
823.541721	0.027206
823.731376	0.027249
823.921012	0.027433
824.110629	0.027467
824.300229	0.027755
824.489811	0.027735
824.679374	0.027867
824.868919	0.028022
825.058445	0.028364
825.247954	0.028356
825.437444	0.028375
825.626916	0.028369
825.816370	0.028419
826.005806	0.028539
826.195223	0.028642
826.384622	0.028723
826.574003	0.028822
826.763366	0.028631
826.952711	0.028713
827.142037	0.028833
827.331345	0.028886
827.520635	0.028754
827.709906	0.028823
827.899160	0.028775
828.088395	0.028677
828.277612	0.028654
828.466810	0.028748
828.655991	0.029016
828.845153	0.028960
829.034297	0.028935
829.223423	0.029183
829.412531	0.028899
829.601620	0.028969
829.790691	0.029349
829.979744	0.029651
830.168779	0.029706
830.357795	0.029870
830.546793	0.030115
830.735773	0.030315
830.924735	0.030452
831.113679	0.030828
831.302604	0.031102
831.491511	0.031156
831.680400	0.031128
831.869271	0.031266
832.058123	0.031088
832.246957	0.031139
832.435773	0.031088
832.624571	0.031089
832.813351	0.031090
833.002112	0.030921
833.190855	0.030982
833.379580	0.031068
833.568287	0.031063
833.756975	0.031003
833.945645	0.031021
834.134297	0.031211
834.322931	0.031178
834.511547	0.031212
834.700144	0.031270
834.888723	0.031111
835.077284	0.031004
835.265826	0.030950
835.454351	0.031162
835.642857	0.031113
835.831345	0.031026
836.019815	0.030976
836.208266	0.031105
836.396699	0.031342
836.585114	0.031427
836.773511	0.031690
836.961890	0.031809
837.150250	0.031840
837.338592	0.032060
837.526916	0.031917
837.715222	0.031987
837.903510	0.031892
838.091779	0.032039
838.280030	0.032396
838.468263	0.032497
838.656477	0.032416
838.844674	0.032414
839.032852	0.032311
839.221012	0.032553
839.409153	0.032688
839.597277	0.032718
839.785382	0.032605
839.973469	0.032698
840.161538	0.032715
840.349589	0.032977
840.537621	0.033101
840.725635	0.033279
840.913631	0.033386
841.101609	0.033440
841.289568	0.033436
841.477509	0.033336
841.665432	0.033353
841.853337	0.033426
842.041224	0.033389
842.229092	0.033577
842.416942	0.033838
842.604774	0.034007
842.792588	0.034301
842.980383	0.034785
843.168160	0.035164
843.355919	0.035031
843.543660	0.034999
843.731382	0.035188
843.919087	0.035136
844.106773	0.034967
844.294441	0.034822
844.482090	0.034912
844.669722	0.034856
844.857335	0.035059
845.044930	0.035058
845.232507	0.035364
845.420065	0.035380
845.607605	0.035469
845.795127	0.035597
845.982631	0.035888
846.170117	0.036163
846.357584	0.036100
846.545033	0.035839
846.732464	0.035946
846.919877	0.035891
847.107272	0.036090
847.294648	0.036109
847.482006	0.036167
847.669346	0.036387
847.856667	0.036121
848.043971	0.036362
848.231256	0.036470
848.418523	0.036534
848.605771	0.036781
848.793002	0.036747
848.980214	0.036801
849.167408	0.036854
849.354584	0.036939
849.541742	0.037094
849.728881	0.037422
849.916002	0.037823
850.103105	0.038150
850.290190	0.038280
850.477256	0.038520
850.664304	0.039115
850.851334	0.039483
851.038346	0.039638
851.225340	0.039583
851.412315	0.039457
851.599272	0.039294
851.786211	0.039354
851.973132	0.039532
852.160034	0.039764
852.346918	0.039439
852.533784	0.039303
852.720632	0.039395
852.907462	0.039695
853.094273	0.039753
853.281066	0.039930
853.467841	0.039795
853.654598	0.039615
853.841336	0.039525
854.028056	0.039467
854.214758	0.039551
854.401442	0.039404
854.588107	0.039426
854.774755	0.039539
854.961384	0.039586
855.147995	0.039784
855.334587	0.039783
855.521162	0.039811
855.707718	0.039960
855.894256	0.040157
856.080775	0.040328
856.267277	0.040377
856.453760	0.040534
856.640225	0.040514
856.826672	0.040470
857.013101	0.040633
857.199511	0.040839
857.385903	0.041127
857.572277	0.041016
857.758633	0.041255
857.944970	0.041317
858.131290	0.041322
858.317591	0.041666
858.503873	0.042233
858.690138	0.042500
858.876384	0.042750
859.062612	0.042891
859.248822	0.043019
859.435014	0.043112
859.621188	0.043430
859.807343	0.043554
859.993480	0.043375
860.179599	0.043188
860.365699	0.043367
860.551781	0.043445
860.737846	0.043561
860.923891	0.044073
861.109919	0.044057
861.295929	0.043892
861.481920	0.043797
861.667893	0.043814
861.853848	0.043660
862.039784	0.043452
862.225702	0.043385
862.411603	0.043403
862.597484	0.043063
862.783348	0.043095
862.969193	0.043231
863.155021	0.043382
863.340830	0.043735
863.526620	0.043880
863.712393	0.044073
863.898147	0.044191
864.083883	0.044228
864.269601	0.044335
864.455301	0.044466
864.640982	0.044658
864.826645	0.044903
865.012290	0.045107
865.197917	0.045413
865.383526	0.045271
865.569116	0.045333
865.754688	0.045375
865.940242	0.045291
866.125777	0.045302
866.311295	0.045003
866.496794	0.044838
866.682275	0.044411
866.867737	0.044182
867.053182	0.044369
867.238608	0.044329
867.424016	0.044466
867.609406	0.044523
867.794778	0.044675
867.980131	0.044947
868.165466	0.044925
868.350783	0.045150
868.536082	0.045624
868.721362	0.045740
868.906625	0.045814
869.091869	0.046038
869.277094	0.046390
869.462302	0.046149
869.647491	0.046188
869.832662	0.046423
870.017815	0.046425
870.202950	0.045998
870.388066	0.045868
870.573165	0.045860
870.758245	0.045535
870.943306	0.045286
871.128350	0.045251
871.313375	0.045172
871.498382	0.045066
871.683371	0.045102
871.868342	0.045236
872.053294	0.045311
872.238229	0.045354
872.423144	0.045597
872.608042	0.045556
872.792922	0.045727
872.977783	0.045910
873.162626	0.046106
873.347451	0.045858
873.532258	0.045958
873.717046	0.045929
873.901816	0.045967
874.086568	0.045609
874.271302	0.045924
874.456017	0.046139
874.640715	0.046043
874.825394	0.045865
875.010055	0.045921
875.194697	0.045875
875.379322	0.045721
875.563928	0.045573
875.748516	0.045835
875.933085	0.045690
876.117637	0.045585
876.302170	0.045968
876.486685	0.046111
876.671182	0.046437
876.855661	0.046244
877.040121	0.046397
877.224563	0.046502
877.408987	0.046541
877.593393	0.046491
877.777780	0.046747
877.962150	0.046436
878.146501	0.046452
878.330833	0.046430
878.515148	0.046868
878.699444	0.047026
878.883722	0.047036
879.067982	0.047039
879.252224	0.047158
879.436447	0.047024
879.620653	0.047349
879.804840	0.047479
879.989008	0.047640
880.173159	0.047448
880.357291	0.047540
880.541405	0.047471
880.725501	0.047727
880.909579	0.047912
881.093638	0.048019
881.277680	0.048036
881.461703	0.048043
881.645707	0.047849
881.829694	0.047956
882.013662	0.047677
882.197612	0.047715
882.381544	0.047468
882.565458	0.047441
882.749353	0.047159
882.933230	0.047052
883.117089	0.046720
883.300930	0.046917
883.484753	0.047148
883.668557	0.047555
883.852343	0.047739
884.036111	0.047791
884.219861	0.047365
884.403592	0.047507
884.587305	0.047206
884.771000	0.047785
884.954677	0.047611
885.138335	0.047562
885.321976	0.047504
885.505598	0.047500
885.689201	0.047477
885.872787	0.047722
886.056354	0.047799
886.239904	0.047981
886.423434	0.047795
886.606947	0.047801
886.790442	0.047778
886.973918	0.047736
887.157376	0.047811
887.340816	0.047879
887.524237	0.048308
887.707641	0.048368
887.891026	0.048208
888.074393	0.048317
888.257741	0.048465
888.441072	0.048515
888.624384	0.048600
888.807678	0.048465
888.990954	0.048828
889.174211	0.048696
889.357451	0.048724
889.540672	0.049054
889.723875	0.048950
889.907059	0.049042
890.090226	0.049137
890.273374	0.048867
890.456504	0.048744
890.639616	0.048451
890.822709	0.048176
891.005785	0.048138
891.188842	0.048044
891.371881	0.048041
891.554901	0.047970
891.737904	0.047693
891.920888	0.047866
892.103854	0.048116
892.286802	0.047929
892.469731	0.047921
892.652643	0.047711
892.835536	0.047728
893.018410	0.047504
893.201267	0.047182
893.384106	0.047094
893.566926	0.046868
893.749728	0.046534
893.932511	0.046583
894.115277	0.046550
894.298024	0.046397
894.480753	0.046302
894.663464	0.046489
894.846157	0.046608
895.028831	0.046860
895.211487	0.046921
895.394125	0.046958
895.576745	0.046902
895.759346	0.046823
895.941930	0.047139
896.124495	0.046881
896.307041	0.046627
896.489570	0.046140
896.672080	0.045839
896.854573	0.045767
897.037046	0.045642
897.219502	0.045845
897.401940	0.045584
897.584359	0.045254
897.766760	0.045218
897.949143	0.045066
898.131507	0.045384
898.313854	0.045444
898.496182	0.045384
898.678492	0.045318
898.860783	0.044998
899.043057	0.045255
899.225312	0.045170
899.407549	0.045414
899.589768	0.045557
899.771968	0.045669
899.954151	0.045651
900.136315	0.045325
900.318461	0.045491
900.500588	0.045420
900.682698	0.045370
900.864789	0.045393
901.046862	0.044904
901.228917	0.044959
901.410953	0.045107
901.592971	0.044768
901.774972	0.044864
901.956953	0.044595
902.138917	0.044435
902.320862	0.044335
902.502790	0.044514
902.684699	0.044496
902.866589	0.044307
903.048462	0.043850
903.230316	0.043749
903.412152	0.043750
903.593970	0.043853
903.775770	0.043962
903.957551	0.043968
904.139314	0.043465
904.321059	0.043561
904.502786	0.043586
904.684494	0.043821
904.866185	0.044128
905.047857	0.044383
905.229510	0.044264
905.411146	0.044194
905.592763	0.044052
905.774363	0.044401
905.955943	0.044348
906.137506	0.044008
906.319051	0.043839
906.500577	0.043770
906.682085	0.043414
906.863575	0.043222
907.045046	0.042852
907.226500	0.042968
907.407935	0.042563
907.589352	0.042376
907.770750	0.042595
907.952131	0.042493
908.133493	0.042192
908.314837	0.041893
908.496163	0.042208
908.677470	0.042037
908.858760	0.041563
909.040031	0.041381
909.221284	0.041325
909.402518	0.040859
909.583735	0.040652
909.764933	0.040384
909.946113	0.040663
910.127275	0.040226
910.308418	0.040498
910.489544	0.040441
910.670651	0.040442
910.851740	0.040171
911.032810	0.040170
911.213863	0.039929
911.394897	0.039417
911.575913	0.039262
911.756911	0.038917
911.937890	0.038561
912.118851	0.038445
912.299794	0.038107
912.480719	0.038452
912.661626	0.038057
912.842514	0.038019
913.023384	0.038222
913.204236	0.037473
913.385070	0.037725
913.565886	0.037610
913.746683	0.037447
913.927462	0.037684
914.108223	0.037314
914.288965	0.037131
914.469690	0.037033
914.650396	0.036758
914.831084	0.036604
915.011754	0.036420
915.192405	0.036083
915.373038	0.035866
915.553653	0.035339
915.734250	0.034908
915.914829	0.034632
916.095389	0.034344
916.275931	0.034150
916.456455	0.034226
916.636961	0.033765
916.817448	0.033817
916.997917	0.033510
917.178368	0.033392
917.358801	0.033029
917.539216	0.033394
917.719612	0.033549
917.899990	0.033428
918.080350	0.033129
918.260692	0.032624
918.441015	0.032248
918.621320	0.032179
918.801607	0.032015
918.981876	0.032362
919.162127	0.032147
919.342359	0.031401
919.522573	0.031566
919.702769	0.031631
919.882947	0.031930
920.063106	0.031922
920.243247	0.031739
920.423370	0.031616
920.603475	0.031377
920.783562	0.031058
920.963630	0.031429
921.143680	0.030893
921.323712	0.030648
921.503725	0.030056
921.683721	0.029423
921.863698	0.029036
922.043657	0.028826
922.223598	0.027937
922.403520	0.027930
922.583424	0.027245
922.763311	0.027400
922.943178	0.026887
923.123028	0.026482
923.302859	0.026635
923.482673	0.026712
923.662467	0.026144
923.842244	0.026115
924.022003	0.025906
924.201743	0.025677
924.381465	0.025189
924.561169	0.025099
924.740854	0.025482
924.920522	0.024891
925.100171	0.024355
925.279802	0.024534
925.459414	0.024113
925.639009	0.023430
925.818585	0.022736
925.998143	0.022418
926.177683	0.021920
926.357205	0.020976
926.536708	0.021013
926.716193	0.021112
926.895660	0.020526
927.075109	0.020666
927.254539	0.020841
927.433951	0.020767
927.613345	0.020580
927.792721	0.020540
927.972079	0.020902
928.151418	0.020641
928.330739	0.020233
928.510042	0.019794
928.689327	0.019001
928.868593	0.018307
929.047841	0.018385
929.227071	0.017676
929.406283	0.017677
929.585476	0.017437
929.764652	0.016751
929.943809	0.016522
930.122948	0.015729
930.302068	0.015548
930.481171	0.015052
930.660255	0.014860
930.839321	0.014489
931.018369	0.014122
931.197398	0.013319
931.376409	0.012882
931.555402	0.012127
931.734377	0.012739
931.913334	0.012608
932.092272	0.012088
932.271192	0.011330
932.450094	0.011245
932.628978	0.010364
932.807844	0.010503
932.986691	0.010678
933.165520	0.010287
933.344331	0.009777
933.523123	0.009513
933.701898	0.009573
933.880654	0.009585
934.059392	0.009167
934.238111	0.008830
934.416813	0.008265
934.595496	0.007229
934.774161	0.007329
934.952808	0.006600
935.131437	0.005918
935.310047	0.005037
935.488639	0.004698
935.667213	0.004059
935.845769	0.003932
936.024306	0.003360
936.202825	0.003390
936.381326	0.002528
936.559809	0.002964
936.738274	0.002719
936.916720	0.002676
937.095148	0.002221
937.273558	0.002303
937.451950	0.002183
937.630323	0.001865
937.808678	0.001946
937.987015	0.001775
938.165334	0.000481
938.343635	-0.000100
938.521917	-0.001164
938.700181	-0.001854
938.878427	-0.001879
939.056655	-0.001609
939.234864	-0.001828
939.413055	-0.002424
939.591228	-0.003274
939.769383	-0.003041
939.947519	-0.002571
940.125638	-0.001898
940.303738	-0.002205
940.481820	-0.002537
940.659883	-0.003556
940.837929	-0.004413
941.015956	-0.004964
941.193965	-0.003855
941.371955	-0.004837
941.549928	-0.004470
941.727882	-0.004562
941.905818	-0.004214
942.083736	-0.005489
942.261636	-0.006159
942.439517	-0.006300
942.617380	-0.006573
942.795225	-0.006604
942.973052	-0.006462
943.150860	-0.007693
943.328651	-0.008857
943.506423	-0.009999
943.684176	-0.010085
943.861912	-0.010223
944.039629	-0.010547
944.217328	-0.011068
944.395009	-0.011987
944.572672	-0.011163
944.750317	-0.011019
944.927943	-0.010049
945.105551	-0.009907
945.283141	-0.009633
945.460712	-0.009979
945.638265	-0.008714
945.815801	-0.008932
945.993317	-0.009406
946.170816	-0.009566
946.348297	-0.010144
946.525759	-0.010973
946.703203	-0.010894
946.880629	-0.010715
947.058036	-0.010471
947.235425	-0.010321
947.412797	-0.008699
947.590149	-0.008510
947.767484	-0.009395
947.944800	-0.009441
948.122099	-0.009456
948.299379	-0.009449
948.476640	-0.010095
948.653884	-0.009913
948.831109	-0.010461
949.008316	-0.011607
949.185505	-0.012202
949.362676	-0.012352
949.539828	-0.012287
949.716962	-0.011986
949.894078	-0.012633
950.071176	-0.012951
950.248256	-0.013261
950.425317	-0.013208
950.602360	-0.013938
950.779385	-0.012294
950.956391	-0.013241
951.133380	-0.012710
951.310350	-0.012791
951.487302	-0.011964
951.664235	-0.011600
951.841151	-0.011081
952.018048	-0.011664
952.194927	-0.011071
952.371788	-0.012794
952.548631	-0.011243
952.725455	-0.011280
952.902261	-0.010963
953.079049	-0.010356
953.255819	-0.010381
953.432570	-0.009796
953.609303	-0.009213
953.786018	-0.008082
953.962715	-0.008165
954.139394	-0.007454
954.316054	-0.007338
954.492696	-0.007068
954.669320	-0.007324
954.845926	-0.005183
955.022513	-0.006375
955.199083	-0.006514
955.375634	-0.006701
955.552166	-0.005286
955.728681	-0.006739
955.905177	-0.005580
956.081655	-0.005373
956.258115	-0.006319
956.434557	-0.006837
956.610980	-0.006902
956.787385	-0.007493
956.963772	-0.007286
957.140141	-0.006630
957.316492	-0.004494
957.492824	-0.005356
957.669138	-0.005159
957.845434	-0.004280
958.021712	-0.004193
958.197971	-0.003605
958.374212	-0.002206
958.550435	-0.002053
958.726640	-0.002493
958.902826	-0.003343
959.078995	-0.002746
959.255145	-0.002517
959.431277	-0.002605
959.607390	-0.002964
959.783486	-0.002197
959.959563	-0.001598
960.135622	-0.002141
960.311662	-0.002397
960.487685	-0.000809
960.663689	-0.001056
960.839675	-0.000757
961.015643	-0.001256
961.191593	0.000162
961.367524	-0.000442
961.543437	0.000439
961.719332	0.001827
961.895209	0.003432
962.071067	0.003209
962.246907	0.005077
962.422730	0.005706
962.598533	0.007434
962.774319	0.007997
962.950086	0.010134
963.125835	0.008903
963.301566	0.007796
963.477279	0.007079
963.652973	0.009944
963.828650	0.009107
964.004308	0.009246
964.179947	0.009996
964.355569	0.009864
964.531172	0.009937
964.706757	0.008672
964.882324	0.010506
965.057873	0.011805
965.233403	0.010408
965.408916	0.010260
965.584410	0.010671
965.759885	0.009345
965.935343	0.010039
966.110782	0.009577
966.286203	0.012036
966.461606	0.013804
966.636991	0.012940
966.812357	0.011817
966.987705	0.012159
967.163035	0.010502
967.338347	0.011644
967.513641	0.011632
967.688916	0.012597
967.864173	0.013017
968.039412	0.010365
968.214632	0.010918
968.389835	0.011373
968.565019	0.009888
968.740185	0.010449
968.915333	0.010474
969.090462	0.010424
969.265573	0.009683
969.440667	0.009729
969.615741	0.010767
969.790798	0.010367
969.965836	0.009929
970.140856	0.012399
970.315858	0.012756
970.490842	0.012285
970.665808	0.010628
970.840755	0.010946
971.015684	0.010768
971.190595	0.009896
971.365487	0.010635
971.540362	0.010186
971.715218	0.009909
971.890056	0.011086
972.064875	0.011069
972.239677	0.011025
972.414460	0.012659
972.589225	0.013338
972.763972	0.014933
972.938700	0.015400
973.113411	0.015690
973.288103	0.017549
973.462777	0.016602
973.637432	0.016931
973.812070	0.017889
973.986689	0.016744
974.161290	0.016949
974.335873	0.015118
974.510437	0.013852
974.684984	0.015560
974.859512	0.013231
975.034022	0.014959
975.208513	0.015851
975.382987	0.015767
975.557442	0.014496
975.731879	0.014388
975.906298	0.014613
976.080698	0.015787
976.255080	0.014927
976.429445	0.017081
976.603790	0.015200
976.778118	0.013406
976.952427	0.013910
977.126719	0.015008
977.300992	0.015703
977.475246	0.017551
977.649483	0.017978
977.823701	0.017295
977.997901	0.017189
978.172083	0.017775
978.346247	0.019892
978.520392	0.019046
978.694519	0.019011
978.868628	0.018458
979.042719	0.016490
979.216791	0.014231
979.390845	0.014469
979.564882	0.012518
979.738899	0.012460
979.912899	0.012400
980.086880	0.013788
980.260843	0.013150
980.434788	0.012600
980.608715	0.014595
980.782623	0.014879
980.956514	0.016315
981.130386	0.016035
981.304240	0.015991
981.478075	0.014780
981.651892	0.013988
981.825692	0.015035
981.999472	0.013999
982.173235	0.013729
982.346980	0.013529
982.520706	0.012089
982.694414	0.013584
982.868104	0.012003
983.041775	0.013208
983.215428	0.014188
983.389064	0.013324
983.562680	0.013248
983.736279	0.012741
983.909860	0.013379
984.083422	0.014590
984.256966	0.013940
984.430491	0.015305
984.603999	0.015998
984.777488	0.016524
984.950959	0.017146
985.124412	0.016586
985.297847	0.016233
985.471263	0.017716
985.644661	0.016366
985.818041	0.016522
985.991403	0.017335
986.164747	0.014859
986.338072	0.013817
986.511379	0.014080
986.684668	0.014197
986.857938	0.014039
987.031191	0.013456
987.204425	0.014559
987.377641	0.015282
987.550839	0.013841
987.724018	0.016793
987.897179	0.016953
988.070322	0.017024
988.243447	0.018031
988.416554	0.018394
988.589642	0.017210
988.762712	0.016258
988.935764	0.015034
989.108798	0.015911
989.281813	0.013861
989.454811	0.013066
989.627790	0.013200
989.800751	0.012279
989.973693	0.012935
990.146617	0.014554
990.319524	0.015036
990.492412	0.015587
990.665281	0.015760
990.838133	0.015869
991.010966	0.016733
991.183781	0.015690
991.356578	0.015581
991.529356	0.014932
991.702117	0.014077
991.874859	0.013917
992.047583	0.014036
992.220288	0.014577
992.392976	0.014177
992.565645	0.014961
992.738296	0.015025
992.910929	0.017237
993.083543	0.017376
993.256139	0.017702
993.428718	0.018844
993.601277	0.019091
993.773819	0.018434
993.946342	0.019252
994.118848	0.018278
994.291335	0.018362
994.463803	0.017913
994.636254	0.018297
994.808686	0.017707
994.981100	0.016491
995.153496	0.015612
995.325874	0.015353
995.498233	0.015026
995.670574	0.013687
995.842897	0.013422
996.015202	0.013475
996.187488	0.012432
996.359757	0.012716
996.532007	0.012649
996.704239	0.013042
996.876452	0.013457
997.048648	0.013536
997.220825	0.014002
997.392984	0.014420
997.565124	0.015167
997.737247	0.014203
997.909351	0.014821
998.081437	0.013418
998.253505	0.014074
998.425554	0.013355
998.597586	0.013791
998.769599	0.013846
998.941594	0.013327
999.113571	0.009746
999.285529	0.011641
999.457469	0.010803
999.629391	0.013039
999.801295	0.012388
999.973181	0.012453
1000.145048	0.011729
1000.316897	0.012723
1000.488728	0.013093
1000.660541	0.014892
1000.832335	0.015944
1001.004111	0.017041
1001.175869	0.017634
1001.347609	0.017715
1001.519331	0.018130
1001.691034	0.018986
1001.862719	0.020042
1002.034386	0.019372
1002.206035	0.019282
1002.377665	0.018144
1002.549277	0.017006
1002.720871	0.016273
1002.892447	0.015234
1003.064004	0.015377
1003.235544	0.015117
1003.407065	0.013699
1003.578568	0.015248
1003.750052	0.015334
1003.921519	0.015383
1004.092967	0.014379
1004.264397	0.013355
1004.435809	0.013535
1004.607202	0.013284
1004.778577	0.013163
1004.949934	0.012353
1005.121273	0.011448
1005.292594	0.010221
1005.463896	0.009982
1005.635180	0.010821
1005.806446	0.009886
1005.977694	0.010612
1006.148923	0.009958
1006.320135	0.010039
1006.491328	0.009038
1006.662503	0.008405
1006.833659	0.009276
1007.004798	0.009194
1007.175918	0.009247
1007.347020	0.010447
1007.518103	0.009849
1007.689169	0.010061
1007.860216	0.008213
1008.031245	0.009028
1008.202256	0.010849
1008.373248	0.011656
1008.544223	0.011821
1008.715179	0.011142
1008.886117	0.011534
1009.057036	0.011275
1009.227938	0.011648
1009.398821	0.013483
1009.569686	0.014019
1009.740533	0.012862
1009.911361	0.013018
1010.082172	0.012160
1010.252964	0.013305
1010.423738	0.013528
1010.594493	0.015415
1010.765231	0.016089
1010.935950	0.015576
1011.106651	0.016374
1011.277334	0.016146
1011.447998	0.014023
1011.618645	0.014092
1011.789273	0.012940
1011.959882	0.012862
1012.130474	0.011380
1012.301048	0.010273
1012.471603	0.010596
1012.642140	0.010064
1012.812658	0.010691
1012.983159	0.011819
1013.153641	0.012086
1013.324105	0.011743
1013.494551	0.010254
1013.664979	0.009604
1013.835388	0.010131
1014.005779	0.009534
1014.176152	0.010129
1014.346507	0.008807
1014.516843	0.009452
1014.687162	0.008970
1014.857462	0.011141
1015.027744	0.010974
1015.198007	0.011678
1015.368252	0.010846
1015.538480	0.012429
1015.708689	0.010275
1015.878879	0.011465
1016.049052	0.010447
1016.219206	0.011426
1016.389342	0.011122
1016.559460	0.012178
1016.729559	0.012208
1016.899641	0.013047
1017.069704	0.011812
1017.239749	0.013465
1017.409775	0.014349
1017.579784	0.015410
1017.749774	0.014492
1017.919746	0.015147
1018.089700	0.014861
1018.259635	0.015413
1018.429553	0.015955
1018.599452	0.016020
1018.769333	0.016131
1018.939195	0.015031
1019.109040	0.013136
1019.278866	0.013252
1019.448674	0.011755
1019.618464	0.012666
1019.788235	0.012340
1019.957989	0.010771
1020.127724	0.010352
1020.297441	0.009731
1020.467139	0.009337
1020.636820	0.010063
1020.806482	0.010109
1020.976126	0.010881
1021.145752	0.009405
1021.315359	0.007436
1021.484948	0.008772
1021.654519	0.007943
1021.824072	0.007836
1021.993607	0.008782
1022.163123	0.009269
1022.332621	0.010124
1022.502101	0.009060
1022.671563	0.009651
1022.841007	0.011590
1023.010432	0.011270
1023.179839	0.011400
1023.349228	0.011605
1023.518598	0.010479
1023.687951	0.008517
1023.857285	0.006882
1024.026601	0.007868
1024.195899	0.007514
1024.365178	0.007411
1024.534439	0.007303
1024.703682	0.006258
1024.872907	0.006716
1025.042114	0.006004
1025.211302	0.007905
1025.380472	0.008682
1025.549624	0.008530
1025.718758	0.008679
1025.887873	0.009827
1026.056970	0.009140
1026.226049	0.010272
1026.395110	0.010200
1026.564153	0.010832
1026.733177	0.010188
1026.902183	0.010831
1027.071171	0.009679
1027.240141	0.009227
1027.409092	0.007844
1027.578026	0.008573
1027.746940	0.009555
1027.915837	0.010275
1028.084716	0.011643
1028.253576	0.012219
1028.422418	0.012441
1028.591242	0.013105
1028.760048	0.014671
1028.928835	0.015432
1029.097604	0.014147
1029.266355	0.014502
1029.435088	0.013879
1029.603803	0.013421
1029.772499	0.013628
1029.941177	0.012144
1030.109837	0.012866
1030.278478	0.011502
1030.447102	0.011607
1030.615707	0.013099
1030.784294	0.011819
1030.952863	0.010826
1031.121413	0.010482
1031.289945	0.011222
1031.458460	0.012115
1031.626955	0.011633
1031.795433	0.011469
1031.963892	0.010893
1032.132334	0.010149
1032.300756	0.011594
1032.469161	0.012325
1032.637548	0.011664
1032.805916	0.011704
1032.974266	0.011469
1033.142598	0.011108
1033.310911	0.012686
1033.479207	0.012489
1033.647484	0.013623
1033.815743	0.012734
1033.983983	0.013403
1034.152206	0.014044
1034.320410	0.013779
1034.488596	0.013092
1034.656764	0.013358
1034.824914	0.012168
1034.993045	0.012317
1035.161158	0.012816
1035.329253	0.011511
1035.497330	0.010122
1035.665388	0.010780
1035.833428	0.010078
1036.001450	0.009683
1036.169454	0.009268
1036.337440	0.008935
1036.505407	0.007865
1036.673356	0.005608
1036.841287	0.007733
1037.009200	0.007563
1037.177094	0.007530
1037.344970	0.006464
1037.512828	0.007342
1037.680668	0.009358
1037.848489	0.009542
1038.016293	0.010045
1038.184078	0.010227
1038.351845	0.008439
1038.519593	0.010121
1038.687324	0.009888
1038.855036	0.011917
1039.022730	0.012543
1039.190406	0.011208
1039.358063	0.011436
1039.525702	0.010607
1039.693323	0.011679
1039.860926	0.013521
1040.028511	0.012839
1040.196077	0.013031
1040.363625	0.012083
1040.531155	0.012233
1040.698667	0.012950
1040.866161	0.013050
1041.033636	0.013627
1041.201093	0.013171
1041.368532	0.013237
1041.535952	0.012148
1041.703355	0.010537
1041.870739	0.009683
1042.038105	0.007929
1042.205452	0.005610
1042.372782	0.005929
1042.540093	0.008055
1042.707386	0.007781
1042.874661	0.007783
1043.041918	0.008730
1043.209156	0.010574
1043.376376	0.010763
1043.543578	0.011513
1043.710762	0.013349
1043.877927	0.012386
1044.045074	0.010921
1044.212203	0.012153
1044.379314	0.010396
1044.546407	0.010711
1044.713481	0.009397
1044.880537	0.010778
1045.047575	0.011243
1045.214595	0.010466
1045.381596	0.009737
1045.548579	0.009755
1045.715544	0.007979
1045.882491	0.008982
1046.049420	0.008404
1046.216330	0.007619
1046.383222	0.006707
1046.550096	0.005952
1046.716951	0.006229
1046.883789	0.007612
1047.050608	0.006908
1047.217409	0.007921
1047.384192	0.008223
1047.550956	0.010349
1047.717703	0.011406
1047.884431	0.010507
1048.051140	0.011297
1048.217832	0.010566
1048.384505	0.010488
1048.551161	0.011578
1048.717798	0.012242
1048.884416	0.010776
1049.051017	0.009523
1049.217599	0.009884
1049.384163	0.011518
1049.550709	0.011747
1049.717237	0.013069
1049.883746	0.012549
1050.050237	0.011101
1050.216710	0.009796
1050.383165	0.010670
1050.549601	0.011366
1050.716019	0.010323
1050.882420	0.008376
1051.048801	0.007236
1051.215165	0.005877
1051.381510	0.005687
1051.547837	0.006023
1051.714146	0.006646
1051.880437	0.006492
1052.046709	0.006193
1052.212964	0.007206
1052.379200	0.007745
1052.545417	0.007579
1052.711617	0.006964
1052.877798	0.006960
1053.043961	0.007382
1053.210106	0.006517
1053.376233	0.006965
1053.542341	0.005785
1053.708432	0.003982
1053.874504	0.005583
1054.040557	0.005293
1054.206593	0.005423
1054.372610	0.006787
1054.538609	0.005838
1054.704590	0.005690
1054.870553	0.005377
1055.036497	0.004031
1055.202424	0.003988
1055.368331	0.002072
1055.534221	0.003707
1055.700093	0.004782
1055.865946	0.004678
1056.031781	0.005207
1056.197598	0.006447
1056.363397	0.006348
1056.529177	0.006700
1056.694939	0.009476
1056.860683	0.010673
1057.026409	0.008789
1057.192116	0.007727
1057.357806	0.005771
1057.523477	0.005019
1057.689130	0.003853
1057.854764	0.004264
1058.020381	0.004477
1058.185979	0.002387
1058.351559	0.001220
1058.517120	0.002759
1058.682664	0.003516
1058.848189	0.004620
1059.013696	0.005405
1059.179185	0.006550
1059.344656	0.006987
1059.510108	0.006210
1059.675542	0.007021
1059.840958	0.009162
1060.006356	0.009935
1060.171735	0.010151
1060.337096	0.010636
1060.502439	0.011549
1060.667764	0.009589
1060.833071	0.009186
1060.998359	0.009158
1061.163629	0.007903
1061.328881	0.007046
1061.494115	0.005975
1061.659330	0.005382
1061.824527	0.005390
1061.989706	0.004770
1062.154867	0.006225
1062.320010	0.005940
1062.485134	0.006649
1062.650240	0.006220
1062.815328	0.004671
1062.980398	0.004249
1063.145449	0.003060
1063.310482	0.002054
1063.475497	0.001728
1063.640494	0.001196
1063.805473	0.001387
1063.970433	0.001042
1064.135375	0.002679
1064.300299	0.004270
1064.465204	0.003007
1064.630092	0.003714
1064.794961	0.003360
1064.959812	0.002093
1065.124645	0.001382
1065.289459	0.000601
1065.454256	0.000983
1065.619034	-0.000440
1065.783793	-0.000225
1065.948535	0.002566
1066.113258	0.004156
1066.277964	0.004336
1066.442651	0.006567
1066.607319	0.008985
1066.771970	0.010725
1066.936602	0.011963
1067.101216	0.013179
1067.265812	0.011946
1067.430389	0.011003
1067.594949	0.010145
1067.759490	0.009026
1067.924013	0.007370
1068.088518	0.004400
1068.253004	0.003306
1068.417472	0.002915
1068.581922	0.002144
1068.746354	0.003523
1068.910768	0.003301
1069.075163	0.002871
1069.239540	0.004972
1069.403899	0.005669
1069.568240	0.009018
1069.732562	0.008433
1069.896866	0.008363
1070.061152	0.011143
1070.225420	0.010452
1070.389670	0.010392
1070.553901	0.011176
1070.718114	0.011492
1070.882309	0.012063
1071.046486	0.009967
1071.210644	0.011572
1071.374784	0.010881
1071.538906	0.008098
1071.703010	0.007988
1071.867096	0.008981
1072.031163	0.008605
1072.195212	0.008041
1072.359243	0.006277
1072.523256	0.005493
1072.687250	0.005025
1072.851226	0.005361
1073.015184	0.005666
1073.179124	0.005269
1073.343045	0.004067
1073.506949	0.003293
1073.670834	0.002429
1073.834701	0.003352
1073.998549	0.006553
1074.162380	0.005604
1074.326192	0.006307
1074.489986	0.006189
1074.653761	0.005277
1074.817519	0.006309
1074.981258	0.005708
1075.144979	0.005918
1075.308682	0.006777
1075.472367	0.004820
1075.636033	0.006378
1075.799681	0.007112
1075.963311	0.007281
1076.126923	0.007368
1076.290516	0.006607
1076.454092	0.007300
1076.617649	0.007262
1076.781187	0.005963
1076.944708	0.003152
1077.108210	0.001535
1077.271695	-0.000564
1077.435160	-0.000650
1077.598608	0.001106
1077.762038	0.000388
1077.925449	-0.000100
1078.088842	-0.000541
1078.252217	0.000337
1078.415573	0.004810
1078.578912	0.003938
1078.742232	0.002569
1078.905534	0.003915
1079.068817	0.002468
1079.232083	0.002665
1079.395330	0.002128
1079.558559	0.003478
1079.721770	0.003683
1079.884962	0.001511
1080.048136	0.002089
1080.211293	0.004435
1080.374430	0.002649
1080.537550	0.003244
1080.700651	0.002963
1080.863735	0.005168
1081.026800	0.004627
1081.189846	0.003509
1081.352875	0.002676
1081.515885	0.002701
1081.678877	0.002698
1081.841851	0.004057
1082.004807	0.003336
1082.167744	0.003249
1082.330663	0.001171
1082.493564	0.000343
1082.656447	0.001546
1082.819312	0.002444
1082.982158	0.002462
1083.144986	-0.000229
1083.307796	-0.000512
1083.470587	-0.000168
1083.633361	0.000133
1083.796116	0.002442
1083.958853	0.001354
1084.121571	-0.001525
1084.284272	-0.003260
1084.446954	-0.003324
1084.609618	-0.001149
1084.772264	-0.002542
1084.934892	-0.002693
1085.097501	-0.005257
1085.260092	-0.007682
1085.422665	-0.004008
1085.585220	-0.003682
1085.747756	-0.002168
1085.910274	-0.003298
1086.072774	-0.002341
1086.235256	-0.001600
1086.397720	-0.002641
1086.560165	0.001064
1086.722592	0.000922
1086.885001	-0.001543
1087.047392	-0.002000
1087.209764	-0.001358
1087.372119	-0.002332
1087.534455	-0.002914
1087.696772	-0.002806
1087.859072	-0.001327
1088.021353	-0.002140
1088.183616	-0.000500
1088.345861	0.001124
1088.508088	0.003522
1088.670296	0.000588
1088.832486	0.001773
1088.994658	0.002865
1089.156812	0.001498
1089.318948	0.002298
1089.481065	0.001316
1089.643164	0.002882
1089.805245	0.000827
1089.967308	0.001131
1090.129352	0.005377
1090.291378	0.005939
1090.453386	0.002289
1090.615376	0.002695
1090.777347	0.001744
1090.939301	-0.000384
1091.101236	-0.001975
1091.263153	-0.003350
1091.425051	-0.004579
1091.586932	-0.004853
1091.748794	-0.004101
1091.910638	-0.004182
1092.072463	-0.004087
1092.234271	-0.003726
1092.396060	-0.002613
1092.557831	-0.003075
1092.719584	-0.001407
1092.881319	0.001749
1093.043035	-0.001815
1093.204733	-0.002720
1093.366413	-0.002643
1093.528075	-0.003124
1093.689718	-0.004321
1093.851343	-0.001656
1094.012950	0.000689
1094.174539	-0.000210
1094.336110	-0.004628
1094.497662	-0.004892
1094.659196	-0.003864
1094.820712	-0.004000
1094.982210	-0.003430
1095.143689	-0.005897
1095.305151	-0.007256
1095.466594	-0.010854
1095.628018	-0.012030
1095.789425	-0.011016
1095.950813	-0.009206
1096.112183	-0.009970
1096.273535	-0.010595
1096.434869	-0.011226
1096.596184	-0.009405
1096.757482	-0.009507
1096.918761	-0.007924
1097.080021	-0.006297
1097.241264	-0.008064
1097.402488	-0.008778
1097.563694	-0.009541
1097.724882	-0.007179
1097.886052	-0.008335
1098.047203	-0.006156
1098.208336	-0.004787
1098.369451	-0.004482
1098.530548	-0.004675
1098.691627	-0.001948
1098.852687	-0.002278
1099.013729	-0.003114
1099.174753	-0.004211
1099.335758	-0.003943
1099.496746	-0.007321
1099.657715	-0.009526
1099.818666	-0.013256
1099.979599	-0.008967
1100.140513	-0.010190
1100.301409	-0.009693
1100.462287	-0.007188
1100.623147	-0.007495
1100.783989	-0.003865
1100.944812	-0.001148
1101.105617	0.001909
1101.266404	0.004184
1101.427173	0.000927
1101.587923	0.000493
1101.748656	0.000162
1101.909370	-0.000786
1102.070066	0.001786
1102.230743	-0.000500
1102.391403	0.000191
1102.552044	-0.005231
1102.712667	-0.003237
1102.873271	-0.005026
1103.033858	-0.002825
1103.194426	-0.001878
1103.354976	-0.001366
1103.515508	-0.001256
1103.676021	0.000092
1103.836517	-0.001095
1103.996994	0.002847
1104.157453	-0.000669
1104.317893	-0.000397
1104.478316	0.000545
1104.638720	-0.000199
1104.799106	-0.002427
1104.959474	-0.002002
1105.119823	-0.002592
1105.280155	0.000531
1105.440468	0.001121
1105.600763	0.001973
1105.761039	0.003929
1105.921298	0.001518
1106.081538	0.003465
1106.241760	0.008223
1106.401964	0.007528
1106.562149	0.007416
1106.722316	0.004756
1106.882465	0.002205
1107.042596	0.002123
1107.202709	0.001261
1107.362803	0.000714
1107.522879	-0.001692
1107.682937	-0.004221
1107.842977	-0.008721
1108.002999	-0.010071
1108.163002	-0.012292
1108.322987	-0.013046
1108.482954	-0.014367
1108.642902	-0.012633
1108.802833	-0.012118
1108.962745	-0.010525
1109.122639	-0.009408
1109.282515	-0.008839
1109.442372	-0.005399
1109.602211	-0.004856
1109.762032	-0.005637
1109.921835	-0.005467
1110.081620	-0.006688
1110.241386	-0.003166
1110.401134	-0.002564
1110.560864	-0.003076
1110.720576	-0.001433
1110.880269	-0.002581
1111.039945	-0.002287
1111.199602	0.001581
1111.359240	0.005415
1111.518861	0.006836
1111.678463	0.004780
1111.838047	0.005014
1111.997613	0.003742
1112.157161	0.005622
1112.316690	0.001889
1112.476202	0.001790
1112.635695	0.004106
1112.795169	0.003960
1112.954626	0.001711
1113.114064	0.001318
1113.273484	-0.000668
1113.432886	-0.000891
1113.592270	-0.002247
1113.751635	0.000307
1113.910983	0.002335
1114.070312	-0.002752
1114.229622	-0.004429
1114.388915	-0.006659
1114.548189	-0.006120
1114.707445	-0.006636
1114.866683	-0.006138
1115.025903	-0.006388
1115.185104	-0.007659
1115.344287	-0.012497
1115.503452	-0.010533
1115.662599	-0.011052
1115.821727	-0.010297
1115.980838	-0.011828
1116.139930	-0.013079
1116.299004	-0.011534
1116.458059	-0.009601
1116.617097	-0.007881
1116.776116	-0.002716
1116.935117	-0.003455
1117.094099	-0.001361
1117.253064	0.002546
1117.412010	0.004009
1117.570938	0.005001
1117.729848	-0.000178
1117.888740	-0.000730
1118.047613	-0.001070
1118.206468	-0.002269
1118.365305	-0.002673
1118.524124	-0.002473
1118.682924	-0.001219
1118.841707	-0.001123
1119.000471	0.002067
1119.159216	0.005472
1119.317944	0.005718
1119.476653	0.004860
1119.635344	0.007201
1119.794017	0.006981
1119.952672	0.006735
1120.111308	0.003260
1120.269927	-0.001973
1120.428527	-0.005238
1120.587108	-0.004835
1120.745672	-0.008465
1120.904217	-0.010689
1121.062744	-0.013367
1121.221253	-0.010820
1121.379744	-0.011213
1121.538216	-0.012623
1121.696671	-0.009877
1121.855107	-0.007420
1122.013524	-0.009459
1122.171924	-0.005819
1122.330305	-0.001743
1122.488668	-0.001529
1122.647013	-0.005408
1122.805340	-0.007401
1122.963648	-0.004903
1123.121938	-0.002367
1123.280210	-0.005725
1123.438464	0.000250
1123.596700	0.002168
1123.754917	0.001163
1123.913116	0.001709
1124.071297	0.005073
1124.229459	0.007420
1124.387604	0.003809
1124.545730	0.001902
1124.703838	0.002836
1124.861928	-0.003647
1125.019999	-0.005291
1125.178052	-0.004078
1125.336088	-0.006063
1125.494104	-0.007574
1125.652103	-0.007281
1125.810083	-0.004683
1125.968045	-0.005108
1126.125989	-0.001990
1126.283915	0.000969
1126.441823	0.000123
1126.599712	-0.003806
1126.757583	-0.002635
1126.915436	-0.003345
1127.073270	-0.004911
1127.231087	-0.002382
1127.388885	0.001719
1127.546665	0.002709
1127.704426	0.005057
1127.862170	0.004486
1128.019895	0.004960
1128.177602	0.005287
1128.335291	0.008441
1128.492961	0.008703
1128.650614	0.006477
1128.808248	0.004008
1128.965864	-0.003565
1129.123461	-0.005429
1129.281041	-0.006545
1129.438602	-0.005639
1129.596145	-0.003287
1129.753670	-0.002457
1129.911176	-0.003515
1130.068665	-0.005250
1130.226135	-0.005153
1130.383587	-0.000065
1130.541020	-0.006527
1130.698436	-0.003742
1130.855833	-0.002365
1131.013212	-0.004042
1131.170573	-0.005265
1131.327915	-0.005148
1131.485239	-0.004841
1131.642545	-0.003152
1131.799833	-0.005342
1131.957103	0.001176
1132.114354	0.002907
1132.271588	0.005425
1132.428803	0.004756
1132.585999	0.005053
1132.743178	0.010017
1132.900338	0.011400
1133.057480	0.008286
1133.214604	0.011824
1133.371710	0.009387
1133.528797	0.003710
1133.685866	0.002338
1133.842917	0.001249
1133.999950	-0.002316
1134.156964	-0.004798
1134.313960	-0.001962
1134.470938	-0.004906
1134.627898	-0.009394
1134.784840	-0.006517
1134.941763	-0.005365
1135.098668	-0.005647
1135.255555	-0.006008
1135.412424	-0.007846
1135.569274	-0.010632
1135.726107	-0.012913
1135.882921	-0.009014
1136.039716	-0.003905
1136.196494	-0.007980
1136.353253	-0.007396
1136.509995	-0.008377
1136.666717	-0.004323
1136.823422	-0.002059
1136.980109	-0.001732
1137.136777	-0.007426
1137.293427	-0.008618
1137.450059	-0.011089
1137.606672	-0.011510
1137.763267	-0.013978
1137.919844	-0.016711
1138.076403	-0.021167
1138.232944	-0.024720
1138.389466	-0.024127
1138.545971	-0.015331
1138.702457	-0.016583
1138.858924	-0.015228
1139.015374	-0.014266
1139.171805	-0.011826
1139.328218	-0.014202
1139.484613	-0.012593
1139.640990	-0.007241
1139.797348	-0.010330
1139.953688	-0.015345
1140.110010	-0.015326
1140.266314	-0.017619
1140.422600	-0.013159
1140.578867	-0.010915
1140.735116	-0.003337
1140.891347	-0.008063
1141.047559	-0.006707
1141.203754	0.003556
1141.359930	0.005648
1141.516088	0.002989
1141.672228	0.007560
1141.828349	0.005278
1141.984452	0.000038
1142.140537	-0.000756
1142.296604	0.003471
1142.452653	0.002509
1142.608683	-0.007014
1142.764695	-0.008907
1142.920689	0.000792
1143.076665	-0.005356
1143.232622	-0.006093
1143.388562	0.001063
1143.544483	0.003293
1143.700385	0.002344
1143.856270	0.003416
1144.012136	0.008909
1144.167985	0.014316
1144.323814	0.005396
1144.479626	0.006900
1144.635420	0.005393
1144.791195	0.002528
1144.946952	-0.000866
1145.102691	-0.001121
1145.258411	-0.006033
1145.414113	-0.011308
1145.569798	-0.015863
1145.725463	-0.015603
1145.881111	-0.017015
1146.036741	-0.014168
1146.192352	-0.011071
1146.347945	-0.012264
1146.503519	-0.014065
1146.659076	-0.006120
1146.814614	-0.003427
1146.970134	-0.005623
1147.125636	-0.004959
1147.281120	-0.000791
1147.436585	0.002625
1147.592032	-0.002416
1147.747461	-0.002939
1147.902872	0.000821
1148.058265	-0.002177
1148.213639	0.000643
1148.368995	0.000640
1148.524333	0.005284
1148.679653	0.003264
1148.834954	0.000060
1148.990237	0.003611
1149.145502	0.006601
1149.300749	0.006175
1149.455977	0.001751
1149.611188	-0.002370
1149.766380	-0.003178
1149.921553	-0.005397
1150.076709	-0.004625
1150.231846	-0.003942
1150.386966	-0.002844
1150.542066	-0.004617
1150.697149	-0.005151
1150.852214	-0.005501
1151.007260	0.000242
1151.162288	0.002057
1151.317298	-0.006184
1151.472289	-0.006671
1151.627263	-0.007556
1151.782218	-0.013710
1151.937155	-0.015863
1152.092073	-0.016283
1152.246974	-0.010041
1152.401856	-0.011592
1152.556720	-0.004504
1152.711566	0.005391
1152.866393	-0.001464
1153.021203	-0.000331
1153.175994	-0.000780
1153.330767	0.002564
1153.485521	0.006498
1153.640258	0.000602
1153.794976	-0.001353
1153.949676	-0.008513
1154.104358	-0.006227
1154.259021	0.002517
1154.413667	0.002077
1154.568294	-0.000304
1154.722903	0.000890
1154.877493	-0.001207
1155.032066	0.002166
1155.186620	-0.000186
1155.341156	0.000195
1155.495674	-0.007629
1155.650173	-0.002615
1155.804654	-0.006452
1155.959118	0.000424
1156.113562	0.001797
1156.267989	0.000241
1156.422397	-0.000581
1156.576788	-0.001941
1156.731160	-0.002999
1156.885513	0.000634
1157.039849	0.001315
1157.194166	0.001634
1157.348465	-0.002002
1157.502746	-0.007724
1157.657009	-0.008664
1157.811253	-0.015295
1157.965479	-0.012175
1158.119687	-0.007848
1158.273877	-0.010405
1158.428048	-0.019199
1158.582201	-0.017056
1158.736337	-0.013270
1158.890453	-0.009087
1159.044552	-0.005949
1159.198632	0.000387
1159.352694	0.003088
1159.506738	0.000463
1159.660764	0.003168
1159.814771	0.004917
1159.968761	0.002629
1160.122732	-0.001224
1160.276685	-0.000095
1160.430619	0.007500
1160.584535	0.012363
1160.738434	0.011494
1160.892313	0.008312
1161.046175	0.009663
1161.200019	0.010443
1161.353844	0.012229
1161.507651	0.012746
1161.661440	0.007375
1161.815210	-0.000881
1161.968962	-0.001973
1162.122697	-0.005340
1162.276412	-0.000974
1162.430110	-0.001347
1162.583789	-0.002175
1162.737451	-0.002635
1162.891094	-0.002350
1163.044718	-0.005276
1163.198325	-0.000927
1163.351913	-0.005030
1163.505483	-0.005904
1163.659035	-0.007495
1163.812569	-0.003847
1163.966084	-0.000384
1164.119581	0.002376
1164.273060	0.001945
1164.426521	0.006159
1164.579964	0.001601
1164.733388	0.007989
1164.886794	0.009207
1165.040182	0.010164
1165.193551	0.004103
1165.346903	0.002870
1165.500236	-0.002599
1165.653551	0.001953
1165.806848	0.001754
1165.960126	0.002040
1166.113386	-0.005837
1166.266628	-0.010621
1166.419852	-0.012764
1166.573058	-0.010830
1166.726245	-0.009719
1166.879414	-0.008124
1167.032565	-0.010516
1167.185698	-0.010282
1167.338812	-0.006564
1167.491909	-0.004181
1167.644987	0.002940
1167.798046	0.001126
1167.951088	0.002994
1168.104111	-0.007422
1168.257117	-0.009778
1168.410103	-0.011261
1168.563072	-0.012040
1168.716023	-0.017349
1168.868955	-0.021617
1169.021869	-0.032463
1169.174765	-0.027707
1169.327642	-0.033587
1169.480501	-0.028143
1169.633343	-0.026136
1169.786165	-0.031694
1169.938970	-0.028855
1170.091757	-0.028314
1170.244525	-0.026711
1170.397275	-0.018393
1170.550007	-0.017641
1170.702720	-0.013788
1170.855415	-0.012986
1171.008092	-0.015675
1171.160751	-0.012955
1171.313392	-0.018831
1171.466014	-0.010660
1171.618619	-0.040669
1171.771205	-0.040669
1171.923772	-0.040669
