sample name	sample
index	232
start time	 02-22-2021  11:06:37 AM


Wavelength (nm)	Absorbance
494.344910	-0.081259
494.563924	-0.081259
494.782919	-0.081259
495.001897	-0.095305
495.220856	0.010665
495.439797	0.012009
495.658719	0.022518
495.877624	-0.001498
496.096510	-0.012149
496.315378	-0.037985
496.534227	-0.052902
496.753059	-0.116327
496.971872	-0.127337
497.190667	-0.010973
497.409444	0.007622
497.628203	0.008396
497.846943	0.009688
498.065665	0.012217
498.284369	0.013166
498.503055	0.014164
498.721723	0.014230
498.940372	0.014922
499.159003	0.014361
499.377616	0.013148
499.596210	0.013461
499.814787	0.014261
500.033345	0.013620
500.251885	0.013295
500.470406	0.014103
500.688910	0.014258
500.907395	0.014364
501.125862	0.015142
501.344311	0.015435
501.562742	0.015686
501.781154	0.016159
501.999548	0.016237
502.217924	0.017013
502.436282	0.016053
502.654621	0.016813
502.872942	0.016336
503.091245	0.016511
503.309530	0.017582
503.527797	0.017418
503.746045	0.016834
503.964275	0.016733
504.182487	0.015805
504.400681	0.015966
504.618856	0.016036
504.837013	0.016270
505.055152	0.016378
505.273273	0.015941
505.491376	0.016260
505.709460	0.016918
505.927526	0.017469
506.145574	0.017867
506.363604	0.018211
506.581615	0.018258
506.799608	0.018271
507.017583	0.018015
507.235540	0.018201
507.453478	0.018241
507.671399	0.017967
507.889301	0.017878
508.107185	0.018148
508.325050	0.017547
508.542898	0.016262
508.760727	0.016266
508.978538	0.016110
509.196330	0.015999
509.414105	0.016533
509.631861	0.015942
509.849599	0.015858
510.067319	0.016477
510.285021	0.016390
510.502704	0.017484
510.720369	0.017537
510.938016	0.017620
511.155645	0.018174
511.373255	0.017703
511.590848	0.018076
511.808422	0.018222
512.025977	0.017778
512.243515	0.018038
512.461034	0.017951
512.678536	0.017938
512.896018	0.018317
513.113483	0.018384
513.330930	0.018487
513.548358	0.018527
513.765768	0.018539
513.983160	0.018806
514.200533	0.018817
514.417889	0.019326
514.635226	0.019815
514.852545	0.019701
515.069845	0.018674
515.287128	0.019117
515.504392	0.019656
515.721638	0.020072
515.938866	0.019767
516.156075	0.020217
516.373267	0.019747
516.590440	0.020117
516.807594	0.020560
517.024731	0.021077
517.241850	0.020989
517.458950	0.021387
517.676032	0.021887
517.893095	0.022436
518.110141	0.022942
518.327168	0.023327
518.544177	0.023067
518.761168	0.023323
518.978141	0.024021
519.195095	0.023939
519.412031	0.023869
519.628949	0.023694
519.845849	0.023645
520.062731	0.023639
520.279594	0.023893
520.496439	0.023642
520.713266	0.023597
520.930074	0.023599
521.146865	0.023976
521.363637	0.023616
521.580391	0.023298
521.797127	0.023345
522.013844	0.022979
522.230543	0.022732
522.447224	0.022770
522.663887	0.022952
522.880532	0.022948
523.097158	0.022977
523.313766	0.023291
523.530356	0.023863
523.746928	0.024203
523.963481	0.024739
524.180017	0.025192
524.396534	0.025547
524.613032	0.025801
524.829513	0.026457
525.045975	0.026452
525.262420	0.026745
525.478845	0.026992
525.695253	0.026778
525.911643	0.026744
526.128014	0.026830
526.344367	0.027616
526.560702	0.027345
526.777018	0.026805
526.993316	0.027295
527.209597	0.027302
527.425858	0.027007
527.642102	0.027405
527.858328	0.027410
528.074535	0.027583
528.290724	0.027081
528.506894	0.026896
528.723047	0.027083
528.939181	0.026995
529.155297	0.027158
529.371395	0.027643
529.587475	0.027345
529.803536	0.027592
530.019579	0.028163
530.235604	0.028265
530.451611	0.028327
530.667600	0.028721
530.883570	0.029270
531.099522	0.029608
531.315456	0.029344
531.531372	0.029700
531.747269	0.030022
531.963148	0.029534
532.179009	0.029774
532.394852	0.030579
532.610676	0.030662
532.826482	0.030464
533.042271	0.030091
533.258040	0.030270
533.473792	0.030538
533.689525	0.030651
533.905240	0.031207
534.120937	0.031318
534.336616	0.031431
534.552277	0.031502
534.767919	0.032210
534.983543	0.033022
535.199149	0.033340
535.414736	0.033388
535.630306	0.033402
535.845857	0.033441
536.061390	0.033449
536.276904	0.033309
536.492401	0.032797
536.707879	0.032569
536.923339	0.032445
537.138781	0.032338
537.354204	0.032549
537.569610	0.032633
537.784997	0.032753
538.000366	0.032974
538.215716	0.033302
538.431049	0.034267
538.646363	0.033830
538.861659	0.033946
539.076937	0.034371
539.292196	0.034877
539.507438	0.035220
539.722661	0.035684
539.937866	0.035764
540.153052	0.035490
540.368221	0.035317
540.583371	0.035633
540.798503	0.035715
541.013617	0.035600
541.228712	0.035734
541.443789	0.036281
541.658848	0.036006
541.873889	0.035962
542.088912	0.036482
542.303916	0.036516
542.518902	0.036935
542.733870	0.036888
542.948820	0.037297
543.163752	0.037202
543.378665	0.037235
543.593560	0.037215
543.808437	0.037903
544.023295	0.037995
544.238136	0.038346
544.452958	0.038383
544.667762	0.038879
544.882548	0.039199
545.097315	0.039477
545.312064	0.039243
545.526795	0.039354
545.741508	0.039360
545.956203	0.039684
546.170879	0.039620
546.385537	0.039706
546.600177	0.039601
546.814799	0.039495
547.029402	0.039448
547.243988	0.039567
547.458555	0.039949
547.673103	0.040352
547.887634	0.040422
548.102146	0.040718
548.316640	0.040825
548.531116	0.041070
548.745574	0.041416
548.960013	0.041388
549.174435	0.041595
549.388838	0.041948
549.603222	0.041812
549.817589	0.041794
550.031937	0.041729
550.246267	0.041818
550.460579	0.041841
550.674873	0.041768
550.889148	0.042248
551.103405	0.042314
551.317644	0.041902
551.531865	0.042047
551.746068	0.042121
551.960252	0.042227
552.174418	0.042419
552.388566	0.042460
552.602696	0.042504
552.816807	0.042171
553.030900	0.042212
553.244975	0.042683
553.459032	0.042760
553.673070	0.042830
553.887091	0.043062
554.101093	0.042949
554.315077	0.042951
554.529042	0.042731
554.742990	0.042797
554.956919	0.042989
555.170830	0.042987
555.384722	0.042678
555.598597	0.042966
555.812453	0.043374
556.026291	0.043455
556.240111	0.043661
556.453913	0.043920
556.667696	0.044189
556.881461	0.044225
557.095208	0.044332
557.308937	0.044599
557.522647	0.044355
557.736339	0.044196
557.950013	0.044479
558.163669	0.044844
558.377307	0.044855
558.590926	0.044910
558.804527	0.045405
559.018110	0.045595
559.231675	0.045879
559.445221	0.046299
559.658749	0.046810
559.872259	0.047028
560.085751	0.046894
560.299225	0.047336
560.512680	0.047559
560.726117	0.047366
560.939536	0.047360
561.152937	0.047899
561.366319	0.048071
561.579683	0.048019
561.793029	0.048008
562.006357	0.048132
562.219667	0.047994
562.432958	0.048285
562.646231	0.048054
562.859486	0.048259
563.072723	0.047652
563.285941	0.047640
563.499141	0.047383
563.712323	0.047502
563.925487	0.047541
564.138632	0.047744
564.351760	0.047576
564.564869	0.047865
564.777960	0.047452
564.991032	0.047844
565.204087	0.047692
565.417123	0.047623
565.630141	0.047780
565.843140	0.047791
566.056122	0.048055
566.269085	0.048022
566.482030	0.047842
566.694957	0.047889
566.907866	0.047840
567.120756	0.048122
567.333628	0.048259
567.546482	0.048096
567.759318	0.048509
567.972135	0.048380
568.184935	0.048649
568.397716	0.049350
568.610478	0.049683
568.823223	0.049483
569.035949	0.049696
569.248657	0.050089
569.461347	0.050190
569.674019	0.049928
569.886672	0.049920
570.099308	0.049710
570.311925	0.049493
570.524523	0.049715
570.737104	0.050154
570.949666	0.050027
571.162210	0.049819
571.374736	0.049753
571.587244	0.049967
571.799733	0.050026
572.012205	0.050412
572.224658	0.050583
572.437092	0.050720
572.649509	0.050851
572.861907	0.051092
573.074287	0.051434
573.286649	0.051807
573.498993	0.051827
573.711318	0.051935
573.923625	0.051949
574.135914	0.052124
574.348185	0.052156
574.560438	0.052092
574.772672	0.052305
574.984888	0.052153
575.197086	0.052028
575.409266	0.052115
575.621427	0.052373
575.833570	0.052391
576.045695	0.052246
576.257802	0.052345
576.469890	0.052587
576.681961	0.052347
576.894013	0.052433
577.106046	0.052546
577.318062	0.052553
577.530059	0.052174
577.742039	0.052413
577.954000	0.052383
578.165942	0.052335
578.377867	0.051936
578.589773	0.052157
578.801661	0.052509
579.013531	0.052891
579.225382	0.053149
579.437216	0.053720
579.649031	0.053455
579.860828	0.053628
580.072606	0.053825
580.284367	0.054413
580.496109	0.054422
580.707833	0.054072
580.919539	0.053916
581.131227	0.054253
581.342896	0.054540
581.554547	0.055069
581.766180	0.055485
581.977795	0.055250
582.189391	0.054991
582.400969	0.054948
582.612529	0.055286
582.824071	0.055872
583.035595	0.055889
583.247100	0.055851
583.458587	0.055819
583.670056	0.055503
583.881506	0.055889
584.092939	0.056322
584.304353	0.056822
584.515749	0.057175
584.727127	0.057244
584.938486	0.057420
585.149828	0.057542
585.361151	0.057600
585.572456	0.057957
585.783742	0.058032
585.995011	0.058083
586.206261	0.058292
586.417493	0.058532
586.628706	0.058208
586.839902	0.058276
587.051079	0.058317
587.262238	0.058590
587.473379	0.058742
587.684502	0.059186
587.895606	0.059237
588.106692	0.059394
588.317760	0.059072
588.528810	0.059420
588.739841	0.059429
588.950855	0.059508
589.161850	0.059470
589.372827	0.059526
589.583785	0.059277
589.794726	0.059339
590.005648	0.059069
590.216552	0.058984
590.427437	0.058676
590.638305	0.058646
590.849154	0.059051
591.059985	0.059085
591.270798	0.059460
591.481592	0.059787
591.692369	0.060198
591.903127	0.060309
592.113867	0.060811
592.324588	0.061192
592.535292	0.061480
592.745977	0.061186
592.956644	0.061724
593.167293	0.061420
593.377923	0.061598
593.588536	0.061561
593.799130	0.061671
594.009706	0.061532
594.220263	0.061746
594.430803	0.061480
594.641324	0.061541
594.851827	0.061057
595.062312	0.061063
595.272778	0.060983
595.483227	0.061522
595.693657	0.061683
595.904069	0.061795
596.114462	0.061640
596.324838	0.061817
596.535195	0.061908
596.745534	0.062139
596.955855	0.062372
597.166157	0.062507
597.376441	0.062292
597.586707	0.062446
597.796955	0.062829
598.007185	0.063355
598.217396	0.063621
598.427589	0.063862
598.637764	0.064169
598.847921	0.064089
599.058060	0.063992
599.268180	0.063807
599.478282	0.064041
599.688366	0.064150
599.898431	0.064170
600.108479	0.064308
600.318508	0.064191
600.528519	0.064059
600.738511	0.064519
600.948486	0.064421
601.158442	0.064816
601.368380	0.064839
601.578300	0.064861
601.788202	0.065033
601.998085	0.064969
602.207950	0.065293
602.417797	0.065365
602.627626	0.065094
602.837436	0.065602
603.047228	0.065329
603.257002	0.065277
603.466758	0.065348
603.676496	0.065162
603.886215	0.065343
604.095916	0.065492
604.305599	0.065773
604.515264	0.066248
604.724910	0.066199
604.934538	0.066465
605.144148	0.066462
605.353740	0.066600
605.563314	0.066768
605.772869	0.067139
605.982406	0.067226
606.191925	0.067351
606.401425	0.067245
606.610908	0.067301
606.820372	0.067324
607.029818	0.067513
607.239246	0.067452
607.448655	0.067618
607.658047	0.067353
607.867420	0.067194
608.076775	0.067190
608.286111	0.067283
608.495430	0.067401
608.704730	0.067343
608.914012	0.067495
609.123275	0.067798
609.332521	0.067757
609.541748	0.067897
609.750957	0.068118
609.960148	0.068177
610.169321	0.068164
610.378475	0.068238
610.587611	0.068533
610.796729	0.068706
611.005829	0.068698
611.214910	0.068811
611.423974	0.068878
611.633019	0.069025
611.842045	0.069232
612.051054	0.069632
612.260044	0.069948
612.469017	0.070036
612.677970	0.069995
612.886906	0.069876
613.095824	0.070091
613.304723	0.070250
613.513604	0.070382
613.722467	0.070440
613.931311	0.070334
614.140138	0.070364
614.348946	0.070488
614.557736	0.070477
614.766507	0.070813
614.975261	0.070621
615.183996	0.070689
615.392713	0.070847
615.601412	0.070892
615.810092	0.071179
616.018754	0.071088
616.227399	0.071266
616.436024	0.071164
616.644632	0.071168
616.853222	0.071313
617.061793	0.071369
617.270346	0.071317
617.478880	0.071203
617.687397	0.071101
617.895895	0.071146
618.104375	0.071294
618.312837	0.071626
618.521281	0.071673
618.729706	0.071894
618.938113	0.071975
619.146502	0.071878
619.354873	0.072162
619.563226	0.071968
619.771560	0.072074
619.979876	0.071941
620.188174	0.072012
620.396453	0.072039
620.604715	0.071965
620.812958	0.071904
621.021183	0.071884
621.229390	0.071932
621.437578	0.071934
621.645748	0.071818
621.853900	0.071908
622.062034	0.071902
622.270150	0.071859
622.478247	0.071967
622.686326	0.072178
622.894387	0.072409
623.102430	0.072449
623.310454	0.072798
623.518461	0.072827
623.726449	0.072949
623.934418	0.073380
624.142370	0.073458
624.350303	0.073457
624.558218	0.073368
624.766115	0.073235
624.973994	0.073333
625.181855	0.073246
625.389697	0.073672
625.597521	0.073729
625.805327	0.073541
626.013114	0.073827
626.220883	0.074071
626.428634	0.074353
626.636367	0.074706
626.844082	0.074633
627.051778	0.075009
627.259457	0.075104
627.467117	0.075148
627.674758	0.075046
627.882382	0.074982
628.089987	0.074896
628.297574	0.074947
628.505143	0.075101
628.712694	0.075412
628.920226	0.075519
629.127740	0.075528
629.335236	0.075673
629.542714	0.076114
629.750174	0.076275
629.957615	0.076502
630.165038	0.076621
630.372443	0.076500
630.579829	0.076600
630.787198	0.076765
630.994548	0.077022
631.201880	0.077107
631.409194	0.077065
631.616489	0.077153
631.823766	0.077039
632.031025	0.076947
632.238266	0.077228
632.445489	0.077071
632.652693	0.076786
632.859879	0.076913
633.067047	0.077038
633.274197	0.077058
633.481329	0.077266
633.688442	0.077437
633.895537	0.077609
634.102614	0.077623
634.309672	0.077918
634.516713	0.078118
634.723735	0.077894
634.930739	0.078107
635.137724	0.078079
635.344692	0.077995
635.551641	0.078183
635.758572	0.078270
635.965485	0.078348
636.172379	0.078425
636.379256	0.078678
636.586114	0.078966
636.792954	0.078773
636.999775	0.079102
637.206579	0.079059
637.413364	0.079161
637.620131	0.079170
637.826880	0.079488
638.033610	0.079721
638.240323	0.079818
638.447017	0.079859
638.653692	0.080170
638.860350	0.080142
639.066990	0.080478
639.273611	0.080365
639.480214	0.080560
639.686798	0.080480
639.893365	0.080512
640.099913	0.080461
640.306443	0.080486
640.512955	0.080470
640.719449	0.080590
640.925924	0.080500
641.132381	0.080799
641.338820	0.080924
641.545241	0.081039
641.751644	0.081301
641.958028	0.081523
642.164394	0.081473
642.370742	0.081315
642.577071	0.081499
642.783383	0.081735
642.989676	0.081831
643.195951	0.081837
643.402207	0.081856
643.608446	0.081796
643.814666	0.081661
644.020868	0.081904
644.227052	0.082271
644.433218	0.082157
644.639365	0.082278
644.845494	0.082177
645.051605	0.082095
645.257698	0.082156
645.463772	0.082207
645.669828	0.082411
645.875866	0.082491
646.081886	0.082596
646.287888	0.082785
646.493871	0.082830
646.699836	0.082982
646.905783	0.083021
647.111712	0.083286
647.317622	0.083252
647.523514	0.083536
647.729388	0.083659
647.935244	0.083693
648.141082	0.083806
648.346901	0.083878
648.552702	0.084181
648.758485	0.084560
648.964250	0.084707
649.169996	0.085005
649.375724	0.084993
649.581434	0.085089
649.787126	0.085286
649.992800	0.085343
650.198455	0.085493
650.404092	0.085418
650.609711	0.085352
650.815311	0.085236
651.020894	0.085076
651.226458	0.085007
651.432004	0.085309
651.637532	0.085188
651.843041	0.085325
652.048532	0.085310
652.254006	0.085310
652.459460	0.085422
652.664897	0.085558
652.870315	0.085549
653.075716	0.085725
653.281097	0.085520
653.486461	0.085549
653.691807	0.085619
653.897134	0.085555
654.102443	0.085907
654.307734	0.086072
654.513006	0.085991
654.718261	0.086190
654.923497	0.086353
655.128715	0.086630
655.333915	0.086957
655.539096	0.087234
655.744259	0.087524
655.949404	0.087618
656.154531	0.087530
656.359640	0.087862
656.564730	0.087985
656.769802	0.087854
656.974856	0.087952
657.179892	0.088048
657.384909	0.087897
657.589908	0.087983
657.794889	0.087943
657.999852	0.088403
658.204797	0.088660
658.409723	0.088788
658.614631	0.089028
658.819521	0.089129
659.024393	0.089122
659.229246	0.089273
659.434081	0.089459
659.638898	0.089566
659.843697	0.089556
660.048478	0.089372
660.253240	0.089632
660.457984	0.089852
660.662710	0.089803
660.867417	0.089991
661.072107	0.090035
661.276778	0.090022
661.481431	0.090196
661.686066	0.090326
661.890682	0.090544
662.095281	0.090672
662.299861	0.090794
662.504422	0.091078
662.708966	0.091392
662.913491	0.091501
663.117999	0.091656
663.322488	0.091698
663.526958	0.091887
663.731411	0.091938
663.935845	0.091922
664.140261	0.091877
664.344659	0.091852
664.549038	0.091624
664.753400	0.091884
664.957743	0.091908
665.162068	0.092091
665.366375	0.092086
665.570663	0.092135
665.774933	0.092214
665.979185	0.092416
666.183419	0.092594
666.387635	0.092685
666.591832	0.092727
666.796011	0.092911
667.000172	0.092934
667.204315	0.093068
667.408439	0.093408
667.612545	0.093510
667.816634	0.093399
668.020703	0.093560
668.224755	0.093563
668.428788	0.093636
668.632803	0.093914
668.836800	0.093997
669.040779	0.093915
669.244739	0.093783
669.448681	0.093911
669.652605	0.094135
669.856511	0.094081
670.060399	0.094392
670.264268	0.094346
670.468119	0.094279
670.671952	0.094386
670.875767	0.094628
671.079563	0.094834
671.283341	0.094982
671.487101	0.095103
671.690843	0.095213
671.894567	0.095313
672.098272	0.095698
672.301959	0.095893
672.505628	0.096060
672.709278	0.096308
672.912911	0.096517
673.116525	0.096510
673.320121	0.096594
673.523699	0.096799
673.727258	0.096886
673.930799	0.096793
674.134322	0.096867
674.337827	0.096861
674.541314	0.096754
674.744782	0.096676
674.948232	0.096956
675.151664	0.097262
675.355078	0.097286
675.558474	0.097549
675.761851	0.097775
675.965210	0.097739
676.168551	0.097851
676.371873	0.097962
676.575178	0.098135
676.778464	0.098101
676.981732	0.098019
677.184981	0.098080
677.388213	0.097911
677.591426	0.097972
677.794621	0.098190
677.997798	0.098201
678.200956	0.098286
678.404097	0.098327
678.607219	0.098480
678.810323	0.098569
679.013408	0.098569
679.216476	0.098686
679.419525	0.098679
679.622556	0.098698
679.825569	0.098972
680.028563	0.099319
680.231540	0.099347
680.434498	0.099457
680.637438	0.099431
680.840359	0.099629
681.043263	0.099903
681.246148	0.100254
681.449015	0.100406
681.651864	0.100313
681.854694	0.100279
682.057506	0.100369
682.260301	0.100406
682.463076	0.100568
682.665834	0.100807
682.868573	0.100720
683.071295	0.100473
683.273998	0.100601
683.476682	0.100909
683.679349	0.100923
683.881997	0.101138
684.084627	0.101157
684.287239	0.101272
684.489833	0.101185
684.692408	0.101406
684.894965	0.101508
685.097504	0.101713
685.300025	0.101818
685.502527	0.101930
685.705012	0.101856
685.907478	0.102056
686.109925	0.102077
686.312355	0.102061
686.514766	0.102117
686.717159	0.102412
686.919534	0.102303
687.121891	0.102179
687.324230	0.102286
687.526550	0.102389
687.728852	0.102316
687.931136	0.102426
688.133401	0.102659
688.335649	0.102838
688.537878	0.102923
688.740089	0.103216
688.942281	0.103372
689.144456	0.103378
689.346612	0.103668
689.548750	0.103979
689.750870	0.104193
689.952971	0.104149
690.155055	0.104210
690.357120	0.104142
690.559167	0.104040
690.761195	0.104279
690.963206	0.104425
691.165198	0.104343
691.367172	0.104239
691.569128	0.104127
691.771065	0.104293
691.972984	0.104299
692.174885	0.104461
692.376768	0.104541
692.578633	0.104528
692.780479	0.104658
692.982308	0.104936
693.184118	0.105270
693.385909	0.105537
693.587683	0.105636
693.789438	0.105781
693.991175	0.105916
694.192894	0.106054
694.394595	0.106162
694.596277	0.106113
694.797941	0.106030
694.999587	0.106007
695.201215	0.105946
695.402824	0.106156
695.604416	0.106199
695.805989	0.106217
696.007543	0.106353
696.209080	0.106381
696.410598	0.106665
696.612099	0.106762
696.813580	0.106709
697.015044	0.106911
697.216490	0.106939
697.417917	0.106925
697.619326	0.106888
697.820717	0.106900
698.022089	0.106989
698.223444	0.107076
698.424780	0.107146
698.626098	0.107341
698.827397	0.107370
699.028679	0.107381
699.229942	0.107425
699.431187	0.107555
699.632414	0.107530
699.833622	0.107506
700.034813	0.107511
700.235985	0.107591
700.437139	0.107587
700.638274	0.107666
700.839392	0.107761
701.040491	0.107976
701.241572	0.108165
701.442635	0.108253
701.643679	0.108474
701.844706	0.108412
702.045714	0.108285
702.246704	0.108265
702.447675	0.108344
702.648629	0.108190
702.849564	0.108154
703.050481	0.108245
703.251380	0.108389
703.452260	0.108384
703.653122	0.108393
703.853966	0.108586
704.054792	0.108586
704.255600	0.108579
704.456389	0.108749
704.657160	0.108799
704.857913	0.108642
705.058648	0.108652
705.259365	0.108526
705.460063	0.108522
705.660743	0.108714
705.861405	0.108743
706.062048	0.108804
706.262674	0.108832
706.463281	0.108809
706.663870	0.108771
706.864441	0.108756
707.064993	0.108847
707.265527	0.109050
707.466043	0.108976
707.666541	0.109115
707.867021	0.109159
708.067482	0.109258
708.267925	0.109463
708.468350	0.109548
708.668757	0.109600
708.869145	0.109714
709.069516	0.109726
709.269868	0.109566
709.470201	0.109608
709.670517	0.109422
709.870814	0.109494
710.071093	0.109256
710.271354	0.109409
710.471597	0.109345
710.671821	0.109383
710.872028	0.109298
711.072216	0.109460
711.272385	0.109432
711.472537	0.109401
711.672670	0.109411
711.872785	0.109615
712.072882	0.109536
712.272961	0.109425
712.473021	0.109470
712.673063	0.109354
712.873087	0.109333
713.073093	0.109428
713.273081	0.109455
713.473050	0.109161
713.673001	0.108935
713.872934	0.108981
714.072849	0.108977
714.272745	0.108902
714.472623	0.109160
714.672483	0.109319
714.872325	0.109365
715.072148	0.109473
715.271954	0.109664
715.471741	0.109701
715.671509	0.109697
715.871260	0.110040
716.070992	0.110067
716.270707	0.109921
716.470403	0.109724
716.670080	0.109600
716.869740	0.109589
717.069381	0.109506
717.269004	0.109775
717.468609	0.109906
717.668195	0.109813
717.867764	0.109845
718.067314	0.109894
718.266846	0.110050
718.466360	0.110059
718.665855	0.110102
718.865332	0.110037
719.064791	0.109728
719.264232	0.109568
719.463655	0.109497
719.663059	0.109257
719.862445	0.109127
720.061813	0.108933
720.261163	0.108813
720.460494	0.108934
720.659807	0.109193
720.859102	0.109212
721.058379	0.109189
721.257638	0.109216
721.456878	0.109415
721.656100	0.109348
721.855304	0.109411
722.054490	0.109566
722.253657	0.109235
722.452806	0.108903
722.651937	0.108850
722.851050	0.108726
723.050145	0.108572
723.249221	0.108558
723.448279	0.108649
723.647319	0.108415
723.846340	0.108152
724.045344	0.108116
724.244329	0.108182
724.443296	0.108097
724.642245	0.108122
724.841175	0.108215
725.040088	0.108010
725.238982	0.107902
725.437857	0.107985
725.636715	0.107912
725.835554	0.108008
726.034376	0.108048
726.233179	0.107933
726.431963	0.107809
726.630730	0.107481
726.829478	0.107527
727.028208	0.107417
727.226920	0.107283
727.425614	0.107290
727.624289	0.107342
727.822946	0.107175
728.021585	0.107338
728.220206	0.107259
728.418808	0.107329
728.617392	0.107193
728.815958	0.107158
729.014506	0.107200
729.213036	0.107224
729.411547	0.106955
729.610040	0.107041
729.808515	0.107167
730.006972	0.107366
730.205410	0.107282
730.403831	0.107291
730.602233	0.107408
730.800616	0.107361
730.998982	0.107334
731.197329	0.107446
731.395658	0.107370
731.593969	0.107128
731.792262	0.106840
731.990536	0.106867
732.188793	0.106906
732.387031	0.106825
732.585250	0.106952
732.783452	0.106704
732.981635	0.106527
733.179800	0.106541
733.377947	0.106555
733.576076	0.106718
733.774186	0.106722
733.972278	0.106527
734.170352	0.106678
734.368408	0.106404
734.566446	0.106480
734.764465	0.106613
734.962466	0.106407
735.160449	0.106403
735.358413	0.106232
735.556360	0.106057
735.754288	0.105888
735.952198	0.105579
736.150090	0.105757
736.347963	0.105855
736.545818	0.105741
736.743655	0.105898
736.941474	0.105790
737.139275	0.105671
737.337057	0.105495
737.534821	0.105639
737.732567	0.105470
737.930295	0.105057
738.128005	0.104766
738.325696	0.104592
738.523369	0.104351
738.721024	0.104104
738.918660	0.104068
739.116279	0.104084
739.313879	0.103901
739.511461	0.103782
739.709024	0.103865
739.906570	0.103928
740.104097	0.103986
740.301606	0.103919
740.499097	0.103831
740.696569	0.103874
740.894024	0.103890
741.091460	0.103751
741.288878	0.103632
741.486277	0.103419
741.683659	0.103264
741.881022	0.103067
742.078367	0.103064
742.275694	0.103140
742.473002	0.102921
742.670293	0.102910
742.867565	0.103046
743.064819	0.103126
743.262054	0.103175
743.459272	0.103162
743.656471	0.103169
743.853652	0.103145
744.050815	0.102947
744.247959	0.102922
744.445085	0.102743
744.642194	0.102619
744.839283	0.102789
745.036355	0.102596
745.233408	0.102583
745.430444	0.102585
745.627461	0.102458
745.824459	0.102596
746.021440	0.102726
746.218402	0.102549
746.415346	0.102352
746.612272	0.102229
746.809180	0.102150
747.006069	0.101882
747.202940	0.101682
747.399793	0.101557
747.596628	0.101364
747.793444	0.101176
747.990243	0.101051
748.187023	0.101136
748.383784	0.101088
748.580528	0.101312
748.777253	0.101336
748.973960	0.101268
749.170649	0.101214
749.367320	0.100982
749.563973	0.101001
749.760607	0.101028
749.957223	0.100845
750.153821	0.100487
750.350400	0.100354
750.546962	0.100192
750.743505	0.100059
750.940030	0.099691
751.136536	0.099821
751.333025	0.099472
751.529495	0.099457
751.725947	0.099335
751.922381	0.099400
752.118796	0.099109
752.315194	0.099101
752.511573	0.099138
752.707934	0.099225
752.904276	0.099065
753.100601	0.098919
753.296907	0.098687
753.493195	0.098695
753.689465	0.098524
753.885716	0.098497
754.081949	0.098444
754.278164	0.098286
754.474361	0.098186
754.670540	0.098011
754.866700	0.098317
755.062843	0.098447
755.258967	0.098318
755.455072	0.098146
755.651160	0.098096
755.847229	0.098038
756.043280	0.098046
756.239313	0.098004
756.435328	0.097998
756.631324	0.097891
756.827302	0.097832
757.023262	0.097619
757.219204	0.097625
757.415127	0.097600
757.611033	0.097395
757.806920	0.097180
758.002788	0.097106
758.198639	0.097014
758.394471	0.096745
758.590286	0.096489
758.786081	0.096562
758.981859	0.096654
759.177619	0.096669
759.373360	0.096832
759.569083	0.096970
759.764788	0.096915
759.960474	0.096804
760.156143	0.096727
760.351793	0.096806
760.547425	0.096673
760.743038	0.096657
760.938634	0.096342
761.134211	0.096163
761.329770	0.095803
761.525311	0.095626
761.720833	0.095665
761.916338	0.095540
762.111824	0.095462
762.307292	0.095300
762.502741	0.095112
762.698173	0.095093
762.893586	0.095014
763.088981	0.094958
763.284358	0.094984
763.479716	0.094850
763.675057	0.094838
763.870379	0.094657
764.065683	0.094904
764.260968	0.094482
764.456236	0.094545
764.651485	0.094525
764.846716	0.094662
765.041929	0.094519
765.237123	0.094485
765.432299	0.094370
765.627457	0.094434
765.822597	0.094211
766.017719	0.094371
766.212822	0.094379
766.407907	0.094290
766.602974	0.094276
766.798023	0.094482
766.993054	0.094603
767.188066	0.094572
767.383060	0.094533
767.578036	0.094564
767.772993	0.094596
767.967933	0.094488
768.162854	0.094492
768.357757	0.094670
768.552642	0.094576
768.747508	0.094415
768.942356	0.094401
769.137186	0.094326
769.331998	0.094037
769.526792	0.094156
769.721567	0.094075
769.916324	0.093895
770.111063	0.093367
770.305784	0.093306
770.500486	0.093195
770.695171	0.093273
770.889837	0.093120
771.084484	0.093147
771.279114	0.092902
771.473725	0.092823
771.668318	0.092762
771.862893	0.093012
772.057450	0.092838
772.251988	0.092688
772.446509	0.092549
772.641011	0.092588
772.835494	0.092724
773.029960	0.092731
773.224407	0.092817
773.418836	0.092819
773.613247	0.092661
773.807640	0.092553
774.002014	0.092426
774.196370	0.092297
774.390708	0.092235
774.585028	0.092058
774.779330	0.091925
774.973613	0.091753
775.167878	0.091764
775.362125	0.091712
775.556354	0.091687
775.750564	0.091904
775.944756	0.091969
776.138930	0.092041
776.333086	0.092119
776.527223	0.092220
776.721343	0.092260
776.915444	0.092190
777.109526	0.092238
777.303591	0.092273
777.497637	0.092172
777.691666	0.092040
777.885676	0.092062
778.079667	0.091908
778.273641	0.091969
778.467596	0.091947
778.661533	0.091840
778.855452	0.091786
779.049352	0.091845
779.243235	0.092017
779.437099	0.092150
779.630945	0.091986
779.824773	0.092049
780.018582	0.091868
780.212373	0.091780
780.406146	0.091678
780.599901	0.091521
780.793638	0.091348
780.987356	0.091226
781.181056	0.091263
781.374738	0.091040
781.568402	0.091109
781.762047	0.091097
781.955674	0.091019
782.149283	0.091191
782.342874	0.091175
782.536447	0.091425
782.730001	0.091331
782.923537	0.091291
783.117055	0.091562
783.310555	0.091378
783.504036	0.091502
783.697499	0.091693
783.890944	0.091833
784.084371	0.092018
784.277780	0.091833
784.471170	0.091884
784.664542	0.092015
784.857896	0.092196
785.051231	0.092516
785.244549	0.092652
785.437848	0.092609
785.631129	0.092496
785.824392	0.092485
786.017636	0.092483
786.210863	0.092492
786.404071	0.092408
786.597260	0.092271
786.790432	0.092410
786.983585	0.092414
787.176721	0.092513
787.369838	0.092672
787.562936	0.092649
787.756017	0.092809
787.949079	0.092827
788.142123	0.092777
788.335149	0.092782
788.528156	0.092453
788.721146	0.092385
788.914117	0.092255
789.107070	0.092068
789.300005	0.092108
789.492921	0.092178
789.685819	0.092254
789.878699	0.092201
790.071561	0.092293
790.264405	0.092341
790.457230	0.092239
790.650037	0.092169
790.842826	0.092254
791.035597	0.092417
791.228349	0.092325
791.421084	0.092087
791.613800	0.092131
791.806497	0.091967
791.999177	0.091983
792.191838	0.091929
792.384481	0.092018
792.577106	0.092185
792.769713	0.091883
792.962301	0.092071
793.154871	0.092423
793.347423	0.092510
793.539957	0.092579
793.732473	0.092778
793.924970	0.093082
794.117449	0.093170
794.309910	0.093038
794.502353	0.093336
794.694777	0.093237
794.887183	0.093159
795.079571	0.093094
795.271941	0.093290
795.464293	0.093241
795.656626	0.093122
795.848941	0.093231
796.041238	0.093450
796.233516	0.093289
796.425777	0.093422
796.618019	0.093645
796.810243	0.093878
797.002449	0.093903
797.194636	0.094030
797.386805	0.093997
797.578956	0.094089
797.771089	0.094109
797.963204	0.094419
798.155300	0.094571
798.347378	0.094638
798.539438	0.094570
798.731480	0.094541
798.923503	0.094694
799.115509	0.094945
799.307496	0.094830
799.499465	0.094939
799.691415	0.095172
799.883348	0.095169
800.075262	0.095072
800.267158	0.095357
800.459035	0.095564
800.650895	0.095459
800.842736	0.095605
801.034559	0.095860
801.226364	0.095877
801.418150	0.095614
801.609919	0.095737
801.801669	0.096016
801.993401	0.095852
802.185114	0.095927
802.376810	0.096144
802.568487	0.096028
802.760146	0.096194
802.951787	0.096327
803.143409	0.096576
803.335014	0.096695
803.526600	0.096718
803.718168	0.097032
803.909717	0.097079
804.101249	0.097012
804.292762	0.097246
804.484257	0.097137
804.675734	0.097106
804.867192	0.097246
805.058632	0.097175
805.250054	0.097379
805.441458	0.097329
805.632844	0.097409
805.824211	0.097504
806.015561	0.097574
806.206891	0.097749
806.398204	0.098184
806.589499	0.098111
806.780775	0.098179
806.972033	0.098200
807.163273	0.098285
807.354495	0.098427
807.545698	0.098491
807.736883	0.098625
807.928050	0.098760
808.119199	0.098727
808.310329	0.098899
808.501441	0.099256
808.692535	0.099351
808.883611	0.099546
809.074669	0.099831
809.265708	0.099884
809.456729	0.100013
809.647732	0.100248
809.838717	0.100320
810.029683	0.100670
810.220632	0.100690
810.411562	0.100831
810.602474	0.101015
810.793367	0.101108
810.984242	0.101577
811.175100	0.101731
811.365938	0.101662
811.556759	0.101818
811.747562	0.101760
811.938346	0.101930
812.129112	0.102189
812.319860	0.102406
812.510589	0.102436
812.701300	0.102596
812.891994	0.102893
813.082668	0.103231
813.273325	0.103411
813.463964	0.103716
813.654584	0.103918
813.845186	0.103869
814.035769	0.103974
814.226335	0.104256
814.416882	0.104300
814.607411	0.104234
814.797922	0.104394
814.988415	0.104410
815.178889	0.104416
815.369345	0.104647
815.559783	0.104860
815.750203	0.105006
815.940605	0.105130
816.130988	0.105168
816.321353	0.105199
816.511700	0.105249
816.702028	0.105328
816.892339	0.105525
817.082631	0.105372
817.272905	0.105661
817.463161	0.105711
817.653398	0.105767
817.843617	0.106199
818.033819	0.106319
818.224001	0.106621
818.414166	0.106921
818.604312	0.107009
818.794440	0.107187
818.984550	0.107047
819.174642	0.107293
819.364716	0.107466
819.554771	0.107246
819.744808	0.107797
819.934827	0.107857
820.124827	0.107852
820.314810	0.107948
820.504774	0.108179
820.694720	0.108634
820.884647	0.108782
821.074557	0.108858
821.264448	0.109225
821.454321	0.109168
821.644176	0.109057
821.834012	0.109402
822.023831	0.109629
822.213631	0.109736
822.403413	0.109702
822.593176	0.109743
822.782922	0.109885
822.972649	0.109990
823.162358	0.110279
823.352049	0.110846
823.541721	0.110776
823.731376	0.111009
823.921012	0.111176
824.110629	0.111305
824.300229	0.111355
824.489811	0.111636
824.679374	0.111824
824.868919	0.111973
825.058445	0.112123
825.247954	0.112383
825.437444	0.112553
825.626916	0.112600
825.816370	0.112855
826.005806	0.113003
826.195223	0.112957
826.384622	0.113120
826.574003	0.113081
826.763366	0.113110
826.952711	0.113276
827.142037	0.113430
827.331345	0.113724
827.520635	0.113814
827.709906	0.114041
827.899160	0.114565
828.088395	0.114696
828.277612	0.115048
828.466810	0.115312
828.655991	0.115402
828.845153	0.115474
829.034297	0.115558
829.223423	0.115582
829.412531	0.115777
829.601620	0.115887
829.790691	0.116177
829.979744	0.116179
830.168779	0.116275
830.357795	0.116710
830.546793	0.116942
830.735773	0.117241
830.924735	0.117677
831.113679	0.118230
831.302604	0.118257
831.491511	0.118205
831.680400	0.118572
831.869271	0.118868
832.058123	0.119078
832.246957	0.119292
832.435773	0.119649
832.624571	0.119695
832.813351	0.119857
833.002112	0.120010
833.190855	0.120701
833.379580	0.120884
833.568287	0.120994
833.756975	0.121066
833.945645	0.121232
834.134297	0.121488
834.322931	0.121997
834.511547	0.122075
834.700144	0.122412
834.888723	0.122366
835.077284	0.122556
835.265826	0.122803
835.454351	0.123137
835.642857	0.123295
835.831345	0.123379
836.019815	0.123456
836.208266	0.123460
836.396699	0.123734
836.585114	0.124074
836.773511	0.124158
836.961890	0.124392
837.150250	0.124625
837.338592	0.125005
837.526916	0.125312
837.715222	0.125479
837.903510	0.125876
838.091779	0.125989
838.280030	0.126001
838.468263	0.126512
838.656477	0.126579
838.844674	0.126695
839.032852	0.126982
839.221012	0.127271
839.409153	0.127419
839.597277	0.127470
839.785382	0.127631
839.973469	0.127727
840.161538	0.127510
840.349589	0.127941
840.537621	0.127834
840.725635	0.127791
840.913631	0.127636
841.101609	0.127858
841.289568	0.127962
841.477509	0.128053
841.665432	0.128288
841.853337	0.128596
842.041224	0.128697
842.229092	0.129082
842.416942	0.129186
842.604774	0.129278
842.792588	0.129638
842.980383	0.130095
843.168160	0.130621
843.355919	0.130870
843.543660	0.131134
843.731382	0.131209
843.919087	0.131428
844.106773	0.131693
844.294441	0.131955
844.482090	0.132156
844.669722	0.132353
844.857335	0.132459
845.044930	0.132588
845.232507	0.132847
845.420065	0.132929
845.607605	0.132983
845.795127	0.133116
845.982631	0.133132
846.170117	0.133127
846.357584	0.133295
846.545033	0.133470
846.732464	0.133686
846.919877	0.133727
847.107272	0.134019
847.294648	0.134453
847.482006	0.134672
847.669346	0.135114
847.856667	0.135323
848.043971	0.135393
848.231256	0.135598
848.418523	0.135920
848.605771	0.136383
848.793002	0.136732
848.980214	0.136978
849.167408	0.137294
849.354584	0.137978
849.541742	0.138572
849.728881	0.138865
849.916002	0.139155
850.103105	0.139502
850.290190	0.139788
850.477256	0.139925
850.664304	0.140189
850.851334	0.140764
851.038346	0.140536
851.225340	0.140625
851.412315	0.140848
851.599272	0.140922
851.786211	0.141027
851.973132	0.141086
852.160034	0.141383
852.346918	0.141647
852.533784	0.141605
852.720632	0.142002
852.907462	0.142136
853.094273	0.142262
853.281066	0.142433
853.467841	0.142556
853.654598	0.142710
853.841336	0.142908
854.028056	0.143042
854.214758	0.143227
854.401442	0.143371
854.588107	0.143340
854.774755	0.143936
854.961384	0.144482
855.147995	0.144730
855.334587	0.145165
855.521162	0.145360
855.707718	0.145472
855.894256	0.145680
856.080775	0.145847
856.267277	0.146410
856.453760	0.146455
856.640225	0.146646
856.826672	0.147020
857.013101	0.147233
857.199511	0.147436
857.385903	0.147868
857.572277	0.148226
857.758633	0.148766
857.944970	0.148928
858.131290	0.149178
858.317591	0.149197
858.503873	0.149156
858.690138	0.149398
858.876384	0.149629
859.062612	0.149706
859.248822	0.149918
859.435014	0.149914
859.621188	0.150048
859.807343	0.150176
859.993480	0.150318
860.179599	0.150760
860.365699	0.150728
860.551781	0.151128
860.737846	0.151649
860.923891	0.152008
861.109919	0.152223
861.295929	0.152524
861.481920	0.152806
861.667893	0.153004
861.853848	0.153111
862.039784	0.153430
862.225702	0.153320
862.411603	0.153080
862.597484	0.153114
862.783348	0.153227
862.969193	0.153529
863.155021	0.153621
863.340830	0.153598
863.526620	0.153646
863.712393	0.153985
863.898147	0.154639
864.083883	0.155074
864.269601	0.154988
864.455301	0.155007
864.640982	0.154992
864.826645	0.155264
865.012290	0.155752
865.197917	0.155996
865.383526	0.155885
865.569116	0.155530
865.754688	0.155759
865.940242	0.156137
866.125777	0.156580
866.311295	0.156844
866.496794	0.157046
866.682275	0.157287
866.867737	0.157581
867.053182	0.157906
867.238608	0.158435
867.424016	0.158568
867.609406	0.158777
867.794778	0.159210
867.980131	0.159244
868.165466	0.159143
868.350783	0.159497
868.536082	0.159725
868.721362	0.159969
868.906625	0.160001
869.091869	0.160395
869.277094	0.160484
869.462302	0.160554
869.647491	0.160783
869.832662	0.161158
870.017815	0.160679
870.202950	0.160593
870.388066	0.160865
870.573165	0.160955
870.758245	0.160748
870.943306	0.161000
871.128350	0.160933
871.313375	0.161064
871.498382	0.161170
871.683371	0.161790
871.868342	0.162151
872.053294	0.162049
872.238229	0.161955
872.423144	0.162295
872.608042	0.162347
872.792922	0.162482
872.977783	0.162356
873.162626	0.162626
873.347451	0.162620
873.532258	0.162955
873.717046	0.163241
873.901816	0.163624
874.086568	0.163581
874.271302	0.163904
874.456017	0.164223
874.640715	0.164668
874.825394	0.164509
875.010055	0.164543
875.194697	0.164374
875.379322	0.164422
875.563928	0.164683
875.748516	0.164727
875.933085	0.164696
876.117637	0.164632
876.302170	0.164699
876.486685	0.164805
876.671182	0.164806
876.855661	0.164769
877.040121	0.165034
877.224563	0.165007
877.408987	0.165145
877.593393	0.165127
877.777780	0.165364
877.962150	0.165252
878.146501	0.165466
878.330833	0.165738
878.515148	0.166153
878.699444	0.166083
878.883722	0.166304
879.067982	0.166420
879.252224	0.166343
879.436447	0.166040
879.620653	0.166117
879.804840	0.166188
879.989008	0.166207
880.173159	0.165785
880.357291	0.165821
880.541405	0.165579
880.725501	0.165448
880.909579	0.165720
881.093638	0.166151
881.277680	0.166303
881.461703	0.166541
881.645707	0.166523
881.829694	0.166904
882.013662	0.167110
882.197612	0.167542
882.381544	0.167884
882.565458	0.167889
882.749353	0.168084
882.933230	0.168243
883.117089	0.168196
883.300930	0.168594
883.484753	0.169009
883.668557	0.168896
883.852343	0.168871
884.036111	0.168836
884.219861	0.169054
884.403592	0.168774
884.587305	0.168962
884.771000	0.168886
884.954677	0.168850
885.138335	0.168281
885.321976	0.168301
885.505598	0.168444
885.689201	0.168269
885.872787	0.168422
886.056354	0.168827
886.239904	0.168720
886.423434	0.168780
886.606947	0.168559
886.790442	0.168737
886.973918	0.168760
887.157376	0.168517
887.340816	0.168764
887.524237	0.168473
887.707641	0.168183
887.891026	0.168131
888.074393	0.168252
888.257741	0.168303
888.441072	0.168391
888.624384	0.168494
888.807678	0.168805
888.990954	0.168723
889.174211	0.168941
889.357451	0.168920
889.540672	0.168954
889.723875	0.168915
889.907059	0.169468
890.090226	0.169591
890.273374	0.169386
890.456504	0.168969
890.639616	0.168966
890.822709	0.169054
891.005785	0.169278
891.188842	0.169230
891.371881	0.169096
891.554901	0.168631
891.737904	0.168781
891.920888	0.168809
892.103854	0.168805
892.286802	0.168765
892.469731	0.168463
892.652643	0.168323
892.835536	0.168176
893.018410	0.168146
893.201267	0.168187
893.384106	0.167820
893.566926	0.167749
893.749728	0.167615
893.932511	0.167622
894.115277	0.167611
894.298024	0.167600
894.480753	0.167921
894.663464	0.167805
894.846157	0.167524
895.028831	0.167681
895.211487	0.167688
895.394125	0.167637
895.576745	0.167706
895.759346	0.167521
895.941930	0.167670
896.124495	0.167378
896.307041	0.167262
896.489570	0.167375
896.672080	0.167463
896.854573	0.167266
897.037046	0.167285
897.219502	0.167226
897.401940	0.167087
897.584359	0.166754
897.766760	0.166516
897.949143	0.166741
898.131507	0.166250
898.313854	0.165329
898.496182	0.165236
898.678492	0.165345
898.860783	0.165201
899.043057	0.165091
899.225312	0.164863
899.407549	0.164845
899.589768	0.165022
899.771968	0.165271
899.954151	0.165541
900.136315	0.165414
900.318461	0.165201
900.500588	0.165089
900.682698	0.165144
900.864789	0.165244
901.046862	0.164868
901.228917	0.164515
901.410953	0.164151
901.592971	0.164100
901.774972	0.163954
901.956953	0.163889
902.138917	0.163628
902.320862	0.163484
902.502790	0.163257
902.684699	0.163495
902.866589	0.162973
903.048462	0.163024
903.230316	0.162939
903.412152	0.163004
903.593970	0.162742
903.775770	0.162306
903.957551	0.162109
904.139314	0.161687
904.321059	0.161539
904.502786	0.161290
904.684494	0.161506
904.866185	0.161360
905.047857	0.160666
905.229510	0.160587
905.411146	0.160806
905.592763	0.160806
905.774363	0.160797
905.955943	0.160338
906.137506	0.160498
906.319051	0.159716
906.500577	0.159083
906.682085	0.159410
906.863575	0.159252
907.045046	0.158532
907.226500	0.158098
907.407935	0.157478
907.589352	0.157526
907.770750	0.157504
907.952131	0.157686
908.133493	0.157786
908.314837	0.157572
908.496163	0.157150
908.677470	0.157320
908.858760	0.157180
909.040031	0.157491
909.221284	0.156810
909.402518	0.156170
909.583735	0.155863
909.764933	0.155718
909.946113	0.155401
910.127275	0.155035
910.308418	0.154575
910.489544	0.154548
910.670651	0.154173
910.851740	0.154184
911.032810	0.154156
911.213863	0.153712
911.394897	0.153448
911.575913	0.153107
911.756911	0.153049
911.937890	0.153248
912.118851	0.152987
912.299794	0.152806
912.480719	0.153013
912.661626	0.152574
912.842514	0.151887
913.023384	0.151418
913.204236	0.150994
913.385070	0.150291
913.565886	0.149729
913.746683	0.149146
913.927462	0.148635
914.108223	0.147858
914.288965	0.147059
914.469690	0.147027
914.650396	0.146511
914.831084	0.146259
915.011754	0.146289
915.192405	0.146071
915.373038	0.145594
915.553653	0.145284
915.734250	0.144989
915.914829	0.145164
916.095389	0.145110
916.275931	0.144938
916.456455	0.144872
916.636961	0.144667
916.817448	0.144487
916.997917	0.144133
917.178368	0.143553
917.358801	0.143055
917.539216	0.142479
917.719612	0.142128
917.899990	0.141831
918.080350	0.141325
918.260692	0.140724
918.441015	0.139725
918.621320	0.139331
918.801607	0.139385
918.981876	0.139384
919.162127	0.139420
919.342359	0.139430
919.522573	0.139425
919.702769	0.139141
919.882947	0.138704
920.063106	0.138538
920.243247	0.138058
920.423370	0.137561
920.603475	0.136694
920.783562	0.135920
920.963630	0.134981
921.143680	0.134350
921.323712	0.134375
921.503725	0.133835
921.683721	0.133956
921.863698	0.133928
922.043657	0.133731
922.223598	0.133964
922.403520	0.133915
922.583424	0.133839
922.763311	0.133720
922.943178	0.132947
923.123028	0.133040
923.302859	0.132000
923.482673	0.132183
923.662467	0.131335
923.842244	0.130525
924.022003	0.130247
924.201743	0.129615
924.381465	0.128739
924.561169	0.128080
924.740854	0.127486
924.920522	0.127456
925.100171	0.126506
925.279802	0.126318
925.459414	0.125979
925.639009	0.125512
925.818585	0.124803
925.998143	0.124696
926.177683	0.124085
926.357205	0.123691
926.536708	0.123645
926.716193	0.123464
926.895660	0.122673
927.075109	0.122520
927.254539	0.122041
927.433951	0.121601
927.613345	0.121014
927.792721	0.120704
927.972079	0.120154
928.151418	0.119004
928.330739	0.117946
928.510042	0.117607
928.689327	0.116438
928.868593	0.115817
929.047841	0.115146
929.227071	0.114731
929.406283	0.114311
929.585476	0.114105
929.764652	0.113612
929.943809	0.113426
930.122948	0.113175
930.302068	0.112989
930.481171	0.112143
930.660255	0.111979
930.839321	0.111151
931.018369	0.110644
931.197398	0.109961
931.376409	0.109535
931.555402	0.108763
931.734377	0.108217
931.913334	0.107604
932.092272	0.107519
932.271192	0.106883
932.450094	0.106492
932.628978	0.105744
932.807844	0.105020
932.986691	0.104559
933.165520	0.104519
933.344331	0.103856
933.523123	0.103392
933.701898	0.103449
933.880654	0.103727
934.059392	0.103185
934.238111	0.102730
934.416813	0.102276
934.595496	0.101210
934.774161	0.099854
934.952808	0.099864
935.131437	0.099753
935.310047	0.098084
935.488639	0.097235
935.667213	0.096670
935.845769	0.096081
936.024306	0.095258
936.202825	0.095251
936.381326	0.095198
936.559809	0.093797
936.738274	0.092550
936.916720	0.092475
937.095148	0.091917
937.273558	0.091122
937.451950	0.090118
937.630323	0.089554
937.808678	0.088593
937.987015	0.087823
938.165334	0.088010
938.343635	0.088275
938.521917	0.087832
938.700181	0.086853
938.878427	0.086370
939.056655	0.086932
939.234864	0.086659
939.413055	0.086563
939.591228	0.086074
939.769383	0.084670
939.947519	0.083603
940.125638	0.082739
940.303738	0.081949
940.481820	0.081253
940.659883	0.080421
940.837929	0.080176
941.015956	0.079513
941.193965	0.079160
941.371955	0.078449
941.549928	0.077853
941.727882	0.077192
941.905818	0.076866
942.083736	0.075424
942.261636	0.074414
942.439517	0.073808
942.617380	0.073414
942.795225	0.072070
942.973052	0.072061
943.150860	0.071712
943.328651	0.070848
943.506423	0.070553
943.684176	0.071684
943.861912	0.070676
944.039629	0.069583
944.217328	0.069270
944.395009	0.069951
944.572672	0.070091
944.750317	0.068835
944.927943	0.068184
945.105551	0.066482
945.283141	0.065092
945.460712	0.064434
945.638265	0.062595
945.815801	0.061241
945.993317	0.059474
946.170816	0.057986
946.348297	0.057576
946.525759	0.057617
946.703203	0.057715
946.880629	0.056965
947.058036	0.056845
947.235425	0.058354
947.412797	0.056875
947.590149	0.056692
947.767484	0.055546
947.944800	0.054541
948.122099	0.053531
948.299379	0.052668
948.476640	0.052303
948.653884	0.051055
948.831109	0.049354
949.008316	0.049819
949.185505	0.049995
949.362676	0.049652
949.539828	0.049221
949.716962	0.047693
949.894078	0.047493
950.071176	0.046602
950.248256	0.045323
950.425317	0.044306
950.602360	0.044811
950.779385	0.043159
950.956391	0.042512
951.133380	0.042894
951.310350	0.044239
951.487302	0.044317
951.664235	0.043797
951.841151	0.044371
952.018048	0.043442
952.194927	0.042239
952.371788	0.041713
952.548631	0.041917
952.725455	0.041133
952.902261	0.039190
953.079049	0.036039
953.255819	0.035718
953.432570	0.035618
953.609303	0.034624
953.786018	0.033268
953.962715	0.033429
954.139394	0.031989
954.316054	0.031507
954.492696	0.030168
954.669320	0.030001
954.845926	0.028739
955.022513	0.028180
955.199083	0.030633
955.375634	0.029512
955.552166	0.028061
955.728681	0.027389
955.905177	0.026053
956.081655	0.026729
956.258115	0.029720
956.434557	0.031542
956.610980	0.031085
956.787385	0.029404
956.963772	0.031194
957.140141	0.030522
957.316492	0.032302
957.492824	0.032582
957.669138	0.033562
957.845434	0.029530
958.021712	0.028215
958.197971	0.027122
958.374212	0.027101
958.550435	0.024805
958.726640	0.023677
958.902826	0.021249
959.078995	0.019521
959.255145	0.018896
959.431277	0.018721
959.607390	0.017309
959.783486	0.017538
959.959563	0.016130
960.135622	0.016912
960.311662	0.018184
960.487685	0.018661
960.663689	0.020262
960.839675	0.018716
961.015643	0.018775
961.191593	0.018282
961.367524	0.017239
961.543437	0.018017
961.719332	0.017389
961.895209	0.016773
962.071067	0.015451
962.246907	0.013614
962.422730	0.012714
962.598533	0.012883
962.774319	0.013299
962.950086	0.014815
963.125835	0.015500
963.301566	0.015639
963.477279	0.015936
963.652973	0.017141
963.828650	0.017977
964.004308	0.020135
964.179947	0.020188
964.355569	0.020769
964.531172	0.018931
964.706757	0.017708
964.882324	0.016705
965.057873	0.015266
965.233403	0.014510
965.408916	0.013020
965.584410	0.010124
965.759885	0.010242
965.935343	0.008935
966.110782	0.009979
966.286203	0.008152
966.461606	0.009641
966.636991	0.011333
966.812357	0.011427
966.987705	0.012691
967.163035	0.014239
967.338347	0.014522
967.513641	0.015340
967.688916	0.015411
967.864173	0.017833
968.039412	0.015744
968.214632	0.015611
968.389835	0.014555
968.565019	0.013182
968.740185	0.012540
968.915333	0.013902
969.090462	0.013444
969.265573	0.012943
969.440667	0.012135
969.615741	0.013388
969.790798	0.012020
969.965836	0.014664
970.140856	0.016111
970.315858	0.017105
970.490842	0.013594
970.665808	0.013958
970.840755	0.014626
971.015684	0.015040
971.190595	0.014621
971.365487	0.014460
971.540362	0.013756
971.715218	0.013084
971.890056	0.011078
972.064875	0.012440
972.239677	0.013512
972.414460	0.011878
972.589225	0.010669
972.763972	0.011110
972.938700	0.013169
973.113411	0.011884
973.288103	0.011934
973.462777	0.013285
973.637432	0.014283
973.812070	0.015285
973.986689	0.014518
974.161290	0.016365
974.335873	0.016123
974.510437	0.015851
974.684984	0.017437
974.859512	0.017695
975.034022	0.017274
975.208513	0.017548
975.382987	0.014460
975.557442	0.015350
975.731879	0.012717
975.906298	0.012244
976.080698	0.009931
976.255080	0.008427
976.429445	0.008110
976.603790	0.007143
976.778118	0.006207
976.952427	0.007574
977.126719	0.008515
977.300992	0.010845
977.475246	0.010052
977.649483	0.011434
977.823701	0.011437
977.997901	0.010874
978.172083	0.011282
978.346247	0.011076
978.520392	0.010603
978.694519	0.011914
978.868628	0.010934
979.042719	0.011224
979.216791	0.011321
979.390845	0.012519
979.564882	0.014505
979.738899	0.017523
979.912899	0.017437
980.086880	0.017509
980.260843	0.016474
980.434788	0.016734
980.608715	0.017572
980.782623	0.018212
980.956514	0.017803
981.130386	0.016468
981.304240	0.013737
981.478075	0.013756
981.651892	0.014470
981.825692	0.014681
981.999472	0.015753
982.173235	0.014246
982.346980	0.014563
982.520706	0.013688
982.694414	0.013129
982.868104	0.013031
983.041775	0.013495
983.215428	0.012399
983.389064	0.011341
983.562680	0.011885
983.736279	0.012724
983.909860	0.012542
984.083422	0.011428
984.256966	0.011420
984.430491	0.011492
984.603999	0.011066
984.777488	0.011081
984.950959	0.011790
985.124412	0.011011
985.297847	0.010834
985.471263	0.010887
985.644661	0.011580
985.818041	0.011128
985.991403	0.011941
986.164747	0.011822
986.338072	0.012051
986.511379	0.009749
986.684668	0.007559
986.857938	0.008321
987.031191	0.007579
987.204425	0.008152
987.377641	0.009657
987.550839	0.009995
987.724018	0.009151
987.897179	0.007999
988.070322	0.010629
988.243447	0.011750
988.416554	0.010716
988.589642	0.010770
988.762712	0.009496
988.935764	0.007512
989.108798	0.007764
989.281813	0.009930
989.454811	0.010349
989.627790	0.008812
989.800751	0.009373
989.973693	0.010195
990.146617	0.009441
990.319524	0.009820
990.492412	0.010568
990.665281	0.010582
990.838133	0.011120
991.010966	0.011313
991.183781	0.012790
991.356578	0.012309
991.529356	0.012174
991.702117	0.011572
991.874859	0.011617
992.047583	0.011187
992.220288	0.010855
992.392976	0.008504
992.565645	0.008041
992.738296	0.006560
992.910929	0.006076
993.083543	0.006492
993.256139	0.007688
993.428718	0.007883
993.601277	0.008335
993.773819	0.008300
993.946342	0.008238
994.118848	0.009442
994.291335	0.010269
994.463803	0.010121
994.636254	0.009768
994.808686	0.010524
994.981100	0.012213
995.153496	0.011712
995.325874	0.009914
995.498233	0.011477
995.670574	0.012134
995.842897	0.012826
996.015202	0.013599
996.187488	0.012786
996.359757	0.013143
996.532007	0.012769
996.704239	0.012948
996.876452	0.015226
997.048648	0.015094
997.220825	0.015098
997.392984	0.015085
997.565124	0.016867
997.737247	0.017521
997.909351	0.016736
998.081437	0.016200
998.253505	0.017235
998.425554	0.016429
998.597586	0.016985
998.769599	0.016452
998.941594	0.015726
999.113571	0.014463
999.285529	0.015331
999.457469	0.014851
999.629391	0.014508
999.801295	0.013278
999.973181	0.014102
1000.145048	0.012268
1000.316897	0.012408
1000.488728	0.013401
1000.660541	0.012434
1000.832335	0.011399
1001.004111	0.012004
1001.175869	0.013062
1001.347609	0.013288
1001.519331	0.013151
1001.691034	0.013784
1001.862719	0.012315
1002.034386	0.010284
1002.206035	0.011056
1002.377665	0.011635
1002.549277	0.012031
1002.720871	0.011880
1002.892447	0.013266
1003.064004	0.010819
1003.235544	0.010362
1003.407065	0.011812
1003.578568	0.011917
1003.750052	0.012468
1003.921519	0.013162
1004.092967	0.013304
1004.264397	0.012958
1004.435809	0.012281
1004.607202	0.013802
1004.778577	0.014441
1004.949934	0.015399
1005.121273	0.016398
1005.292594	0.015814
1005.463896	0.015201
1005.635180	0.015302
1005.806446	0.013756
1005.977694	0.014688
1006.148923	0.014190
1006.320135	0.013313
1006.491328	0.012113
1006.662503	0.011868
1006.833659	0.012954
1007.004798	0.012445
1007.175918	0.011234
1007.347020	0.012046
1007.518103	0.011864
1007.689169	0.013392
1007.860216	0.014739
1008.031245	0.014719
1008.202256	0.015357
1008.373248	0.015558
1008.544223	0.016748
1008.715179	0.017717
1008.886117	0.018634
1009.057036	0.018926
1009.227938	0.017160
1009.398821	0.016516
1009.569686	0.015703
1009.740533	0.015434
1009.911361	0.014766
1010.082172	0.013967
1010.252964	0.013132
1010.423738	0.013126
1010.594493	0.011191
1010.765231	0.012086
1010.935950	0.011314
1011.106651	0.011326
1011.277334	0.010963
1011.447998	0.009648
1011.618645	0.010724
1011.789273	0.012137
1011.959882	0.011917
1012.130474	0.013426
1012.301048	0.013506
1012.471603	0.014669
1012.642140	0.015877
1012.812658	0.016096
1012.983159	0.016524
1013.153641	0.015174
1013.324105	0.014608
1013.494551	0.013224
1013.664979	0.012273
1013.835388	0.011340
1014.005779	0.012046
1014.176152	0.010943
1014.346507	0.012519
1014.516843	0.012487
1014.687162	0.013948
1014.857462	0.014883
1015.027744	0.016271
1015.198007	0.016338
1015.368252	0.016460
1015.538480	0.015822
1015.708689	0.016621
1015.878879	0.015592
1016.049052	0.015195
1016.219206	0.015563
1016.389342	0.013271
1016.559460	0.012188
1016.729559	0.011509
1016.899641	0.012452
1017.069704	0.011609
1017.239749	0.010565
1017.409775	0.010062
1017.579784	0.011596
1017.749774	0.010642
1017.919746	0.011763
1018.089700	0.012968
1018.259635	0.014154
1018.429553	0.014549
1018.599452	0.015752
1018.769333	0.016240
1018.939195	0.016303
1019.109040	0.014954
1019.278866	0.014978
1019.448674	0.014766
1019.618464	0.014865
1019.788235	0.014965
1019.957989	0.014316
1020.127724	0.014316
1020.297441	0.014340
1020.467139	0.014024
1020.636820	0.013812
1020.806482	0.014190
1020.976126	0.013089
1021.145752	0.013307
1021.315359	0.013317
1021.484948	0.012733
1021.654519	0.012045
1021.824072	0.011777
1021.993607	0.011719
1022.163123	0.010964
1022.332621	0.010330
1022.502101	0.012002
1022.671563	0.010188
1022.841007	0.009641
1023.010432	0.009260
1023.179839	0.009459
1023.349228	0.010703
1023.518598	0.009897
1023.687951	0.011384
1023.857285	0.010704
1024.026601	0.010155
1024.195899	0.011847
1024.365178	0.012236
1024.534439	0.011916
1024.703682	0.011211
1024.872907	0.011291
1025.042114	0.011760
1025.211302	0.010424
1025.380472	0.010693
1025.549624	0.011720
1025.718758	0.012392
1025.887873	0.011820
1026.056970	0.012551
1026.226049	0.013630
1026.395110	0.012161
1026.564153	0.011639
1026.733177	0.014067
1026.902183	0.014430
1027.071171	0.013038
1027.240141	0.012029
1027.409092	0.012859
1027.578026	0.014045
1027.746940	0.013201
1027.915837	0.013200
1028.084716	0.013838
1028.253576	0.012895
1028.422418	0.011986
1028.591242	0.012611
1028.760048	0.012085
1028.928835	0.011781
1029.097604	0.011180
1029.266355	0.011402
1029.435088	0.012333
1029.603803	0.013594
1029.772499	0.013879
1029.941177	0.015401
1030.109837	0.015834
1030.278478	0.015907
1030.447102	0.016647
1030.615707	0.016435
1030.784294	0.017793
1030.952863	0.017027
1031.121413	0.016039
1031.289945	0.015255
1031.458460	0.013634
1031.626955	0.013160
1031.795433	0.013959
1031.963892	0.012111
1032.132334	0.012927
1032.300756	0.010854
1032.469161	0.011877
1032.637548	0.013538
1032.805916	0.013358
1032.974266	0.014537
1033.142598	0.015400
1033.310911	0.014056
1033.479207	0.014981
1033.647484	0.015213
1033.815743	0.015708
1033.983983	0.016083
1034.152206	0.015072
1034.320410	0.015907
1034.488596	0.015985
1034.656764	0.015122
1034.824914	0.015697
1034.993045	0.014989
1035.161158	0.014739
1035.329253	0.016553
1035.497330	0.015276
1035.665388	0.014306
1035.833428	0.014006
1036.001450	0.014211
1036.169454	0.014063
1036.337440	0.014176
1036.505407	0.015740
1036.673356	0.016245
1036.841287	0.015814
1037.009200	0.016196
1037.177094	0.016489
1037.344970	0.016511
1037.512828	0.015823
1037.680668	0.015692
1037.848489	0.014537
1038.016293	0.014893
1038.184078	0.014631
1038.351845	0.014097
1038.519593	0.014334
1038.687324	0.013444
1038.855036	0.013078
1039.022730	0.012637
1039.190406	0.012763
1039.358063	0.014750
1039.525702	0.012831
1039.693323	0.011207
1039.860926	0.010611
1040.028511	0.012295
1040.196077	0.014655
1040.363625	0.013544
1040.531155	0.013105
1040.698667	0.012730
1040.866161	0.010942
1041.033636	0.012088
1041.201093	0.013620
1041.368532	0.012918
1041.535952	0.010279
1041.703355	0.009753
1041.870739	0.011996
1042.038105	0.013244
1042.205452	0.013764
1042.372782	0.014133
1042.540093	0.012977
1042.707386	0.012205
1042.874661	0.015839
1043.041918	0.016888
1043.209156	0.017271
1043.376376	0.014991
1043.543578	0.014301
1043.710762	0.014960
1043.877927	0.015787
1044.045074	0.016132
1044.212203	0.015284
1044.379314	0.012333
1044.546407	0.013149
1044.713481	0.012062
1044.880537	0.013376
1045.047575	0.012732
1045.214595	0.012447
1045.381596	0.011998
1045.548579	0.013724
1045.715544	0.014064
1045.882491	0.014832
1046.049420	0.014315
1046.216330	0.015396
1046.383222	0.015407
1046.550096	0.015490
1046.716951	0.015499
1046.883789	0.016070
1047.050608	0.016006
1047.217409	0.016878
1047.384192	0.017067
1047.550956	0.016921
1047.717703	0.017552
1047.884431	0.017838
1048.051140	0.018049
1048.217832	0.017531
1048.384505	0.018282
1048.551161	0.017852
1048.717798	0.017825
1048.884416	0.017851
1049.051017	0.017292
1049.217599	0.016306
1049.384163	0.016129
1049.550709	0.016570
1049.717237	0.017584
1049.883746	0.015791
1050.050237	0.014691
1050.216710	0.014001
1050.383165	0.012996
1050.549601	0.012367
1050.716019	0.012663
1050.882420	0.012047
1051.048801	0.011053
1051.215165	0.010163
1051.381510	0.011535
1051.547837	0.011607
1051.714146	0.012210
1051.880437	0.011985
1052.046709	0.012583
1052.212964	0.010932
1052.379200	0.011660
1052.545417	0.012655
1052.711617	0.012059
1052.877798	0.012200
1053.043961	0.012313
1053.210106	0.010564
1053.376233	0.011238
1053.542341	0.012615
1053.708432	0.013232
1053.874504	0.012315
1054.040557	0.012890
1054.206593	0.013976
1054.372610	0.014249
1054.538609	0.014388
1054.704590	0.016069
1054.870553	0.018338
1055.036497	0.016658
1055.202424	0.017795
1055.368331	0.018284
1055.534221	0.017301
1055.700093	0.016250
1055.865946	0.014089
1056.031781	0.015208
1056.197598	0.014977
1056.363397	0.011332
1056.529177	0.011546
1056.694939	0.010805
1056.860683	0.011640
1057.026409	0.012563
1057.192116	0.012882
1057.357806	0.012586
1057.523477	0.010864
1057.689130	0.011049
1057.854764	0.012937
1058.020381	0.014149
1058.185979	0.014207
1058.351559	0.013973
1058.517120	0.013874
1058.682664	0.014555
1058.848189	0.016958
1059.013696	0.017091
1059.179185	0.016184
1059.344656	0.016024
1059.510108	0.015666
1059.675542	0.016592
1059.840958	0.017732
1060.006356	0.019280
1060.171735	0.018306
1060.337096	0.018967
1060.502439	0.019066
1060.667764	0.020871
1060.833071	0.020570
1060.998359	0.020133
1061.163629	0.019142
1061.328881	0.018131
1061.494115	0.016566
1061.659330	0.015503
1061.824527	0.013789
1061.989706	0.015707
1062.154867	0.013919
1062.320010	0.014547
1062.485134	0.014955
1062.650240	0.015248
1062.815328	0.014572
1062.980398	0.013302
1063.145449	0.014630
1063.310482	0.014772
1063.475497	0.014348
1063.640494	0.015122
1063.805473	0.014435
1063.970433	0.014252
1064.135375	0.012835
1064.300299	0.012465
1064.465204	0.011928
1064.630092	0.012032
1064.794961	0.011118
1064.959812	0.008889
1065.124645	0.009597
1065.289459	0.009703
1065.454256	0.009635
1065.619034	0.011682
1065.783793	0.012675
1065.948535	0.014497
1066.113258	0.014038
1066.277964	0.013024
1066.442651	0.013809
1066.607319	0.012544
1066.771970	0.012534
1066.936602	0.012686
1067.101216	0.011411
1067.265812	0.012018
1067.430389	0.011221
1067.594949	0.011675
1067.759490	0.012811
1067.924013	0.014025
1068.088518	0.015188
1068.253004	0.015768
1068.417472	0.015879
1068.581922	0.015566
1068.746354	0.015412
1068.910768	0.017261
1069.075163	0.017746
1069.239540	0.019107
1069.403899	0.019287
1069.568240	0.017576
1069.732562	0.015747
1069.896866	0.016753
1070.061152	0.016296
1070.225420	0.015539
1070.389670	0.013833
1070.553901	0.012940
1070.718114	0.010473
1070.882309	0.009699
1071.046486	0.011135
1071.210644	0.012018
1071.374784	0.011505
1071.538906	0.013005
1071.703010	0.012501
1071.867096	0.012626
1072.031163	0.013238
1072.195212	0.013887
1072.359243	0.013936
1072.523256	0.013941
1072.687250	0.014203
1072.851226	0.014032
1073.015184	0.013494
1073.179124	0.012545
1073.343045	0.013623
1073.506949	0.013207
1073.670834	0.015769
1073.834701	0.016503
1073.998549	0.018370
1074.162380	0.019069
1074.326192	0.018267
1074.489986	0.018245
1074.653761	0.019779
1074.817519	0.019763
1074.981258	0.019872
1075.144979	0.018796
1075.308682	0.018151
1075.472367	0.016015
1075.636033	0.015961
1075.799681	0.016990
1075.963311	0.018669
1076.126923	0.018621
1076.290516	0.018677
1076.454092	0.019314
1076.617649	0.020218
1076.781187	0.020654
1076.944708	0.020183
1077.108210	0.019568
1077.271695	0.016654
1077.435160	0.016441
1077.598608	0.018408
1077.762038	0.017318
1077.925449	0.016181
1078.088842	0.015457
1078.252217	0.014071
1078.415573	0.013649
1078.578912	0.012320
1078.742232	0.014816
1078.905534	0.014476
1079.068817	0.012785
1079.232083	0.013559
1079.395330	0.015586
1079.558559	0.017671
1079.721770	0.018584
1079.884962	0.020499
1080.048136	0.020868
1080.211293	0.020784
1080.374430	0.021264
1080.537550	0.019587
1080.700651	0.019763
1080.863735	0.018474
1081.026800	0.016160
1081.189846	0.016693
1081.352875	0.017411
1081.515885	0.019040
1081.678877	0.019217
1081.841851	0.018200
1082.004807	0.020302
1082.167744	0.019958
1082.330663	0.020162
1082.493564	0.020048
1082.656447	0.017609
1082.819312	0.017795
1082.982158	0.018272
1083.144986	0.016643
1083.307796	0.016369
1083.470587	0.014465
1083.633361	0.013997
1083.796116	0.015215
1083.958853	0.017941
1084.121571	0.018682
1084.284272	0.017733
1084.446954	0.018473
1084.609618	0.020732
1084.772264	0.020087
1084.934892	0.019682
1085.097501	0.018491
1085.260092	0.016219
1085.422665	0.013012
1085.585220	0.013137
1085.747756	0.013659
1085.910274	0.013863
1086.072774	0.013287
1086.235256	0.015282
1086.397720	0.015591
1086.560165	0.018575
1086.722592	0.018443
1086.885001	0.016293
1087.047392	0.017081
1087.209764	0.016359
1087.372119	0.013486
1087.534455	0.014727
1087.696772	0.012905
1087.859072	0.018067
1088.021353	0.018315
1088.183616	0.020016
1088.345861	0.022257
1088.508088	0.023687
1088.670296	0.025339
1088.832486	0.026989
1088.994658	0.025126
1089.156812	0.027715
1089.318948	0.022495
1089.481065	0.021904
1089.643164	0.022258
1089.805245	0.023375
1089.967308	0.021442
1090.129352	0.021273
1090.291378	0.023407
1090.453386	0.021935
1090.615376	0.017992
1090.777347	0.018178
1090.939301	0.018120
1091.101236	0.018390
1091.263153	0.017659
1091.425051	0.019447
1091.586932	0.017657
1091.748794	0.013228
1091.910638	0.013746
1092.072463	0.016189
1092.234271	0.017613
1092.396060	0.016579
1092.557831	0.017411
1092.719584	0.017771
1092.881319	0.017840
1093.043035	0.018324
1093.204733	0.020951
1093.366413	0.024387
1093.528075	0.025247
1093.689718	0.023367
1093.851343	0.023979
1094.012950	0.021519
1094.174539	0.022017
1094.336110	0.022378
1094.497662	0.021786
1094.659196	0.021596
1094.820712	0.022087
1094.982210	0.021251
1095.143689	0.025686
1095.305151	0.023745
1095.466594	0.022636
1095.628018	0.022894
1095.789425	0.021272
1095.950813	0.019921
1096.112183	0.020302
1096.273535	0.019262
1096.434869	0.020198
1096.596184	0.018328
1096.757482	0.021753
1096.918761	0.023994
1097.080021	0.022748
1097.241264	0.024198
1097.402488	0.024982
1097.563694	0.023131
1097.724882	0.022515
1097.886052	0.018253
1098.047203	0.019200
1098.208336	0.014418
1098.369451	0.014729
1098.530548	0.014877
1098.691627	0.011475
1098.852687	0.011939
1099.013729	0.012255
1099.174753	0.009947
1099.335758	0.012873
1099.496746	0.009818
1099.657715	0.014147
1099.818666	0.013405
1099.979599	0.014855
1100.140513	0.019432
1100.301409	0.019416
1100.462287	0.020558
1100.623147	0.019976
1100.783989	0.019912
1100.944812	0.025074
1101.105617	0.024504
1101.266404	0.022240
1101.427173	0.022575
1101.587923	0.018163
1101.748656	0.018973
1101.909370	0.020713
1102.070066	0.023057
1102.230743	0.023413
1102.391403	0.021849
1102.552044	0.020064
1102.712667	0.022326
1102.873271	0.019603
1103.033858	0.021974
1103.194426	0.021811
1103.354976	0.019514
1103.515508	0.017149
1103.676021	0.020904
1103.836517	0.019980
1103.996994	0.020951
1104.157453	0.022631
1104.317893	0.025800
1104.478316	0.028371
1104.638720	0.028207
1104.799106	0.028287
1104.959474	0.030834
1105.119823	0.027850
1105.280155	0.024487
1105.440468	0.026241
1105.600763	0.023935
1105.761039	0.026235
1105.921298	0.025804
1106.081538	0.026055
1106.241760	0.028423
1106.401964	0.031606
1106.562149	0.032434
1106.722316	0.037493
1106.882465	0.033364
1107.042596	0.033767
1107.202709	0.030000
1107.362803	0.026120
1107.522879	0.022613
1107.682937	0.020641
1107.842977	0.017642
1108.002999	0.014439
1108.163002	0.013833
1108.322987	0.016044
1108.482954	0.017839
1108.642902	0.020434
1108.802833	0.023858
1108.962745	0.027612
1109.122639	0.027540
1109.282515	0.026363
1109.442372	0.029297
1109.602211	0.026233
1109.762032	0.027490
1109.921835	0.027265
1110.081620	0.023008
1110.241386	0.019574
1110.401134	0.021660
1110.560864	0.021543
1110.720576	0.022136
1110.880269	0.019478
1111.039945	0.022234
1111.199602	0.025212
1111.359240	0.024739
1111.518861	0.024747
1111.678463	0.029151
1111.838047	0.026825
1111.997613	0.025414
1112.157161	0.028542
1112.316690	0.029699
1112.476202	0.029587
1112.635695	0.026639
1112.795169	0.028159
1112.954626	0.030752
1113.114064	0.029209
1113.273484	0.028459
1113.432886	0.029838
1113.592270	0.030318
1113.751635	0.030114
1113.910983	0.029522
1114.070312	0.027407
1114.229622	0.026867
1114.388915	0.028847
1114.548189	0.025708
1114.707445	0.024857
1114.866683	0.026561
1115.025903	0.024014
1115.185104	0.024401
1115.344287	0.022802
1115.503452	0.025633
1115.662599	0.026505
1115.821727	0.023930
1115.980838	0.025932
1116.139930	0.030920
1116.299004	0.029688
1116.458059	0.024719
1116.617097	0.023270
1116.776116	0.024369
1116.935117	0.024164
1117.094099	0.026941
1117.253064	0.027047
1117.412010	0.028297
1117.570938	0.024525
1117.729848	0.024659
1117.888740	0.028996
1118.047613	0.030275
1118.206468	0.029183
1118.365305	0.027539
1118.524124	0.022067
1118.682924	0.022669
1118.841707	0.020510
1119.000471	0.020811
1119.159216	0.020289
1119.317944	0.017574
1119.476653	0.020811
1119.635344	0.021819
1119.794017	0.022091
1119.952672	0.023310
1120.111308	0.022240
1120.269927	0.025629
1120.428527	0.028952
1120.587108	0.027598
1120.745672	0.029344
1120.904217	0.027522
1121.062744	0.030598
1121.221253	0.032165
1121.379744	0.033693
1121.538216	0.032670
1121.696671	0.030262
1121.855107	0.027936
1122.013524	0.028587
1122.171924	0.032107
1122.330305	0.031355
1122.488668	0.028425
1122.647013	0.027887
1122.805340	0.024148
1122.963648	0.026771
1123.121938	0.026430
1123.280210	0.024449
1123.438464	0.026157
1123.596700	0.026119
1123.754917	0.026306
1123.913116	0.026688
1124.071297	0.025489
1124.229459	0.028446
1124.387604	0.029107
1124.545730	0.030846
1124.703838	0.029491
1124.861928	0.028259
1125.019999	0.023959
1125.178052	0.025559
1125.336088	0.023706
1125.494104	0.022617
1125.652103	0.022304
1125.810083	0.023714
1125.968045	0.020309
1126.125989	0.023943
1126.283915	0.026662
1126.441823	0.026666
1126.599712	0.022500
1126.757583	0.029812
1126.915436	0.033080
1127.073270	0.032813
1127.231087	0.029764
1127.388885	0.034498
1127.546665	0.033201
1127.704426	0.033502
1127.862170	0.035400
1128.019895	0.038416
1128.177602	0.033265
1128.335291	0.029643
1128.492961	0.032337
1128.650614	0.028793
1128.808248	0.027273
1128.965864	0.031418
1129.123461	0.032518
1129.281041	0.031458
1129.438602	0.033701
1129.596145	0.035561
1129.753670	0.041754
1129.911176	0.039125
1130.068665	0.044080
1130.226135	0.042372
1130.383587	0.035445
1130.541020	0.027943
1130.698436	0.030392
1130.855833	0.026717
1131.013212	0.017285
1131.170573	0.017803
1131.327915	0.015190
1131.485239	0.012161
1131.642545	0.012036
1131.799833	0.015175
1131.957103	0.017748
1132.114354	0.014487
1132.271588	0.012694
1132.428803	0.020288
1132.585999	0.017434
1132.743178	0.022112
1132.900338	0.023304
1133.057480	0.024123
1133.214604	0.022091
1133.371710	0.023218
1133.528797	0.023000
1133.685866	0.027363
1133.842917	0.031226
1133.999950	0.031426
1134.156964	0.029737
1134.313960	0.033692
1134.470938	0.035001
1134.627898	0.037425
1134.784840	0.038699
1134.941763	0.039745
1135.098668	0.040270
1135.255555	0.038318
1135.412424	0.040491
1135.569274	0.038110
1135.726107	0.032786
1135.882921	0.030491
1136.039716	0.030814
1136.196494	0.028785
1136.353253	0.024988
1136.509995	0.023458
1136.666717	0.020523
1136.823422	0.017890
1136.980109	0.020514
1137.136777	0.024776
1137.293427	0.028917
1137.450059	0.027509
1137.606672	0.030297
1137.763267	0.035063
1137.919844	0.033660
1138.076403	0.035931
1138.232944	0.029822
1138.389466	0.028576
1138.545971	0.023007
1138.702457	0.018190
1138.858924	0.019077
1139.015374	0.018706
1139.171805	0.022236
1139.328218	0.026095
1139.484613	0.025821
1139.640990	0.025799
1139.797348	0.025255
1139.953688	0.027811
1140.110010	0.032963
1140.266314	0.033453
1140.422600	0.029742
1140.578867	0.027996
1140.735116	0.024965
1140.891347	0.021850
1141.047559	0.029760
1141.203754	0.028926
1141.359930	0.028595
1141.516088	0.031917
1141.672228	0.031236
1141.828349	0.034168
1141.984452	0.031915
1142.140537	0.024958
1142.296604	0.033863
1142.452653	0.033280
1142.608683	0.034739
1142.764695	0.038232
1142.920689	0.032198
1143.076665	0.036567
1143.232622	0.038856
1143.388562	0.044318
1143.544483	0.052741
1143.700385	0.047815
1143.856270	0.045615
1144.012136	0.050517
1144.167985	0.048954
1144.323814	0.046223
1144.479626	0.043705
1144.635420	0.045720
1144.791195	0.043199
1144.946952	0.039809
1145.102691	0.039548
1145.258411	0.041300
1145.414113	0.029494
1145.569798	0.029921
1145.725463	0.032366
1145.881111	0.036640
1146.036741	0.027592
1146.192352	0.019216
1146.347945	0.024962
1146.503519	0.022312
1146.659076	0.021736
1146.814614	0.030471
1146.970134	0.031377
1147.125636	0.032993
1147.281120	0.031100
1147.436585	0.035402
1147.592032	0.039262
1147.747461	0.037947
1147.902872	0.035860
1148.058265	0.031466
1148.213639	0.034090
1148.368995	0.034058
1148.524333	0.032803
1148.679653	0.028327
1148.834954	0.034722
1148.990237	0.035192
1149.145502	0.031598
1149.300749	0.035808
1149.455977	0.035303
1149.611188	0.027308
1149.766380	0.026197
1149.921553	0.022952
1150.076709	0.023075
1150.231846	0.016312
1150.386966	0.024319
1150.542066	0.024712
1150.697149	0.023704
1150.852214	0.030142
1151.007260	0.038687
1151.162288	0.036025
1151.317298	0.041227
1151.472289	0.039188
1151.627263	0.037531
1151.782218	0.027746
1151.937155	0.030842
1152.092073	0.029804
1152.246974	0.029915
1152.401856	0.020197
1152.556720	0.018369
1152.711566	0.013208
1152.866393	0.016766
1153.021203	0.018228
1153.175994	0.022262
1153.330767	0.023142
1153.485521	0.024806
1153.640258	0.025960
1153.794976	0.024067
1153.949676	0.025577
1154.104358	0.029557
1154.259021	0.028231
1154.413667	0.035497
1154.568294	0.035730
1154.722903	0.028566
1154.877493	0.021241
1155.032066	0.020578
1155.186620	0.030617
1155.341156	0.025690
1155.495674	0.029070
1155.650173	0.023960
1155.804654	0.020541
1155.959118	0.017346
1156.113562	0.028099
1156.267989	0.036025
1156.422397	0.033083
1156.576788	0.032710
1156.731160	0.032053
1156.885513	0.022785
1157.039849	0.031436
1157.194166	0.030371
1157.348465	0.035078
1157.502746	0.027848
1157.657009	0.025316
1157.811253	0.019201
1157.965479	0.018091
1158.119687	0.021702
1158.273877	0.031418
1158.428048	0.029597
1158.582201	0.025322
1158.736337	0.022572
1158.890453	0.016606
1159.044552	0.018177
1159.198632	0.030186
1159.352694	0.037149
1159.506738	0.043642
1159.660764	0.041310
1159.814771	0.035135
1159.968761	0.037830
1160.122732	0.040107
1160.276685	0.046790
1160.430619	0.039508
1160.584535	0.031846
1160.738434	0.028255
1160.892313	0.022177
1161.046175	0.023842
1161.200019	0.033735
1161.353844	0.028208
1161.507651	0.025356
1161.661440	0.025214
1161.815210	0.036462
1161.968962	0.036218
1162.122697	0.030265
1162.276412	0.036015
1162.430110	0.039467
1162.583789	0.024988
1162.737451	0.040729
1162.891094	0.041686
1163.044718	0.050896
1163.198325	0.047824
1163.351913	0.053968
1163.505483	0.053174
1163.659035	0.051555
1163.812569	0.047306
1163.966084	0.058429
1164.119581	0.047672
1164.273060	0.046711
1164.426521	0.039434
1164.579964	0.040905
1164.733388	0.042108
1164.886794	0.053252
1165.040182	0.057157
1165.193551	0.051117
1165.346903	0.047245
1165.500236	0.048763
1165.653551	0.050399
1165.806848	0.041222
1165.960126	0.045498
1166.113386	0.046887
1166.266628	0.034270
1166.419852	0.031558
1166.573058	0.029628
1166.726245	0.033572
1166.879414	0.025479
1167.032565	0.027480
1167.185698	0.047356
1167.338812	0.040367
1167.491909	0.032816
1167.644987	0.030142
1167.798046	0.027191
1167.951088	0.035223
1168.104111	0.028302
1168.257117	0.035091
1168.410103	0.042335
1168.563072	0.023252
1168.716023	0.016449
1168.868955	0.020332
1169.021869	0.035622
1169.174765	0.041254
1169.327642	0.029503
1169.480501	0.031242
1169.633343	0.025922
1169.786165	0.021456
1169.938970	0.022818
1170.091757	0.031870
1170.244525	0.036681
1170.397275	0.029052
1170.550007	0.029013
1170.702720	0.045437
1170.855415	0.056315
1171.008092	0.070185
1171.160751	0.074871
1171.313392	0.090505
1171.466014	0.079957
1171.618619	0.106475
1171.771205	0.106475
1171.923772	0.106475
