sample name	sample
index	266
start time	 02-25-2021  11:18:27 AM
880	0.050240
Peak Time (s)	91.037
Peak Height 	0.05024
calc peak height	90,93
Baseline Time (s)	10.037
Baseline Value 	-0.004282
subtract baseline	10,4
Abs	0.034345
Peak Time (s)	91.037
Peak Height 	0.03435
calc peak height	90,93
Baseline Time (s)	9.037
Baseline Value 	0.003162
subtract baseline	10,3
PK_550	0.014304
Peak Time (s)	91.037
Peak Height 	0.0143
calc peak height	90,93
Baseline Time (s)	11.035
Baseline Value 	3.3766E-4
subtract baseline	10,2
PK_880	0.029933
Peak Time (s)	90.036
Peak Height 	0.02993
calc peak height	90,93
Baseline Time (s)	11.536
Baseline Value 	0.002316
subtract baseline	10,1


Time (s)	A880-A510	A880-A775	A880-A975	A880	I510	I775	I975	I880	
0.034000	0.001606	0.000415	0.001575	0.001786	6887.965991	46028.077966	3975.051134	24236.646024
0.536500	-0.001608	-0.000348	0.003129	0.003990	6838.341327	45734.422732	3973.376424	24128.484324
1.037500	-0.002057	-0.000332	-0.001815	0.004299	6831.449886	45705.516671	3959.935585	24113.371909
1.535000	0.000491	-0.000169	0.001089	0.002080	6875.000472	45940.900644	3973.039602	24222.167884
2.035000	0.000515	0.000054	-0.000776	0.001015	6885.015960	46068.734740	3970.984433	24274.592583
2.535500	-0.000290	0.000039	-0.000663	0.000722	6880.301208	46096.390475	3972.025315	24289.018466
3.035500	-0.002907	-0.001133	-0.000882	0.002118	6843.566370	45841.795268	3967.883183	24220.308151
3.536000	-0.001250	0.000310	-0.008136	0.001471	6864.611999	46048.814956	3951.085797	24252.115375
4.035500	-0.002564	-0.000085	0.000232	0.001298	6854.175451	46026.795395	3972.845912	24260.643685
4.536500	0.001100	0.000624	0.004740	0.001587	6885.137554	46068.557823	3983.756963	24246.441386
5.037000	-0.000651	0.000073	0.002195	0.001002	6874.413894	46071.921677	3978.674857	24275.239918
5.540000	0.000605	0.000975	0.006182	0.001319	6883.048417	46130.188234	3988.208651	24259.629606
6.034500	-0.000504	0.000472	-0.000600	0.000767	6877.924810	46134.989605	3972.074305	24286.823036
6.534500	-0.000912	-0.000022	-0.001224	0.000812	6873.752513	46081.355870	3970.352791	24284.577969
7.038000	0.001474	0.000379	0.001109	0.001054	6893.493808	46097.208706	3975.735588	24272.687635
7.535500	-0.001561	-0.001151	-0.001095	-0.000328	6878.264888	46082.455335	3973.617227	24340.856960
8.036000	0.000630	0.000541	0.000053	0.000924	6886.909490	46126.303385	3973.349605	24279.092736
8.536000	-0.001273	-0.000999	-0.000657	-0.000528	6882.757648	46117.445924	3975.261882	24350.769637
9.037000	0.000605	0.000245	0.000000	0.000378	6891.709768	46151.103844	3974.618896	24306.001092
9.537000	0.000955	0.000182	0.002791	0.000282	6895.821342	46154.386289	3982.082494	24310.727748
10.037000	-0.002474	-0.000702	-0.002369	0.000000	6866.878513	46094.529158	3969.499659	24324.672711
10.535000	0.000474	-0.000249	0.000349	-0.000087	6894.798932	46148.218118	3976.718701	24328.971560
11.035000	-0.000077	0.000000	-0.000473	-0.000158	6890.362004	46180.080511	3974.780052	24332.460248
11.535500	0.000000	0.000294	0.002855	0.000203	6887.752991	46173.531624	3982.457100	24314.667742
12.035500	-0.000542	0.000310	-0.001738	0.000053	6884.140442	46190.012498	3970.985706	24322.068989
12.536000	-0.000849	0.000738	-0.002803	0.000300	6879.040551	46208.010118	3967.616542	24309.842568
13.036500	0.002821	0.000615	-0.000781	-0.001230	6927.135233	46348.526741	3976.752130	24385.497240
13.536500	-0.001025	0.000217	-0.002449	0.000030	6879.906929	46182.955361	3969.217388	24323.183686
14.037000	-0.001210	0.000246	0.000850	0.000754	6871.553837	46113.713988	3975.839266	24287.436170
14.537000	-0.003557	-0.000441	-0.001871	0.002092	6837.876492	45912.715455	3965.417793	24221.564588
15.037500	-0.001023	-0.000290	0.002136	0.000117	6879.128498	46123.921660	3980.815750	24318.917290
15.567000	-0.000882	-0.000630	0.000268	-0.000840	6889.231835	46185.316779	3978.455467	24366.206658
16.035000	0.000343	-0.000955	0.005275	-0.000809	6900.251600	46149.841140	3991.398776	24364.681056
16.538000	0.001702	0.000538	-0.000318	0.000897	6897.050377	46128.646017	3972.464765	24280.410869
17.036000	0.000380	-0.000264	0.002014	-0.000254	6895.473061	46163.390071	3981.460991	24337.244995
17.535500	0.002144	0.000396	0.004092	-0.002887	6936.269225	46492.649413	3993.741036	24467.748777
18.036500	-0.000654	-0.000028	0.002307	0.000478	6879.204241	46114.035432	3980.321904	24301.090400
18.536500	-0.000476	0.000393	-0.001938	0.001826	6868.460176	46021.903807	3965.928697	24234.676584
19.037000	-0.002898	-0.000157	-0.002545	0.003281	6833.063417	45823.239465	3960.665793	24163.215478
19.537500	0.000630	0.000132	0.003867	0.001688	6879.880199	46009.701040	3981.229586	24241.464216
20.037500	-0.002460	-0.000412	-0.002772	0.001407	6854.125895	45983.606309	3964.867210	24255.285214
20.537500	-0.000454	0.000261	-0.002240	0.002069	6866.433886	45984.667395	3964.535345	24222.721941
21.038000	-0.002724	-0.000043	-0.001396	0.001238	6853.269004	46037.060031	3968.820765	24263.631656
21.535500	-0.001428	-0.000010	-0.000918	0.001674	6861.123614	45996.985024	3968.928506	24242.137061
22.036000	-0.002099	-0.000109	-0.005085	0.001746	6854.327333	45979.960653	3958.110547	24238.591909
22.536000	-0.000275	-0.000385	-0.002680	0.001696	6871.487333	45957.526080	3964.362846	24241.043482
23.036000	-0.001352	0.000602	0.002947	0.002120	6857.744372	46013.442644	3977.728254	24220.210213
23.536500	-0.000690	-0.000155	-0.004134	0.001251	6871.763724	46024.496233	3961.788579	24262.964257
24.037000	0.000020	0.000120	0.002462	0.001889	6872.432912	45988.558761	3977.073098	24231.577798
24.534500	-0.001004	0.000481	-0.000396	0.002123	6860.891196	46001.068617	3969.113933	24220.049067
25.035000	-0.001284	-0.000300	-0.002110	0.001462	6864.383979	45989.240688	3966.418773	24252.589657
25.535000	-0.000293	0.000663	-0.002188	0.002029	6868.268224	46028.424953	3964.767439	24224.657538
26.035500	-0.000596	-0.000394	-0.001010	0.001557	6869.817080	45970.404731	3968.990941	24247.881408
26.536000	0.000554	0.000518	0.002720	0.001762	6878.506891	46040.709020	3978.067778	24237.834959
27.038500	-0.000653	-0.000469	-0.001581	0.002778	6858.117752	45842.156373	3964.406122	24187.897752
27.537000	-0.001803	-0.000251	-0.002063	0.001208	6861.951354	46019.261997	3967.187901	24265.060994
28.036500	0.002108	0.000462	0.003377	-0.001046	6918.806549	46314.884843	3987.060699	24376.404135
28.537000	0.000040	0.000510	-0.000025	0.000340	6886.854498	46181.296926	3974.653307	24307.875924
29.064500	-0.001754	-0.000584	0.002050	-0.000318	6876.398138	46137.795405	3981.716599	24340.363126
29.537500	0.001320	-0.000157	-0.001433	0.000167	6900.263112	46132.045998	3971.474526	24316.413261
30.035000	0.001743	0.000874	0.003446	0.000888	6897.512494	46163.063811	3982.212165	24280.874802
30.537500	0.001270	0.000502	0.003422	0.000458	6897.113373	46168.751841	3983.266578	24302.072592
31.061000	-0.003733	-0.000082	-0.001357	0.005866	6802.102994	45575.954155	3957.119464	24036.886135
31.536000	-0.003241	-0.000299	-0.000965	0.002417	6837.795413	45894.698132	3966.903977	24205.609131
32.036000	-0.002910	-0.000189	-0.003449	0.002216	6842.643173	45925.452254	3961.076256	24215.492242
32.564500	-0.002479	-0.000370	0.002213	0.000034	6866.526774	46124.224391	3981.230481	24323.017942
33.039500	0.000939	0.000488	-0.000574	0.000331	6895.229329	46180.046764	3973.262296	24308.350718
33.539500	0.000979	-0.000265	0.001341	-0.000260	6901.062195	46163.851079	3979.731145	24337.517047
34.040000	0.000684	-0.000358	-0.001207	0.000162	6894.436769	46112.642026	3972.068522	24316.669726
34.537500	-0.000087	0.000030	0.000524	0.000629	6883.026133	46104.745894	3975.322217	24293.622972
35.040500	0.003048	0.001028	-0.001321	-0.000474	6922.213854	46314.214983	3973.411213	24348.080159
35.535500	-0.001446	-0.000908	-0.002634	0.001476	6862.768520	45927.582902	3965.041069	24251.876806
36.036000	-0.002045	0.000038	0.002390	0.002130	6851.318753	45956.563671	3976.264447	24219.730029
36.535500	-0.003517	0.000302	-0.000827	0.002376	6835.668923	45958.346087	3967.363189	24207.652236
37.039000	-0.000932	-0.000183	0.003979	0.001924	6863.372884	45955.014770	3980.905985	24229.837121
37.536000	-0.000339	0.000168	-0.000700	0.002409	6864.367180	45941.754067	3967.602788	24206.001652
38.037000	-0.003490	0.000035	0.000673	0.002291	6836.678881	45940.227872	3971.429443	24211.815937
38.537000	-0.000545	0.000127	-0.000925	0.002485	6861.784551	45930.110032	3966.830578	24202.253064
39.037000	-0.002311	0.000434	0.001658	0.003166	6839.442592	45893.151466	3971.710441	24168.857434
39.537500	-0.001293	-0.000325	0.001718	0.001719	6861.950168	45961.259005	3975.593437	24239.945717
40.038000	0.000350	0.000427	-0.004747	0.002717	6867.863223	45936.957475	3956.506533	24190.902169
40.535000	-0.000036	-0.000026	0.000889	0.002280	6868.326872	45935.281755	3972.011647	24212.338411
41.035500	-0.002595	-0.000211	0.000737	0.002315	6844.608196	45913.449036	3971.531624	24210.618730
41.536000	0.000180	0.000447	0.005442	0.002580	6867.555458	45952.369610	3982.999179	24197.586478
42.036500	-0.000381	-0.000334	-0.002519	0.001968	6868.022219	45935.706764	3964.079749	24227.688762
42.536500	-0.000606	-0.000174	-0.001284	0.001327	6871.838034	46015.077293	3968.879137	24259.208360
43.037000	0.000284	-0.000100	-0.003902	0.002840	6866.128739	45872.507348	3958.339542	24184.866492
43.537500	0.000514	0.000671	-0.000778	0.002793	6868.671200	45953.549733	3966.421854	24187.160378
44.037500	-0.001678	-0.000188	-0.000914	0.002032	6855.559728	45943.736729	3968.021426	24224.523644
44.535000	-0.001630	-0.000790	0.003069	0.001679	6859.232604	45919.098887	3979.185296	24241.894459
45.035500	-0.000394	0.000122	0.001119	0.002979	6858.644693	45880.699509	3970.804790	24178.015628
45.538000	0.000796	0.000130	-0.000571	-0.000197	6898.787874	46197.008641	3974.629190	24334.404964
46.036000	0.001159	0.000039	-0.001164	0.000410	6896.538307	46127.445568	3971.543123	24304.445650
46.548000	-0.000450	0.000066	-0.000255	0.000719	6878.857592	46099.454657	3973.086182	24289.204159
47.035500	-0.001408	-0.000197	0.002419	0.004986	6831.114303	45651.172335	3968.993643	24079.813720
47.537000	0.000633	-0.000248	0.002797	0.000216	6893.464756	46118.175550	3982.269263	24313.985602
48.036500	-0.001708	-0.000332	0.004876	0.000139	6872.630941	46117.537367	3987.880315	24317.827231
48.537000	-0.000885	-0.000398	0.005798	0.001010	6872.185969	46024.328049	3988.012999	24274.841050
49.035000	-0.002774	-0.000374	-0.003642	0.003283	6834.173082	45801.615414	3957.873428	24163.114134
49.538000	-0.000376	0.000489	-0.000182	0.003006	6858.565145	45914.335474	3967.401594	24176.694851
50.035500	-0.001241	-0.001086	0.001859	-0.000158	6879.647188	46071.995945	3980.808761	24332.480135
50.535500	0.000388	-0.000097	0.004358	0.000860	6885.268240	46069.126241	3984.651718	24282.214023
51.039000	-0.001434	-0.000267	-0.002071	0.004386	6836.320472	45703.394775	3959.061108	24109.109545
51.536500	0.001970	0.000302	0.001266	-0.000736	6914.651446	46267.954885	3980.770443	24361.078508
52.036500	0.001460	0.000501	0.001739	-0.000764	6910.171384	46290.533709	3982.068362	24362.423418
52.536500	0.000004	-0.000106	0.000808	0.002068	6870.640027	45948.358564	3972.349519	24222.764865
53.037000	-0.005432	-0.008611	0.015715	0.115477	5916.688613	35412.900511	3745.685795	19315.922522
53.537000	-0.059241	-0.015682	-0.005308	0.386308	4321.131540	20047.648105	3310.039316	11686.143244
54.037500	-0.016910	-0.022027	-0.013979	-0.088978	7612.305656	53374.881008	4186.754370	29202.480054
54.535500	-0.038280	-0.159457	-0.019083	-0.320157	10547.833288	65535.000000	5096.033092	47708.906021
55.035500	-0.035844	-0.177267	-0.003377	-0.337967	10913.472928	65535.000000	5275.793940	49585.835490
55.535500	-0.042649	-0.157773	-0.007023	-0.318473	10441.785852	65535.000000	5150.208181	47535.387484
56.036000	-0.031623	-0.139707	-0.000161	-0.300406	10320.285281	65535.000000	5091.761047	45715.557686
56.536500	-0.027580	-0.118512	-0.008447	-0.279212	10032.411036	65535.000000	4944.987306	43674.884948
57.036000	-0.018179	-0.116518	-0.011053	-0.277218	10155.332990	65535.000000	4922.975404	43487.976772
57.537000	-0.009558	-0.098657	-0.005393	-0.259356	10002.296486	65535.000000	4865.694417	41851.438410
58.034500	-0.006975	-0.071407	-0.000847	-0.228545	9554.461241	65023.557318	4747.717781	39181.875643
58.534500	-0.005414	-0.052987	-0.005742	-0.202806	9193.344599	63985.314770	4618.832211	37092.410827
59.037000	-0.006780	-0.029966	-0.000787	-0.158762	8567.158924	61099.025530	4467.048248	33792.195304
59.535000	-0.006275	-0.017414	0.001148	-0.110577	7976.446788	56514.796784	4304.237006	30545.046578
60.035500	-0.002263	-0.011672	-0.003551	-0.072454	7591.919334	52663.008505	4168.195121	28219.470133
60.535500	-0.003726	-0.009300	0.000866	-0.055330	7394.768444	51001.289774	4130.340028	27239.502059
61.036000	-0.002196	-0.008319	-0.001157	-0.038415	7237.831587	49268.569575	4075.940212	26308.672463
61.536500	-0.002425	-0.005900	0.003056	-0.025957	7112.539461	48209.094953	4052.984875	25645.916517
62.039500	0.001035	-0.003830	0.005574	-0.006805	6962.549729	46461.725955	4007.983176	24663.453192
62.537000	0.001305	-0.004192	0.002523	-0.001127	6912.095547	45860.099208	3985.046396	24380.390994
63.037000	0.003876	-0.002310	0.003254	0.002659	6900.855025	45672.232069	3977.129525	24193.733660
63.538000	0.003453	-0.000644	0.009811	0.009648	6832.910399	45151.208508	3976.013883	23853.340402
64.037000	0.007214	0.001402	0.005035	0.008457	6878.180004	45467.352167	3966.801349	23910.980962
64.538000	0.006931	0.003233	0.005530	0.009603	6865.070114	45534.549573	3965.139187	23855.545402
65.036000	0.005904	0.003311	0.005310	0.012009	6833.734137	45306.606328	3958.449693	23739.625098
65.544000	0.009306	0.004248	0.004059	0.009897	6884.180315	45605.299105	3960.637253	23841.331165
66.039000	0.009201	0.004484	0.007717	0.009144	6890.141296	45702.664362	3971.919760	23877.712391
66.536500	0.009066	0.004993	0.009843	0.008611	6893.809973	45805.420446	3978.775230	23903.498587
67.037000	0.008810	0.004766	0.006842	0.010918	6870.229147	45555.836415	3965.128222	23792.067668
67.537000	0.010382	0.004831	0.008598	0.011228	6881.829362	45531.865741	3968.831283	23777.164585
68.034000	0.009484	0.004620	0.010881	0.012093	6865.635445	45426.292906	3972.470704	23735.544936
68.534500	0.011947	0.006736	0.011990	0.012862	6881.188287	45558.413350	3973.344647	23698.634712
69.035500	0.011611	0.006232	0.012734	0.014521	6862.885766	45346.528130	3970.994795	23619.246790
69.535000	0.013258	0.006507	0.016425	0.013688	6885.651402	45454.886953	3982.675819	23659.063767
70.036000	0.015629	0.006984	0.017506	0.015865	6887.445028	45288.740746	3979.835495	23555.147139
70.536000	0.014654	0.007746	0.014751	0.017709	6861.554801	45183.234159	3967.989942	23467.521159
71.036500	0.014123	0.008704	0.015310	0.020912	6827.515095	44965.212720	3961.237032	23316.154566
71.536500	0.017268	0.009284	0.017825	0.021200	6853.537489	44993.563784	3966.923068	23302.642679
72.037000	0.015698	0.008740	0.014746	0.022250	6829.664956	44839.341637	3956.404955	23253.276248
72.534500	0.018388	0.009393	0.016538	0.023750	6840.496079	44757.660502	3957.145991	23183.033497
73.040500	0.017853	0.008599	0.012779	0.023743	6835.691206	44681.888004	3947.668847	23183.347273
73.535500	0.018009	0.009908	0.014125	0.023658	6837.883805	44816.242826	3951.273703	23187.330879
74.035000	0.021431	0.010358	0.016851	0.026321	6844.790761	44603.199859	3951.432534	23063.137079
74.536000	0.019142	0.010402	0.018881	0.026623	6821.243631	44578.332932	3955.799840	23049.081728
75.036000	0.019205	0.010080	0.020488	0.028455	6805.244483	44372.229419	3955.230855	22964.161196
75.536000	0.022557	0.011380	0.020812	0.028980	6830.840877	44446.232850	3954.721379	22939.873825
76.036500	0.018192	0.011910	0.020828	0.030500	6777.746308	44351.634667	3950.921406	22869.770773
76.537000	0.021392	0.011013	0.017106	0.030228	6808.988161	44292.166527	3942.253808	22882.324893
77.034500	0.020655	0.012060	0.019144	0.032329	6783.433616	44191.736045	3942.096629	22785.737681
77.538000	0.020617	0.011877	0.018197	0.031729	6788.475946	44231.394246	3941.228848	22813.264853
78.035000	0.022238	0.012530	0.024489	0.033230	6789.562141	44150.794723	3953.273202	22744.467934
78.535500	0.022580	0.011945	0.019324	0.033436	6790.778281	44075.740845	3939.777969	22735.042501
79.036000	0.022404	0.013277	0.020537	0.035899	6767.121366	43968.668256	3936.660641	22622.696707
79.536000	0.024636	0.012782	0.024877	0.035875	6787.336735	43924.218425	3947.583415	22623.810923
80.036000	0.022530	0.012726	0.023729	0.036411	6763.678931	43868.308160	3943.356005	22599.463543
80.536500	0.026344	0.014269	0.026245	0.039051	6774.176349	43765.012258	3943.045710	22479.911368
81.036500	0.022036	0.012954	0.022803	0.038621	6739.611184	43681.702590	3935.527717	22499.303835
81.537000	0.024747	0.013521	0.026326	0.039659	6754.485895	43637.558181	3941.725551	22452.462344
82.037000	0.025071	0.013060	0.021310	0.039819	6755.939294	43579.363604	3928.855195	22445.241789
82.539500	0.026716	0.013554	0.024560	0.041389	6756.611941	43478.706398	3933.014231	22374.598787
83.035000	0.026252	0.014288	0.025619	0.042155	6745.660904	43475.728570	3933.742494	22340.246681
83.535000	0.026370	0.012882	0.029277	0.041897	6749.003929	43368.585704	3943.511308	22351.812202
84.036000	0.026460	0.013619	0.026117	0.043881	6732.192258	43252.540608	3930.697671	22263.018490
84.536000	0.025371	0.013969	0.024833	0.043900	6722.394019	43283.323733	3927.475907	22262.175783
85.036500	0.026399	0.014035	0.028521	0.044493	6726.242097	43234.384874	3935.145588	22235.739694
85.537000	0.028336	0.015086	0.026163	0.045437	6735.036258	43244.367490	3926.967636	22193.692957
86.037000	0.027195	0.013544	0.028870	0.045890	6720.934740	43059.485357	3932.543451	22173.543601
86.537000	0.026481	0.013673	0.033847	0.045279	6720.025081	43127.907510	3946.492113	22200.711795
87.040500	0.026443	0.014504	0.030572	0.047104	6703.606059	43035.913105	3933.752254	22119.649345
87.534500	0.029353	0.013351	0.030696	0.046099	6738.179179	43022.315303	3936.560560	22164.250977
88.035000	0.029540	0.013450	0.032323	0.046553	6735.813305	42989.551694	3939.485248	22144.110671
88.535500	0.027705	0.014101	0.030735	0.047320	6712.818018	42978.784484	3933.621222	22110.083914
89.035500	0.026705	0.013856	0.033032	0.048313	6695.297485	42864.780882	3936.863953	22066.160663
89.536000	0.029611	0.014750	0.031395	0.048917	6715.539782	42891.416785	3931.298052	22039.479688
90.036000	0.029933	0.013972	0.030615	0.048283	6723.973903	42878.147677	3930.934325	22067.462795
90.536500	0.028471	0.013892	0.032188	0.049336	6701.819252	42774.065753	3932.225944	22021.016079
91.037000	0.027303	0.014304	0.034345	0.050240	6683.653543	42728.880327	3935.335748	21981.157982
91.534500	0.028232	0.014051	0.032622	0.049845	6695.248323	42741.894642	3932.037659	21998.555537
92.037500	0.028702	0.013446	0.029566	0.049695	6700.693925	42700.260535	3924.860240	22005.188072
92.535000	0.028576	0.013619	0.032340	0.049828	6698.418518	42703.924575	3931.383398	21999.330023
93.035000	0.029319	0.013533	0.031024	0.050773	6696.646385	42609.559157	3925.796015	21957.758025
93.536000	0.028942	0.014051	0.035169	0.050947	6691.817796	42640.957009	3935.628090	21950.112099
94.035000	0.027330	0.013319	0.030899	0.050499	6681.625079	42614.929972	3926.162290	21969.770058
94.536000	0.029492	0.014657	0.030296	0.052066	6686.836040	42594.051844	3920.826520	21901.014529
95.036500	0.029704	0.013441	0.034924	0.051410	6694.432837	42542.831987	3933.867431	21929.756298
95.536500	0.029119	0.013483	0.029551	0.051684	6686.906744	42521.681780	3919.934778	21917.724858
96.044000	0.028709	0.013673	0.033541	0.053637	6666.286769	42361.162646	3924.938683	21832.285228
96.534000	0.030543	0.014461	0.031126	0.053157	6686.484796	42476.581829	3920.184671	21853.269713
97.062000	0.030242	0.012894	0.039089	0.052317	6691.202809	42410.365783	3941.987459	21890.004746
97.535000	0.029120	0.013870	0.032190	0.052735	6677.735596	42461.207982	3923.834075	21871.714282
98.035500	0.029277	0.013777	0.027921	0.054005	6668.023575	42337.204497	3910.293914	21816.214382
98.535500	0.030096	0.013170	0.032925	0.053633	6678.409775	42315.932323	3923.433546	21832.465140
99.065500	0.028680	0.012496	0.030810	0.053671	6665.737989	42251.318663	3918.152482	21830.810944
99.536500	0.029116	0.013202	0.033594	0.054255	6664.447144	42262.439580	3923.548965	21805.328832
