sample name	sample
index	1470
start time	 05-18-2021  12:04:00 PM
880	-0.018943
Peak Time (s)	90.537
Peak Height 	-0.01894
calc peak height	90,93
Baseline Time (s)	11.04
Baseline Value 	-0.005159
subtract baseline	10,4
Abs	-0.032216
Peak Time (s)	92.535
Peak Height 	-0.03222
calc peak height	90,93
Baseline Time (s)	9.037
Baseline Value 	0.002676
subtract baseline	10,3
PK_550	0.001433
Peak Time (s)	90.537
Peak Height 	0.001433
calc peak height	90,93
Baseline Time (s)	11.04
Baseline Value 	5.8995E-5
subtract baseline	10,2
PK_880	-0.027028
Peak Time (s)	92.535
Peak Height 	-0.02703
calc peak height	90,93
Baseline Time (s)	9.538
Baseline Value 	7.5827E-4
subtract baseline	10,1


Time (s)	A880-A510	A880-A775	A880-A975	A880	I510	I775	I975	I880	
0.040000	-0.003282	-0.000250	-0.000850	0.004150	6528.652658	44618.712483	3934.350983	23271.425813
0.537000	-0.001855	-0.000368	-0.000752	0.004378	6538.696358	44585.568049	3934.036109	23260.774051
1.040500	-0.002802	-0.001024	-0.004949	0.005350	6522.637179	44429.630357	3921.528343	23215.202178
1.580500	-0.001279	-0.000563	-0.004645	0.001173	6570.520837	44875.301045	3932.363808	23411.625753
2.040500	-0.000267	-0.000094	-0.000223	0.000668	6583.365058	44969.457886	3944.404255	23435.495094
2.535500	0.001817	-0.000464	0.000806	0.000319	6604.055144	44967.417216	3947.794610	23451.986888
3.041500	-0.004175	-0.000983	-0.002913	0.004385	6519.239755	44525.944653	3928.773446	23260.437781
3.536000	-0.000499	-0.000014	-0.002039	0.000792	6580.347190	44965.268183	3939.645285	23429.629042
4.039000	-0.003077	0.000158	0.002363	0.000979	6556.977090	44963.773830	3950.006958	23420.763707
4.536500	0.001096	0.000389	-0.003289	0.000687	6594.776039	45014.320018	3936.846067	23434.558324
5.037000	0.001032	-0.000517	0.005270	0.000082	6599.386885	44985.257035	3959.447523	23463.214574
5.537000	-0.002076	-0.000387	-0.000517	-0.000050	6574.115400	45010.565066	3945.444311	23469.447943
6.040500	-0.000846	-0.000363	0.001550	0.000181	6582.580649	44990.557189	3949.970672	23458.527710
6.535000	0.002124	0.000088	0.000951	0.000407	6605.925797	45012.369382	3947.932854	23447.811700
7.035500	0.000606	-0.000319	0.006789	0.000463	6592.515750	44967.577471	3962.287761	23445.187792
7.535500	0.001237	0.000278	0.003793	0.000301	6599.264994	45041.064211	3955.228377	23452.826318
8.036000	-0.000233	-0.000494	0.002394	-0.000463	6593.265968	45040.346835	3953.653300	23489.064544
8.539000	-0.001024	-0.000054	0.001400	-0.000149	6583.865269	45052.440599	3950.415011	23474.134654
9.036500	-0.001640	0.000123	0.000000	0.000233	6575.408469	45032.611159	3946.020060	23456.053187
9.538000	0.000000	-0.000975	0.001270	-0.001057	6600.302621	45051.334121	3952.340130	23517.249850
10.036500	0.000040	0.000291	0.002582	0.000149	6590.382441	45057.082356	3952.604155	23460.059506
10.537500	0.000209	-0.000176	-0.000461	-0.000429	6596.731131	45067.788335	3946.514956	23487.419100
11.040000	-0.000409	0.000000	-0.000656	0.000000	6587.824220	45043.300384	3944.979849	23467.098645
11.535500	0.000873	0.000403	-0.000856	0.000615	6593.500461	45022.730973	3942.977784	23438.000299
12.034500	0.000099	-0.000122	0.001256	-0.000123	6593.189632	45043.413086	3949.993893	23472.912205
12.536000	0.001080	-0.000206	0.005429	-0.000166	6601.904492	45039.381056	3960.461810	23474.950291
13.036000	0.001564	-0.000176	-0.004181	-0.001246	6615.271010	45147.244100	3939.390435	23526.216522
13.536000	-0.001999	-0.000339	-0.004571	-0.000141	6575.541230	45024.030775	3935.738912	23473.763129
14.036500	-0.000391	0.000529	0.001994	0.001905	6571.836139	44910.065882	3946.812702	23377.059412
14.537000	-0.003543	0.000034	0.001709	0.001967	6544.755564	44856.301390	3945.960018	23374.144601
15.037500	0.000315	0.000010	-0.005005	-0.000284	6596.398464	45071.906498	3935.032666	23480.576088
15.537500	-0.001201	0.000171	-0.000749	0.000419	6577.556205	45019.303819	3943.723175	23447.282306
16.034500	-0.000518	-0.000128	-0.002840	-0.000718	6593.002226	45100.554067	3941.381225	23501.154183
16.535500	0.000328	0.000428	-0.001659	-0.000370	6597.239198	45120.757813	3943.423397	23484.611705
17.036000	0.001143	0.000010	0.000376	-0.000444	6604.811587	45087.354796	3948.614829	23488.124703
17.536000	0.000748	-0.000282	0.004234	-0.001778	6612.842190	45188.658496	3961.503673	23551.506089
18.041500	-0.002032	0.000310	0.000018	0.001439	6561.909141	44933.933778	3943.101000	23399.050156
18.536500	0.000897	0.000369	-0.004846	0.002332	6579.128135	44853.354415	3929.063533	23356.941997
19.042500	-0.002975	-0.000838	-0.002104	0.000898	6558.520957	44875.312526	3939.226336	23424.605336
19.536500	-0.000141	0.000423	-0.001418	0.001808	6574.773669	44909.236152	3938.679678	23381.641143
20.037000	-0.000650	-0.000902	0.003910	0.000475	6581.746684	44909.933880	3955.086759	23444.589521
20.537500	-0.000790	0.000243	0.004670	0.001521	6571.705503	44919.501686	3954.377879	23395.169215
21.035000	-0.001093	0.000054	0.001121	0.001299	6571.026829	44922.736340	3946.157323	23405.677849
21.535500	-0.003495	-0.000882	-0.001929	0.000153	6560.419970	44943.102044	3941.480393	23459.871414
22.036000	-0.001604	-0.000857	-0.004110	0.001056	6568.756906	44858.196564	3933.948577	23417.156949
22.536000	-0.000233	0.000636	0.005053	0.001812	6573.957738	44929.329027	3954.605599	23381.430429
23.036000	-0.002877	-0.000222	-0.004422	0.001468	6554.543181	44879.649794	3932.185594	23397.665002
23.536500	-0.000310	-0.000371	0.003313	0.001526	6575.719544	44859.712560	3951.003446	23394.922764
24.042000	-0.001676	-0.000651	-0.001415	0.000411	6573.603578	44940.419036	3942.105649	23447.637020
24.537500	0.000079	-0.000857	-0.003262	0.000623	6586.680167	44900.016396	3937.069881	23437.625917
25.040500	-0.000674	0.000281	-0.001574	0.001621	6571.842957	44913.528871	3938.755488	23390.453955
25.535000	-0.000907	-0.000520	-0.001306	0.000959	6575.473935	44900.162900	3941.030201	23421.727223
26.035500	0.000732	0.000391	-0.001229	0.001405	6585.592885	44945.146743	3940.128613	23400.674481
26.535500	0.000306	0.000176	0.004041	0.001684	6579.608336	44897.346497	3952.414821	23387.484032
27.036000	-0.001255	-0.000607	-0.000161	0.001119	6571.174016	44876.217732	3943.446309	23414.147714
27.536500	0.001874	0.000341	0.002795	-0.001104	6616.700397	45183.625788	3956.237035	23519.440438
28.039500	-0.002675	-0.000280	0.002751	-0.000754	6575.006976	45089.249622	3955.260240	23502.828023
28.537000	-0.002708	-0.000182	0.004365	-0.000438	6572.057637	45068.092237	3958.487098	23487.855629
29.040000	-0.002974	0.000369	-0.003106	0.005650	6518.706786	44534.211613	3925.245226	23201.170490
29.538000	-0.000451	0.000083	0.003245	0.000002	6587.455485	45051.210927	3954.611470	23467.020673
30.035000	0.001881	0.000339	0.003961	0.000305	6604.724332	45046.589898	3955.635293	23452.632420
30.535000	0.000522	0.000113	0.004176	-0.000373	6598.916714	45090.473104	3957.854561	23484.759493
31.043500	-0.002500	-0.000305	-0.007693	0.004870	6529.176882	44544.464623	3916.100910	23237.714482
31.536000	0.000655	0.000513	0.003425	0.003112	6570.471132	44791.917475	3947.365006	23320.189489
32.084500	-0.000809	0.000115	-0.001070	-0.000032	6584.700667	45057.529813	3944.040167	23468.605200
32.537500	0.000547	0.000004	-0.001876	-0.000057	6596.435668	45049.251373	3942.123981	23469.794470
33.036500	-0.004124	0.000058	-0.000359	0.003402	6527.864988	44720.165341	3937.372224	23306.558783
33.536500	-0.001006	0.000184	0.001408	0.000093	6581.968182	45052.147023	3949.836335	23462.691679
34.042500	0.001112	0.000836	0.001770	-0.001128	6610.396965	45234.276475	3953.755996	23520.624324
34.540000	-0.002301	-0.000616	0.002354	0.001194	6561.711754	44868.077702	3949.455412	23410.614745
35.035000	-0.000784	0.000059	0.002937	0.003867	6551.968753	44675.614472	3944.306963	23284.733181
35.535500	-0.002520	-0.000022	-0.002077	0.001528	6557.043199	44893.277334	3937.751874	23394.839529
36.035500	-0.001517	-0.000080	0.002082	0.001620	6564.722853	44878.716444	3947.731573	23390.481298
36.535500	-0.000723	0.000007	-0.005612	0.001872	6569.301930	44862.756197	3928.319950	23378.591116
37.035500	-0.000963	-0.000170	-0.001173	0.002206	6564.455702	44813.517776	3938.306570	23362.870081
37.539000	-0.000967	-0.000288	0.002175	0.001236	6572.621338	44895.786409	3948.909133	23408.625485
38.039500	-0.002322	-0.000560	0.000484	0.001102	6562.308707	44882.447171	3945.074663	23414.980346
38.537000	-0.001643	-0.000208	-0.004111	0.001549	6564.265233	44873.295971	3932.746987	23393.863897
39.045500	-0.000529	-0.000574	-0.002077	0.001492	6574.157595	44843.435392	3937.841351	23396.535297
39.537500	-0.004090	-0.000902	-0.007325	0.000554	6552.036394	44902.335974	3927.366892	23440.884582
40.035000	0.000861	0.000051	-0.002640	0.001798	6583.343763	44874.162194	3935.721027	23382.103151
40.535500	-0.000845	-0.000347	0.006426	0.001360	6572.606367	44878.049478	3959.144285	23402.777181
41.036000	0.000042	-0.000443	-0.000956	0.000910	6583.927870	44912.268876	3942.006618	23424.016237
41.536000	-0.001451	-0.000131	0.001738	0.001664	6564.914904	44869.600821	3946.775900	23388.419725
42.036000	-0.002272	0.000466	-0.002068	0.001449	6559.801031	44948.045543	3937.966890	23398.554580
42.536000	-0.001120	-0.000259	0.000339	0.001612	6568.150762	44862.259465	3943.464796	23390.873788
43.042000	-0.001716	-0.000385	0.004921	0.001437	6564.593008	44866.916603	3955.208547	23399.133749
43.537000	-0.001291	-0.000274	0.002111	0.001681	6566.123040	44854.181216	3947.654267	23387.646079
44.040500	-0.000014	-0.000252	0.001689	0.001351	6579.712439	44888.100007	3947.425857	23403.186422
44.537500	0.001756	-0.000243	0.002360	-0.003275	6634.321822	45338.420784	3960.562115	23622.816428
45.038000	-0.000782	0.000564	0.001838	-0.000118	6585.665861	45109.563763	3951.423135	23472.709915
45.576000	-0.001154	0.000298	0.001949	0.001035	6572.736954	44971.939166	3948.847525	23418.136827
46.036000	0.000753	-0.000610	-0.003408	-0.000819	6604.691969	45063.536375	3940.238007	23505.924762
46.539000	-0.001103	0.000336	0.002937	-0.000103	6582.807977	45085.852698	3954.105746	23471.975106
47.036000	-0.000767	-0.000415	0.001404	-0.000551	6589.466804	45056.563559	3951.420743	23493.228543
47.536500	0.002692	0.000465	0.003502	0.000510	6609.898978	45038.972637	3953.986885	23442.950339
48.039000	-0.000035	-0.000264	0.002431	0.001138	6581.345339	44907.615986	3949.783145	23413.274802
48.539500	-0.001990	-0.000006	-0.001611	0.001979	6557.714265	44851.212175	3937.789279	23373.568586
49.034500	-0.000121	0.000541	0.002589	0.001956	6573.690092	44906.350371	3948.153896	23374.659790
49.535000	-0.000150	-0.000190	0.003997	-0.000498	6594.261153	45073.213496	3957.721430	23490.698761
50.034500	0.001499	0.000162	-0.000304	-0.000350	6607.053545	45092.948122	3946.705495	23483.662570
50.536000	-0.000204	-0.000463	0.001675	-0.001540	6602.672201	45147.902973	3954.541220	23540.169574
51.036000	0.000438	0.000188	0.002202	0.000733	6588.794306	44990.411307	3950.217035	23432.394652
51.536500	0.001484	0.000798	0.000478	-0.000450	6607.781134	45164.534122	3948.882607	23488.425626
52.036500	0.001720	-0.009305	0.009321	0.047866	6219.114042	39848.093408	3855.762017	21320.171171
52.536000	-0.009538	-0.015121	-0.015269	0.254714	4908.364135	25551.716473	3451.469180	14338.429686
53.037000	-0.017832	-0.022078	-0.042357	-0.109412	7458.044910	54425.043423	4125.155206	29361.268135
53.537000	-0.024786	-0.046962	-0.038730	-0.195339	8367.203956	62197.382090	4410.971243	35151.794108
54.037500	-0.036076	-0.026869	-0.025340	-0.144227	7635.363099	58111.503634	4283.364656	31570.343661
54.535000	-0.022733	-0.033509	-0.023740	-0.177106	8167.238662	61548.590625	4399.561388	33825.620264
55.038000	-0.028750	-0.020620	-0.022625	-0.092613	7176.186342	52637.573527	4133.613777	28357.080915
55.535000	-0.025920	-0.021508	-0.016671	-0.091170	7189.861070	52371.430214	4146.731410	28272.586235
56.036000	-0.028231	-0.025376	-0.019662	-0.144499	7724.720557	58336.295135	4302.764334	31588.322731
56.536500	-0.025717	-0.018984	-0.023780	-0.129812	7591.333449	57287.936524	4242.348426	30634.191873
57.039500	-0.026372	-0.017002	-0.027861	-0.128782	7573.166158	57407.308927	4226.376596	30568.485371
57.536500	-0.024396	-0.013667	-0.032499	-0.117592	7475.042109	56430.624133	4178.086170	29864.503718
58.045000	-0.022903	-0.012591	-0.025333	-0.101116	7319.871654	54566.487664	4150.492016	28860.499084
58.534000	-0.020207	-0.011001	-0.027327	-0.092218	7257.186706	53704.875029	4118.955787	28333.948521
59.034500	-0.020680	-0.009521	-0.026292	-0.078557	7117.643107	52300.284769	4083.369089	27546.178479
59.535500	-0.018117	-0.008626	-0.028837	-0.066805	7029.319619	51081.116294	4044.304884	26888.034586
60.035500	-0.021242	-0.008611	-0.025891	-0.053758	6878.349871	49657.598413	4017.471130	26177.945089
60.536000	-0.017438	-0.003406	-0.024833	-0.027210	6675.321500	47416.340759	3952.462743	24797.264635
61.039000	-0.022257	-0.006443	-0.032109	-0.041850	6761.689697	48621.045209	3970.854830	25548.196529
61.536500	-0.028700	-0.013553	-0.030249	-0.075572	7012.085902	51508.904297	4064.241390	27377.311069
62.039500	-0.025804	-0.011127	-0.029496	-0.042984	6740.286450	48249.117134	3980.331682	25607.456084
62.538000	-0.030513	-0.009159	-0.024419	-0.021432	6514.903373	46250.603064	3939.264206	24507.827183
63.040000	-0.028487	-0.003436	-0.032483	0.026702	6150.704532	42219.482911	3810.338958	22240.338084
63.559500	-0.022925	0.001319	-0.026555	0.021337	6233.547091	43145.925858	3834.924662	22480.802894
64.035000	-0.026574	-0.000976	-0.029435	0.015742	6248.519186	43452.687529	3840.932045	22734.751889
64.543000	-0.027046	-0.001411	-0.033463	0.007203	6311.318959	44216.081557	3850.993803	23128.694136
65.041000	-0.029237	-0.001266	-0.036386	0.001330	6340.371623	44792.298978	3857.631759	23404.195720
65.539000	-0.031145	-0.000618	-0.034009	-0.004012	6367.688320	45373.712035	3875.216090	23658.017228
66.036500	-0.030673	-0.000781	-0.039103	-0.010427	6423.132707	45989.327261	3878.257987	23967.007094
66.539500	-0.030626	-0.000607	-0.039569	-0.016479	6472.969431	46611.074092	3891.216031	24262.699453
67.037000	-0.029648	-0.000824	-0.036646	-0.022581	6531.704124	47207.162169	3912.511977	24565.055638
67.537500	-0.028339	-0.001327	-0.028737	-0.027305	6582.528523	47639.632140	3943.074784	24802.083011
68.037500	-0.027783	-0.001703	-0.033683	-0.032352	6630.347802	48123.182166	3943.321440	25058.145828
68.535000	-0.027741	-0.000797	-0.037629	-0.036256	6664.408111	48626.514462	3943.217985	25258.270140
69.035500	-0.027458	-0.001259	-0.034133	-0.040368	6702.710433	49012.313279	3962.060332	25471.044440
69.535500	-0.027775	-0.000737	-0.036264	-0.041903	6713.387204	49231.099188	3960.570309	25550.961086
70.036000	-0.027920	-0.002035	-0.040474	-0.045718	6745.755076	49500.303167	3959.588022	25750.884764
70.536000	-0.028283	-0.001284	-0.039829	-0.046600	6750.354114	49675.702254	3963.398513	25797.337193
71.042000	-0.029383	-0.002283	-0.037261	-0.047456	6748.186565	49660.324269	3971.997222	25842.498954
71.537000	-0.028070	-0.002454	-0.036841	-0.048451	6768.707525	49749.083195	3975.571420	25895.165773
72.040000	-0.029254	-0.002071	-0.039034	-0.047939	6753.613095	49735.114455	3968.750361	25868.037524
72.537500	-0.030125	-0.003281	-0.039758	-0.048307	6749.165346	49644.562053	3967.855985	25887.552696
73.038000	-0.032530	-0.003834	-0.041759	-0.047637	6721.995095	49513.169257	3961.168969	25852.087245
73.535000	-0.032089	-0.003859	-0.042954	-0.047139	6721.491672	49457.030346	3956.950718	25825.767988
74.035500	-0.031264	-0.002847	-0.039785	-0.045192	6711.630931	49356.993544	3959.991031	25723.176504
74.536000	-0.032081	-0.002854	-0.040446	-0.043796	6692.252491	49207.282397	3954.877664	25649.948493
75.036000	-0.031808	-0.002688	-0.042080	-0.040696	6667.638930	48895.583765	3943.191390	25488.078139
75.536500	-0.032506	-0.002685	-0.043361	-0.039359	6650.025360	48754.560633	3936.783186	25418.622690
76.036500	-0.031975	-0.001581	-0.042045	-0.036805	6632.594305	48601.881143	3933.768263	25286.565519
76.536500	-0.029509	-0.001339	-0.039314	-0.035075	6638.927580	48445.659378	3936.206765	25197.567226
77.037000	-0.030745	-0.000687	-0.039076	-0.032259	6604.195612	48219.343403	3929.936960	25053.378143
77.534500	-0.028913	-0.000668	-0.038807	-0.030812	6607.478309	48070.622260	3927.084982	24979.693989
78.035000	-0.030681	-0.000201	-0.039994	-0.029463	6580.961534	47978.999508	3920.971305	24911.187554
78.535500	-0.031644	-0.000206	-0.032935	-0.028456	6564.299275	47874.179571	3935.621188	24860.190634
79.036000	-0.031007	-0.000390	-0.036046	-0.026689	6554.775993	47672.787487	3923.798925	24771.038694
79.535500	-0.027996	0.000289	-0.036590	-0.026253	6576.516256	47697.751076	3921.439382	24749.067862
80.036000	-0.029047	0.000088	-0.034292	-0.025669	6562.698540	47616.892328	3925.568810	24719.702763
80.536500	-0.027410	0.000820	-0.037728	-0.024600	6567.494618	47582.253835	3914.750249	24666.062024
81.036000	-0.029661	0.001104	-0.039098	-0.023488	6539.193408	47497.193171	3908.836114	24610.376675
81.539500	-0.028439	0.001082	-0.036456	-0.022387	6540.206923	47382.129198	3912.503404	24555.404689
82.042500	-0.028180	0.001461	-0.037181	-0.021448	6534.513637	47324.772499	3908.543394	24508.623627
82.535000	-0.028014	0.001845	-0.037576	-0.019948	6523.360123	47210.782538	3904.051220	24434.054806
83.035000	-0.027810	0.000967	-0.036505	-0.019294	6519.604043	47054.859476	3905.039135	24401.663082
83.535500	-0.027588	0.001600	-0.036764	-0.018330	6513.430309	47021.229260	3902.148788	24353.978367
84.035500	-0.029084	0.001030	-0.036421	-0.018301	6500.753187	46960.457089	3902.888395	24352.530677
84.536000	-0.027050	0.002062	-0.035633	-0.017267	6509.058550	46960.271437	3902.309049	24301.522354
85.039000	-0.027385	0.000635	-0.036254	-0.017640	6509.379113	46853.504087	3901.722111	24319.911335
85.536500	-0.029618	0.000618	-0.037186	-0.017816	6492.313532	46869.622757	3899.939590	24328.586525
86.036500	-0.029297	0.000261	-0.035676	-0.017377	6491.340482	46789.119713	3902.465625	24306.935816
86.537000	-0.028204	0.000684	-0.031659	-0.017015	6497.397266	46795.339814	3911.132465	24289.101610
87.037500	-0.027876	-0.000482	-0.039428	-0.017829	6506.870695	46759.737813	3894.704952	24329.249472
87.537500	-0.029597	0.000885	-0.037370	-0.015889	6476.581140	46701.931642	3894.979942	24233.688313
88.035500	-0.030925	-0.000067	-0.033533	-0.017061	6475.295186	46724.087599	3906.789276	24291.344277
88.535500	-0.030195	-0.000141	-0.038382	-0.017153	6482.072790	46725.963968	3895.571011	24295.896734
89.036000	-0.030319	0.000319	-0.035291	-0.017695	6485.525107	46827.150241	3904.127184	24322.614079
89.536000	-0.029516	0.000003	-0.040913	-0.018313	6497.276562	46857.706753	3892.363070	24353.146040
90.038500	-0.029150	0.000261	-0.035344	-0.019194	6507.625656	46973.039235	3907.552484	24396.714034
90.537000	-0.027821	0.001433	-0.033790	-0.018943	6516.587460	47066.558755	3910.649137	24384.272233
91.039500	-0.029953	-0.000338	-0.039077	-0.021465	6519.841748	47142.967531	3904.090898	24509.464470
91.537500	-0.030122	0.000171	-0.035714	-0.021524	6518.924628	47200.872873	3912.214523	24512.383465
92.037000	-0.028140	0.000668	-0.036050	-0.023008	6547.930008	47403.255912	3914.954611	24586.365388
92.535000	-0.027028	0.000614	-0.032216	-0.022823	6555.728588	47378.833349	3923.711238	24577.151418
93.035000	-0.027276	0.001396	-0.032752	-0.023485	6559.216133	47526.883680	3924.015302	24610.230995
93.535500	-0.025834	0.000773	-0.035453	-0.024558	6580.469673	47573.100052	3920.096312	24663.922028
94.036000	-0.026673	0.000667	-0.032989	-0.025548	6581.744560	47663.985379	3928.424678	24713.598981
94.536000	-0.027689	0.001194	-0.038879	-0.024969	6568.253680	47658.754659	3912.881557	24684.564737
95.220500	-0.024575	0.001917	-0.035815	-0.025913	6602.694632	47830.673765	3922.484998	24731.951982
95.542500	-0.024580	0.001437	-0.035929	-0.026652	6608.959081	47857.504366	3923.990807	24769.137206
97.776500	-0.023692	0.002931	-0.034950	-0.027577	6624.481586	48108.541093	3928.590654	24815.810997
99.612000	-0.022930	0.002283	-0.032021	-0.029094	6644.081029	48199.067971	3939.412296	24892.513352
99.761500	-0.023498	0.002433	-0.036318	-0.029531	6642.945080	48260.177626	3930.009378	24914.629864
99.878500	-0.023046	0.002282	-0.029602	-0.029608	6647.516992	48252.558956	3946.608874	24918.557219
99.992000	-0.022623	0.002875	-0.032820	-0.028837	6644.507770	48233.964187	3936.829232	24879.484828
100.206500	-0.024400	0.001671	-0.033187	-0.030454	6643.130658	48277.105427	3939.886604	24961.510222
100.332500	-0.023707	0.001947	-0.036259	-0.030083	6645.907709	48267.162124	3931.492034	24942.660104
100.427500	-0.023785	0.002926	-0.029252	-0.029645	6641.466433	48323.723389	3947.563498	24920.450222
100.524500	-0.026538	0.001930	-0.035989	-0.028080	6604.430252	48056.674412	3927.293785	24841.183951
100.624500	-0.026514	0.002202	-0.038538	-0.024732	6576.185812	47738.198669	3913.129349	24672.658494
101.037000	-0.024054	0.002221	-0.030631	-0.030490	6646.430846	48338.352193	3946.248831	24963.339634
101.534500	-0.022895	0.001608	-0.034586	-0.031871	6668.402686	48418.646770	3939.928227	25033.614540
102.034500	-0.021769	0.002898	-0.036685	-0.030746	6668.408269	48435.908137	3932.067112	24976.317499
102.537500	-0.022241	0.001990	-0.031467	-0.032074	6675.854469	48479.976355	3948.089809	25043.972018
