sample name	sample
index	704
start time	 03-25-2021  10:37:34 AM
880	-0.004485
Peak Time (s)	92.538
Peak Height 	-0.004485
calc peak height	90,93
Baseline Time (s)	10.54
Baseline Value 	-0.005406
subtract baseline	10,4
Abs	0.000680
Peak Time (s)	90.537
Peak Height 	6.7986E-4
calc peak height	90,93
Baseline Time (s)	11.537
Baseline Value 	0.001433
subtract baseline	10,3
PK_550	-0.000301
Peak Time (s)	90.537
Peak Height 	-3.0091E-4
calc peak height	90,93
Baseline Time (s)	9.037
Baseline Value 	5.5367E-4
subtract baseline	10,2
PK_880	-0.003630
Peak Time (s)	90.035
Peak Height 	-0.00363
calc peak height	90,93
Baseline Time (s)	11.037
Baseline Value 	0.002456
subtract baseline	10,1


Time (s)	A880-A510	A880-A775	A880-A975	A880	I510	I775	I975	I880	
0.036500	-0.002067	-0.000539	-0.005240	0.000505	7174.931268	44536.656345	3838.653355	23602.477743
0.542000	-0.002865	0.000399	-0.000274	0.005435	7116.844518	44154.615557	3838.748547	23366.934906
1.037000	-0.001365	0.000076	-0.002305	0.004934	7137.055638	44171.577379	3834.784319	23390.738067
1.541000	-0.000514	-0.000437	0.002289	0.000094	7195.025093	44586.043925	3859.438620	23622.232142
2.037500	0.000001	0.000002	-0.000879	-0.000279	7204.153551	44664.302245	3852.080371	23640.197075
2.535000	-0.001914	-0.000619	0.002823	0.002115	7160.080570	44374.467369	3855.517530	23525.251598
3.035500	0.001893	-0.000169	0.003734	-0.000851	7229.537489	44703.027609	3865.771101	23667.746449
3.536000	-0.001376	-0.000343	-0.004129	0.000498	7182.071185	44556.287992	3841.558574	23602.827127
4.036500	-0.000870	-0.000008	-0.000342	0.000470	7187.531362	44591.163810	3851.523333	23604.165957
4.539500	-0.001433	-0.000297	-0.002783	0.003668	7149.193714	44256.774934	3836.825975	23451.055892
5.036500	0.000964	-0.000161	0.000760	0.000686	7204.127216	44555.698590	3853.850118	23593.786576
5.537000	0.000621	-0.000055	0.004358	0.000842	7199.003264	44550.804036	3862.935374	23586.285551
6.037000	-0.001401	-0.000087	-0.000684	0.000606	7180.710328	44570.511764	3850.268913	23597.634522
6.540000	-0.000593	-0.000281	0.004398	0.000146	7193.690916	44596.096414	3864.886709	23619.731871
7.035000	-0.000740	-0.000141	0.000509	-0.000037	7194.056440	44627.215870	3855.092436	23628.559966
7.535000	-0.000029	-0.000168	-0.000774	0.000089	7200.062037	44612.512743	3851.389220	23622.497122
8.035500	-0.002315	-0.000520	0.000916	-0.000306	7180.691750	44616.667986	3856.873372	23641.523297
8.535500	0.000095	-0.000159	-0.001290	-0.000018	7202.439424	44623.643585	3850.318283	23627.657305
9.036500	-0.000612	0.000000	-0.002019	0.000079	7194.181048	44629.615539	3848.154392	23622.969838
9.539000	0.000527	-0.000507	-0.001244	-0.000214	7208.899381	44609.088353	3850.952093	23637.098831
10.037000	0.000300	0.000032	0.003961	0.000085	7203.477495	44632.137359	3863.888879	23622.680884
10.539500	-0.000662	0.000136	0.003704	0.000000	7194.477499	44650.356741	3863.434401	23626.777893
11.037500	0.000000	0.000164	0.002590	0.000007	7201.207325	44652.429088	3860.467263	23626.463253
11.537500	-0.000697	-0.000476	0.000000	-0.000834	7202.681575	44671.713840	3855.849618	23666.919652
12.035000	0.001535	0.000415	0.002533	0.000536	7211.537200	44625.546211	3858.918179	23600.986976
12.535500	0.000378	-0.000147	0.002684	0.000045	7204.694920	44618.702302	3860.614527	23624.597258
13.035500	0.001166	0.000432	-0.000125	-0.001374	7227.429478	44811.648072	3856.943174	23692.980093
13.539000	-0.000017	-0.000060	0.004271	-0.001256	7214.011921	44752.642479	3868.277890	23687.277226
14.036500	0.000039	0.001041	0.003120	-0.000397	7205.750432	44776.034426	3862.937181	23645.873829
14.536500	0.001326	0.000218	0.003568	0.002778	7186.385877	44391.178627	3855.735043	23493.530429
15.037000	-0.000023	-0.000188	0.003587	-0.000288	7203.991096	44646.831477	3863.886555	23640.633512
15.569000	-0.000107	0.000098	-0.000291	-0.001399	7214.561491	44781.741022	3856.572700	23694.180790
16.040500	0.000483	0.000385	0.001200	-0.001723	7223.985610	44840.896415	3861.366080	23709.822416
16.534500	0.001469	0.000069	0.002774	-0.000923	7225.903843	44733.018980	3863.416670	23671.236251
17.035000	-0.000308	-0.000500	0.000822	-0.001389	7212.384802	44722.973962	3859.481758	23693.695648
17.536000	0.000051	0.000431	0.001521	-0.000950	7211.565857	44770.558544	3860.168156	23672.514890
18.036000	-0.001344	-0.000242	0.000954	-0.000695	7194.607591	44680.933505	3857.998705	23660.219792
18.536000	-0.004290	-0.000136	-0.000041	0.002527	7131.806435	44381.279399	3846.924468	23505.544240
19.036500	-0.000220	-0.000593	0.002464	0.000988	7188.889255	44485.087670	3857.542730	23579.299867
19.539500	-0.000865	0.000043	0.003668	0.000958	7182.597632	44549.167483	3860.803861	23580.742142
20.037000	-0.001345	0.000343	0.005979	0.001809	7169.000525	44496.127105	3864.671451	23539.916654
20.537500	-0.001861	-0.000418	-0.000245	0.000566	7176.421229	44542.501260	3851.527619	23599.566087
21.038000	-0.001523	-0.000063	0.001747	0.001077	7174.653197	44527.585400	3855.421064	23575.047791
21.541000	0.000109	0.000092	0.002755	0.001355	7188.494036	44515.715045	3857.343928	23561.697615
22.035500	-0.001138	-0.000129	0.000887	0.001053	7178.823814	44523.447553	3853.218855	23576.164230
22.541500	-0.000624	-0.000655	0.002958	0.000408	7190.694392	44534.976853	3860.380867	23607.173115
23.036000	-0.001057	0.000127	0.002151	0.001233	7177.811781	44530.729893	3856.071107	23567.528236
23.536000	0.001873	0.000462	0.002349	0.001622	7203.845341	44525.595084	3855.569223	23548.873916
24.037000	0.000167	-0.000175	0.001233	0.001578	7186.802736	44468.547396	3852.750399	23550.980849
24.536500	0.000050	0.000073	0.001215	0.001592	7185.463025	44491.043640	3852.665346	23550.306232
25.037500	-0.003591	-0.001017	-0.000570	0.000172	7162.790179	44522.726148	3851.706057	23618.490894
25.542500	0.000156	0.000330	0.003626	0.001407	7188.443343	44533.521246	3859.504290	23559.196199
26.035000	-0.001425	-0.000398	0.002667	0.001102	7175.403810	44492.957472	3857.778868	23573.845467
26.535500	0.000104	-0.000725	-0.000779	0.000913	7192.968367	44479.595675	3849.216688	23582.876845
27.035500	-0.001596	0.000030	0.000700	0.001275	7171.886176	44517.409423	3852.145507	23565.520021
27.535500	0.001361	0.000308	0.001295	0.001669	7198.112528	44506.194847	3852.673987	23546.614675
28.036000	0.002993	-0.000159	-0.001973	-0.001778	7250.537119	44793.637927	3853.144095	23712.495472
28.536000	0.000655	-0.000690	0.003989	-0.001746	7225.993223	44739.144873	3868.830797	23710.933958
29.036500	0.000341	-0.000368	0.002328	-0.001290	7218.053928	44726.218065	3863.206749	23688.929375
29.537000	-0.000422	0.000548	0.003661	-0.001016	7207.379824	44788.296867	3866.017981	23675.737489
30.040000	0.001329	-0.000405	0.004411	-0.001271	7228.050147	44720.715138	3868.690006	23687.993628
30.537500	0.000429	0.000508	0.006936	-0.000851	7214.444294	44768.496963	3874.310370	23667.784232
31.035000	-0.001111	-0.000392	0.003310	-0.001169	7201.866335	44712.244362	3865.489880	23683.097134
31.546000	0.001313	0.000817	0.004484	-0.000535	7220.296725	44767.790647	3866.927918	23652.548302
32.035500	-0.001936	0.000353	0.001865	0.002919	7151.685876	44390.619731	3850.887938	23486.791829
32.535500	-0.001475	-0.000552	-0.002993	0.004810	7137.185780	44123.495955	3833.327724	23396.620517
33.038500	0.000373	-0.000324	0.001009	-0.001134	7216.776521	44715.393194	3859.304439	23681.408225
33.537000	0.001616	0.000702	0.006942	-0.000780	7225.958539	44780.399856	3874.136356	23664.361717
34.037000	0.000502	0.000848	0.005575	-0.000549	7212.090229	44772.196910	3869.870182	23653.226860
34.542500	-0.003404	-0.000464	0.002861	0.003223	7133.733957	44283.379617	3852.704937	23472.304334
35.037500	0.001186	0.000407	0.002789	-0.000861	7222.338826	44759.639612	3863.291044	23668.224549
35.534500	-0.000837	0.000113	0.001821	0.001675	7175.551443	44486.931134	3854.041776	23546.350389
36.035500	-0.000752	0.000362	0.002802	0.001863	7174.495387	44492.738220	3856.125882	23537.318591
36.537500	-0.000931	0.000224	0.001627	0.002800	7163.112519	44389.585763	3850.576059	23492.474930
37.035500	0.000020	-0.000199	0.002438	0.001507	7186.025195	44473.118932	3856.106568	23554.392686
37.535500	0.000415	-0.000223	0.003038	0.001322	7191.961917	44488.534655	3858.173993	23563.253264
38.083000	-0.000424	-0.000406	0.009326	0.000979	7186.896908	44503.960743	3875.811446	23579.752367
38.537500	-0.000764	-0.000138	-0.001328	0.001458	7178.509824	44483.668702	3846.355639	23556.728747
39.036500	0.000435	-0.000192	0.003784	0.001914	7186.106274	44434.727097	3858.581580	23534.892047
39.539000	0.000186	0.000476	0.001587	0.001811	7184.620463	44508.708647	3853.067081	23539.822833
40.034000	-0.002882	-0.000483	0.001557	0.001010	7161.480904	44493.500035	3855.093331	23578.225267
40.535000	-0.000026	0.000613	0.003702	0.002029	7180.228299	44500.978611	3858.062568	23529.408739
41.035000	-0.001879	0.000270	0.002698	0.001598	7165.717629	44509.428860	3856.552404	23550.059964
41.539000	-0.000807	-0.000229	-0.001514	0.001476	7177.886981	44473.146929	3845.822201	23555.866184
42.035500	0.000404	-0.000603	0.003953	0.001462	7190.425018	44438.672993	3860.222931	23556.557466
42.536000	-0.000706	0.000567	0.002412	0.001760	7176.021910	44522.365941	3855.370868	23542.256718
43.036500	-0.000912	-0.000127	-0.004575	0.001532	7176.240889	44477.625391	3837.713965	23553.191867
43.537000	0.000216	-0.000137	0.004758	0.001797	7185.075416	44451.253327	3861.468777	23540.519622
44.039500	-0.000939	0.000405	0.004707	0.002042	7170.756797	44479.735221	3860.683571	23528.746304
44.537000	0.000267	0.001215	0.001448	0.002226	7181.201102	44539.857455	3851.613412	23519.945522
45.035000	-0.002221	-0.000272	0.005790	0.001108	7167.217621	44504.424351	3866.030977	23573.553236
45.535500	0.001891	0.000202	0.005272	-0.002758	7249.275474	44923.484807	3874.960569	23759.876194
46.037000	0.001520	0.000077	0.002324	-0.001163	7228.915042	44756.895720	3862.860167	23682.805171
46.555000	-0.002421	0.000042	0.000707	0.003145	7144.478962	44339.162128	3847.266316	23476.001879
47.036000	0.000397	0.000374	0.000096	-0.000574	7211.253249	44728.670835	3855.418361	23654.392966
47.536500	0.001553	0.000100	0.003120	-0.000789	7225.391033	44723.041033	3863.980163	23664.791509
48.036500	-0.000634	-0.000509	0.004039	-0.001679	7212.016956	44750.192401	3868.786782	23707.706127
48.536500	-0.001210	0.000101	0.000621	0.004376	7144.270804	44227.177700	3843.829380	23417.292013
49.039500	-0.001592	-0.000009	0.004490	0.002332	7161.156389	44412.125457	3859.343204	23514.863190
49.535000	-0.001298	0.000499	-0.000096	0.002916	7158.210657	44404.879355	3845.765998	23486.949271
50.035000	0.002355	0.000043	0.005429	-0.001064	7236.532046	44744.094707	3870.852537	23678.054747
50.535500	-0.001874	0.000044	0.002518	0.003960	7141.765005	44261.459171	3849.873049	23437.129555
51.038000	0.000793	0.000203	0.001031	0.000212	7207.238170	44636.300567	3855.811300	23616.562636
51.536000	0.001832	0.000266	0.006923	-0.002078	7241.604318	44863.795878	3877.563687	23726.982937
52.037000	0.001151	0.000689	0.006656	-0.000398	7217.217442	44742.227878	3872.352183	23645.955498
52.536500	-0.001048	0.000228	0.002313	0.002066	7169.406366	44460.436059	3854.304441	23527.611238
53.037000	0.002845	-0.002136	0.008579	-0.012406	7360.686296	45638.975482	3910.172798	24232.265048
53.539500	-0.020515	-0.002705	-0.005094	0.213403	5343.886893	28226.059684	3402.322938	15515.088582
54.037500	-0.046894	-0.016647	0.002960	-0.029368	7024.863372	45881.554196	3941.876568	25088.583578
54.534500	-0.017841	-0.012855	0.008680	-0.080077	7888.497470	51645.497948	4112.519266	27857.515321
55.035000	-0.034106	-0.014514	-0.006565	-0.074059	7631.039711	50789.101165	4045.600994	27511.708005
55.535500	-0.003166	-0.022646	-0.013456	-0.167255	9248.957023	61177.971672	4338.776883	33442.855914
56.036000	0.014486	-0.026092	-0.003011	-0.178749	9700.708085	62270.451713	4423.067445	34266.564398
56.536000	0.009648	-0.014645	-0.003198	-0.143805	9091.526378	59136.952822	4290.108546	31828.629770
57.035500	0.002589	-0.008716	0.000474	-0.111322	8538.876735	55793.957743	4188.814515	29731.716153
57.536500	-0.008836	-0.010478	-0.003262	-0.092991	8154.947519	53396.888795	4115.655288	28615.826084
58.037000	-0.003625	-0.010005	-0.002922	-0.110123	8440.758467	55491.106483	4173.276867	29657.314459
58.537000	-0.008269	-0.008320	-0.003051	-0.077710	7974.594910	51890.032773	4067.786221	27720.912636
59.037500	-0.010641	-0.008097	0.002673	-0.064441	7789.471124	50436.541155	4044.433660	26968.965616
59.535000	-0.013514	-0.006411	-0.002677	-0.045358	7540.594723	48565.037146	3971.548149	25927.088356
60.035500	-0.014836	-0.007121	-0.001781	-0.030551	7365.616914	46957.770436	3931.841939	25149.553519
60.535500	-0.015533	-0.005716	-0.004622	-0.021821	7266.320402	46218.795108	3899.773322	24703.448240
61.036000	-0.015971	-0.005115	-0.004045	-0.016287	7204.524460	45728.110730	3886.294166	24425.252428
61.536000	-0.018785	-0.005625	-0.003507	-0.011537	7127.455675	45210.960371	3874.960190	24189.265874
62.036000	-0.016693	-0.005233	-0.003236	-0.008958	7122.538546	44997.872506	3868.796231	24062.230295
62.536500	-0.014689	-0.005626	-0.000551	-0.008259	7135.723339	44891.814951	3874.100001	24027.936670
63.040000	-0.014720	-0.004985	-0.006687	-0.010497	7158.106949	45171.936873	3863.714641	24137.945104
63.537000	-0.009025	-0.003545	-0.003969	-0.007444	7185.072995	45014.775441	3862.828304	23988.014379
64.035000	-0.003736	-0.001162	-0.004480	-0.013809	7305.932245	45874.330524	3878.445514	24301.854714
64.535000	-0.001503	-0.002324	-0.002301	-0.024208	7440.654765	46800.838675	3912.719041	24824.565396
65.035500	-0.003985	-0.002272	-0.006881	-0.023134	7402.332038	46697.344231	3897.189742	24769.999617
65.552500	-0.001787	-0.001144	-0.005807	-0.024514	7440.897015	46951.723280	3903.905763	24840.117738
66.036000	-0.001647	-0.001592	-0.004361	-0.023088	7426.996935	46761.472603	3903.958506	24767.638107
66.535500	-0.003002	-0.002083	-0.006394	-0.019168	7370.425295	46316.904565	3887.733255	24569.629457
67.037000	-0.001378	-0.001498	-0.005724	-0.020103	7397.787795	46469.695238	3892.086651	24616.716979
67.537000	-0.003710	-0.001862	-0.002849	-0.019472	7366.121275	46369.641425	3898.198917	24584.924946
68.037000	-0.002023	-0.001217	-0.003284	-0.018044	7368.877081	46291.105918	3893.123109	24513.196935
68.537500	-0.003584	-0.000783	-0.010155	-0.014892	7318.928051	46019.604260	3866.176365	24355.693053
69.038000	0.000094	-0.000254	-0.005512	-0.015659	7366.020433	46148.843354	3880.643368	24393.911573
69.538000	-0.000940	-0.001504	-0.004336	-0.016411	7363.020352	46099.154673	3885.840738	24431.439536
70.035500	-0.001627	-0.001672	-0.005809	-0.015890	7350.191052	46030.496002	3880.466961	24405.448728
70.536000	-0.004996	-0.001125	-0.006803	-0.013096	7285.234946	45807.263507	3870.319323	24266.439258
71.035500	-0.003637	-0.000627	-0.003453	-0.014484	7314.072139	45994.577445	3883.024170	24335.389921
71.536500	-0.003221	-0.001697	-0.005650	-0.015139	7325.361723	45953.203643	3878.872949	24367.968568
72.036500	-0.002875	-0.000336	-0.000542	-0.014090	7317.955693	45984.330643	3889.831630	24315.810744
72.539500	-0.004566	-0.000770	-0.004829	-0.011970	7277.955746	45730.905287	3872.582538	24210.670949
73.037500	-0.001872	-0.001175	-0.004403	-0.013157	7318.681948	45808.299233	3876.900337	24269.461217
73.537500	-0.003462	-0.000948	-0.011053	-0.013450	7305.038594	45859.928699	3859.976120	24284.013503
74.035000	-0.002653	-0.000647	0.001662	-0.013384	7312.860940	45883.245792	3893.901637	24280.752165
74.535500	-0.004856	-0.000851	-0.012284	-0.011285	7267.788624	45655.236518	3851.033997	24176.840257
75.035500	-0.002998	-0.000818	-0.006685	-0.011985	7294.520869	45727.612478	3867.672483	24211.406209
75.536000	-0.001640	0.000403	-0.005726	-0.011208	7300.620836	45771.515827	3868.157687	24173.019295
76.036500	-0.002122	-0.000450	-0.002493	-0.011362	7297.182947	45702.421470	3877.209961	24180.630118
76.536500	-0.004826	-0.001070	-0.008694	-0.010404	7258.932109	45546.727292	3858.159947	24133.372095
77.037000	-0.003105	-0.000468	-0.004595	-0.010872	7281.756788	45652.231992	3870.275824	24156.465866
77.537000	-0.002841	-0.000878	-0.004346	-0.011550	7291.612144	45678.697148	3872.748961	24189.909269
78.037500	-0.002191	-0.000091	-0.001748	-0.010100	7283.243143	45613.272673	3875.823616	24118.388543
78.537500	-0.002234	-0.000893	-0.004924	-0.010381	7285.738368	45561.977047	3868.093600	24132.263203
79.035500	-0.003467	-0.000094	-0.004413	-0.009959	7268.443730	45599.045624	3868.329962	24111.467741
79.537500	-0.003463	-0.000899	-0.006455	-0.011006	7279.424512	45623.001741	3865.682072	24163.082552
80.036000	-0.003320	-0.000552	-0.006852	-0.010338	7273.933800	45591.248791	3862.857756	24130.133044
80.536500	-0.004049	-0.001053	-0.006275	-0.010477	7267.779779	45555.538006	3864.753130	24136.952533
81.036500	-0.002692	0.000144	-0.003564	-0.009519	7271.942392	45579.231511	3869.419835	24089.834026
81.536500	-0.002218	-0.000479	-0.006843	-0.009189	7273.441741	45485.279511	3859.838634	24073.577914
82.039500	-0.004153	-0.000803	-0.005898	-0.009063	7251.980192	45441.042450	3862.005072	24067.374416
82.537000	-0.004810	-0.001815	-0.008175	-0.010167	7256.638519	45450.185998	3858.906232	24121.717237
83.037500	-0.002699	0.000603	-0.005509	-0.008504	7261.288645	45524.346881	3861.557514	24039.959502
83.535500	-0.005161	-0.000553	-0.006795	-0.008260	7233.213774	45386.857344	3857.513656	24028.003958
84.035500	-0.003813	-0.000555	-0.003831	-0.008550	7250.184293	45415.024075	3866.129853	24042.210197
84.536000	-0.004183	-0.001192	-0.004917	-0.008124	7241.924336	45310.745805	3862.116944	24021.295978
85.035500	-0.004434	-0.000920	-0.007039	-0.008060	7238.667381	45331.206541	3856.342637	24018.176586
85.536500	-0.004877	-0.001556	-0.002348	-0.008569	7239.360878	45318.819203	3870.129163	24043.167063
86.037000	-0.004985	-0.000093	-0.000347	-0.007690	7229.141728	45375.994516	3873.122448	24000.071419
86.538500	-0.005639	-0.000849	-0.003652	-0.006992	7215.192042	45233.614654	3862.469397	23965.899225
87.037000	-0.005054	-0.000920	-0.005449	-0.007537	7226.850411	45279.998935	3859.157553	23992.553484
87.537500	-0.004066	-0.000851	-0.006086	-0.007594	7237.655891	45292.304297	3857.625752	23995.347918
88.035000	-0.005452	-0.000697	-0.004902	-0.007419	7221.523587	45290.193973	3860.290633	23986.781137
88.535500	-0.003839	-0.000789	-0.008712	-0.006260	7226.207557	45167.941648	3847.228600	23930.134409
89.035500	-0.003364	-0.000740	-0.002826	-0.006765	7236.333523	45222.061531	3864.056128	23954.787440
89.535500	-0.004817	-0.000371	-0.002047	-0.006597	7219.589789	45241.772390	3865.681245	23946.606590
90.035500	-0.003630	-0.000960	-0.005214	-0.006936	7235.352963	45217.261149	3858.191568	23963.169887
90.536500	-0.005682	-0.000301	0.000680	-0.004970	7193.966022	45089.750510	3868.604952	23867.268755
91.036500	-0.006050	-0.001286	-0.000554	-0.006623	7207.165441	45154.937166	3869.722625	23947.873284
91.537000	-0.005600	-0.000706	-0.006844	-0.006386	7209.354927	45188.399528	3852.453255	23936.292968
92.037000	-0.006429	-0.000838	-0.003996	-0.006499	7201.997366	45186.516458	3860.255465	23941.823652
92.537500	-0.003822	-0.000575	-0.004148	-0.004485	7208.096840	45015.921544	3854.544711	23843.695654
93.035000	-0.003583	-0.000961	-0.003838	-0.005729	7223.372698	45099.446051	3858.638007	23904.246754
93.535000	-0.003667	-0.000251	0.000100	-0.005581	7220.971052	45154.179836	3868.689024	23897.021417
94.035500	-0.004105	-0.001009	-0.007545	-0.006074	7221.541967	45128.358008	3849.795742	23921.048888
94.535500	-0.007640	-0.000910	-0.004000	-0.004566	7169.816258	44991.205789	3855.145626	23847.621504
95.036000	-0.005571	-0.000871	-0.002536	-0.005343	7198.931967	45070.493682	3861.058264	23885.410743
95.536500	-0.004245	-0.000611	-0.006341	-0.005140	7210.473683	45076.072726	3850.504759	23875.536835
96.061500	-0.003906	-0.000443	-0.007395	-0.005034	7212.876613	45082.130777	3847.465875	23870.380235
96.564000	-0.005171	-0.000256	-0.006274	-0.005009	7199.613162	45097.895539	3850.335634	23869.158992
97.037000	-0.004356	-0.000928	-0.002836	-0.004962	7207.499541	45027.840715	3859.259063	23866.866610
97.534500	-0.004413	-0.000596	-0.006409	-0.004762	7204.865428	45040.829907	3849.335928	23857.164794
98.035000	-0.003526	0.000393	-0.003317	-0.003720	7203.265829	45035.585912	3854.717520	23806.530013
98.535500	-0.005126	-0.001309	-0.006101	-0.004040	7190.138350	44901.394768	3848.252957	23822.077336
99.038000	-0.005614	-0.000753	-0.000148	-0.004381	7188.623141	44988.408943	3864.837202	23838.612535
