sample name	sample
index	336
start time	 03-01-2021  10:52:30 AM
880	-0.009212
Peak Time (s)	92.535
Peak Height 	-0.009212
calc peak height	90,93
Baseline Time (s)	8.54
Baseline Value 	-0.00511
subtract baseline	10,4
Abs	-0.187889
Peak Time (s)	91.535
Peak Height 	-0.1879
calc peak height	90,93
Baseline Time (s)	9.037
Baseline Value 	0.004146
subtract baseline	10,3
PK_550	0.003127
Peak Time (s)	91.535
Peak Height 	0.003127
calc peak height	90,93
Baseline Time (s)	11.536
Baseline Value 	2.6995E-4
subtract baseline	10,2
PK_880	-0.107656
Peak Time (s)	90.537
Peak Height 	-0.1077
calc peak height	90,93
Baseline Time (s)	9.037
Baseline Value 	0.001912
subtract baseline	10,1


Time (s)	A880-A510	A880-A775	A880-A975	A880	I510	I775	I975	I880	
0.034500	-0.000834	-0.000050	0.003461	0.001942	6920.600619	48292.023283	3967.815188	25386.720980
0.535000	-0.001594	-0.000383	-0.008406	0.004928	6885.290770	47945.938900	3927.870808	25231.961805
1.034500	-0.004927	-0.000616	-0.003639	0.004728	6855.989582	47942.450899	3941.077005	25242.278740
1.573000	-0.001099	-0.000612	-0.002647	0.004363	6895.247166	47980.889444	3944.712003	25261.143928
2.036000	0.001103	0.000394	-0.000467	0.000840	6949.479909	48454.280998	3960.110494	25444.140477
2.536000	0.001692	-0.000027	-0.002611	0.000366	6959.618918	48459.770484	3955.578126	25468.845038
3.036500	-0.001100	-0.000362	0.000147	0.002975	6908.325781	48151.531124	3955.983080	25333.072573
3.537000	0.000996	0.000245	-0.004077	0.000566	6951.072541	48467.369215	3951.078653	25458.436298
4.037000	0.002258	0.000336	0.000483	0.000485	6963.899123	48485.482522	3963.661781	25462.670204
4.540500	-0.000730	-0.000245	0.001947	-0.000360	6943.444567	48513.256049	3969.974501	25506.809164
5.038000	-0.001472	-0.000474	-0.001011	-0.000752	6940.111621	48530.324531	3962.961026	25527.280324
5.535500	0.000387	-0.000397	0.003322	-0.000628	6956.654955	48525.371639	3974.484405	25520.823791
6.035500	0.001310	0.000248	-0.000297	0.000320	6956.416164	48493.577600	3961.988362	25471.276784
6.536000	0.001277	0.000094	0.000330	-0.000237	6961.420845	48535.922508	3965.215152	25500.368540
7.036000	0.000156	0.000131	0.002273	-0.000361	6951.895686	48552.934227	3970.869032	25506.854104
7.536500	0.000621	-0.000088	-0.000604	-0.000117	6953.996879	48504.087270	3962.338628	25494.057985
8.037000	-0.000405	0.000319	-0.005079	0.000401	6939.300631	48492.443235	3948.822272	25467.037761
8.540000	0.000415	-0.000079	-0.000360	0.000000	6950.923673	48492.727453	3962.685141	25487.970326
9.037500	0.000000	-0.000318	0.000000	-0.000554	6952.245349	48525.859381	3965.176834	25516.909458
9.537500	-0.000436	0.000350	0.003891	0.000117	6941.699263	48525.599021	3974.000251	25481.862428
10.035500	-0.000129	-0.000089	-0.002470	-0.000260	6948.216139	48519.086645	3957.657946	25501.551433
10.538000	0.000691	0.000452	-0.005685	0.000123	6952.376874	48535.673336	3947.940222	25481.527900
11.035500	0.002109	0.000607	0.001244	0.000643	6960.964656	48497.375271	3965.307418	25454.416651
11.535500	-0.000146	0.000000	0.004823	-0.000003	6945.601345	48501.365223	3976.894213	25488.110086
12.036000	0.002345	0.000085	0.000861	-0.000230	6971.575566	48534.279986	3966.644772	25499.996802
12.536500	0.001008	-0.000141	-0.003929	-0.000341	6959.841651	48522.185544	3953.928582	25505.815454
13.040000	0.000553	0.000490	-0.005267	-0.001665	6968.156007	48728.278382	3953.890196	25575.150848
13.540000	-0.000851	-0.000697	-0.000357	-0.001571	6953.828544	48593.048419	3966.981147	25570.180262
14.035000	-0.001860	0.000525	-0.000429	0.001258	6917.375186	48424.158980	3959.078099	25422.364297
14.535000	-0.001906	0.000607	-0.003202	0.002618	6904.092712	48290.123953	3947.908961	25351.607685
15.035500	0.000900	-0.000104	0.006528	-0.000918	6964.319935	48586.774101	3984.139092	25535.976364
15.549500	-0.001207	0.000020	-0.004753	-0.000693	6942.075558	48576.118000	3952.649685	25524.192369
16.036000	0.000606	0.000348	0.001357	-0.000760	6960.002921	48617.750165	3969.450979	25527.695017
16.536000	-0.003236	0.000694	-0.003166	0.005299	6866.449252	48019.435582	3940.815167	25212.819035
17.036500	0.000733	0.000861	0.002925	-0.000367	6957.457496	48630.425934	3972.673482	25507.146999
17.536500	0.004587	0.000692	0.003717	-0.002486	7014.913646	48836.555979	3980.697870	25618.237495
18.037000	-0.000861	-0.000007	-0.001328	0.000793	6931.238110	48417.082525	3957.898886	25446.582754
18.534500	-0.002149	-0.000266	0.000261	0.001980	6907.813959	48265.392892	3958.988535	25384.734066
19.035000	0.000082	-0.000573	0.000492	0.000491	6943.069508	48389.357906	3963.669080	25462.329993
19.535000	-0.000825	0.000626	-0.001033	0.001124	6928.448064	48448.823445	3957.804073	25429.345864
20.035000	-0.001064	0.000173	-0.001175	0.000954	6927.778728	48418.996760	3957.875596	25438.156781
20.535500	0.000212	0.000379	-0.002086	0.002415	6926.027001	48287.454549	3951.460403	25362.144027
21.036000	-0.000419	0.000607	-0.001208	0.001654	6927.267351	48391.059554	3955.891124	25401.717318
21.536000	0.000541	0.000040	0.000311	0.001470	6938.120115	48350.901965	3960.511851	25411.274837
22.036000	-0.001028	0.000320	-0.002961	0.001382	6924.074527	48389.555679	3951.887459	25415.897536
22.539500	-0.001498	0.000697	0.000433	0.003142	6902.991052	48244.609869	3956.303377	25324.376533
23.037000	0.000721	0.001155	-0.001035	0.001904	6935.711947	48422.341572	3955.680531	25388.697370
23.534500	-0.001726	0.000034	0.001378	0.001171	6919.455232	48381.716384	3964.231436	25426.874349
24.034500	-0.000367	0.000347	0.003691	0.001435	6929.836887	48386.874172	3969.832728	25413.139534
24.534500	-0.002085	0.000334	-0.000762	0.002557	6902.971436	48267.917092	3954.653609	25354.761729
25.035500	-0.002125	-0.000208	-0.004331	0.001259	6914.853625	48347.098929	3948.527607	25422.312170
25.535500	-0.001883	0.000270	0.000130	0.001262	6917.110653	48396.856458	3960.586834	25422.137313
26.036000	0.001029	0.000540	0.003432	0.001538	6942.117160	48396.295950	3968.841198	25407.756485
26.536000	-0.001499	-0.000203	0.000991	0.002055	6913.241033	48264.179919	3960.768732	25380.845030
27.037000	-0.001410	0.000554	-0.004946	0.001489	6919.440163	48402.875105	3946.254391	25410.305399
27.537000	0.001432	0.000756	0.002397	-0.001316	6973.235295	48719.509783	3973.832554	25556.840381
28.037000	0.000843	0.000598	0.000795	-0.000773	6962.389102	48645.538469	3967.949077	25528.391233
28.534500	-0.003387	-0.000663	-0.000331	0.003442	6882.411097	48071.420056	3953.428350	25308.863685
29.035000	-0.003312	-0.000099	-0.003360	0.004329	6874.805160	48037.750161	3942.890855	25262.913026
29.535500	-0.000345	0.000007	0.000425	-0.001096	6954.131171	48617.237704	3967.822332	25545.318082
30.035500	0.000290	0.000315	0.002473	-0.000976	6959.048251	48637.088896	3973.107080	25539.016134
30.539000	-0.002150	0.000369	-0.002997	0.004099	6887.856057	48110.546076	3944.481338	25274.841502
31.063500	0.001440	0.000526	0.000889	-0.000680	6967.220063	48628.105366	3967.952761	25523.520127
31.536500	-0.002008	0.000248	0.002309	0.002620	6903.100936	48252.325384	3962.818272	25351.485705
32.045000	0.001623	0.000194	0.000342	-0.000516	6967.401293	48575.762974	3966.008775	25514.938996
32.537000	-0.004086	0.000231	-0.002296	0.004701	6864.086145	48033.411190	3944.745501	25243.682782
33.037500	-0.002507	0.000204	-0.002577	0.005149	6874.662320	47983.938190	3942.792668	25220.539649
33.535000	0.000415	0.000533	-0.000161	-0.000368	6954.433946	48595.943521	3964.231970	25507.194620
34.035500	0.000643	0.000030	0.007140	-0.001929	6971.542116	48707.536559	3988.648480	25588.973648
34.535500	-0.001894	0.000135	-0.003983	0.003823	6892.855253	48114.924031	3942.578081	25289.116473
35.036000	-0.000407	0.000449	0.002102	0.002737	6917.121473	48261.068019	3961.936961	25345.430116
35.536000	0.001415	0.000623	0.004135	0.001875	6942.586095	48369.675812	3969.845122	25390.228143
36.036500	-0.000143	0.001024	-0.000601	0.002164	6925.042192	48381.339477	3956.155286	25375.194412
36.537000	-0.000600	0.000779	0.001105	0.002902	6913.729089	48278.330851	3958.777718	25336.843539
37.037000	-0.002191	-0.000034	-0.002174	0.002270	6904.689220	48259.417989	3951.616463	25369.703046
37.537500	-0.000327	0.000096	0.004354	0.001799	6926.765608	48322.401211	3970.653773	25394.186154
38.034500	-0.000004	0.001166	-0.001401	0.002521	6922.984428	48358.832302	3953.022862	25356.641764
38.534500	-0.002355	0.000205	0.002258	0.001980	6905.873046	48314.783438	3964.424075	25384.749104
39.035000	-0.000896	0.000361	-0.000378	0.002515	6914.591711	48275.162023	3955.807723	25356.952591
39.535000	-0.000782	0.000420	0.002532	0.002135	6919.272866	48321.133252	3964.750156	25376.719684
40.035500	-0.000200	0.000208	-0.003253	0.001904	6926.967096	48323.033680	3949.691103	25388.700196
40.536500	-0.001848	0.000051	-0.002509	0.002365	6907.027524	48258.433735	3950.455963	25364.759833
41.036500	0.000061	0.000637	-0.000396	0.002324	6925.458112	48323.995138	3956.276403	25366.867979
41.539500	-0.001229	0.000075	0.002042	0.001748	6918.704471	48325.493500	3964.470208	25396.844616
42.037000	-0.001341	0.000915	0.002353	0.002431	6911.181046	48341.985306	3963.455319	25361.317109
42.534500	-0.002095	-0.000062	0.001838	0.001707	6910.902184	48315.460018	3964.023993	25398.971857
43.037500	0.002000	0.000768	-0.001961	0.002253	6944.560210	48345.156679	3952.235625	25370.556314
43.535000	0.001025	0.000109	-0.001772	0.002069	6937.031301	48295.415849	3953.243078	25380.132934
44.035000	-0.000312	0.000344	0.000503	0.002149	6923.580344	48311.551255	3959.187561	25375.943090
44.536000	0.001064	0.000829	-0.004257	0.003469	6924.114845	48224.256543	3942.790705	25307.426465
45.036000	0.000795	0.000253	0.000014	-0.000454	6958.889600	48575.562820	3964.943622	25511.723407
45.537000	0.001487	0.000548	0.004635	-0.000099	6962.103571	48569.210022	3976.641618	25493.136046
46.039500	-0.000348	0.000522	0.001033	-0.000308	6946.588971	48588.475748	3967.327884	25504.070982
46.537000	-0.004140	0.000205	-0.001830	0.005242	6858.530757	47974.420812	3944.545649	25215.725184
47.037000	-0.000340	0.000239	0.002136	0.003426	6911.245326	48167.204479	3960.157522	25309.693308
47.534500	0.003258	0.001140	0.003275	0.000326	6975.000016	48586.751926	3971.733128	25470.958952
48.035000	0.000127	0.000775	-0.001862	0.000486	6943.544718	48531.497202	3957.281979	25462.581981
48.537000	-0.001057	-0.000200	-0.002779	0.004414	6895.172016	48018.468413	3944.221015	25258.536777
49.035500	-0.001126	0.000273	0.002641	0.004543	6893.300275	48054.148124	3958.491763	25251.829790
49.535500	0.001094	0.000842	-0.000124	-0.000387	6961.099937	48630.442633	3964.384105	25508.181593
50.036500	0.001710	0.000269	0.003215	-0.000179	6965.004538	48548.269015	3972.955306	25497.330397
50.536500	-0.005184	0.000592	0.001907	0.005210	6849.110196	48017.993379	3954.697108	25217.410244
51.036500	-0.002531	0.000450	-0.001676	0.004700	6878.635550	48056.293019	3946.411346	25243.715241
51.537000	0.002842	0.000869	0.004680	0.000385	6970.442828	48552.021476	3975.433331	25467.871416
52.034500	0.024610	0.007061	-0.008858	0.023360	6958.897160	46818.769352	3879.020574	24299.731803
52.535000	-0.121821	-0.016578	-0.205600	0.191172	4821.792375	31135.968656	3254.622133	17408.135737
53.035000	-0.156264	-0.016328	-0.238174	-0.047040	6026.833936	51847.823181	3542.173594	28083.698874
53.535000	-0.160570	-0.225316	-0.229051	-0.362970	9403.556415	65535.000000	4391.272080	55135.444612
54.035000	-0.176931	-0.304026	-0.231566	-0.441681	10421.641038	65535.000000	4700.316189	65535.000000
54.535500	-0.103047	-0.120948	-0.156969	-0.258602	8729.269784	65535.000000	4275.815558	43954.901572
55.036000	-0.115691	-0.127720	-0.175996	-0.265375	8649.766496	65535.000000	4234.191957	44601.753317
55.539500	-0.165421	-0.304026	-0.221672	-0.441681	10626.092225	65535.000000	4744.571758	65535.000000
56.036500	-0.173238	-0.304026	-0.244794	-0.441681	10486.635337	65535.000000	4642.699946	65535.000000
56.537000	-0.187311	-0.304026	-0.254091	-0.441681	10241.838000	65535.000000	4603.242715	65535.000000
57.034500	-0.083097	-0.142175	-0.150780	-0.279830	9318.069418	65535.000000	4373.302781	46016.618994
57.535000	-0.097089	-0.099564	-0.169206	-0.237219	8522.673332	65535.000000	4164.372752	41977.484695
58.035000	-0.100695	-0.080400	-0.177723	-0.218055	8230.827982	65535.000000	4078.878189	40286.199138
58.535500	-0.096942	-0.062159	-0.178667	-0.198539	8037.578779	65351.350011	4019.097384	38638.877806
59.035500	-0.096210	-0.049703	-0.180116	-0.182198	7852.986875	64794.323958	3969.354581	37315.266922
59.535500	-0.097571	-0.035230	-0.179931	-0.160281	7589.759246	63741.244194	3911.293931	35616.534758
60.036500	-0.100240	-0.020678	-0.184772	-0.132623	7267.301604	61930.536654	3829.713245	33591.592173
60.536500	-0.104059	-0.013874	-0.185955	-0.117181	7073.899581	60766.601791	3790.282249	32515.909823
61.036500	-0.106071	-0.010705	-0.193714	-0.100346	6892.781635	58971.814215	3734.650031	31385.952123
61.537000	-0.112571	-0.005439	-0.196256	-0.065679	6523.463436	55296.761483	3656.248057	29192.613218
62.035000	-0.117163	-0.005658	-0.199306	-0.050003	6354.097390	53411.159937	3619.258558	28256.829671
62.535000	-0.122873	-0.005380	-0.205756	-0.054378	6343.213202	53956.024935	3615.258577	28514.626880
63.035000	-0.121626	0.000655	-0.202740	-0.047941	6301.231482	53908.620694	3608.703109	28136.223502
63.544500	-0.120269	0.001001	-0.210222	-0.066613	6466.055509	56195.323365	3630.338132	29249.433961
64.036000	-0.119333	0.002149	-0.207028	-0.068147	6486.918673	56525.866560	3639.648561	29343.027849
64.556500	-0.117108	0.003248	-0.204258	-0.065923	6486.920797	56386.883878	3640.728966	29207.403531
65.039000	-0.116737	0.005421	-0.196404	-0.055483	6402.630620	55377.052929	3635.618456	28580.127235
65.536500	-0.115614	0.004668	-0.202119	-0.048772	6356.693655	54481.639477	3611.479415	28184.762838
66.037000	-0.117749	0.005221	-0.209270	-0.040124	6269.692338	53527.828878	3581.768535	27684.252774
66.537000	-0.118856	0.005395	-0.198983	-0.032693	6202.321344	52687.582094	3587.057637	27262.007663
67.035000	-0.117919	0.004722	-0.203931	-0.025142	6151.035421	51752.293112	3564.156783	26840.356371
67.535500	-0.119129	0.004692	-0.203088	-0.019048	6095.297005	51067.260438	3554.730642	26505.308409
68.035500	-0.119198	0.004065	-0.201878	-0.015713	6069.639492	50629.148380	3550.947194	26323.947796
68.535000	-0.124271	0.002447	-0.205070	-0.009364	5985.007458	49760.259502	3534.191276	25982.527765
69.036000	-0.124982	0.001975	-0.196754	-0.013053	6006.858791	50109.197879	3555.335311	26180.310333
69.536500	-0.118079	0.002063	-0.198272	-0.015098	6073.432628	50342.009073	3556.277179	26290.683464
70.036500	-0.120287	0.001965	-0.203116	-0.016830	6069.853579	50521.156466	3550.734346	26384.572745
70.536000	-0.123862	0.001488	-0.202161	-0.014528	6026.017560	50216.863185	3548.344902	26259.839391
71.037000	-0.117365	0.001327	-0.197819	-0.023340	6141.448946	51170.358585	3571.979356	26740.797103
71.534500	-0.120746	-0.000050	-0.206887	-0.028243	6153.149559	51564.463766	3564.418398	27012.641453
72.035000	-0.119238	-0.000009	-0.205310	-0.030912	6185.458882	51869.415884	3572.126241	27161.887419
72.534500	-0.121644	-0.000115	-0.199427	-0.029178	6153.433410	51662.136862	3579.734538	27064.837748
73.035000	-0.118969	0.000011	-0.195024	-0.033977	6211.484932	52219.186481	3596.863564	27334.494153
73.535000	-0.116697	0.000631	-0.203957	-0.035722	6243.104662	52488.835812	3583.453229	27433.281827
74.036000	-0.116120	0.000113	-0.199525	-0.036784	6256.079124	52551.003238	3593.682081	27493.560754
74.539000	-0.118925	0.000549	-0.198418	-0.031240	6190.456152	51969.691219	3585.410056	27180.332591
75.036500	-0.117768	0.000389	-0.204857	-0.035017	6229.089115	52380.645539	3580.486917	27393.295677
75.537000	-0.114730	0.001239	-0.202234	-0.035550	6257.323525	52538.721223	3586.326672	27423.517620
76.037500	-0.116560	0.000066	-0.196970	-0.035921	6245.752708	52446.952259	3596.858228	27444.517991
76.535000	-0.119526	0.000493	-0.205349	-0.029821	6174.762792	51803.034859	3570.069489	27100.801906
77.034500	-0.115769	0.000625	-0.204304	-0.033512	6232.980771	52236.127466	3578.734676	27308.234186
77.535500	-0.114142	0.000909	-0.199380	-0.033134	6242.841957	52225.322627	3587.141485	27286.885454
78.035500	-0.114174	0.001630	-0.195308	-0.031620	6230.639502	52135.231050	3591.909923	27201.657348
78.536000	-0.117054	0.002329	-0.197838	-0.024806	6155.106628	51445.748863	3574.622892	26821.720067
79.039000	-0.112502	0.002919	-0.191380	-0.027414	6210.729230	51805.198045	3591.389482	26966.456348
79.536500	-0.111302	0.002408	-0.202124	-0.027135	6217.952301	51716.082775	3571.049073	26950.922894
80.037000	-0.112180	0.002304	-0.195148	-0.026372	6205.103633	51618.663576	3582.451783	26908.556315
80.537000	-0.117722	0.002195	-0.199688	-0.020035	6113.463257	50899.774018	3562.597025	26559.253989
81.037500	-0.112060	0.002297	-0.197561	-0.023119	6180.691312	51253.770280	3572.048848	26728.624016
81.535000	-0.111367	0.002851	-0.194939	-0.022645	6182.389530	51262.718745	3575.975808	26702.499412
82.035500	-0.110552	0.002026	-0.195018	-0.022440	6187.130271	51148.036220	3575.455143	26691.233736
82.535500	-0.110071	0.002434	-0.192831	-0.020724	6177.536681	51002.699733	3576.319395	26597.005116
83.036000	-0.111079	0.002557	-0.192155	-0.019399	6159.486786	50869.455160	3575.129131	26524.478949
83.536000	-0.110451	0.002905	-0.196292	-0.019260	6163.257540	50892.616190	3567.336837	26516.885905
84.036500	-0.110698	0.002935	-0.193736	-0.018157	6152.854739	50774.075074	3569.975949	26456.739599
84.536500	-0.110984	0.003097	-0.194833	-0.017586	6146.261082	50728.901495	3566.947651	26425.672209
85.034000	-0.112891	0.002402	-0.201575	-0.017047	6127.514675	50592.983489	3553.860383	26396.330421
85.536500	-0.111314	0.003337	-0.193477	-0.015943	6131.128113	50574.389142	3566.427210	26336.414351
86.034500	-0.107163	0.003688	-0.201027	-0.015315	6158.192581	50543.966884	3551.753142	26302.431364
86.535500	-0.114737	0.002172	-0.196815	-0.010889	6066.922768	49895.605390	3551.373269	26064.101555
87.035500	-0.110044	0.003472	-0.199334	-0.013724	6123.880931	50345.786456	3551.934059	26216.468479
87.535500	-0.111381	0.002354	-0.195932	-0.014566	6120.112252	50315.642539	3559.516518	26261.932553
88.036000	-0.109655	0.003304	-0.192526	-0.013377	6124.199220	50289.484544	3563.507255	26197.751591
88.538500	-0.108360	0.003480	-0.192965	-0.013080	6131.828577	50276.328798	3562.179592	26181.763194
89.036500	-0.111185	0.002513	-0.201451	-0.012497	6105.859840	50107.278297	3546.011283	26150.397792
89.537000	-0.112215	0.003105	-0.195437	-0.012199	6095.788668	50139.202270	3556.163052	26134.365211
90.037000	-0.110378	0.002269	-0.196001	-0.012353	6110.893079	50064.949832	3555.430055	26142.636842
90.537000	-0.107656	0.002779	-0.191528	-0.010899	6120.544872	49962.450646	3560.839603	26064.604989
91.038000	-0.110637	0.002554	-0.203482	-0.010003	6091.123572	49840.989709	3538.070898	26016.684561
91.535000	-0.107942	0.003127	-0.187889	-0.009987	6111.429260	49901.314788	3565.761157	26015.820975
92.035500	-0.110091	0.003096	-0.192886	-0.009439	6090.983894	49838.559882	3555.789720	25986.538599
92.535500	-0.110630	0.002665	-0.195699	-0.009212	6085.194557	49767.441554	3550.376488	25974.413698
93.036000	-0.109865	0.002156	-0.200907	-0.008231	6083.569464	49606.636225	3539.472718	25922.114104
93.536000	-0.109627	0.002772	-0.190976	-0.007710	6081.437786	49616.906702	3556.112633	25894.399619
94.037000	-0.108585	0.002707	-0.200573	-0.007596	6088.431602	49597.576320	3538.946270	25888.319995
94.537000	-0.110228	0.002680	-0.193760	-0.006814	6070.180564	49510.602173	3549.562880	25846.806258
95.073500	-0.109767	0.003008	-0.197109	-0.005963	6067.247382	49454.311833	3542.154503	25801.670427
95.534500	-0.109714	0.003371	-0.197814	-0.005387	6063.325092	49431.450274	3539.909087	25771.182779
96.035000	-0.107988	0.003211	-0.184963	-0.005154	6074.534091	49389.384951	3562.317835	25758.869213
96.535500	-0.113553	0.002653	-0.195005	-0.001353	6004.860565	48924.345886	3537.767660	25558.755311
97.035500	-0.109120	0.002344	-0.197661	-0.004711	6062.714799	49249.148482	3538.994124	25735.463208
97.536000	-0.109039	0.003597	-0.191798	-0.003667	6055.504574	49271.423422	3547.464194	25680.363108
98.066000	-0.110061	0.002988	-0.193991	-0.003642	6047.685884	49203.711119	3543.554069	25679.047381
98.536500	-0.113454	0.002586	-0.191295	0.001634	5983.683954	48601.295109	3539.030342	25402.769088
