sample name	sample
index	997
start time	 04-14-2021  04:30:11 PM
880	0.018912
Peak Time (s)	101.037
Peak Height 	0.01891
calc peak height	100,103
Baseline Time (s)	9.536
Baseline Value 	-0.002904
subtract baseline	10,4
Abs	0.044117
Peak Time (s)	101.537
Peak Height 	0.04412
calc peak height	100,103
Baseline Time (s)	10.537
Baseline Value 	0.001263
subtract baseline	10,3
PK_550	0.027133
Peak Time (s)	102.537
Peak Height 	0.02713
calc peak height	100,103
Baseline Time (s)	11.037
Baseline Value 	-3.6244E-5
subtract baseline	10,2
PK_880	0.047012
Peak Time (s)	102.537
Peak Height 	0.04701
calc peak height	100,103
Baseline Time (s)	9.036
Baseline Value 	0.001216
subtract baseline	10,1


Time (s)	A880-A510	A880-A775	A880-A975	A880	I510	I775	I975	I880	
0.036500	-0.004309	0.000162	-0.000225	0.003528	6298.748955	42072.159734	3961.028539	22140.328723
0.536500	-0.002121	0.000345	-0.001042	0.004660	6306.789439	41986.845193	3956.590605	22090.470864
1.037000	-0.001276	0.000307	-0.000469	0.003769	6320.052644	42063.469578	3959.921986	22129.687279
1.538000	-0.001919	-0.000120	0.003245	0.001387	6333.389072	42239.554015	3973.912116	22234.927394
2.037000	-0.004698	0.000543	-0.003577	0.003723	6294.310593	42088.820803	3952.967193	22131.707494
2.537500	-0.000868	0.000300	0.002637	0.001692	6339.133990	42250.015730	3971.805857	22221.445919
3.038000	0.001511	-0.000113	-0.002378	-0.000951	6378.024075	42451.907823	3966.347629	22338.805039
3.535500	-0.002171	-0.000405	-0.002282	0.000236	6340.310208	42317.777837	3963.848568	22285.988928
4.035500	-0.001653	0.000351	0.000554	0.003027	6322.845951	42134.165440	3963.952315	22162.404144
4.536000	-0.001006	0.000565	-0.000903	0.000552	6346.855691	42377.113152	3966.284592	22271.974576
5.036000	-0.001280	0.000458	0.003888	0.000499	6345.149914	42372.157293	3977.457326	22274.336146
5.536500	-0.000113	0.000172	-0.000704	0.000269	6355.938941	42367.082617	3967.389716	22284.531041
6.037000	-0.001454	0.000252	0.001116	0.000227	6345.905962	42378.147155	3971.674894	22286.404553
6.537000	0.000577	0.000125	-0.002240	0.000307	6360.996341	42359.458527	3963.783345	22282.862409
7.034500	-0.000573	-0.000167	-0.002631	-0.000416	6357.687358	42398.485504	3964.543471	22314.997242
7.535000	0.001171	0.000473	0.001670	0.000463	6364.383488	42376.774587	3972.406462	22275.896607
8.035500	-0.001078	0.000527	-0.003455	0.000108	6349.726125	42413.897656	3961.462051	22291.701120
8.535500	-0.001620	-0.000044	0.002656	-0.000679	6351.618518	42433.432422	3977.331855	22326.689823
9.036000	0.000000	0.000625	0.002145	0.000265	6356.843808	42408.440049	3973.961933	22284.690256
9.536000	-0.000465	-0.000089	-0.000435	0.000000	6355.296829	42367.793602	3968.626473	22296.484722
10.036500	0.000265	0.000491	0.001952	0.000032	6360.705572	42417.482759	3974.055472	22295.059983
10.536500	0.001481	0.000814	0.000000	0.000830	6363.943407	42374.385721	3967.718120	22259.616368
11.037000	0.001558	0.000000	-0.000697	-0.000454	6374.511727	42417.000675	3969.066974	22316.661154
11.534500	-0.000193	-0.000540	-0.000053	-0.000629	6362.275081	42383.890648	3970.952122	22324.455220
12.037500	-0.000346	0.000128	0.001991	-0.000503	6360.112720	42433.105375	3975.383515	22318.851023
12.538000	0.000652	0.000722	-0.002696	0.000391	6360.914570	42405.809134	3962.547792	22279.094629
13.035500	0.000817	0.000257	0.002069	0.000477	6361.528075	42355.923320	3973.296862	22275.286001
13.535500	-0.002028	-0.000544	0.000124	-0.000173	6344.562448	42342.259306	3970.311547	22304.171854
14.036000	-0.000511	-0.000370	0.000576	0.000951	6347.593409	42256.402439	3968.763891	22254.271133
14.535500	-0.002417	-0.000168	-0.002756	0.001484	6328.822545	42226.501925	3959.917029	22230.653871
15.038000	-0.000988	-0.000281	-0.004516	-0.000168	6352.555549	42365.682783	3959.671423	22303.968028
15.537000	-0.001744	-0.000379	0.001706	0.000090	6344.723667	42333.369527	3973.352531	22292.475065
16.034500	-0.002160	0.000731	-0.001286	0.000386	6339.238885	42407.098297	3965.787131	22279.334343
16.537000	-0.000954	-0.000463	0.001926	-0.000526	6355.579001	42381.511065	3975.284570	22319.860680
17.035500	-0.001054	0.000648	-0.000189	0.000875	6343.994399	42355.376344	3967.183322	22257.649097
17.535500	0.000372	0.000752	0.002781	0.000279	6359.620711	42418.710417	3975.399747	22284.075563
18.035500	-0.001961	-0.000428	-0.000609	0.002477	6324.703709	42113.607163	3962.550581	22186.723610
18.535500	-0.000301	0.001066	-0.001285	0.001020	6348.683705	42380.032368	3964.337456	22251.198124
19.035500	-0.000286	0.000451	0.006748	0.000817	6350.364186	42342.729891	3983.367709	22260.188686
19.536500	0.001762	0.000823	0.003750	0.001135	6363.753827	42347.586413	3975.661586	22246.093894
20.037000	-0.001814	0.000496	-0.000756	0.000924	6337.761572	42337.107670	3965.767524	22255.454355
20.536500	-0.002160	-0.000346	-0.001668	0.000350	6339.512311	42312.887934	3964.992836	22280.927591
21.037500	-0.000423	0.000057	-0.003660	0.000824	6349.254768	42306.443619	3959.361954	22259.898135
21.535000	-0.001203	-0.000225	0.002164	0.000234	6347.786744	42334.331185	3974.077265	22286.085819
22.041000	0.000523	0.000954	0.002902	0.000865	6356.256341	42383.958489	3974.324971	22258.086351
22.535500	-0.003009	-0.000350	-0.001849	0.000726	6330.093380	42278.476896	3963.718810	22264.230346
23.036000	-0.001650	-0.000188	-0.000575	0.000237	6344.312885	42337.341351	3967.758314	22285.938305
23.536000	0.000285	0.000644	0.001416	0.001004	6353.335066	42343.301953	3970.577069	22251.923249
24.036500	-0.001861	0.000247	0.005608	0.000823	6338.175713	42323.664519	3980.698696	22259.931466
24.536500	0.000761	0.000725	0.002919	0.001094	6356.324031	42342.472973	3973.836083	22247.925536
25.037000	-0.002042	-0.000702	0.005625	-0.000010	6343.201047	42313.253250	3982.680174	22296.949617
25.537000	-0.000153	0.000512	0.002209	0.001015	6349.865160	42330.326878	3972.378214	22251.415460
26.035000	-0.003985	-0.000813	-0.001652	0.001598	6315.937068	42158.058807	3962.175510	22225.578909
26.537500	-0.000864	0.000000	-0.004513	0.001013	6344.397374	42284.245218	3956.990688	22251.525794
27.035500	0.000532	-0.000386	-0.006963	0.000615	6358.255457	42285.274388	3952.339080	22269.149431
27.535500	-0.000801	0.000535	0.004772	-0.002408	6371.371029	42643.391761	3986.286613	22403.810507
28.038500	-0.005085	-0.001676	-0.003367	0.003853	6290.390082	41878.168222	3953.150434	22126.003427
28.535500	0.002084	0.000106	0.001509	0.000011	6374.990198	42384.447237	3973.079348	22295.996242
29.036500	0.000572	0.001545	0.002555	0.001202	6354.020609	42406.938171	3972.744042	22243.115279
29.537000	-0.000010	0.000266	0.005136	0.000209	6357.208689	42381.065438	3981.031542	22287.213660
30.037000	-0.003816	0.000649	-0.000399	0.005312	6288.946812	41955.684794	3956.571670	22061.838199
30.537500	-0.000370	-0.000137	-0.001495	0.000277	6353.887255	42338.388832	3965.556484	22284.171095
31.035000	-0.000502	0.000051	-0.000742	0.001648	6342.289214	42231.422719	3964.141736	22223.380012
31.535000	-0.002350	0.000108	-0.001231	0.000632	6335.883705	42328.468674	3965.349643	22268.427980
32.035000	-0.001632	0.000110	0.000907	0.005554	6303.701361	41885.750015	3958.990188	22051.200154
32.535000	-0.001142	0.001381	0.003056	0.000684	6344.791950	42439.058232	3975.100417	22266.118811
33.039000	0.000133	0.000480	0.005175	0.000218	6358.237719	42399.621004	3981.098176	22286.787931
33.536500	-0.000052	0.000027	0.003005	0.000016	6358.369392	42376.881778	3976.530193	22295.776653
34.036500	-0.001784	0.000746	-0.000464	0.003946	6314.809567	42086.976698	3959.529874	22121.873355
34.537000	-0.002426	-0.000006	0.006796	0.000740	6334.470080	42308.337108	3983.661100	22263.632227
35.036500	-0.004156	-0.000286	0.002152	0.000626	6322.065396	42293.329585	3973.143435	22268.663571
35.537000	0.001473	0.000846	0.000031	0.001387	6359.563150	42326.943614	3966.511486	22234.941775
36.038000	-0.001677	0.000884	0.004889	0.002920	6323.482331	42191.817783	3974.167500	22167.128967
36.535000	-0.001041	-0.000024	0.001855	0.000352	6348.126329	42341.830928	3973.092655	22280.845051
37.035000	-0.001432	0.000445	0.005222	0.000868	6341.128264	42337.517481	3979.695151	22257.921807
37.535500	-0.000375	0.000554	-0.000390	0.000731	6350.342891	42359.888077	3967.050570	22264.030284
38.035500	-0.000089	0.000259	0.002011	0.001862	6343.819789	42230.906724	3969.968631	22213.886176
38.537000	-0.002755	0.000868	-0.001166	0.001077	6329.354773	42356.941577	3964.479986	22248.686153
39.036500	-0.000358	0.000369	0.005593	0.001348	6345.710107	42287.301380	3979.443985	22236.663497
39.536500	-0.001918	0.000734	0.001364	0.001137	6335.329045	42339.431552	3970.150529	22246.034245
40.037000	-0.000283	-0.000052	-0.001683	0.000690	6351.372612	42308.783120	3964.181930	22265.861201
40.535000	0.000776	0.000500	0.002439	0.001393	6354.124959	42295.041981	3972.036969	22234.683501
41.035000	-0.000866	-0.000237	-0.000030	0.000791	6346.084771	42282.786955	3967.739155	22261.346611
41.565000	-0.000503	0.000829	0.000720	0.001667	6342.131898	42300.007745	3967.449069	22222.514982
42.039000	-0.002056	-0.000026	0.000264	0.001000	6335.317385	42283.011810	3967.935410	22252.103313
42.603000	-0.001101	0.000984	0.002626	0.001335	6340.088611	42344.069738	3972.602338	22237.243300
43.787500	-0.000785	0.000235	-0.000574	0.001023	6344.929454	42304.592611	3965.959269	22251.086225
43.889000	0.000270	0.000565	0.003117	0.001592	6348.674120	42282.970776	3973.141490	22225.856851
44.036500	-0.000464	-0.000185	0.004702	0.000644	6350.329748	42300.894879	3979.010095	22267.894469
44.537500	0.001209	0.001427	0.001465	0.001062	6360.037965	42409.017494	3970.555053	22249.354003
45.037500	-0.001521	0.000763	0.004157	0.001524	6335.400391	42306.917188	3975.704259	22228.853544
45.538000	-0.002868	-0.000422	-0.001484	0.002752	6315.652376	42089.368128	3959.925068	22174.542007
46.035000	-0.002546	0.000411	0.001757	0.005038	6300.672870	41958.850326	3962.104210	22073.855738
46.535500	-0.000196	-0.000501	0.004135	-0.000318	6359.846952	42359.356426	3979.928587	22310.637177
47.035500	-0.000548	0.001122	0.003497	0.001363	6344.132495	42354.065849	3974.549852	22235.995890
47.536000	-0.002304	0.000234	-0.003065	0.001957	6326.062441	42220.073101	3958.137521	22209.695492
48.036500	-0.003781	-0.000280	-0.001673	0.001783	6316.080600	42189.372227	3961.706004	22217.395774
48.536500	-0.001216	0.000064	0.000133	0.000141	6348.406326	42368.906141	3969.607779	22290.208667
49.037500	-0.002768	0.000739	-0.002201	0.001214	6328.195107	42332.855161	3961.797444	22242.588359
49.537500	-0.001736	0.000898	0.004341	0.001359	6335.018661	42334.125574	3976.512084	22236.182478
50.038000	-0.001401	0.000972	0.004306	0.003209	6323.390333	42173.804269	3972.156501	22154.399838
50.534500	0.001181	0.001065	0.004349	-0.000551	6372.344129	42522.562689	3980.967456	22321.002476
51.035000	0.006644	-0.005171	0.005800	0.015477	6291.181852	40548.944787	3947.605052	21620.697938
51.535500	0.012829	-0.016122	-0.000869	0.259957	4899.403715	23865.547786	3518.392702	13602.264587
52.035500	0.004736	-0.021393	-0.006327	0.085595	5787.517429	33784.385705	3778.982683	18843.486645
52.536000	-0.007926	-0.062037	-0.015138	-0.246952	8827.356975	63261.007339	4674.557367	37079.621475
53.036000	-0.000496	-0.097363	-0.010640	-0.297977	9667.599037	65478.035864	4906.991335	41329.144918
53.536500	-0.004615	-0.069010	-0.010559	-0.259907	9049.920558	64096.326426	4744.774760	38111.704425
54.037000	-0.004972	-0.064980	-0.011141	-0.257247	9008.009592	64289.238743	4731.578701	37897.282550
54.537000	0.003502	-0.051435	-0.006272	-0.237935	8859.836905	63481.211137	4673.965695	36379.244081
55.040000	0.000903	-0.034215	-0.005433	-0.208351	8440.960646	61784.441666	4564.848469	34180.719125
55.535000	0.002091	-0.037116	-0.009792	-0.216180	8555.209440	62454.981401	4577.640624	34748.031829
56.035000	0.002541	-0.032054	-0.010061	-0.205731	8428.673308	61722.389469	4538.457781	33993.160276
56.535000	0.006354	-0.026513	-0.007770	-0.195227	8345.591316	61055.363351	4509.078386	33252.336381
57.036000	0.006390	-0.018444	-0.009830	-0.165096	7987.403063	58181.235770	4399.137568	31224.163011
57.536000	0.007274	-0.011823	-0.008916	-0.130742	7617.136222	54769.464867	4293.244206	29077.084174
58.037000	0.000680	-0.007696	-0.006826	-0.100266	7239.017143	51723.648802	4209.536674	27309.449594
58.536500	0.000219	-0.006486	-0.005681	-0.082516	7064.746072	49903.895440	4163.046362	26335.635710
59.036500	0.001931	-0.005604	-0.001040	-0.070256	6967.102421	48691.833522	4142.301807	25685.901102
59.540000	0.002306	-0.004362	-0.003173	-0.044076	6737.990192	46143.675989	4068.329505	24358.394025
60.035000	0.003333	-0.003956	-0.005338	-0.017945	6527.798188	43663.963040	3999.064636	23110.811537
60.535500	0.002261	-0.002739	-0.002152	0.003631	6348.309782	41803.034711	3956.408260	22135.789525
61.035500	0.000179	-0.002444	-0.005285	0.016676	6233.539186	40681.211753	3920.348081	21569.356623
61.536000	0.000890	-0.002211	-0.004261	0.021889	6200.137787	40251.867726	3911.226831	21347.707248
62.036500	0.001832	-0.000277	-0.005314	0.029696	6149.878423	39751.834208	3892.223329	21020.680588
62.536500	0.003185	-0.000521	0.001763	0.032518	6139.227690	39493.544822	3901.301819	20903.953252
63.036500	0.005217	0.000501	0.001122	0.030004	6172.308378	39791.637211	3905.325245	21007.902035
63.537000	0.009576	0.001610	0.005722	0.036653	6155.597550	39325.644581	3900.922927	20734.218467
64.034500	0.007213	0.003874	0.001198	0.043938	6086.170769	38908.446869	3875.959157	20439.118124
64.537500	0.012396	0.005617	0.003379	0.050931	6073.320965	38477.327238	3865.978389	20160.466376
65.035500	0.010735	0.004235	0.010144	0.046360	6094.008531	38738.583906	3889.666413	20342.099645
65.535500	0.013906	0.006646	0.013155	0.035098	6198.712353	39880.722982	3920.384815	20797.842966
66.035500	0.015666	0.004611	0.006725	0.042156	6159.875482	39117.185710	3891.330829	20510.842041
66.535500	0.018861	0.006929	0.012375	0.052363	6109.194120	38467.538202	3881.715131	20103.925116
67.036000	0.018069	0.007917	0.006419	0.046992	6142.195063	38990.220418	3880.486791	20316.842477
67.536500	0.019111	0.008996	0.014155	0.049098	6134.492581	38905.240834	3892.365480	20233.045219
68.037000	0.018786	0.008995	0.016499	0.051248	6116.657711	38727.990134	3892.776528	20147.906061
68.537500	0.017112	0.010620	0.013407	0.038898	6194.332986	39895.445317	3912.654731	20642.736362
69.037000	0.020042	0.011800	0.020772	0.034183	6251.150285	40399.376739	3939.238213	20835.420078
69.534500	0.019462	0.011727	0.020091	0.028051	6293.029827	40924.365184	3951.475809	21089.095998
70.035500	0.020101	0.012315	0.016236	0.024261	6326.829655	41308.254490	3951.329682	21247.708443
70.535500	0.019999	0.011969	0.021531	0.021637	6346.240853	41509.650072	3969.382227	21358.352992
71.035500	0.019789	0.013500	0.021494	0.020024	6357.078745	41789.167576	3973.013919	21426.667662
71.535500	0.021572	0.013271	0.021074	0.018110	6385.815244	41939.902967	3976.470995	21508.091349
72.036500	0.023336	0.013224	0.018144	0.019281	6390.455982	41830.955950	3967.015402	21458.265676
72.537000	0.024039	0.015187	0.022122	0.017987	6406.101416	42122.978916	3979.187035	21513.347217
73.037000	0.022160	0.014353	0.018286	0.016045	6406.592338	42222.854200	3974.798092	21596.347975
73.534500	0.022330	0.015023	0.026957	0.014739	6418.205597	42401.634720	3998.142683	21652.391582
74.038000	0.023280	0.014924	0.024923	0.014000	6431.543261	42459.654138	3995.081627	21684.158258
74.535000	0.023310	0.016451	0.021536	0.013040	6439.384283	42686.041890	3989.369221	21725.490365
75.035500	0.024277	0.015807	0.023634	0.011124	6462.327839	42802.488357	3998.834350	21808.348416
75.535500	0.027304	0.016543	0.026539	0.009982	6495.759672	42974.824782	4008.463268	21857.864620
76.036000	0.025067	0.016012	0.027694	0.010165	6476.309541	42909.152233	4010.789295	21849.927126
76.535500	0.025610	0.016197	0.022741	0.007203	6504.524633	43199.248586	4006.032046	21978.991246
77.036500	0.026453	0.017742	0.027403	0.008490	6500.935504	43223.148032	4014.111501	21922.794077
77.536500	0.027622	0.018080	0.030374	0.006102	6529.764694	43476.230996	4027.073676	22027.180863
78.037000	0.025777	0.017410	0.023540	0.004954	6524.098878	43520.717851	4013.326140	22077.554842
78.540000	0.027089	0.017789	0.024232	0.002981	6550.888289	43740.611411	4019.745775	22164.439971
79.035000	0.026899	0.018331	0.025152	0.004097	6540.212951	43686.834926	4019.272517	22115.244249
79.535500	0.031131	0.020011	0.030944	0.003627	6578.795418	43888.617815	4034.508648	22135.959180
80.035500	0.026914	0.018672	0.028323	0.002547	6553.005936	43864.262690	4030.737524	22183.598742
80.535500	0.031576	0.021247	0.033363	0.004285	6577.043098	43943.033397	4038.832902	22106.976765
81.036000	0.030585	0.021507	0.028724	0.003672	6573.920039	44025.332975	4028.970634	22133.955661
81.536000	0.032403	0.021395	0.029775	0.003156	6593.205640	44063.497812	4032.799527	22156.723059
82.035500	0.032799	0.021452	0.031325	0.004514	6585.245445	43940.737495	4033.267759	22096.871269
82.537000	0.032043	0.022045	0.025652	0.003879	6584.245912	44056.590732	4021.007028	22124.837802
83.037500	0.034491	0.022398	0.029453	0.004242	6601.511646	44055.648739	4029.358839	22108.841584
83.534500	0.036985	0.023143	0.029364	0.005445	6612.249535	44012.426621	4026.213487	22055.983122
84.035500	0.035188	0.022265	0.031953	0.005603	6596.011299	43914.800620	4032.142047	22049.064038
84.535000	0.038330	0.022709	0.034287	0.005637	6621.864025	43953.396344	4037.780228	22047.539643
85.035500	0.036541	0.023693	0.033405	0.006891	6596.547776	43927.932801	4032.542577	21992.604715
85.536000	0.037970	0.022666	0.033437	0.006096	6615.040619	43906.175907	4034.567106	22027.446896
86.036500	0.038187	0.023101	0.035368	0.007385	6606.107472	43825.855566	4036.141580	21971.009623
86.536500	0.038980	0.023701	0.030878	0.008052	6607.157056	43819.522049	4023.560105	21941.892778
87.037000	0.038501	0.023477	0.032090	0.009450	6591.587761	43667.506504	4023.109758	21881.013076
87.537000	0.038777	0.023187	0.035650	0.008126	6604.859167	43764.381675	4035.015490	21938.661066
88.040500	0.040839	0.023831	0.029973	0.008965	6615.037605	43746.031464	4019.159439	21902.098393
88.537000	0.040465	0.024599	0.032305	0.009609	6606.555310	43757.626811	4023.243716	21874.064419
89.035000	0.036386	0.023596	0.037157	0.011129	6560.302279	43521.788660	4031.355034	21808.115651
89.535500	0.039457	0.025427	0.037836	0.011148	6585.446043	43691.062587	4032.968136	21807.281095
90.035500	0.039262	0.023735	0.035408	0.010349	6590.447265	43607.606653	4028.989862	21841.959518
90.536000	0.043231	0.025213	0.031789	0.011467	6614.118657	43641.189243	4017.502924	21793.486722
91.036000	0.042547	0.025112	0.036929	0.011322	6609.637953	43645.319180	4030.326390	21799.776250
91.536500	0.041558	0.024126	0.034797	0.011046	6603.707110	43578.966628	4025.805142	21811.723012
92.034000	0.042231	0.024607	0.035083	0.011966	6601.652361	43538.010896	4024.264768	21771.895327
92.540000	0.043858	0.025130	0.036260	0.011994	6614.953314	43584.161459	4027.057151	21770.684342
93.037500	0.041631	0.025125	0.036673	0.011865	6597.512130	43595.825123	4028.378962	21776.272691
93.535000	0.041261	0.025173	0.033986	0.012391	6590.088856	43551.186216	4020.579748	21753.540761
94.035500	0.043109	0.025351	0.037933	0.012701	6602.835496	43538.778516	4029.410756	21740.135747
94.535500	0.042977	0.025648	0.038950	0.013250	6597.185639	43515.318948	4030.554576	21716.468551
95.035500	0.040851	0.025554	0.037104	0.013228	6579.774002	43508.629544	4026.109809	21717.398615
95.536000	0.043573	0.026538	0.038942	0.013723	6598.200687	43554.213374	4029.378445	21696.057582
96.036500	0.045049	0.026255	0.037318	0.013844	6609.458452	43516.477501	4025.130380	21690.848702
96.537000	0.044397	0.026090	0.037100	0.013591	6606.143046	43524.773850	4025.217980	21701.766315
97.036500	0.044244	0.026086	0.036039	0.013968	6601.741000	43489.229399	4021.729128	21685.507285
97.537500	0.043634	0.026186	0.040883	0.014155	6595.134695	43481.194453	4033.067304	21677.490949
98.037500	0.043836	0.025937	0.042508	0.014269	6595.856898	43447.288460	4036.770968	21672.569543
98.534500	0.044546	0.026525	0.040783	0.014966	6595.960853	43437.126620	4030.839103	21642.610144
99.035500	0.045114	0.025914	0.038228	0.015067	6599.839516	43370.987461	4024.370564	21638.277330
99.536000	0.045681	0.026300	0.038989	0.015038	6604.786142	43409.535650	4026.291844	21639.526037
100.036500	0.044867	0.026369	0.038898	0.015991	6590.135844	43327.432692	4023.755826	21598.642221
100.536500	0.045537	0.026367	0.042528	0.015852	6596.841757	43340.215359	4032.939578	21604.631667
101.036500	0.043805	0.026695	0.037412	0.018912	6557.320282	43087.359941	4013.119386	21473.941236
101.537000	0.044103	0.026442	0.044117	0.016273	6581.486104	43308.092404	4035.800404	21586.583920
102.039500	0.046509	0.026552	0.041301	0.016819	6596.874959	43267.629833	4027.584202	21563.213651
102.537000	0.047012	0.027133	0.040795	0.017645	6594.201023	43244.969874	4024.346292	21527.934575
103.035000	0.046502	0.026727	0.043624	0.017279	6593.006969	43241.294921	4032.128448	21543.570365
103.535500	0.046519	0.027055	0.045423	0.017794	6588.886008	43223.889211	4035.272526	21521.564674
104.035500	0.047668	0.026887	0.043705	0.018473	6592.778652	43145.640999	4029.411135	21492.634119
104.536000	0.047216	0.026340	0.037934	0.017490	6597.177339	43185.874503	4017.795937	21534.534657
105.036000	0.047610	0.026916	0.040543	0.018727	6590.190391	43124.846001	4021.111911	21481.819591
105.537000	0.048267	0.027490	0.041435	0.019518	6589.087989	43104.827083	4021.357517	21448.172722
106.036500	0.049224	0.027426	0.045846	0.019923	6593.651601	43061.536775	4031.095897	21430.958094
106.537500	0.047336	0.026396	0.041872	0.019334	6582.911834	43020.931491	4022.861897	21455.997811
107.037500	0.044750	0.026908	0.044925	0.022764	6533.554520	42753.132839	4021.947984	21310.746158
107.537500	0.047831	0.027404	0.043842	0.021395	6569.993253	42924.080582	4022.640184	21368.574420
108.035000	0.046432	0.027838	0.044560	0.021836	6554.882419	42923.430644	4023.311486	21349.918778
108.535000	0.049115	0.027482	0.043857	0.022092	6574.834046	42867.262583	4020.990348	21339.123169
109.036500	0.047492	0.027484	0.041872	0.025364	6534.714630	42568.411053	4008.346662	21201.424224
109.536000	0.047038	0.027718	0.040865	0.025012	6533.877157	42621.763645	4006.782171	21216.166978
110.036000	0.047979	0.028069	0.047373	0.023996	6549.863113	42746.674333	4024.896857	21258.865228
110.536500	0.046498	0.027107	0.044983	0.023900	6538.546354	42667.516776	4019.341492	21262.909988
111.036500	0.048152	0.027503	0.040534	0.026994	6526.812687	42422.010203	4001.274281	21133.189536
111.540000	0.047873	0.028906	0.044555	0.026868	6525.570460	42561.006489	4011.169995	21138.478222
112.034500	0.047441	0.028011	0.044870	0.025850	6530.340204	42572.132112	4014.369966	21181.058074
112.534500	0.049216	0.028531	0.039301	0.027068	6534.880050	42508.679459	3998.177765	21130.133345
