sample name	sample
index	803
start time	 03-31-2021  02:52:57 PM
880	0.425779
Peak Time (s)	92.537
Peak Height 	0.4258
calc peak height	90,93
Baseline Time (s)	11.037
Baseline Value 	-0.002185
subtract baseline	10,4
Abs	0.302545
Peak Time (s)	91.536
Peak Height 	0.3025
calc peak height	90,93
Baseline Time (s)	10.036
Baseline Value 	0.002058
subtract baseline	10,3
PK_550	0.165542
Peak Time (s)	92.537
Peak Height 	0.1655
calc peak height	90,93
Baseline Time (s)	8.538
Baseline Value 	-2.9403E-4
subtract baseline	10,2
PK_880	0.280751
Peak Time (s)	91.536
Peak Height 	0.2808
calc peak height	90,93
Baseline Time (s)	9.036
Baseline Value 	0.001638
subtract baseline	10,1


Time (s)	A880-A510	A880-A775	A880-A975	A880	I510	I775	I975	I880	
0.035500	-0.000479	0.000557	0.003423	0.002039	6826.584042	41061.429035	4100.495035	22417.397022
0.536000	-0.001871	0.000343	-0.001987	0.003574	6801.852790	40909.192260	4084.891355	22349.370192
1.036500	-0.003064	0.000469	-0.003047	0.003835	6789.614662	40897.346057	4081.951639	22337.791618
1.539000	-0.002735	0.000009	0.002275	0.001838	6809.198048	41031.139987	4098.351800	22426.317432
2.036500	-0.002890	-0.000631	-0.001461	0.000846	6816.264445	41061.850273	4092.169974	22470.397193
2.537500	-0.001516	-0.000079	0.000730	0.001574	6821.734010	41046.505539	4095.462279	22438.049270
3.037500	0.002878	0.001530	0.005811	-0.000725	6878.853689	41388.826217	4112.229988	22540.493088
3.535000	-0.002715	0.000647	-0.001702	-0.000203	6826.631672	41265.375843	4093.986681	22517.179186
4.035000	0.000102	-0.000246	0.000405	-0.000913	6856.658424	41249.305019	4100.342366	22548.860618
4.535500	-0.000663	0.000077	-0.000886	-0.000731	6848.578116	41261.762872	4097.015271	22540.766462
5.036000	0.000009	0.000177	0.003611	-0.000222	6849.965555	41225.858342	4106.055599	22518.017745
5.536000	-0.000674	0.000558	0.002553	0.000772	6835.682708	41172.208823	4101.393249	22473.708046
6.039000	-0.000656	0.000188	0.005116	-0.000375	6845.598045	41240.270310	4109.838669	22524.859886
6.537000	0.000972	0.001061	-0.000731	0.000551	6851.587881	41235.602296	4094.476171	22483.572750
7.037000	0.000460	0.000561	-0.003201	0.000718	6845.791529	41177.219595	4088.558577	22476.117627
7.537500	-0.001497	0.000612	0.004068	0.000489	6831.099481	41201.674312	4105.477749	22486.317906
8.035000	0.000621	0.000421	0.002518	0.000120	6852.275894	41217.335032	4102.793417	22502.779890
8.538000	0.000607	0.000000	0.000662	0.000036	6852.868944	41187.737670	4098.778030	22506.496804
9.035500	0.000000	-0.000198	-0.002198	-0.000218	6849.857202	41192.728465	4092.905157	22517.857866
9.536000	-0.000541	-0.000579	-0.000791	-0.000198	6845.069770	41157.603274	4096.027064	22516.959688
10.036000	-0.001201	-0.000892	0.000000	-0.000779	6844.391837	41181.023932	4099.123785	22542.879322
10.536500	0.000173	0.000288	0.005169	0.000327	6846.677966	41187.476028	4108.353981	22493.522217
11.037000	0.001572	0.000221	-0.003280	0.000000	6861.424758	41210.279305	4089.989179	22508.112736
11.537000	-0.002393	0.000631	0.000474	0.000517	6823.253468	41200.832295	4097.265903	22485.057528
12.037500	-0.000057	0.000274	0.001369	0.000357	6844.464615	41183.654626	4099.652197	22492.204985
12.535000	-0.002036	0.000006	0.002191	0.000080	6829.994510	41184.437500	4102.139914	22504.540272
13.035000	-0.001331	0.000083	-0.001663	0.001306	6825.570280	41084.011760	4090.683100	22449.926965
13.535000	-0.003249	0.000496	0.002167	0.002388	6800.228635	41025.681244	4096.866131	22401.891361
14.035500	-0.003628	-0.000428	-0.003053	0.001937	6800.828948	40984.424667	4086.164399	22421.884421
14.536000	-0.001012	0.000289	0.002433	0.002710	6816.389004	40979.645104	4096.739989	22387.624150
15.038500	-0.001033	0.000178	0.000389	0.000856	6831.924454	41131.627855	4096.311280	22469.985540
15.536500	-0.001524	0.000262	0.002314	0.002439	6814.342802	41000.789909	4097.082147	22399.612123
16.037000	-0.001678	-0.000567	-0.003315	0.000745	6827.394143	41076.308769	4088.242945	22474.927790
16.537500	-0.001014	-0.000355	0.000916	0.000587	6834.366022	41108.495407	4098.105970	22481.932094
17.037500	-0.000330	0.000001	0.006953	-0.002608	6867.480653	41419.984437	4119.186142	22624.812034
17.535000	-0.001454	-0.000522	0.003764	0.001287	6824.693231	41032.890854	4102.971029	22450.783272
18.034500	-0.002666	0.000329	-0.002518	0.001977	6808.608358	41046.963361	4087.270281	22420.148166
18.535000	-0.000478	0.000061	0.001182	0.001824	6828.410130	41036.891170	4095.916689	22426.929244
19.036000	-0.000482	0.000702	-0.001468	0.002788	6820.205560	41008.759944	4087.803718	22384.141260
19.536000	0.001515	0.001005	0.001852	0.002960	6835.693923	41020.189872	4094.867905	22376.545214
20.035000	-0.000822	0.000215	0.001501	0.002382	6820.766642	41001.633226	4095.376331	22402.133962
20.536500	-0.002086	0.000787	0.004341	0.002560	6808.577379	41035.999037	4101.393473	22394.249467
21.037000	-0.000877	0.000593	0.000492	0.002736	6817.308001	41003.780849	4092.311746	22386.454462
21.537500	-0.001963	0.000188	-0.001218	0.002304	6811.779541	41006.121924	4089.445516	22405.604755
22.037500	-0.002659	0.000644	-0.001541	0.002691	6802.647327	41012.218300	4087.858269	22388.472996
22.535000	-0.000654	-0.000482	0.003662	0.002041	6825.075701	40970.654470	4101.031037	22417.283649
23.035500	-0.002478	-0.000716	-0.000782	0.001687	6812.642657	40981.157090	4091.808588	22433.026825
23.536000	-0.001015	0.000615	-0.000910	0.002406	6818.939666	41034.491629	4089.908412	22401.107610
24.035500	-0.000937	-0.000588	0.001706	0.002056	6822.563282	40960.249719	4096.575305	22416.642301
24.538500	-0.001306	-0.000581	0.003154	0.002056	6819.428809	40960.811033	4099.846265	22416.621665
25.036000	-0.000781	0.000100	0.006228	0.002200	6822.658492	41007.540544	4106.499783	22410.227156
25.537000	-0.002642	0.000506	0.003498	0.002829	6801.628426	40988.078325	4098.874427	22382.326077
26.037000	-0.000112	0.000512	-0.001662	0.002308	6827.408867	41034.023974	4088.442952	22405.439431
26.537000	-0.003040	0.000148	0.001792	0.002367	6802.167176	40997.181095	4096.066792	22402.805960
27.038000	-0.002781	-0.000625	0.003159	-0.000605	6829.482243	41189.157791	4105.897972	22535.106098
27.535500	-0.002753	-0.000072	0.001438	0.000303	6822.028287	41158.158179	4099.930939	22494.618537
28.035000	-0.000618	0.000351	0.000308	0.001958	6826.083436	41050.523232	4093.645814	22420.964193
28.538500	-0.003121	-0.000293	0.001990	0.001028	6812.779222	41075.442014	4099.538001	22462.303128
29.038500	-0.002071	0.000727	0.000749	0.002063	6812.905016	41074.088801	4094.402686	22416.295262
29.536500	-0.002726	0.000691	-0.002528	0.002398	6804.554148	41041.804273	4086.308272	22401.462470
30.036500	-0.002221	-0.000346	-0.000988	0.001441	6816.895737	41034.838231	4091.897394	22443.950036
30.537000	-0.002382	0.000102	-0.001557	0.003047	6801.982042	40933.970509	4087.026551	22372.667429
31.037500	-0.002125	0.000292	-0.006266	0.002997	6804.572380	40954.871690	4076.677340	22374.909547
31.537500	-0.002393	0.000175	-0.000643	0.001329	6816.387521	41090.019164	4092.923627	22448.935959
32.035000	-0.001683	-0.000027	0.001531	0.001782	6818.559715	41032.884976	4096.797242	22428.770540
32.535500	-0.001195	-0.000385	0.001169	0.001434	6825.634906	41031.985373	4096.764931	22444.236974
33.035500	-0.002354	0.000024	0.000663	0.000583	6823.028857	41141.977179	4097.545714	22482.128757
33.536000	-0.003554	-0.000124	-0.001621	0.001504	6805.107671	41048.693702	4090.335158	22441.137104
34.036000	-0.002455	-0.000133	0.001024	0.002223	6808.305583	40985.232297	4094.661288	22409.193976
34.536500	-0.002861	-0.000230	0.002397	0.002576	6801.911784	40946.006191	4096.959447	22393.528735
35.037000	-0.003518	0.000428	0.002287	0.002874	6793.877920	40977.334333	4096.038476	22380.322047
35.537000	-0.000291	-0.000083	0.000501	0.002619	6823.265623	40955.132507	4092.596651	22391.663105
36.037500	-0.002333	0.000418	0.001712	0.002787	6804.579395	40984.129756	4094.940720	22384.192218
36.537000	-0.000927	-0.000274	-0.000230	0.002550	6818.458922	40944.547965	4091.110225	22394.710215
37.035500	-0.003368	-0.000361	-0.001694	0.002488	6798.385404	40942.370166	4087.969917	22397.452094
37.535000	-0.004150	-0.000222	-0.001913	0.002112	6794.975084	40987.207469	4088.320562	22414.146812
38.036000	-0.002436	0.000275	-0.007320	0.003219	6800.081003	40934.139736	4073.861219	22365.081817
38.536000	-0.002780	0.000057	0.002083	0.002950	6799.447241	40938.528293	4095.408934	22376.962611
39.036000	-0.002135	0.000472	0.003140	0.003265	6802.221328	40947.138578	4097.080855	22363.001623
39.536500	-0.002195	-0.000012	0.001873	0.003055	6803.485690	40923.351139	4094.700140	22372.309048
40.036500	-0.001951	0.000385	-0.002263	0.003341	6803.136125	40933.087366	4084.795181	22359.665559
40.537500	-0.001943	-0.000196	0.000619	0.002410	6811.058128	40963.505779	4093.331748	22400.932059
41.034500	-0.001783	0.000188	-0.000027	0.003022	6807.240485	40943.674106	4090.506315	22373.795965
41.534500	-0.002747	0.000223	0.000878	0.003012	6799.201137	40947.570673	4092.559384	22374.215768
42.035000	-0.002063	-0.000174	-0.000183	0.002481	6809.445436	40959.284088	4091.369516	22397.784606
42.535500	-0.003473	0.000927	-0.002364	0.003032	6792.932094	41007.088691	4085.259506	22373.346169
43.038500	-0.001418	0.000058	-0.000502	0.002232	6816.993763	41001.052814	4091.211580	22408.803440
43.536500	0.000747	0.000901	0.001233	-0.001610	6868.151472	41411.411268	4103.803125	22580.074017
44.036500	-0.000783	0.000118	0.003689	0.001479	6828.754062	41071.959781	4102.365466	22442.261096
44.539500	-0.001143	-0.000233	0.004024	0.001453	6825.918115	41043.605274	4103.185840	22443.423231
45.037000	-0.002456	-0.000126	0.005375	0.001623	6813.363872	41038.106175	4105.869501	22435.845531
45.537500	-0.001039	0.000961	0.002005	0.002402	6818.764562	41064.988228	4096.467856	22401.271460
46.037500	0.000044	0.001179	0.007592	0.002404	6827.923851	41083.886185	4109.147157	22401.185277
46.535500	-0.000700	0.000191	-0.001555	0.001755	6827.113602	41054.262236	4089.921184	22429.984893
47.035500	-0.001581	0.000246	-0.006160	0.004383	6797.477573	40830.506954	4073.850099	22313.579782
47.538500	-0.002807	-0.000535	-0.002864	0.002510	6802.919617	40925.249572	4085.308186	22396.469750
48.036000	-0.000627	0.000816	0.000585	0.002161	6824.296382	41073.408522	4093.813648	22411.967590
48.536500	-0.001053	0.000620	0.002811	0.002264	6819.817752	41047.330014	4098.600418	22407.406739
49.036500	-0.002915	-0.000564	-0.003538	0.003246	6795.817548	40858.808634	4082.168997	22363.856091
49.539500	0.000722	0.000337	0.001880	-0.001852	6870.005870	41382.956254	4105.824865	22590.880876
50.037000	-0.000090	0.001755	0.004352	0.012202	6744.629206	40287.333002	4079.802173	21971.410026
50.537500	-0.032029	0.004467	-0.009169	0.294275	4891.330226	22680.756437	3604.470519	12974.066231
51.035000	-0.043250	-0.001840	-0.013311	0.015330	6380.615647	39717.286664	4034.796858	21836.229820
51.534500	-0.069433	-0.023402	-0.016525	-0.115091	7258.603197	50126.886929	4347.134701	28386.285746
52.035500	-0.027277	-0.177937	0.004908	-0.392880	11739.444693	65535.000000	5567.036739	51004.739788
52.536000	-0.020931	-0.167098	0.005446	-0.382041	11650.982219	65535.000000	5509.606594	49824.819493
53.036000	-0.021888	-0.150414	0.002320	-0.365357	11312.364210	65535.000000	5402.922398	48065.260960
53.536000	-0.007925	-0.108436	0.013587	-0.323379	10802.087255	65535.000000	5246.859108	43925.831987
54.036500	-0.000384	-0.078887	0.020740	-0.293830	10423.680323	65535.000000	5139.809532	41242.857824
54.536500	0.012086	-0.036964	0.026501	-0.238584	9740.848796	63651.012393	4921.968795	36690.987168
55.036500	0.032052	-0.021951	0.038314	-0.219581	9755.490645	63097.865109	4892.334998	35254.443981
55.537500	0.047261	0.001456	0.055964	-0.176402	9343.122072	60431.105723	4790.984764	32214.789651
56.035000	0.063629	0.017799	0.069833	-0.125581	8870.345935	56061.365444	4654.444901	29003.572745
56.535500	0.083985	0.035299	0.087348	-0.059838	8302.115583	50501.159191	4492.851929	25369.790038
57.035500	0.099573	0.047404	0.106082	-0.006626	7874.066200	46227.069337	4387.850843	22805.919253
57.535500	0.121931	0.061292	0.119029	0.054250	7472.627024	41812.402545	4255.063480	20233.337481
58.036000	0.131132	0.068417	0.138912	0.103038	7095.520028	38278.086072	4181.782776	18416.630389
58.536000	0.144119	0.080036	0.156118	0.144743	6842.676919	35928.665886	4123.380656	17017.530602
59.036500	0.152773	0.085229	0.167099	0.180260	6620.827435	33719.639073	4068.100338	15927.480093
59.537000	0.165247	0.092602	0.182825	0.211265	6475.600530	32102.065392	4035.221281	15046.143506
60.037000	0.181468	0.101616	0.195635	0.231502	6444.935471	31364.090943	4019.652614	14503.908485
60.535000	0.189710	0.108707	0.201614	0.262105	6279.279949	29878.614836	3969.897263	13730.453755
61.035000	0.201914	0.113406	0.210900	0.273374	6286.039915	29477.644414	3966.012012	13459.091057
61.538000	0.215718	0.122600	0.215188	0.284487	6305.572064	29361.720406	3952.775828	13198.313973
62.035500	0.221470	0.124839	0.221564	0.285966	6336.829975	29407.570949	3962.252593	13164.097679
62.536500	0.224073	0.127430	0.220828	0.299828	6255.118080	28735.557644	3934.312820	12849.081675
63.044500	0.229725	0.131647	0.237977	0.313366	6199.142108	28192.813095	3941.137719	12550.989931
63.537000	0.235065	0.133839	0.235096	0.323935	6162.575160	27714.881171	3916.004444	12324.627673
64.037000	0.239251	0.136008	0.236264	0.332990	6128.920543	27328.868742	3901.624595	12135.036877
64.537000	0.241855	0.138948	0.244570	0.340847	6093.033999	27056.924973	3902.437601	11973.707490
65.040500	0.244566	0.141108	0.243775	0.349113	6055.560504	26723.563289	3886.220388	11807.096397
65.537500	0.247173	0.142821	0.252382	0.355233	6032.106114	26485.828884	3890.637803	11685.773735
66.038500	0.252930	0.145622	0.259533	0.361732	6027.169222	26288.110838	3891.799354	11558.772631
66.536000	0.255213	0.147863	0.257299	0.368186	5999.616846	26065.009229	3876.454053	11434.540933
67.036000	0.251460	0.148368	0.252684	0.377496	5915.001808	25605.609999	3852.489542	11258.538035
67.539000	0.257309	0.149714	0.259723	0.374790	5970.128004	25815.864580	3869.180839	11309.311821
68.036500	0.261617	0.151956	0.266812	0.379134	5969.894351	25706.570063	3873.949811	11227.968688
68.536500	0.260876	0.152342	0.258568	0.380648	5955.261100	25648.105825	3857.132353	11199.812077
69.036500	0.261439	0.153933	0.263225	0.389732	5900.635955	25263.726709	3849.624809	11032.899335
69.534500	0.267303	0.156200	0.269388	0.387161	5954.701401	25511.157643	3864.507146	11079.780296
70.034500	0.267519	0.157535	0.275642	0.389520	5940.871580	25458.583657	3871.243531	11036.764366
70.538000	0.271106	0.157632	0.278604	0.391297	5952.546303	25372.478515	3873.301557	11004.490888
71.035500	0.271293	0.157711	0.275289	0.393730	5938.061079	25252.554576	3863.359349	10960.544236
71.535500	0.272900	0.159913	0.280427	0.396481	5930.713004	25224.641943	3867.473457	10911.143903
72.036000	0.273114	0.159273	0.276062	0.398013	5922.263665	25114.631936	3857.351519	10883.752032
72.536500	0.276117	0.159901	0.281710	0.399710	5930.629702	25060.714972	3864.116152	10853.540286
73.036500	0.275418	0.162224	0.281535	0.402761	5906.680042	25024.093047	3858.588880	10799.528709
73.537000	0.276826	0.163441	0.288149	0.404739	5903.051139	24985.814995	3866.546168	10764.694562
74.037000	0.277038	0.162072	0.280028	0.405063	5902.338274	24900.915960	3852.111855	10759.001623
74.534500	0.277872	0.163814	0.289021	0.407923	5889.504379	24845.099116	3862.566241	10708.973117
75.034500	0.278598	0.164026	0.285204	0.409406	5884.722827	24781.765794	3853.525243	10683.164689
75.535000	0.280708	0.164210	0.286613	0.409997	5894.321703	24761.510338	3854.912638	10672.892035
76.035500	0.278015	0.162564	0.293610	0.410226	5875.883753	24668.534316	3866.502514	10668.928913
76.535500	0.282301	0.165510	0.288171	0.413075	5884.933356	24673.332410	3852.333636	10619.669869
77.036000	0.279052	0.164632	0.288479	0.414095	5858.125071	24579.581315	3851.129258	10602.118185
77.536500	0.279469	0.164279	0.286093	0.413618	5863.721566	24585.698290	3847.910886	10610.328151
78.037000	0.279630	0.164568	0.288905	0.415006	5856.046309	24531.563447	3850.310468	10586.469189
78.536500	0.281113	0.166273	0.292670	0.416869	5853.678458	24523.846485	3853.529976	10554.588567
79.037000	0.281563	0.164794	0.288461	0.416095	5861.323626	24489.215682	3847.727111	10567.823652
79.537500	0.279811	0.164960	0.294292	0.416811	5845.920887	24462.185641	3856.383279	10555.569224
80.035000	0.278957	0.164084	0.286218	0.415232	5850.438154	24496.684974	3845.407849	10582.594504
80.535000	0.280805	0.165479	0.289854	0.416232	5855.725451	24516.100757	3849.843751	10565.471406
81.035500	0.285206	0.166916	0.292016	0.416976	5878.657396	24550.173798	3852.239873	10552.750067
81.536000	0.281584	0.164945	0.284200	0.416604	5858.270579	24471.662590	3839.746154	10559.119883
82.036500	0.281627	0.164863	0.291593	0.418667	5845.674438	24366.705067	3848.669720	10523.933579
82.536500	0.281992	0.165443	0.293336	0.419194	5844.662355	24369.283521	3850.719863	10514.970604
83.037000	0.280674	0.165070	0.294043	0.419378	5835.341648	24342.107435	3851.604702	10511.845530
83.537000	0.282524	0.166808	0.294402	0.421505	5833.627718	24323.213012	3848.621040	10475.824036
84.037000	0.281756	0.165752	0.296739	0.420868	5832.816333	24302.780346	3853.647925	10486.583787
84.535000	0.279080	0.164882	0.291088	0.421166	5814.466775	24246.036615	3843.626000	10481.546906
85.035000	0.281135	0.166094	0.298223	0.421622	5824.314521	24282.749581	3854.886043	10473.832638
85.535500	0.278263	0.165553	0.291505	0.421750	5805.865850	24250.246863	3843.346965	10471.673182
86.035500	0.280471	0.164755	0.291036	0.421888	5818.585216	24204.916728	3842.332746	10469.355137
86.536000	0.279322	0.164300	0.296446	0.421466	5814.109897	24203.309893	3852.138363	10476.479795
87.036500	0.280119	0.165606	0.296819	0.422877	5810.340131	24198.222032	3850.383575	10452.670074
87.536500	0.280888	0.165442	0.295068	0.423251	5812.763220	24172.171613	3846.803128	10446.369806
88.036500	0.278944	0.164920	0.298124	0.423261	5800.780041	24146.474499	3851.939269	10446.196814
88.537000	0.278173	0.165958	0.298357	0.424314	5789.654492	24145.791987	3850.555403	10428.507088
89.037500	0.281611	0.164164	0.301085	0.424026	5812.443746	24073.130179	3855.664862	10433.330879
89.535000	0.280120	0.164690	0.293634	0.424714	5799.086566	24065.375699	3841.950618	10421.782864
90.035000	0.278139	0.162342	0.290248	0.422421	5801.002725	24062.747256	3840.130003	10460.362475
90.535500	0.278111	0.163309	0.293626	0.423318	5795.346148	24066.128450	3844.273185	10445.250206
91.035500	0.277871	0.163425	0.294851	0.423880	5790.454810	24044.630121	3845.383956	10435.787653
91.536000	0.280751	0.165185	0.302545	0.425009	5801.145515	24074.994151	3856.476526	10416.834511
92.036500	0.279714	0.164223	0.301690	0.423675	5802.962659	24092.935742	3857.293887	10439.244789
92.536500	0.279137	0.165542	0.297093	0.425779	5786.598530	24055.126333	3845.959842	10403.947099
93.036500	0.278606	0.164889	0.298323	0.425060	5787.745745	24058.329237	3849.237723	10415.989337
93.538000	0.279581	0.165084	0.294303	0.424937	5794.431104	24073.589924	3842.695853	10418.040355
94.035000	0.282042	0.165998	0.303738	0.426645	5799.036762	24035.421040	3855.722494	10389.462253
94.535000	0.280773	0.165717	0.302445	0.426784	5790.438456	24015.231338	3853.291807	10387.137290
95.035500	0.280475	0.165663	0.303442	0.432328	5755.082509	23748.353585	3845.624070	10295.173715
95.535500	0.279190	0.163827	0.296909	0.426121	5784.837514	23956.452724	3845.075450	10398.214934
