sample name	sample
index	799
start time	 03-31-2021  02:43:42 PM


Wavelength (nm)	Absorbance
494.344910	0.091944
494.563924	0.091944
494.782919	0.091944
495.001897	-0.836781
495.220856	-0.294187
495.439797	-0.396803
495.658719	-0.659783
495.877624	-0.563721
496.096510	-0.655111
496.315378	-0.247690
496.534227	-0.219815
496.753059	-0.219407
496.971872	-0.190573
497.190667	0.010800
497.409444	0.013000
497.628203	0.014554
497.846943	0.011693
498.065665	0.013648
498.284369	0.012059
498.503055	0.013457
498.721723	0.012724
498.940372	0.011392
499.159003	0.010618
499.377616	0.010826
499.596210	0.011036
499.814787	0.011279
500.033345	0.010614
500.251885	0.011713
500.470406	0.010002
500.688910	0.010803
500.907395	0.011999
501.125862	0.012498
501.344311	0.011363
501.562742	0.009720
501.781154	0.009817
501.999548	0.010031
502.217924	0.009555
502.436282	0.009947
502.654621	0.008826
502.872942	0.008211
503.091245	0.007601
503.309530	0.008359
503.527797	0.009152
503.746045	0.009234
503.964275	0.009243
504.182487	0.009359
504.400681	0.010111
504.618856	0.010955
504.837013	0.011017
505.055152	0.011949
505.273273	0.011451
505.491376	0.012117
505.709460	0.011481
505.927526	0.011169
506.145574	0.011079
506.363604	0.010057
506.581615	0.010606
506.799608	0.010512
507.017583	0.010590
507.235540	0.010796
507.453478	0.009463
507.671399	0.010366
507.889301	0.010590
508.107185	0.010119
508.325050	0.010759
508.542898	0.009952
508.760727	0.010119
508.978538	0.009690
509.196330	0.009788
509.414105	0.010348
509.631861	0.009896
509.849599	0.010504
510.067319	0.011117
510.285021	0.010788
510.502704	0.010762
510.720369	0.010416
510.938016	0.011003
511.155645	0.011098
511.373255	0.010848
511.590848	0.011282
511.808422	0.010963
512.025977	0.010200
512.243515	0.010670
512.461034	0.010695
512.678536	0.010979
512.896018	0.010240
513.113483	0.008952
513.330930	0.009483
513.548358	0.009488
513.765768	0.009158
513.983160	0.009372
514.200533	0.008684
514.417889	0.008741
514.635226	0.008447
514.852545	0.009256
515.069845	0.010040
515.287128	0.010463
515.504392	0.010536
515.721638	0.010584
515.938866	0.010986
516.156075	0.011950
516.373267	0.012349
516.590440	0.012514
516.807594	0.011605
517.024731	0.012187
517.241850	0.011643
517.458950	0.011715
517.676032	0.012325
517.893095	0.012531
518.110141	0.011973
518.327168	0.011914
518.544177	0.012588
518.761168	0.013178
518.978141	0.012468
519.195095	0.013391
519.412031	0.013180
519.628949	0.012716
519.845849	0.012297
520.062731	0.012903
520.279594	0.012509
520.496439	0.012148
520.713266	0.012261
520.930074	0.012648
521.146865	0.011952
521.363637	0.012120
521.580391	0.011819
521.797127	0.012692
522.013844	0.012458
522.230543	0.012303
522.447224	0.012559
522.663887	0.012126
522.880532	0.012589
523.097158	0.012858
523.313766	0.012610
523.530356	0.013200
523.746928	0.012599
523.963481	0.012482
524.180017	0.012860
524.396534	0.012673
524.613032	0.012486
524.829513	0.012322
525.045975	0.011928
525.262420	0.012103
525.478845	0.012021
525.695253	0.012911
525.911643	0.013014
526.128014	0.013476
526.344367	0.013240
526.560702	0.014361
526.777018	0.013963
526.993316	0.014456
527.209597	0.014842
527.425858	0.014554
527.642102	0.013864
527.858328	0.013971
528.074535	0.013390
528.290724	0.013931
528.506894	0.013207
528.723047	0.014125
528.939181	0.013722
529.155297	0.013584
529.371395	0.014058
529.587475	0.014738
529.803536	0.014728
530.019579	0.015296
530.235604	0.015475
530.451611	0.015503
530.667600	0.015052
530.883570	0.015359
531.099522	0.015311
531.315456	0.015218
531.531372	0.014977
531.747269	0.015074
531.963148	0.014774
532.179009	0.014945
532.394852	0.015558
532.610676	0.015576
532.826482	0.015993
533.042271	0.016542
533.258040	0.016656
533.473792	0.016915
533.689525	0.016572
533.905240	0.017093
534.120937	0.016880
534.336616	0.016931
534.552277	0.017185
534.767919	0.017093
534.983543	0.016680
535.199149	0.016597
535.414736	0.016315
535.630306	0.016569
535.845857	0.016319
536.061390	0.016288
536.276904	0.016187
536.492401	0.016486
536.707879	0.016687
536.923339	0.017006
537.138781	0.017372
537.354204	0.017314
537.569610	0.017542
537.784997	0.017822
538.000366	0.018293
538.215716	0.018316
538.431049	0.018290
538.646363	0.018803
538.861659	0.018386
539.076937	0.018486
539.292196	0.018691
539.507438	0.018457
539.722661	0.018561
539.937866	0.018617
540.153052	0.018708
540.368221	0.018795
540.583371	0.018296
540.798503	0.018710
541.013617	0.018626
541.228712	0.018759
541.443789	0.019284
541.658848	0.019166
541.873889	0.019420
542.088912	0.019490
542.303916	0.019643
542.518902	0.019455
542.733870	0.019886
542.948820	0.019956
543.163752	0.019729
543.378665	0.020087
543.593560	0.020263
543.808437	0.020338
544.023295	0.020472
544.238136	0.020454
544.452958	0.021112
544.667762	0.020911
544.882548	0.020696
545.097315	0.021174
545.312064	0.020837
545.526795	0.021135
545.741508	0.020618
545.956203	0.020961
546.170879	0.020995
546.385537	0.021080
546.600177	0.021444
546.814799	0.021926
547.029402	0.022204
547.243988	0.022454
547.458555	0.022481
547.673103	0.022913
547.887634	0.022784
548.102146	0.023157
548.316640	0.023191
548.531116	0.023013
548.745574	0.022865
548.960013	0.022601
549.174435	0.022264
549.388838	0.021768
549.603222	0.021765
549.817589	0.022056
550.031937	0.021631
550.246267	0.021286
550.460579	0.021763
550.674873	0.022072
550.889148	0.021990
551.103405	0.022229
551.317644	0.023044
551.531865	0.023145
551.746068	0.023145
551.960252	0.023556
552.174418	0.023353
552.388566	0.023402
552.602696	0.023178
552.816807	0.023541
553.030900	0.024182
553.244975	0.024049
553.459032	0.024137
553.673070	0.024250
553.887091	0.024000
554.101093	0.024602
554.315077	0.024069
554.529042	0.024295
554.742990	0.024254
554.956919	0.024010
555.170830	0.023953
555.384722	0.024214
555.598597	0.024033
555.812453	0.024684
556.026291	0.024637
556.240111	0.024942
556.453913	0.025211
556.667696	0.025125
556.881461	0.025313
557.095208	0.025657
557.308937	0.025272
557.522647	0.025388
557.736339	0.025025
557.950013	0.025309
558.163669	0.025384
558.377307	0.025282
558.590926	0.025266
558.804527	0.025389
559.018110	0.025094
559.231675	0.025698
559.445221	0.025675
559.658749	0.025754
559.872259	0.025597
560.085751	0.025627
560.299225	0.026260
560.512680	0.026482
560.726117	0.026455
560.939536	0.026479
561.152937	0.026196
561.366319	0.025974
561.579683	0.026286
561.793029	0.026577
562.006357	0.026595
562.219667	0.025980
562.432958	0.026031
562.646231	0.025751
562.859486	0.025913
563.072723	0.025899
563.285941	0.026279
563.499141	0.025924
563.712323	0.025714
563.925487	0.025903
564.138632	0.026103
564.351760	0.026016
564.564869	0.026103
564.777960	0.026131
564.991032	0.025937
565.204087	0.025956
565.417123	0.026240
565.630141	0.026319
565.843140	0.026146
566.056122	0.025901
566.269085	0.026269
566.482030	0.026048
566.694957	0.026274
566.907866	0.026824
567.120756	0.026870
567.333628	0.026515
567.546482	0.026762
567.759318	0.027081
567.972135	0.027190
568.184935	0.027062
568.397716	0.027441
568.610478	0.027776
568.823223	0.027642
569.035949	0.028023
569.248657	0.028196
569.461347	0.028121
569.674019	0.028239
569.886672	0.028352
570.099308	0.028726
570.311925	0.028736
570.524523	0.028271
570.737104	0.028069
570.949666	0.028070
571.162210	0.028332
571.374736	0.028467
571.587244	0.028134
571.799733	0.028095
572.012205	0.028138
572.224658	0.028465
572.437092	0.028766
572.649509	0.029183
572.861907	0.028836
573.074287	0.029218
573.286649	0.029148
573.498993	0.029713
573.711318	0.030194
573.923625	0.029921
574.135914	0.029753
574.348185	0.029816
574.560438	0.029676
574.772672	0.029765
574.984888	0.029392
575.197086	0.029600
575.409266	0.029520
575.621427	0.029300
575.833570	0.029418
576.045695	0.029643
576.257802	0.029605
576.469890	0.029531
576.681961	0.029487
576.894013	0.029518
577.106046	0.029533
577.318062	0.029073
577.530059	0.029129
577.742039	0.029151
577.954000	0.029131
578.165942	0.028928
578.377867	0.029379
578.589773	0.029850
578.801661	0.030016
579.013531	0.030111
579.225382	0.030653
579.437216	0.030823
579.649031	0.030963
579.860828	0.030920
580.072606	0.031043
580.284367	0.031058
580.496109	0.030879
580.707833	0.030851
580.919539	0.031292
581.131227	0.031192
581.342896	0.031161
581.554547	0.031360
581.766180	0.031518
581.977795	0.031608
582.189391	0.031606
582.400969	0.031671
582.612529	0.031630
582.824071	0.031128
583.035595	0.031065
583.247100	0.031338
583.458587	0.031474
583.670056	0.031301
583.881506	0.031387
584.092939	0.031297
584.304353	0.031166
584.515749	0.031177
584.727127	0.030976
584.938486	0.031045
585.149828	0.030565
585.361151	0.030703
585.572456	0.030823
585.783742	0.031055
585.995011	0.031156
586.206261	0.031458
586.417493	0.031835
586.628706	0.032391
586.839902	0.032612
587.051079	0.033103
587.262238	0.032830
587.473379	0.032896
587.684502	0.032356
587.895606	0.032161
588.106692	0.032025
588.317760	0.031973
588.528810	0.031684
588.739841	0.031618
588.950855	0.031588
589.161850	0.031407
589.372827	0.031570
589.583785	0.032166
589.794726	0.032465
590.005648	0.032515
590.216552	0.032613
590.427437	0.032617
590.638305	0.032830
590.849154	0.032514
591.059985	0.032641
591.270798	0.032622
591.481592	0.032594
591.692369	0.032464
591.903127	0.032435
592.113867	0.032297
592.324588	0.032396
592.535292	0.032207
592.745977	0.032396
592.956644	0.032629
593.167293	0.032474
593.377923	0.032276
593.588536	0.032335
593.799130	0.032476
594.009706	0.032426
594.220263	0.032440
594.430803	0.032494
594.641324	0.032573
594.851827	0.032644
595.062312	0.032797
595.272778	0.032842
595.483227	0.032800
595.693657	0.033063
595.904069	0.033356
596.114462	0.033319
596.324838	0.033357
596.535195	0.033491
596.745534	0.033436
596.955855	0.033362
597.166157	0.033409
597.376441	0.033600
597.586707	0.033459
597.796955	0.033630
598.007185	0.034169
598.217396	0.034367
598.427589	0.034750
598.637764	0.034875
598.847921	0.035008
599.058060	0.035411
599.268180	0.035447
599.478282	0.035575
599.688366	0.035593
599.898431	0.035334
600.108479	0.035456
600.318508	0.035173
600.528519	0.035163
600.738511	0.035074
600.948486	0.034762
601.158442	0.034778
601.368380	0.034757
601.578300	0.034776
601.788202	0.034848
601.998085	0.034688
602.207950	0.034640
602.417797	0.034502
602.627626	0.034426
602.837436	0.034579
603.047228	0.034743
603.257002	0.034654
603.466758	0.034513
603.676496	0.034409
603.886215	0.034378
604.095916	0.034227
604.305599	0.034518
604.515264	0.034732
604.724910	0.034726
604.934538	0.034524
605.144148	0.034529
605.353740	0.034587
605.563314	0.034858
605.772869	0.034927
605.982406	0.035385
606.191925	0.035210
606.401425	0.035460
606.610908	0.035487
606.820372	0.035644
607.029818	0.035898
607.239246	0.036127
607.448655	0.036110
607.658047	0.036196
607.867420	0.036102
608.076775	0.036442
608.286111	0.036190
608.495430	0.036361
608.704730	0.036337
608.914012	0.036178
609.123275	0.036059
609.332521	0.035854
609.541748	0.035780
609.750957	0.035793
609.960148	0.035803
610.169321	0.036097
610.378475	0.036123
610.587611	0.036309
610.796729	0.036245
611.005829	0.036163
611.214910	0.036308
611.423974	0.036687
611.633019	0.036720
611.842045	0.036662
612.051054	0.036524
612.260044	0.036724
612.469017	0.036732
612.677970	0.036834
612.886906	0.036898
613.095824	0.036779
613.304723	0.036498
613.513604	0.036306
613.722467	0.036393
613.931311	0.036493
614.140138	0.036255
614.348946	0.036218
614.557736	0.036625
614.766507	0.036874
614.975261	0.037006
615.183996	0.037193
615.392713	0.037330
615.601412	0.037300
615.810092	0.037312
616.018754	0.037802
616.227399	0.037910
616.436024	0.037731
616.644632	0.037652
616.853222	0.037907
617.061793	0.037729
617.270346	0.037748
617.478880	0.037708
617.687397	0.037720
617.895895	0.037429
618.104375	0.037509
618.312837	0.037669
618.521281	0.037674
618.729706	0.037839
618.938113	0.038104
619.146502	0.038265
619.354873	0.038352
619.563226	0.038573
619.771560	0.038530
619.979876	0.038575
620.188174	0.038574
620.396453	0.038706
620.604715	0.038495
620.812958	0.038475
621.021183	0.038359
621.229390	0.038414
621.437578	0.038311
621.645748	0.038462
621.853900	0.038741
622.062034	0.038845
622.270150	0.038891
622.478247	0.039003
622.686326	0.039028
622.894387	0.039188
623.102430	0.039336
623.310454	0.039626
623.518461	0.039438
623.726449	0.039283
623.934418	0.039270
624.142370	0.039045
624.350303	0.038996
624.558218	0.039089
624.766115	0.039267
624.973994	0.039212
625.181855	0.038927
625.389697	0.039141
625.597521	0.039206
625.805327	0.039138
626.013114	0.039345
626.220883	0.039252
626.428634	0.039181
626.636367	0.039207
626.844082	0.039146
627.051778	0.039368
627.259457	0.039411
627.467117	0.039266
627.674758	0.039404
627.882382	0.039360
628.089987	0.039776
628.297574	0.039983
628.505143	0.039904
628.712694	0.040038
628.920226	0.039928
629.127740	0.039850
629.335236	0.039891
629.542714	0.040061
629.750174	0.040235
629.957615	0.040122
630.165038	0.040074
630.372443	0.040126
630.579829	0.040281
630.787198	0.040451
630.994548	0.040719
631.201880	0.040789
631.409194	0.040689
631.616489	0.040777
631.823766	0.040892
632.031025	0.040842
632.238266	0.041038
632.445489	0.040939
632.652693	0.041013
632.859879	0.041121
633.067047	0.041183
633.274197	0.041318
633.481329	0.041344
633.688442	0.041193
633.895537	0.041513
634.102614	0.041610
634.309672	0.041784
634.516713	0.041802
634.723735	0.041453
634.930739	0.041647
635.137724	0.041594
635.344692	0.041583
635.551641	0.041777
635.758572	0.041703
635.965485	0.041476
636.172379	0.041567
636.379256	0.041675
636.586114	0.041847
636.792954	0.041812
636.999775	0.041834
637.206579	0.041971
637.413364	0.042084
637.620131	0.041987
637.826880	0.042102
638.033610	0.042184
638.240323	0.042204
638.447017	0.042588
638.653692	0.042682
638.860350	0.042712
639.066990	0.042740
639.273611	0.042624
639.480214	0.042765
639.686798	0.042897
639.893365	0.042690
640.099913	0.042500
640.306443	0.042182
640.512955	0.042246
640.719449	0.042347
640.925924	0.042542
641.132381	0.042426
641.338820	0.042493
641.545241	0.042432
641.751644	0.042648
641.958028	0.042825
642.164394	0.043008
642.370742	0.043079
642.577071	0.043276
642.783383	0.043276
642.989676	0.043588
643.195951	0.043654
643.402207	0.043892
643.608446	0.043968
643.814666	0.044287
644.020868	0.044262
644.227052	0.044272
644.433218	0.043935
644.639365	0.043955
644.845494	0.043826
645.051605	0.043715
645.257698	0.043677
645.463772	0.043634
645.669828	0.043507
645.875866	0.043670
646.081886	0.043808
646.287888	0.044023
646.493871	0.044102
646.699836	0.044270
646.905783	0.044439
647.111712	0.044741
647.317622	0.044860
647.523514	0.044768
647.729388	0.044977
647.935244	0.044941
648.141082	0.045131
648.346901	0.045155
648.552702	0.045410
648.758485	0.045530
648.964250	0.045303
649.169996	0.045355
649.375724	0.045653
649.581434	0.045659
649.787126	0.045652
649.992800	0.045654
650.198455	0.045582
650.404092	0.045443
650.609711	0.045410
650.815311	0.045628
651.020894	0.045530
651.226458	0.045472
651.432004	0.045328
651.637532	0.045386
651.843041	0.045548
652.048532	0.045789
652.254006	0.045764
652.459460	0.045782
652.664897	0.045591
652.870315	0.045730
653.075716	0.045784
653.281097	0.045997
653.486461	0.046037
653.691807	0.046159
653.897134	0.046035
654.102443	0.046291
654.307734	0.046426
654.513006	0.046751
654.718261	0.046897
654.923497	0.047145
655.128715	0.047251
655.333915	0.047366
655.539096	0.047229
655.744259	0.047351
655.949404	0.047409
656.154531	0.047696
656.359640	0.047547
656.564730	0.047611
656.769802	0.047602
656.974856	0.047710
657.179892	0.047810
657.384909	0.047868
657.589908	0.047959
657.794889	0.048078
657.999852	0.048022
658.204797	0.048246
658.409723	0.048409
658.614631	0.048583
658.819521	0.048724
659.024393	0.048724
659.229246	0.048718
659.434081	0.048799
659.638898	0.048801
659.843697	0.048784
660.048478	0.048809
660.253240	0.048708
660.457984	0.048584
660.662710	0.048482
660.867417	0.048694
661.072107	0.048882
661.276778	0.049012
661.481431	0.049153
661.686066	0.049153
661.890682	0.049170
662.095281	0.049453
662.299861	0.049561
662.504422	0.049687
662.708966	0.049742
662.913491	0.049778
663.117999	0.049903
663.322488	0.049880
663.526958	0.050124
663.731411	0.050317
663.935845	0.050296
664.140261	0.050347
664.344659	0.050502
664.549038	0.050675
664.753400	0.050868
664.957743	0.050704
665.162068	0.050755
665.366375	0.050722
665.570663	0.050888
665.774933	0.050893
665.979185	0.050874
666.183419	0.050925
666.387635	0.050825
666.591832	0.050959
666.796011	0.051242
667.000172	0.051410
667.204315	0.051462
667.408439	0.051340
667.612545	0.051389
667.816634	0.051522
668.020703	0.051594
668.224755	0.051435
668.428788	0.051397
668.632803	0.051317
668.836800	0.051208
669.040779	0.051444
669.244739	0.051431
669.448681	0.051399
669.652605	0.051554
669.856511	0.051510
670.060399	0.051600
670.264268	0.051580
670.468119	0.051775
670.671952	0.051879
670.875767	0.051929
671.079563	0.052127
671.283341	0.052441
671.487101	0.052469
671.690843	0.052481
671.894567	0.052733
672.098272	0.052835
672.301959	0.052673
672.505628	0.052848
672.709278	0.052840
672.912911	0.052955
673.116525	0.052979
673.320121	0.052960
673.523699	0.052945
673.727258	0.053122
673.930799	0.053183
674.134322	0.053604
674.337827	0.053522
674.541314	0.053781
674.744782	0.053727
674.948232	0.053523
675.151664	0.053628
675.355078	0.053534
675.558474	0.053443
675.761851	0.053333
675.965210	0.053211
676.168551	0.053277
676.371873	0.053108
676.575178	0.053104
676.778464	0.053409
676.981732	0.053431
677.184981	0.053736
677.388213	0.053794
677.591426	0.054026
677.794621	0.054067
677.997798	0.054296
678.200956	0.054150
678.404097	0.054276
678.607219	0.054261
678.810323	0.054243
679.013408	0.054378
679.216476	0.054704
679.419525	0.054767
679.622556	0.054778
679.825569	0.054897
680.028563	0.055085
680.231540	0.055154
680.434498	0.055144
680.637438	0.055393
680.840359	0.055203
681.043263	0.054911
681.246148	0.055014
681.449015	0.055040
681.651864	0.054842
681.854694	0.055022
682.057506	0.055255
682.260301	0.055477
682.463076	0.055503
682.665834	0.055892
682.868573	0.056052
683.071295	0.055929
683.273998	0.056211
683.476682	0.056243
683.679349	0.056262
683.881997	0.056337
684.084627	0.056287
684.287239	0.056563
684.489833	0.056701
684.692408	0.057053
684.894965	0.057302
685.097504	0.057366
685.300025	0.057616
685.502527	0.057848
685.705012	0.057779
685.907478	0.057751
686.109925	0.057698
686.312355	0.057547
686.514766	0.057493
686.717159	0.057575
686.919534	0.057367
687.121891	0.057222
687.324230	0.057171
687.526550	0.057203
687.728852	0.057372
687.931136	0.057360
688.133401	0.057198
688.335649	0.057275
688.537878	0.057370
688.740089	0.057563
688.942281	0.057836
689.144456	0.057757
689.346612	0.057793
689.548750	0.057728
689.750870	0.058082
689.952971	0.058225
690.155055	0.058213
690.357120	0.058385
690.559167	0.058410
690.761195	0.058421
690.963206	0.058650
691.165198	0.058677
691.367172	0.058960
691.569128	0.058804
691.771065	0.059135
691.972984	0.059130
692.174885	0.059003
692.376768	0.059203
692.578633	0.059248
692.780479	0.059228
692.982308	0.059267
693.184118	0.059218
693.385909	0.059219
693.587683	0.059236
693.789438	0.059271
693.991175	0.059311
694.192894	0.059243
694.394595	0.059241
694.596277	0.059255
694.797941	0.059349
694.999587	0.059358
695.201215	0.059314
695.402824	0.059343
695.604416	0.059407
695.805989	0.059546
696.007543	0.059614
696.209080	0.059718
696.410598	0.059887
696.612099	0.060065
696.813580	0.060111
697.015044	0.060284
697.216490	0.060474
697.417917	0.060587
697.619326	0.060646
697.820717	0.060773
698.022089	0.060844
698.223444	0.060869
698.424780	0.060937
698.626098	0.060972
698.827397	0.060911
699.028679	0.060756
699.229942	0.060657
699.431187	0.060614
699.632414	0.060523
699.833622	0.060502
700.034813	0.060595
700.235985	0.060495
700.437139	0.060552
700.638274	0.060603
700.839392	0.060615
701.040491	0.060751
701.241572	0.060762
701.442635	0.060976
701.643679	0.060962
701.844706	0.060923
702.045714	0.060943
702.246704	0.061120
702.447675	0.061310
702.648629	0.061496
702.849564	0.061462
703.050481	0.061492
703.251380	0.061375
703.452260	0.061447
703.653122	0.061475
703.853966	0.061516
704.054792	0.061413
704.255600	0.061345
704.456389	0.061042
704.657160	0.061172
704.857913	0.061172
705.058648	0.061202
705.259365	0.061249
705.460063	0.061252
705.660743	0.061246
705.861405	0.061249
706.062048	0.061240
706.262674	0.061449
706.463281	0.061310
706.663870	0.061327
706.864441	0.061359
707.064993	0.061174
707.265527	0.061139
707.466043	0.061057
707.666541	0.060964
707.867021	0.060786
708.067482	0.060558
708.267925	0.060701
708.468350	0.060866
708.668757	0.060965
708.869145	0.061134
709.069516	0.061167
709.269868	0.061250
709.470201	0.061315
709.670517	0.061345
709.870814	0.061585
710.071093	0.061455
710.271354	0.061371
710.471597	0.061298
710.671821	0.061505
710.872028	0.061515
711.072216	0.061492
711.272385	0.061561
711.472537	0.061730
711.672670	0.061739
711.872785	0.061909
712.072882	0.061820
712.272961	0.061778
712.473021	0.061638
712.673063	0.061622
712.873087	0.061481
713.073093	0.061442
713.273081	0.061564
713.473050	0.061639
713.673001	0.061628
713.872934	0.061664
714.072849	0.061666
714.272745	0.061648
714.472623	0.061481
714.672483	0.061581
714.872325	0.061482
715.072148	0.061419
715.271954	0.061347
715.471741	0.061149
715.671509	0.060976
715.871260	0.061006
716.070992	0.060903
716.270707	0.061025
716.470403	0.061030
716.670080	0.061038
716.869740	0.060552
717.069381	0.060459
717.269004	0.060277
717.468609	0.060346
717.668195	0.060126
717.867764	0.060024
718.067314	0.059954
718.266846	0.059929
718.466360	0.059896
718.665855	0.060169
718.865332	0.060082
719.064791	0.060282
719.264232	0.060208
719.463655	0.060258
719.663059	0.060216
719.862445	0.060187
720.061813	0.060175
720.261163	0.060212
720.460494	0.060224
720.659807	0.060116
720.859102	0.059922
721.058379	0.060127
721.257638	0.060020
721.456878	0.060214
721.656100	0.060098
721.855304	0.060110
722.054490	0.060138
722.253657	0.060051
722.452806	0.060009
722.651937	0.060218
722.851050	0.060063
723.050145	0.060208
723.249221	0.059947
723.448279	0.059917
723.647319	0.059751
723.846340	0.059659
724.045344	0.059608
724.244329	0.059675
724.443296	0.059494
724.642245	0.059374
724.841175	0.059130
725.040088	0.059056
725.238982	0.059104
725.437857	0.058981
725.636715	0.058839
725.835554	0.058782
726.034376	0.058823
726.233179	0.058635
726.431963	0.058486
726.630730	0.058406
726.829478	0.058751
727.028208	0.058678
727.226920	0.058639
727.425614	0.058504
727.624289	0.058518
727.822946	0.058394
728.021585	0.058527
728.220206	0.058554
728.418808	0.058577
728.617392	0.058184
728.815958	0.058016
729.014506	0.058333
729.213036	0.058396
729.411547	0.058283
729.610040	0.058217
729.808515	0.058076
730.006972	0.058059
730.205410	0.057989
730.403831	0.057692
730.602233	0.057678
730.800616	0.057298
730.998982	0.057139
731.197329	0.057271
731.395658	0.057146
731.593969	0.057172
731.792262	0.056848
731.990536	0.056887
732.188793	0.057084
732.387031	0.057157
732.585250	0.057295
732.783452	0.057248
732.981635	0.057055
733.179800	0.056958
733.377947	0.056695
733.576076	0.056891
733.774186	0.056799
733.972278	0.056682
734.170352	0.056388
734.368408	0.056130
734.566446	0.056061
734.764465	0.055837
734.962466	0.055881
735.160449	0.055943
735.358413	0.055927
735.556360	0.055836
735.754288	0.055828
735.952198	0.055989
736.150090	0.055782
736.347963	0.055756
736.545818	0.055667
736.743655	0.055612
736.941474	0.055405
737.139275	0.055116
737.337057	0.054876
737.534821	0.054665
737.732567	0.054468
737.930295	0.054658
738.128005	0.054604
738.325696	0.054455
738.523369	0.054387
738.721024	0.054393
738.918660	0.054595
739.116279	0.054626
739.313879	0.054737
739.511461	0.054668
739.709024	0.054627
739.906570	0.054579
740.104097	0.054587
740.301606	0.054255
740.499097	0.054471
740.696569	0.054297
740.894024	0.054405
741.091460	0.054450
741.288878	0.054321
741.486277	0.054004
741.683659	0.053881
741.881022	0.053855
742.078367	0.054008
742.275694	0.053667
742.473002	0.053608
742.670293	0.053362
742.867565	0.053095
743.064819	0.053198
743.262054	0.053318
743.459272	0.053383
743.656471	0.053328
743.853652	0.053262
744.050815	0.053370
744.247959	0.053359
744.445085	0.053352
744.642194	0.053341
744.839283	0.053095
745.036355	0.052785
745.233408	0.052580
745.430444	0.052409
745.627461	0.052335
745.824459	0.052263
746.021440	0.051812
746.218402	0.051595
746.415346	0.051623
746.612272	0.051525
746.809180	0.051627
747.006069	0.051479
747.202940	0.051506
747.399793	0.051342
747.596628	0.051164
747.793444	0.051295
747.990243	0.051253
748.187023	0.051040
748.383784	0.051050
748.580528	0.050925
748.777253	0.050972
748.973960	0.051001
749.170649	0.050801
749.367320	0.050420
749.563973	0.050506
749.760607	0.050557
749.957223	0.050466
750.153821	0.050339
750.350400	0.050448
750.546962	0.050367
750.743505	0.050161
750.940030	0.050254
751.136536	0.050394
751.333025	0.050274
751.529495	0.050017
751.725947	0.049953
751.922381	0.049792
752.118796	0.049630
752.315194	0.049574
752.511573	0.049554
752.707934	0.049537
752.904276	0.049433
753.100601	0.049278
753.296907	0.049296
753.493195	0.049467
753.689465	0.049449
753.885716	0.049439
754.081949	0.049306
754.278164	0.049111
754.474361	0.049057
754.670540	0.049090
754.866700	0.049093
755.062843	0.049043
755.258967	0.048843
755.455072	0.048864
755.651160	0.048728
755.847229	0.048963
756.043280	0.049077
756.239313	0.049003
756.435328	0.049015
756.631324	0.049139
756.827302	0.049148
757.023262	0.048948
757.219204	0.049078
757.415127	0.049047
757.611033	0.048824
757.806920	0.048823
758.002788	0.048833
758.198639	0.048650
758.394471	0.048346
758.590286	0.048200
758.786081	0.048342
758.981859	0.048144
759.177619	0.047956
759.373360	0.047707
759.569083	0.047479
759.764788	0.047247
759.960474	0.047435
760.156143	0.047239
760.351793	0.047358
760.547425	0.047186
760.743038	0.047276
760.938634	0.047291
761.134211	0.047162
761.329770	0.047214
761.525311	0.047337
761.720833	0.047125
761.916338	0.047384
762.111824	0.047175
762.307292	0.047053
762.502741	0.046751
762.698173	0.046787
762.893586	0.046931
763.088981	0.046922
763.284358	0.046682
763.479716	0.046528
763.675057	0.046381
763.870379	0.046371
764.065683	0.046314
764.260968	0.046310
764.456236	0.046276
764.651485	0.046252
764.846716	0.046113
765.041929	0.046064
765.237123	0.046035
765.432299	0.045677
765.627457	0.045440
765.822597	0.045317
766.017719	0.045370
766.212822	0.045173
766.407907	0.045075
766.602974	0.044933
766.798023	0.044827
766.993054	0.044692
767.188066	0.044915
767.383060	0.045038
767.578036	0.045179
767.772993	0.045138
767.967933	0.045158
768.162854	0.045104
768.357757	0.045132
768.552642	0.045266
768.747508	0.045246
768.942356	0.045111
769.137186	0.045081
769.331998	0.045062
769.526792	0.044825
769.721567	0.044610
769.916324	0.044513
770.111063	0.044353
770.305784	0.044137
770.500486	0.044154
770.695171	0.044217
770.889837	0.044296
771.084484	0.044271
771.279114	0.044398
771.473725	0.044502
771.668318	0.044418
771.862893	0.044400
772.057450	0.044497
772.251988	0.044538
772.446509	0.044504
772.641011	0.044308
772.835494	0.044281
773.029960	0.044177
773.224407	0.044149
773.418836	0.044139
773.613247	0.044188
773.807640	0.044291
774.002014	0.044218
774.196370	0.044238
774.390708	0.044332
774.585028	0.044373
774.779330	0.044316
774.973613	0.044232
775.167878	0.044347
775.362125	0.044288
775.556354	0.044208
775.750564	0.044269
775.944756	0.044230
776.138930	0.043996
776.333086	0.043611
776.527223	0.043586
776.721343	0.043460
776.915444	0.043355
777.109526	0.043229
777.303591	0.043080
777.497637	0.042995
777.691666	0.042921
777.885676	0.042956
778.079667	0.042824
778.273641	0.042717
778.467596	0.042843
778.661533	0.042942
778.855452	0.043072
779.049352	0.042976
779.243235	0.043069
779.437099	0.043084
779.630945	0.043117
779.824773	0.043319
780.018582	0.043435
780.212373	0.043575
780.406146	0.043607
780.599901	0.043626
780.793638	0.043852
780.987356	0.043801
781.181056	0.043751
781.374738	0.043953
781.568402	0.044054
781.762047	0.044052
781.955674	0.043733
782.149283	0.043728
782.342874	0.043729
782.536447	0.043543
782.730001	0.043493
782.923537	0.043570
783.117055	0.043392
783.310555	0.043394
783.504036	0.043321
783.697499	0.043597
783.890944	0.043333
784.084371	0.043522
784.277780	0.043540
784.471170	0.043518
784.664542	0.043591
784.857896	0.043901
785.051231	0.043746
785.244549	0.043951
785.437848	0.043986
785.631129	0.044311
785.824392	0.044236
786.017636	0.044506
786.210863	0.044466
786.404071	0.044406
786.597260	0.044074
786.790432	0.044165
786.983585	0.043948
787.176721	0.043849
787.369838	0.043582
787.562936	0.043407
787.756017	0.043147
787.949079	0.043183
788.142123	0.043166
788.335149	0.043056
788.528156	0.042987
788.721146	0.043133
788.914117	0.043118
789.107070	0.043346
789.300005	0.043580
789.492921	0.043701
789.685819	0.043763
789.878699	0.043698
790.071561	0.044030
790.264405	0.044320
790.457230	0.044408
790.650037	0.044423
790.842826	0.044435
791.035597	0.044484
791.228349	0.044429
791.421084	0.044457
791.613800	0.044527
791.806497	0.044472
791.999177	0.044482
792.191838	0.044431
792.384481	0.044752
792.577106	0.044716
792.769713	0.044688
792.962301	0.044803
793.154871	0.044805
793.347423	0.044836
793.539957	0.044987
793.732473	0.044860
793.924970	0.044908
794.117449	0.044667
794.309910	0.044709
794.502353	0.044587
794.694777	0.044565
794.887183	0.044588
795.079571	0.044579
795.271941	0.044422
795.464293	0.044728
795.656626	0.044951
795.848941	0.045141
796.041238	0.045198
796.233516	0.045207
796.425777	0.045322
796.618019	0.045393
796.810243	0.045653
797.002449	0.045779
797.194636	0.045834
797.386805	0.045618
797.578956	0.045606
797.771089	0.045672
797.963204	0.045779
798.155300	0.045667
798.347378	0.045610
798.539438	0.045558
798.731480	0.045596
798.923503	0.045466
799.115509	0.045634
799.307496	0.045889
799.499465	0.046035
799.691415	0.046225
799.883348	0.046456
800.075262	0.046564
800.267158	0.046609
800.459035	0.046642
800.650895	0.046763
800.842736	0.046867
801.034559	0.046986
801.226364	0.046938
801.418150	0.047130
801.609919	0.047338
801.801669	0.047621
801.993401	0.047693
802.185114	0.047953
802.376810	0.048169
802.568487	0.048192
802.760146	0.048109
802.951787	0.048268
803.143409	0.048300
803.335014	0.048286
803.526600	0.048432
803.718168	0.048595
803.909717	0.048762
804.101249	0.048834
804.292762	0.049085
804.484257	0.049279
804.675734	0.049301
804.867192	0.049250
805.058632	0.049223
805.250054	0.049016
805.441458	0.049037
805.632844	0.048963
805.824211	0.048967
806.015561	0.048957
806.206891	0.048670
806.398204	0.048708
806.589499	0.048860
806.780775	0.049039
806.972033	0.049078
807.163273	0.049051
807.354495	0.048992
807.545698	0.048947
807.736883	0.049042
807.928050	0.049426
808.119199	0.049512
808.310329	0.049615
808.501441	0.049866
808.692535	0.050172
808.883611	0.050432
809.074669	0.050590
809.265708	0.050799
809.456729	0.051029
809.647732	0.051104
809.838717	0.051160
810.029683	0.051237
810.220632	0.051126
810.411562	0.051115
810.602474	0.051165
810.793367	0.051316
810.984242	0.051232
811.175100	0.051063
811.365938	0.050944
811.556759	0.051076
811.747562	0.051077
811.938346	0.051218
812.129112	0.051397
812.319860	0.051237
812.510589	0.051337
812.701300	0.051442
812.891994	0.051470
813.082668	0.051645
813.273325	0.051684
813.463964	0.051809
813.654584	0.051822
813.845186	0.051895
814.035769	0.052209
814.226335	0.052270
814.416882	0.052458
814.607411	0.052708
814.797922	0.052866
814.988415	0.053020
815.178889	0.053185
815.369345	0.053256
815.559783	0.053383
815.750203	0.053649
815.940605	0.053904
816.130988	0.054030
816.321353	0.054135
816.511700	0.054060
816.702028	0.054232
816.892339	0.054279
817.082631	0.054463
817.272905	0.054519
817.463161	0.054738
817.653398	0.054716
817.843617	0.054762
818.033819	0.055241
818.224001	0.055776
818.414166	0.055914
818.604312	0.056025
818.794440	0.056102
818.984550	0.056261
819.174642	0.056214
819.364716	0.056398
819.554771	0.056642
819.744808	0.056303
819.934827	0.056212
820.124827	0.056474
820.314810	0.056562
820.504774	0.056831
820.694720	0.056974
820.884647	0.056937
821.074557	0.056852
821.264448	0.056990
821.454321	0.057429
821.644176	0.057485
821.834012	0.057581
822.023831	0.057739
822.213631	0.057775
822.403413	0.057679
822.593176	0.057796
822.782922	0.057826
822.972649	0.057991
823.162358	0.057924
823.352049	0.058159
823.541721	0.058205
823.731376	0.058444
823.921012	0.058609
824.110629	0.058923
824.300229	0.059181
824.489811	0.059882
824.679374	0.059771
824.868919	0.059827
825.058445	0.059945
825.247954	0.060109
825.437444	0.060069
825.626916	0.060088
825.816370	0.060357
826.005806	0.060575
826.195223	0.060218
826.384622	0.060344
826.574003	0.060600
826.763366	0.060603
826.952711	0.060746
827.142037	0.061185
827.331345	0.061510
827.520635	0.061684
827.709906	0.061878
827.899160	0.062320
828.088395	0.062634
828.277612	0.062680
828.466810	0.062907
828.655991	0.062927
828.845153	0.062835
829.034297	0.062744
829.223423	0.062761
829.412531	0.062800
829.601620	0.062707
829.790691	0.062866
829.979744	0.062988
830.168779	0.063268
830.357795	0.063534
830.546793	0.063705
830.735773	0.064087
830.924735	0.064313
831.113679	0.064471
831.302604	0.064894
831.491511	0.064877
831.680400	0.065068
831.869271	0.065138
832.058123	0.065167
832.246957	0.065297
832.435773	0.065530
832.624571	0.065529
832.813351	0.065726
833.002112	0.065617
833.190855	0.066023
833.379580	0.066090
833.568287	0.066196
833.756975	0.066391
833.945645	0.066551
834.134297	0.066432
834.322931	0.066863
834.511547	0.066951
834.700144	0.067228
834.888723	0.067302
835.077284	0.067394
835.265826	0.067643
835.454351	0.067937
835.642857	0.068442
835.831345	0.068787
836.019815	0.068788
836.208266	0.068937
836.396699	0.069039
836.585114	0.069310
836.773511	0.069726
836.961890	0.069822
837.150250	0.069828
837.338592	0.069846
837.526916	0.070116
837.715222	0.070114
837.903510	0.070202
838.091779	0.070600
838.280030	0.070814
838.468263	0.071020
838.656477	0.071116
838.844674	0.071563
839.032852	0.071661
839.221012	0.071389
839.409153	0.071657
839.597277	0.071842
839.785382	0.071876
839.973469	0.072004
840.161538	0.072087
840.349589	0.072388
840.537621	0.072457
840.725635	0.072599
840.913631	0.073006
841.101609	0.073251
841.289568	0.073441
841.477509	0.073479
841.665432	0.073536
841.853337	0.073703
842.041224	0.074015
842.229092	0.074329
842.416942	0.074516
842.604774	0.074604
842.792588	0.074596
842.980383	0.074828
843.168160	0.075191
843.355919	0.075528
843.543660	0.075767
843.731382	0.075839
843.919087	0.075798
844.106773	0.075986
844.294441	0.076278
844.482090	0.076813
844.669722	0.077015
844.857335	0.077105
845.044930	0.076879
845.232507	0.076903
845.420065	0.077275
845.607605	0.077767
845.795127	0.078187
845.982631	0.078473
846.170117	0.078665
846.357584	0.078869
846.545033	0.079309
846.732464	0.079783
846.919877	0.080219
847.107272	0.080524
847.294648	0.080197
847.482006	0.080025
847.669346	0.079982
847.856667	0.079988
848.043971	0.079965
848.231256	0.080063
848.418523	0.080193
848.605771	0.080479
848.793002	0.080440
848.980214	0.080963
849.167408	0.081349
849.354584	0.081916
849.541742	0.082315
849.728881	0.082670
849.916002	0.083063
850.103105	0.083143
850.290190	0.083352
850.477256	0.083479
850.664304	0.083756
850.851334	0.083953
851.038346	0.084015
851.225340	0.083923
851.412315	0.084212
851.599272	0.084285
851.786211	0.084511
851.973132	0.084242
852.160034	0.084303
852.346918	0.084409
852.533784	0.084559
852.720632	0.084775
852.907462	0.084866
853.094273	0.085168
853.281066	0.085218
853.467841	0.085728
853.654598	0.086182
853.841336	0.086364
854.028056	0.086358
854.214758	0.086213
854.401442	0.086292
854.588107	0.086772
854.774755	0.086900
854.961384	0.086821
855.147995	0.086691
855.334587	0.086851
855.521162	0.087286
855.707718	0.087494
855.894256	0.087859
856.080775	0.088232
856.267277	0.088366
856.453760	0.088724
856.640225	0.089081
856.826672	0.089512
857.013101	0.089735
857.199511	0.089612
857.385903	0.089673
857.572277	0.089867
857.758633	0.090094
857.944970	0.090410
858.131290	0.090448
858.317591	0.090793
858.503873	0.090807
858.690138	0.091024
858.876384	0.091195
859.062612	0.091418
859.248822	0.091512
859.435014	0.091538
859.621188	0.091375
859.807343	0.091221
859.993480	0.091088
860.179599	0.091391
860.365699	0.091266
860.551781	0.091418
860.737846	0.091619
860.923891	0.091561
861.109919	0.091421
861.295929	0.091625
861.481920	0.091895
861.667893	0.092029
861.853848	0.091978
862.039784	0.092396
862.225702	0.092434
862.411603	0.092611
862.597484	0.092896
862.783348	0.093448
862.969193	0.093407
863.155021	0.093487
863.340830	0.093603
863.526620	0.093707
863.712393	0.093684
863.898147	0.094051
864.083883	0.094158
864.269601	0.094160
864.455301	0.093919
864.640982	0.094114
864.826645	0.094167
865.012290	0.094379
865.197917	0.094757
865.383526	0.094974
865.569116	0.095064
865.754688	0.095184
865.940242	0.095773
866.125777	0.096263
866.311295	0.096635
866.496794	0.096782
866.682275	0.096921
866.867737	0.096700
867.053182	0.096686
867.238608	0.096927
867.424016	0.097210
867.609406	0.097318
867.794778	0.097370
867.980131	0.097204
868.165466	0.097403
868.350783	0.097592
868.536082	0.097686
868.721362	0.098058
868.906625	0.098031
869.091869	0.098209
869.277094	0.098269
869.462302	0.098341
869.647491	0.098719
869.832662	0.099171
870.017815	0.099263
870.202950	0.099562
870.388066	0.099397
870.573165	0.099760
870.758245	0.099819
870.943306	0.099947
871.128350	0.100013
871.313375	0.099903
871.498382	0.099805
871.683371	0.099915
871.868342	0.100123
872.053294	0.100314
872.238229	0.100325
872.423144	0.100523
872.608042	0.100655
872.792922	0.100646
872.977783	0.101039
873.162626	0.101219
873.347451	0.101480
873.532258	0.101423
873.717046	0.101310
873.901816	0.101423
874.086568	0.101563
874.271302	0.101277
874.456017	0.101639
874.640715	0.101755
874.825394	0.102021
875.010055	0.102084
875.194697	0.102363
875.379322	0.102833
875.563928	0.102568
875.748516	0.102609
875.933085	0.102762
876.117637	0.102781
876.302170	0.102919
876.486685	0.102728
876.671182	0.102592
876.855661	0.102580
877.040121	0.102684
877.224563	0.103014
877.408987	0.102807
877.593393	0.103096
877.777780	0.102958
877.962150	0.102972
878.146501	0.103235
878.330833	0.103425
878.515148	0.103753
878.699444	0.103662
878.883722	0.103838
879.067982	0.104127
879.252224	0.104412
879.436447	0.104493
879.620653	0.104773
879.804840	0.104872
879.989008	0.104624
880.173159	0.104364
880.357291	0.104382
880.541405	0.104148
880.725501	0.104330
880.909579	0.104319
881.093638	0.104128
881.277680	0.103692
881.461703	0.103448
881.645707	0.103974
881.829694	0.103975
882.013662	0.104420
882.197612	0.104695
882.381544	0.104900
882.565458	0.104865
882.749353	0.105097
882.933230	0.105542
883.117089	0.105522
883.300930	0.105432
883.484753	0.105625
883.668557	0.105540
883.852343	0.105826
884.036111	0.105606
884.219861	0.105546
884.403592	0.106048
884.587305	0.105981
884.771000	0.106348
884.954677	0.106489
885.138335	0.106697
885.321976	0.106738
885.505598	0.106764
885.689201	0.106696
885.872787	0.106720
886.056354	0.106584
886.239904	0.106639
886.423434	0.106624
886.606947	0.106570
886.790442	0.106420
886.973918	0.106581
887.157376	0.106519
887.340816	0.106543
887.524237	0.106861
887.707641	0.106701
887.891026	0.106718
888.074393	0.106286
888.257741	0.106366
888.441072	0.106681
888.624384	0.106644
888.807678	0.106396
888.990954	0.106478
889.174211	0.106214
889.357451	0.106316
889.540672	0.106098
889.723875	0.106395
889.907059	0.106095
890.090226	0.105676
890.273374	0.105611
890.456504	0.105843
890.639616	0.105383
890.822709	0.105515
891.005785	0.105648
891.188842	0.105943
891.371881	0.105815
891.554901	0.105667
891.737904	0.105723
891.920888	0.105558
892.103854	0.105249
892.286802	0.105619
892.469731	0.105040
892.652643	0.104946
892.835536	0.104753
893.018410	0.104798
893.201267	0.104862
893.384106	0.104890
893.566926	0.104790
893.749728	0.104914
893.932511	0.105021
894.115277	0.105658
894.298024	0.105625
894.480753	0.105805
894.663464	0.105945
894.846157	0.106306
895.028831	0.106422
895.211487	0.106447
895.394125	0.106335
895.576745	0.105974
895.759346	0.105672
895.941930	0.105367
896.124495	0.105188
896.307041	0.104842
896.489570	0.104718
896.672080	0.104515
896.854573	0.104323
897.037046	0.104190
897.219502	0.104428
897.401940	0.104203
897.584359	0.104363
897.766760	0.104163
897.949143	0.104433
898.131507	0.104310
898.313854	0.104482
898.496182	0.104398
898.678492	0.104486
898.860783	0.104137
899.043057	0.104289
899.225312	0.104110
899.407549	0.104107
899.589768	0.103580
899.771968	0.103473
899.954151	0.102889
900.136315	0.102858
900.318461	0.102702
900.500588	0.102794
900.682698	0.102702
900.864789	0.102613
901.046862	0.102622
901.228917	0.102644
901.410953	0.102677
901.592971	0.103285
901.774972	0.103162
901.956953	0.103377
902.138917	0.103301
902.320862	0.103123
902.502790	0.103149
902.684699	0.103085
902.866589	0.103046
903.048462	0.102684
903.230316	0.102088
903.412152	0.102031
903.593970	0.101705
903.775770	0.101684
903.957551	0.101380
904.139314	0.101098
904.321059	0.100475
904.502786	0.100414
904.684494	0.100463
904.866185	0.100512
905.047857	0.100581
905.229510	0.100751
905.411146	0.100338
905.592763	0.100767
905.774363	0.100683
905.955943	0.101047
906.137506	0.100800
906.319051	0.100619
906.500577	0.100482
906.682085	0.099946
906.863575	0.099355
907.045046	0.099272
907.226500	0.098883
907.407935	0.098847
907.589352	0.098208
907.770750	0.098459
907.952131	0.098318
908.133493	0.097890
908.314837	0.098069
908.496163	0.098083
908.677470	0.097938
908.858760	0.097747
909.040031	0.097444
909.221284	0.097606
909.402518	0.096895
909.583735	0.096858
909.764933	0.096641
909.946113	0.096193
910.127275	0.095910
910.308418	0.096100
910.489544	0.095921
910.670651	0.095290
910.851740	0.094934
911.032810	0.094789
911.213863	0.094536
911.394897	0.094434
911.575913	0.094094
911.756911	0.093960
911.937890	0.093086
912.118851	0.093152
912.299794	0.093335
912.480719	0.093676
912.661626	0.093983
912.842514	0.093851
913.023384	0.093575
913.204236	0.093150
913.385070	0.092946
913.565886	0.092883
913.746683	0.092052
913.927462	0.091452
914.108223	0.090838
914.288965	0.090146
914.469690	0.089842
914.650396	0.089434
914.831084	0.089689
915.011754	0.089672
915.192405	0.089553
915.373038	0.089763
915.553653	0.089805
915.734250	0.089488
915.914829	0.089310
916.095389	0.088682
916.275931	0.089066
916.456455	0.088880
916.636961	0.088797
916.817448	0.088448
916.997917	0.087964
917.178368	0.088038
917.358801	0.087759
917.539216	0.087747
917.719612	0.087632
917.899990	0.087264
918.080350	0.086965
918.260692	0.086545
918.441015	0.086566
918.621320	0.086408
918.801607	0.085996
918.981876	0.085653
919.162127	0.085495
919.342359	0.085256
919.522573	0.085015
919.702769	0.084807
919.882947	0.084072
920.063106	0.083332
920.243247	0.083286
920.423370	0.083227
920.603475	0.082486
920.783562	0.081533
920.963630	0.081158
921.143680	0.080661
921.323712	0.080260
921.503725	0.080354
921.683721	0.080732
921.863698	0.080010
922.043657	0.079587
922.223598	0.080018
922.403520	0.080015
922.583424	0.079443
922.763311	0.079245
922.943178	0.078656
923.123028	0.077877
923.302859	0.077131
923.482673	0.076941
923.662467	0.076422
923.842244	0.075899
924.022003	0.075770
924.201743	0.075318
924.381465	0.074738
924.561169	0.074549
924.740854	0.074288
924.920522	0.073924
925.100171	0.073424
925.279802	0.072346
925.459414	0.071922
925.639009	0.071985
925.818585	0.071979
925.998143	0.072134
926.177683	0.072052
926.357205	0.071957
926.536708	0.071249
926.716193	0.070980
926.895660	0.071487
927.075109	0.071251
927.254539	0.070680
927.433951	0.070442
927.613345	0.069183
927.792721	0.069431
927.972079	0.068527
928.151418	0.068620
928.330739	0.068051
928.510042	0.067676
928.689327	0.067922
928.868593	0.067459
929.047841	0.067396
929.227071	0.067453
929.406283	0.066678
929.585476	0.066363
929.764652	0.065956
929.943809	0.065940
930.122948	0.065381
930.302068	0.064532
930.481171	0.064344
930.660255	0.063675
930.839321	0.062800
931.018369	0.062650
931.197398	0.062757
931.376409	0.061832
931.555402	0.060921
931.734377	0.060789
931.913334	0.060652
932.092272	0.060111
932.271192	0.059630
932.450094	0.059661
932.628978	0.058175
932.807844	0.057551
932.986691	0.057936
933.165520	0.057823
933.344331	0.057688
933.523123	0.056757
933.701898	0.056234
933.880654	0.055988
934.059392	0.056132
934.238111	0.055992
934.416813	0.055469
934.595496	0.054687
934.774161	0.054139
934.952808	0.053421
935.131437	0.053528
935.310047	0.052714
935.488639	0.052854
935.667213	0.052261
935.845769	0.051879
936.024306	0.050905
936.202825	0.050224
936.381326	0.050052
936.559809	0.049109
936.738274	0.048324
936.916720	0.047735
937.095148	0.046523
937.273558	0.046019
937.451950	0.045537
937.630323	0.045421
937.808678	0.044744
937.987015	0.044431
938.165334	0.044315
938.343635	0.043563
938.521917	0.042847
938.700181	0.042132
938.878427	0.041295
939.056655	0.041063
939.234864	0.041487
939.413055	0.041590
939.591228	0.041102
939.769383	0.040806
939.947519	0.040553
940.125638	0.040466
940.303738	0.040143
940.481820	0.040017
940.659883	0.038998
940.837929	0.037759
941.015956	0.036996
941.193965	0.036375
941.371955	0.036261
941.549928	0.035604
941.727882	0.035823
941.905818	0.036192
942.083736	0.034992
942.261636	0.035102
942.439517	0.034857
942.617380	0.034658
942.795225	0.033964
942.973052	0.032046
943.150860	0.031260
943.328651	0.029781
943.506423	0.027921
943.684176	0.028199
943.861912	0.027260
944.039629	0.027565
944.217328	0.027243
944.395009	0.026928
944.572672	0.027328
944.750317	0.026907
944.927943	0.027521
945.105551	0.028056
945.283141	0.026919
945.460712	0.027082
945.638265	0.025667
945.815801	0.025720
945.993317	0.025560
946.170816	0.025634
946.348297	0.025467
946.525759	0.024938
946.703203	0.024412
946.880629	0.025179
947.058036	0.024624
947.235425	0.024326
947.412797	0.022922
947.590149	0.022738
947.767484	0.021651
947.944800	0.020936
948.122099	0.020218
948.299379	0.018495
948.476640	0.016670
948.653884	0.015120
948.831109	0.014863
949.008316	0.014010
949.185505	0.013829
949.362676	0.013666
949.539828	0.013665
949.716962	0.013037
949.894078	0.013526
950.071176	0.012799
950.248256	0.013807
950.425317	0.013734
950.602360	0.014287
950.779385	0.013824
950.956391	0.013168
951.133380	0.012594
951.310350	0.011902
951.487302	0.012125
951.664235	0.013212
951.841151	0.011979
952.018048	0.010177
952.194927	0.010576
952.371788	0.008831
952.548631	0.008111
952.725455	0.008891
952.902261	0.009178
953.079049	0.009033
953.255819	0.007671
953.432570	0.008405
953.609303	0.009814
953.786018	0.009949
953.962715	0.011037
954.139394	0.011816
954.316054	0.009718
954.492696	0.009196
954.669320	0.009001
954.845926	0.009548
955.022513	0.009665
955.199083	0.008357
955.375634	0.006942
955.552166	0.005033
955.728681	0.004598
955.905177	0.005356
956.081655	0.003929
956.258115	0.003957
956.434557	0.003865
956.610980	0.003556
956.787385	0.002909
956.963772	0.001082
957.140141	0.003211
957.316492	0.002920
957.492824	0.002249
957.669138	0.001478
957.845434	0.000752
958.021712	0.000508
958.197971	0.000559
958.374212	0.001099
958.550435	0.002373
958.726640	0.000073
958.902826	-0.000340
959.078995	0.000139
959.255145	0.001998
959.431277	-0.000449
959.607390	-0.001021
959.783486	-0.002253
959.959563	-0.003030
960.135622	-0.003330
960.311662	-0.002673
960.487685	-0.003437
960.663689	-0.002206
960.839675	-0.002025
961.015643	-0.001180
961.191593	0.000254
961.367524	0.000977
961.543437	0.001645
961.719332	0.002184
961.895209	0.003486
962.071067	0.004975
962.246907	0.003643
962.422730	0.003445
962.598533	0.003852
962.774319	0.003695
962.950086	0.002794
963.125835	0.003973
963.301566	0.004754
963.477279	0.002723
963.652973	0.003979
963.828650	0.004120
964.004308	0.004688
964.179947	0.005996
964.355569	0.005362
964.531172	0.006575
964.706757	0.006010
964.882324	0.005346
965.057873	0.007048
965.233403	0.005151
965.408916	0.004362
965.584410	0.004601
965.759885	0.005641
965.935343	0.004722
966.110782	0.003232
966.286203	0.004173
966.461606	0.005804
966.636991	0.005539
966.812357	0.005623
966.987705	0.004976
967.163035	0.004770
967.338347	0.003169
967.513641	0.002916
967.688916	0.002819
967.864173	-0.000092
968.039412	-0.002459
968.214632	-0.002777
968.389835	-0.001724
968.565019	-0.000943
968.740185	-0.002435
968.915333	-0.000523
969.090462	0.000232
969.265573	0.001586
969.440667	0.003987
969.615741	0.005243
969.790798	0.005999
969.965836	0.004992
970.140856	0.004540
970.315858	0.005387
970.490842	0.004205
970.665808	0.004222
970.840755	0.003842
971.015684	0.003819
971.190595	0.003061
971.365487	0.003729
971.540362	0.003831
971.715218	0.004460
971.890056	0.004160
972.064875	0.004387
972.239677	0.002717
972.414460	0.004618
972.589225	0.003129
972.763972	0.003827
972.938700	0.000105
973.113411	-0.000900
973.288103	-0.000535
973.462777	0.000708
973.637432	0.000489
973.812070	0.002896
973.986689	0.001241
974.161290	0.001515
974.335873	0.001982
974.510437	0.004814
974.684984	0.004534
974.859512	0.004179
975.034022	0.002642
975.208513	0.002236
975.382987	-0.000247
975.557442	-0.001752
975.731879	-0.000870
975.906298	-0.002175
976.080698	-0.003233
976.255080	-0.001387
976.429445	-0.001445
976.603790	-0.001224
976.778118	-0.000459
976.952427	0.000657
977.126719	0.000554
977.300992	-0.001123
977.475246	-0.001940
977.649483	-0.001866
977.823701	-0.002845
977.997901	-0.002884
978.172083	-0.002387
978.346247	-0.002988
978.520392	-0.001691
978.694519	-0.000665
978.868628	0.000735
979.042719	0.002253
979.216791	0.002929
979.390845	0.004492
979.564882	0.003006
979.738899	0.001708
979.912899	0.002785
980.086880	-0.000079
980.260843	-0.000471
980.434788	0.000394
980.608715	-0.000252
980.782623	0.000591
980.956514	-0.000855
981.130386	0.001807
981.304240	0.003575
981.478075	0.001429
981.651892	0.003647
981.825692	0.004826
981.999472	0.001919
982.173235	0.003236
982.346980	0.002676
982.520706	0.002028
982.694414	-0.000362
982.868104	-0.002936
983.041775	-0.001491
983.215428	-0.002404
983.389064	-0.004075
983.562680	-0.002297
983.736279	-0.003758
983.909860	-0.003306
984.083422	-0.001911
984.256966	0.000537
984.430491	0.004195
984.603999	0.003240
984.777488	0.006270
984.950959	0.007565
985.124412	0.005017
985.297847	0.003382
985.471263	0.002037
985.644661	0.002062
985.818041	0.001555
985.991403	0.001287
986.164747	0.000840
986.338072	-0.001946
986.511379	-0.004537
986.684668	-0.002673
986.857938	-0.000852
987.031191	-0.000609
987.204425	-0.001703
987.377641	-0.003191
987.550839	-0.003501
987.724018	-0.003346
987.897179	-0.003023
988.070322	-0.001782
988.243447	-0.001740
988.416554	-0.002918
988.589642	-0.003619
988.762712	-0.002742
988.935764	-0.003174
989.108798	-0.005363
989.281813	-0.004352
989.454811	-0.004657
989.627790	-0.003344
989.800751	-0.004725
989.973693	-0.004319
990.146617	-0.005424
990.319524	-0.005436
990.492412	-0.004586
990.665281	-0.004215
990.838133	-0.003663
991.010966	-0.004182
991.183781	-0.005409
991.356578	-0.004148
991.529356	-0.004006
991.702117	-0.003108
991.874859	-0.003024
992.047583	-0.003144
992.220288	-0.002533
992.392976	-0.002995
992.565645	-0.003144
992.738296	-0.002056
992.910929	-0.002741
993.083543	-0.002132
993.256139	-0.000374
993.428718	0.000072
993.601277	-0.001294
993.773819	-0.001766
993.946342	-0.000882
994.118848	-0.000223
994.291335	-0.000951
994.463803	-0.000717
994.636254	0.000173
994.808686	-0.000107
994.981100	-0.002242
995.153496	-0.001299
995.325874	-0.001582
995.498233	-0.004170
995.670574	-0.005085
995.842897	-0.004814
996.015202	-0.004302
996.187488	-0.004934
996.359757	-0.005162
996.532007	-0.003760
996.704239	-0.002809
996.876452	-0.002073
997.048648	-0.000568
997.220825	0.001785
997.392984	0.002417
997.565124	0.000981
997.737247	-0.000464
997.909351	-0.000580
998.081437	-0.000033
998.253505	-0.001345
998.425554	-0.002651
998.597586	-0.003939
998.769599	-0.004168
998.941594	-0.004347
999.113571	-0.002125
999.285529	-0.001090
999.457469	-0.001500
999.629391	-0.002201
999.801295	-0.000672
999.973181	-0.001713
1000.145048	0.000023
1000.316897	-0.000549
1000.488728	-0.001765
1000.660541	-0.001479
1000.832335	-0.001977
1001.004111	-0.002218
1001.175869	-0.002441
1001.347609	-0.003750
1001.519331	-0.002005
1001.691034	-0.003544
1001.862719	-0.003895
1002.034386	-0.004110
1002.206035	-0.004753
1002.377665	-0.002723
1002.549277	-0.002957
1002.720871	-0.003340
1002.892447	-0.001779
1003.064004	-0.001436
1003.235544	-0.002052
1003.407065	-0.001490
1003.578568	-0.000348
1003.750052	-0.001426
1003.921519	-0.003540
1004.092967	-0.004038
1004.264397	-0.003912
1004.435809	-0.004422
1004.607202	-0.004325
1004.778577	-0.001805
1004.949934	-0.002801
1005.121273	-0.004332
1005.292594	-0.004279
1005.463896	-0.003701
1005.635180	-0.004075
1005.806446	-0.004318
1005.977694	-0.004810
1006.148923	-0.004807
1006.320135	-0.006722
1006.491328	-0.006596
1006.662503	-0.005659
1006.833659	-0.005165
1007.004798	-0.006708
1007.175918	-0.005086
1007.347020	-0.005438
1007.518103	-0.005617
1007.689169	-0.007189
1007.860216	-0.007436
1008.031245	-0.007042
1008.202256	-0.006107
1008.373248	-0.006401
1008.544223	-0.005889
1008.715179	-0.006447
1008.886117	-0.004571
1009.057036	-0.004792
1009.227938	-0.006029
1009.398821	-0.006021
1009.569686	-0.006351
1009.740533	-0.007218
1009.911361	-0.006472
1010.082172	-0.006315
1010.252964	-0.006101
1010.423738	-0.007072
1010.594493	-0.006638
1010.765231	-0.003611
1010.935950	-0.002787
1011.106651	-0.002928
1011.277334	-0.003042
1011.447998	-0.004275
1011.618645	-0.004709
1011.789273	-0.005474
1011.959882	-0.005354
1012.130474	-0.005931
1012.301048	-0.006499
1012.471603	-0.007611
1012.642140	-0.007567
1012.812658	-0.009724
1012.983159	-0.008886
1013.153641	-0.008133
1013.324105	-0.006502
1013.494551	-0.008359
1013.664979	-0.008478
1013.835388	-0.009580
1014.005779	-0.009502
1014.176152	-0.010021
1014.346507	-0.006826
1014.516843	-0.005995
1014.687162	-0.005233
1014.857462	-0.006757
1015.027744	-0.005340
1015.198007	-0.004361
1015.368252	-0.004149
1015.538480	-0.003599
1015.708689	-0.002696
1015.878879	-0.003232
1016.049052	-0.004763
1016.219206	-0.005273
1016.389342	-0.004744
1016.559460	-0.004947
1016.729559	-0.006262
1016.899641	-0.005883
1017.069704	-0.004628
1017.239749	-0.005363
1017.409775	-0.004237
1017.579784	-0.003853
1017.749774	-0.004130
1017.919746	-0.004354
1018.089700	-0.005167
1018.259635	-0.003899
1018.429553	-0.003693
1018.599452	-0.004844
1018.769333	-0.004149
1018.939195	-0.006582
1019.109040	-0.007108
1019.278866	-0.007899
1019.448674	-0.006998
1019.618464	-0.006360
1019.788235	-0.007121
1019.957989	-0.007630
1020.127724	-0.006951
1020.297441	-0.007883
1020.467139	-0.006866
1020.636820	-0.007165
1020.806482	-0.006569
1020.976126	-0.007275
1021.145752	-0.005870
1021.315359	-0.006313
1021.484948	-0.006807
1021.654519	-0.008266
1021.824072	-0.008041
1021.993607	-0.009644
1022.163123	-0.009441
1022.332621	-0.010522
1022.502101	-0.010734
1022.671563	-0.012858
1022.841007	-0.013008
1023.010432	-0.012258
1023.179839	-0.011332
1023.349228	-0.011599
1023.518598	-0.011094
1023.687951	-0.011414
1023.857285	-0.009497
1024.026601	-0.011192
1024.195899	-0.010717
1024.365178	-0.010787
1024.534439	-0.011245
1024.703682	-0.012020
1024.872907	-0.010268
1025.042114	-0.010894
1025.211302	-0.010780
1025.380472	-0.011643
1025.549624	-0.009075
1025.718758	-0.008455
1025.887873	-0.008769
1026.056970	-0.010256
1026.226049	-0.010420
1026.395110	-0.010619
1026.564153	-0.008731
1026.733177	-0.008015
1026.902183	-0.007548
1027.071171	-0.009872
1027.240141	-0.011451
1027.409092	-0.011819
1027.578026	-0.009696
1027.746940	-0.008553
1027.915837	-0.009968
1028.084716	-0.010734
1028.253576	-0.011645
1028.422418	-0.011672
1028.591242	-0.011133
1028.760048	-0.011122
1028.928835	-0.009501
1029.097604	-0.010602
1029.266355	-0.011452
1029.435088	-0.012158
1029.603803	-0.012882
1029.772499	-0.012776
1029.941177	-0.014299
1030.109837	-0.012531
1030.278478	-0.011594
1030.447102	-0.011070
1030.615707	-0.010061
1030.784294	-0.009896
1030.952863	-0.010311
1031.121413	-0.011548
1031.289945	-0.010758
1031.458460	-0.009641
1031.626955	-0.010675
1031.795433	-0.009356
1031.963892	-0.010895
1032.132334	-0.010267
1032.300756	-0.010751
1032.469161	-0.008885
1032.637548	-0.007315
1032.805916	-0.006945
1032.974266	-0.007467
1033.142598	-0.006957
1033.310911	-0.008416
1033.479207	-0.007270
1033.647484	-0.009286
1033.815743	-0.008929
1033.983983	-0.009803
1034.152206	-0.011782
1034.320410	-0.012817
1034.488596	-0.013252
1034.656764	-0.014407
1034.824914	-0.014908
1034.993045	-0.015092
1035.161158	-0.014977
1035.329253	-0.014115
1035.497330	-0.014522
1035.665388	-0.013047
1035.833428	-0.012382
1036.001450	-0.011870
1036.169454	-0.010652
1036.337440	-0.010020
1036.505407	-0.011157
1036.673356	-0.010568
1036.841287	-0.011273
1037.009200	-0.011086
1037.177094	-0.011165
1037.344970	-0.011264
1037.512828	-0.011285
1037.680668	-0.012384
1037.848489	-0.012201
1038.016293	-0.011078
1038.184078	-0.010418
1038.351845	-0.011517
1038.519593	-0.011518
1038.687324	-0.010232
1038.855036	-0.009356
1039.022730	-0.009844
1039.190406	-0.010215
1039.358063	-0.011608
1039.525702	-0.011606
1039.693323	-0.012710
1039.860926	-0.009905
1040.028511	-0.010719
1040.196077	-0.010873
1040.363625	-0.013543
1040.531155	-0.012255
1040.698667	-0.011388
1040.866161	-0.009968
1041.033636	-0.009371
1041.201093	-0.008160
1041.368532	-0.010254
1041.535952	-0.008729
1041.703355	-0.008343
1041.870739	-0.007309
1042.038105	-0.007640
1042.205452	-0.008649
1042.372782	-0.009101
1042.540093	-0.011304
1042.707386	-0.011808
1042.874661	-0.010910
1043.041918	-0.011726
1043.209156	-0.011980
1043.376376	-0.011568
1043.543578	-0.013371
1043.710762	-0.012194
1043.877927	-0.012680
1044.045074	-0.011485
1044.212203	-0.011585
1044.379314	-0.011559
1044.546407	-0.011047
1044.713481	-0.011909
1044.880537	-0.012069
1045.047575	-0.011385
1045.214595	-0.011978
1045.381596	-0.012107
1045.548579	-0.012586
1045.715544	-0.014096
1045.882491	-0.013270
1046.049420	-0.012378
1046.216330	-0.011260
1046.383222	-0.011599
1046.550096	-0.011597
1046.716951	-0.011423
1046.883789	-0.009899
1047.050608	-0.009919
1047.217409	-0.009449
1047.384192	-0.010545
1047.550956	-0.010152
1047.717703	-0.011419
1047.884431	-0.010431
1048.051140	-0.010583
1048.217832	-0.010804
1048.384505	-0.014859
1048.551161	-0.014434
1048.717798	-0.013120
1048.884416	-0.012892
1049.051017	-0.014630
1049.217599	-0.013802
1049.384163	-0.014086
1049.550709	-0.013349
1049.717237	-0.013244
1049.883746	-0.009589
1050.050237	-0.010718
1050.216710	-0.011163
1050.383165	-0.010560
1050.549601	-0.010685
1050.716019	-0.011134
1050.882420	-0.011335
1051.048801	-0.011085
1051.215165	-0.011300
1051.381510	-0.012264
1051.547837	-0.011811
1051.714146	-0.011124
1051.880437	-0.013646
1052.046709	-0.011877
1052.212964	-0.012582
1052.379200	-0.013013
1052.545417	-0.013875
1052.711617	-0.012566
1052.877798	-0.012081
1053.043961	-0.010597
1053.210106	-0.011574
1053.376233	-0.010123
1053.542341	-0.011505
1053.708432	-0.010064
1053.874504	-0.009492
1054.040557	-0.008249
1054.206593	-0.008256
1054.372610	-0.008137
1054.538609	-0.009662
1054.704590	-0.008609
1054.870553	-0.008605
1055.036497	-0.007628
1055.202424	-0.008359
1055.368331	-0.008707
1055.534221	-0.009836
1055.700093	-0.010796
1055.865946	-0.010836
1056.031781	-0.009480
1056.197598	-0.011028
1056.363397	-0.010667
1056.529177	-0.011403
1056.694939	-0.012471
1056.860683	-0.013323
1057.026409	-0.012402
1057.192116	-0.011151
1057.357806	-0.010840
1057.523477	-0.011448
1057.689130	-0.010552
1057.854764	-0.009869
1058.020381	-0.010826
1058.185979	-0.008269
1058.351559	-0.007324
1058.517120	-0.008845
1058.682664	-0.009997
1058.848189	-0.009993
1059.013696	-0.009246
1059.179185	-0.008193
1059.344656	-0.008295
1059.510108	-0.006827
1059.675542	-0.008973
1059.840958	-0.008782
1060.006356	-0.007594
1060.171735	-0.006592
1060.337096	-0.006340
1060.502439	-0.006041
1060.667764	-0.006295
1060.833071	-0.008904
1060.998359	-0.010956
1061.163629	-0.009362
1061.328881	-0.010222
1061.494115	-0.009717
1061.659330	-0.010708
1061.824527	-0.010352
1061.989706	-0.010107
1062.154867	-0.010517
1062.320010	-0.007425
1062.485134	-0.005125
1062.650240	-0.005552
1062.815328	-0.004955
1062.980398	-0.005021
1063.145449	-0.004060
1063.310482	-0.004974
1063.475497	-0.006383
1063.640494	-0.007738
1063.805473	-0.011521
1063.970433	-0.011451
1064.135375	-0.012490
1064.300299	-0.011464
1064.465204	-0.011739
1064.630092	-0.013496
1064.794961	-0.014213
1064.959812	-0.012853
1065.124645	-0.009967
1065.289459	-0.009126
1065.454256	-0.008640
1065.619034	-0.008667
1065.783793	-0.007866
1065.948535	-0.008122
1066.113258	-0.006284
1066.277964	-0.004528
1066.442651	-0.004200
1066.607319	-0.006226
1066.771970	-0.005173
1066.936602	-0.005829
1067.101216	-0.007007
1067.265812	-0.006897
1067.430389	-0.006242
1067.594949	-0.008855
1067.759490	-0.007476
1067.924013	-0.009080
1068.088518	-0.008877
1068.253004	-0.006656
1068.417472	-0.007312
1068.581922	-0.003946
1068.746354	-0.006008
1068.910768	-0.006702
1069.075163	-0.005029
1069.239540	-0.006170
1069.403899	-0.005623
1069.568240	-0.006052
1069.732562	-0.007799
1069.896866	-0.008993
1070.061152	-0.009769
1070.225420	-0.009824
1070.389670	-0.010262
1070.553901	-0.009774
1070.718114	-0.009501
1070.882309	-0.010964
1071.046486	-0.009198
1071.210644	-0.009278
1071.374784	-0.009140
1071.538906	-0.008280
1071.703010	-0.007256
1071.867096	-0.005423
1072.031163	-0.007227
1072.195212	-0.008106
1072.359243	-0.005942
1072.523256	-0.005773
1072.687250	-0.006290
1072.851226	-0.005066
1073.015184	-0.007603
1073.179124	-0.007857
1073.343045	-0.006883
1073.506949	-0.004379
1073.670834	-0.003824
1073.834701	-0.004909
1073.998549	-0.006741
1074.162380	-0.005151
1074.326192	-0.006584
1074.489986	-0.004083
1074.653761	-0.003237
1074.817519	-0.004878
1074.981258	-0.005129
1075.144979	-0.007011
1075.308682	-0.007451
1075.472367	-0.006047
1075.636033	-0.006471
1075.799681	-0.003709
1075.963311	-0.006096
1076.126923	-0.006323
1076.290516	-0.007228
1076.454092	-0.008552
1076.617649	-0.006428
1076.781187	-0.004440
1076.944708	-0.003575
1077.108210	-0.005014
1077.271695	-0.005082
1077.435160	-0.002143
1077.598608	-0.001990
1077.762038	-0.002087
1077.925449	-0.001364
1078.088842	-0.001923
1078.252217	-0.003852
1078.415573	-0.004731
1078.578912	-0.002484
1078.742232	-0.005132
1078.905534	-0.009244
1079.068817	-0.009223
1079.232083	-0.007428
1079.395330	-0.007380
1079.558559	-0.008099
1079.721770	-0.007258
1079.884962	-0.005622
1080.048136	-0.004762
1080.211293	-0.002749
1080.374430	-0.000926
1080.537550	-0.002546
1080.700651	-0.002259
1080.863735	-0.002280
1081.026800	-0.001732
1081.189846	-0.003595
1081.352875	-0.005188
1081.515885	-0.006375
1081.678877	-0.005654
1081.841851	-0.002715
1082.004807	-0.000785
1082.167744	-0.003010
1082.330663	-0.001407
1082.493564	-0.003021
1082.656447	-0.003244
1082.819312	-0.005068
1082.982158	-0.005466
1083.144986	-0.007620
1083.307796	-0.011009
1083.470587	-0.011531
1083.633361	-0.009357
1083.796116	-0.011861
1083.958853	-0.009988
1084.121571	-0.009450
1084.284272	-0.008792
1084.446954	-0.009739
1084.609618	-0.007835
1084.772264	-0.006908
1084.934892	-0.006974
1085.097501	-0.008599
1085.260092	-0.005622
1085.422665	-0.007211
1085.585220	-0.007711
1085.747756	-0.005675
1085.910274	-0.005493
1086.072774	-0.005881
1086.235256	-0.004483
1086.397720	-0.005497
1086.560165	-0.005246
1086.722592	-0.008997
1086.885001	-0.006774
1087.047392	-0.003365
1087.209764	-0.005032
1087.372119	-0.001708
1087.534455	-0.004160
1087.696772	-0.003915
1087.859072	-0.004749
1088.021353	-0.003796
1088.183616	-0.000849
1088.345861	-0.002792
1088.508088	-0.003680
1088.670296	-0.001388
1088.832486	-0.004203
1088.994658	-0.002461
1089.156812	-0.003584
1089.318948	-0.003057
1089.481065	-0.004807
1089.643164	-0.007035
1089.805245	-0.004815
1089.967308	-0.003590
1090.129352	-0.008535
1090.291378	-0.008110
1090.453386	-0.008199
1090.615376	-0.007682
1090.777347	-0.007134
1090.939301	-0.007712
1091.101236	-0.006041
1091.263153	-0.009343
1091.425051	-0.011043
1091.586932	-0.005876
1091.748794	-0.006704
1091.910638	-0.005889
1092.072463	-0.007699
1092.234271	-0.003283
1092.396060	-0.001373
1092.557831	-0.001991
1092.719584	-0.001712
1092.881319	-0.000605
1093.043035	-0.001853
1093.204733	-0.001197
1093.366413	-0.000720
1093.528075	0.000065
1093.689718	-0.004297
1093.851343	-0.005425
1094.012950	-0.004461
1094.174539	-0.002245
1094.336110	-0.002457
1094.497662	-0.004268
1094.659196	-0.003997
1094.820712	-0.005374
1094.982210	-0.004185
1095.143689	-0.003194
1095.305151	-0.003861
1095.466594	-0.005252
1095.628018	-0.004389
1095.789425	-0.004599
1095.950813	-0.002289
1096.112183	-0.001272
1096.273535	-0.001079
1096.434869	-0.002314
1096.596184	-0.001281
1096.757482	0.000730
1096.918761	0.003683
1097.080021	0.003458
1097.241264	0.003298
1097.402488	0.001166
1097.563694	-0.000668
1097.724882	0.000327
1097.886052	0.001135
1098.047203	-0.000035
1098.208336	0.006176
1098.369451	0.003188
1098.530548	0.002436
1098.691627	-0.000462
1098.852687	0.001570
1099.013729	0.000985
1099.174753	0.002617
1099.335758	0.000476
1099.496746	0.000961
1099.657715	-0.004692
1099.818666	-0.002671
1099.979599	-0.002075
1100.140513	-0.000768
1100.301409	-0.002239
1100.462287	-0.002174
1100.623147	-0.004434
1100.783989	-0.004068
1100.944812	-0.007481
1101.105617	-0.008325
1101.266404	-0.010610
1101.427173	-0.010043
1101.587923	-0.010593
1101.748656	-0.009081
1101.909370	-0.006752
1102.070066	-0.004757
1102.230743	-0.006661
1102.391403	-0.003925
1102.552044	-0.003880
1102.712667	-0.004390
1102.873271	-0.004390
1103.033858	-0.004865
1103.194426	-0.004523
1103.354976	-0.007421
1103.515508	-0.011145
1103.676021	-0.004344
1103.836517	-0.005450
1103.996994	-0.005509
1104.157453	-0.005861
1104.317893	-0.008596
1104.478316	-0.005476
1104.638720	-0.005073
1104.799106	-0.004752
1104.959474	-0.004780
1105.119823	-0.006192
1105.280155	-0.005880
1105.440468	-0.004646
1105.600763	-0.003300
1105.761039	-0.000860
1105.921298	-0.002079
1106.081538	-0.002634
1106.241760	-0.002023
1106.401964	0.001168
1106.562149	0.001385
1106.722316	0.003268
1106.882465	0.003019
1107.042596	0.004640
1107.202709	0.003126
1107.362803	0.004069
1107.522879	0.004703
1107.682937	0.006305
1107.842977	0.007962
1108.002999	0.004754
1108.163002	0.002034
1108.322987	0.001614
1108.482954	-0.001185
1108.642902	0.000554
1108.802833	0.001317
1108.962745	0.000673
1109.122639	-0.000577
1109.282515	-0.002445
1109.442372	-0.003532
1109.602211	-0.002945
1109.762032	-0.003568
1109.921835	-0.004766
1110.081620	-0.005241
1110.241386	-0.004081
1110.401134	-0.003460
1110.560864	-0.000917
1110.720576	-0.000298
1110.880269	0.000006
1111.039945	0.004338
1111.199602	0.006547
1111.359240	0.011504
1111.518861	0.012261
1111.678463	0.009240
1111.838047	0.005016
1111.997613	0.002822
1112.157161	0.003220
1112.316690	0.006367
1112.476202	0.004302
1112.635695	0.003068
1112.795169	0.004118
1112.954626	0.005224
1113.114064	0.004694
1113.273484	0.008934
1113.432886	0.008405
1113.592270	0.007725
1113.751635	0.008104
1113.910983	0.004991
1114.070312	0.002922
1114.229622	-0.001655
1114.388915	-0.000477
1114.548189	0.000241
1114.707445	-0.000841
1114.866683	0.000689
1115.025903	0.000537
1115.185104	-0.003895
1115.344287	-0.003287
1115.503452	0.001095
1115.662599	0.006205
1115.821727	0.002561
1115.980838	0.009895
1116.139930	0.009470
1116.299004	0.005553
1116.458059	0.004484
1116.617097	0.007972
1116.776116	0.006907
1116.935117	0.005061
1117.094099	0.002610
1117.253064	0.003710
1117.412010	-0.000758
1117.570938	-0.000452
1117.729848	0.005942
1117.888740	0.008307
1118.047613	0.007034
1118.206468	0.009238
1118.365305	0.011159
1118.524124	0.014649
1118.682924	0.014985
1118.841707	0.015254
1119.000471	0.014483
1119.159216	0.015371
1119.317944	0.014292
1119.476653	0.013045
1119.635344	0.013169
1119.794017	0.010908
1119.952672	0.007758
1120.111308	0.007242
1120.269927	0.006130
1120.428527	0.011425
1120.587108	0.010854
1120.745672	0.009883
1120.904217	0.018724
1121.062744	0.020311
1121.221253	0.018823
1121.379744	0.016775
1121.538216	0.016053
1121.696671	0.019024
1121.855107	0.013973
1122.013524	0.011318
1122.171924	0.010512
1122.330305	0.003200
1122.488668	-0.000696
1122.647013	0.000206
1122.805340	-0.002523
1122.963648	0.001151
1123.121938	0.000254
1123.280210	0.000389
1123.438464	-0.001273
1123.596700	-0.000242
1123.754917	0.001002
1123.913116	0.004427
1124.071297	0.009460
1124.229459	0.008121
1124.387604	0.007395
1124.545730	0.001050
1124.703838	-0.001205
1124.861928	0.001970
1125.019999	0.003175
1125.178052	0.003911
1125.336088	0.005804
1125.494104	-0.000205
1125.652103	0.004198
1125.810083	0.006520
1125.968045	0.009373
1126.125989	0.012269
1126.283915	0.013000
1126.441823	0.009736
1126.599712	0.009157
1126.757583	0.006276
1126.915436	0.007159
1127.073270	0.008526
1127.231087	0.005486
1127.388885	0.004385
1127.546665	0.001226
1127.704426	0.000395
1127.862170	0.001697
1128.019895	0.002630
1128.177602	0.004115
1128.335291	0.003971
1128.492961	0.005874
1128.650614	0.003931
1128.808248	0.007128
1128.965864	0.009087
1129.123461	0.006915
1129.281041	0.010205
1129.438602	0.010493
1129.596145	0.011675
1129.753670	0.009223
1129.911176	0.005240
1130.068665	0.009059
1130.226135	0.008443
1130.383587	0.007754
1130.541020	0.008920
1130.698436	0.007469
1130.855833	0.007083
1131.013212	0.009398
1131.170573	0.010981
1131.327915	0.013396
1131.485239	0.012278
1131.642545	0.011460
1131.799833	0.013716
1131.957103	0.013951
1132.114354	0.014367
1132.271588	0.017111
1132.428803	0.008129
1132.585999	0.014976
1132.743178	0.013459
1132.900338	0.011646
1133.057480	0.016322
1133.214604	0.019023
1133.371710	0.016263
1133.528797	0.017760
1133.685866	0.015685
1133.842917	0.018827
1133.999950	0.012955
1134.156964	0.014397
1134.313960	0.015587
1134.470938	0.011371
1134.627898	0.004593
1134.784840	0.001213
1134.941763	-0.001627
1135.098668	-0.004753
1135.255555	-0.008928
1135.412424	-0.003783
1135.569274	-0.000767
1135.726107	-0.000973
1135.882921	0.002183
1136.039716	0.002473
1136.196494	0.010028
1136.353253	0.009543
1136.509995	0.014170
1136.666717	0.021012
1136.823422	0.020528
1136.980109	0.014910
1137.136777	0.018674
1137.293427	0.013711
1137.450059	0.016588
1137.606672	0.014525
1137.763267	0.016981
1137.919844	0.010754
1138.076403	0.011744
1138.232944	0.011668
1138.389466	0.018054
1138.545971	0.009726
1138.702457	0.008760
1138.858924	0.009698
1139.015374	0.004570
1139.171805	0.002331
1139.328218	0.007049
1139.484613	0.006938
1139.640990	0.001949
1139.797348	-0.001671
1139.953688	0.001522
1140.110010	0.004397
1140.266314	-0.001271
1140.422600	0.005919
1140.578867	0.011242
1140.735116	0.006460
1140.891347	0.004725
1141.047559	0.005442
1141.203754	0.002055
1141.359930	0.001902
1141.516088	0.003825
1141.672228	0.011469
1141.828349	0.007869
1141.984452	0.003611
1142.140537	0.011157
1142.296604	0.012893
1142.452653	0.018054
1142.608683	0.019962
1142.764695	0.025489
1142.920689	0.026371
1143.076665	0.020327
1143.232622	0.024833
1143.388562	0.026941
1143.544483	0.018672
1143.700385	0.024326
1143.856270	0.015193
1144.012136	0.017312
1144.167985	0.019863
1144.323814	0.011628
1144.479626	0.013234
1144.635420	0.009368
1144.791195	0.006063
1144.946952	0.009399
1145.102691	0.007630
1145.258411	0.011509
1145.414113	0.011099
1145.569798	0.005604
1145.725463	0.011715
1145.881111	0.016180
1146.036741	0.021399
1146.192352	0.023266
1146.347945	0.025420
1146.503519	0.018582
1146.659076	0.018955
1146.814614	0.021982
1146.970134	0.017854
1147.125636	0.012952
1147.281120	0.011917
1147.436585	0.012049
1147.592032	0.012607
1147.747461	0.011955
1147.902872	0.011994
1148.058265	0.010822
1148.213639	0.008555
1148.368995	0.011047
1148.524333	0.015211
1148.679653	0.012524
1148.834954	0.007410
1148.990237	0.009715
1149.145502	0.011027
1149.300749	0.015506
1149.455977	0.022698
1149.611188	0.022265
1149.766380	0.015772
1149.921553	0.008060
1150.076709	0.012914
1150.231846	0.013570
1150.386966	0.010316
1150.542066	0.008954
1150.697149	0.009425
1150.852214	0.010366
1151.007260	0.006205
1151.162288	0.007662
1151.317298	0.014763
1151.472289	0.016066
1151.627263	0.019939
1151.782218	0.022109
1151.937155	0.020936
1152.092073	0.016559
1152.246974	0.010062
1152.401856	0.012567
1152.556720	0.017988
1152.711566	0.021104
1152.866393	0.011593
1153.021203	0.007091
1153.175994	0.005822
1153.330767	0.005434
1153.485521	0.003599
1153.640258	0.002970
1153.794976	0.000394
1153.949676	0.001480
1154.104358	-0.000099
1154.259021	0.006975
1154.413667	0.013021
1154.568294	0.012823
1154.722903	0.010909
1154.877493	0.018474
1155.032066	0.023373
1155.186620	0.029071
1155.341156	0.031670
1155.495674	0.032976
1155.650173	0.031261
1155.804654	0.031618
1155.959118	0.030081
1156.113562	0.029703
1156.267989	0.027930
1156.422397	0.021234
1156.576788	0.026669
1156.731160	0.029063
1156.885513	0.027283
1157.039849	0.022518
1157.194166	0.015821
1157.348465	0.013860
1157.502746	0.019926
1157.657009	0.014738
1157.811253	0.016795
1157.965479	0.001758
1158.119687	-0.004355
1158.273877	-0.011391
1158.428048	-0.008928
1158.582201	-0.003015
1158.736337	-0.001510
1158.890453	-0.001990
1159.044552	0.002894
1159.198632	0.000951
1159.352694	0.009673
1159.506738	0.011620
1159.660764	0.018920
1159.814771	0.016768
1159.968761	0.015487
1160.122732	0.016336
1160.276685	0.006579
1160.430619	0.002978
1160.584535	-0.000084
1160.738434	-0.002424
1160.892313	-0.011096
1161.046175	-0.010547
1161.200019	-0.012505
1161.353844	-0.007658
1161.507651	-0.008881
1161.661440	-0.005726
1161.815210	-0.002861
1161.968962	0.007893
1162.122697	0.016568
1162.276412	0.024190
1162.430110	0.027735
1162.583789	0.037024
1162.737451	0.027241
1162.891094	0.033325
1163.044718	0.033374
1163.198325	0.032563
1163.351913	0.028283
1163.505483	0.020181
1163.659035	0.014386
1163.812569	0.019883
1163.966084	0.015343
1164.119581	0.018716
1164.273060	0.013698
1164.426521	0.018991
1164.579964	0.013654
1164.733388	0.009115
1164.886794	0.015494
1165.040182	0.020876
1165.193551	0.021377
1165.346903	0.022015
1165.500236	0.020142
1165.653551	0.026115
1165.806848	0.025289
1165.960126	0.032793
1166.113386	0.038151
1166.266628	0.029586
1166.419852	0.037027
1166.573058	0.018633
1166.726245	0.024770
1166.879414	0.032429
1167.032565	0.034612
1167.185698	0.042334
1167.338812	0.041551
1167.491909	0.041624
1167.644987	0.050221
1167.798046	0.034108
1167.951088	0.041794
1168.104111	0.044500
1168.257117	0.031389
1168.410103	0.017184
1168.563072	0.012348
1168.716023	0.013556
1168.868955	0.010972
1169.021869	0.005796
1169.174765	0.008161
1169.327642	0.015266
1169.480501	0.004184
1169.633343	0.009122
1169.786165	0.022654
1169.938970	0.019914
1170.091757	0.019737
1170.244525	0.015628
1170.397275	0.012250
1170.550007	0.017540
1170.702720	0.011284
1170.855415	0.011856
1171.008092	0.006791
1171.160751	-0.003936
1171.313392	-0.005128
1171.466014	-0.026296
1171.618619	-0.020799
1171.771205	-0.020799
1171.923772	-0.020799
