sample name	sample
index	696
start time	 03-22-2021  12:39:06 PM
880	0.121934
Peak Time (s)	92.535
Peak Height 	0.1219
calc peak height	90,93
Baseline Time (s)	9.037
Baseline Value 	-0.001827
subtract baseline	10,4
Abs	0.066994
Peak Time (s)	92.535
Peak Height 	0.06699
calc peak height	90,93
Baseline Time (s)	9.534
Baseline Value 	0.003133
subtract baseline	10,3
PK_550	0.036742
Peak Time (s)	90.036
Peak Height 	0.03674
calc peak height	90,93
Baseline Time (s)	10.037
Baseline Value 	0.001244
subtract baseline	10,2
PK_880	0.068441
Peak Time (s)	92.535
Peak Height 	0.06844
calc peak height	90,93
Baseline Time (s)	11.536
Baseline Value 	0.001347
subtract baseline	10,1


Time (s)	A880-A510	A880-A775	A880-A975	A880	I510	I775	I975	I880	
0.036500	-0.002797	-0.000667	-0.007212	0.006751	7297.181415	45182.611761	3950.732295	23933.453296
0.537500	-0.001899	-0.000674	-0.004819	0.003586	7338.776217	45491.152313	3964.970303	24087.539719
1.035000	-0.000353	0.000009	-0.004565	0.002868	7362.125021	45628.841016	3967.477919	24122.661646
1.538500	-0.004073	-0.001308	-0.001864	0.001788	7334.908671	45605.481479	3977.290077	24175.564360
2.035500	-0.000868	-0.000233	-0.004287	0.000588	7380.409755	45829.742832	3974.107165	24234.508586
2.535500	0.000237	-0.000105	-0.004379	-0.000361	7401.791559	45936.303253	3976.336727	24281.274182
3.038500	0.001746	-0.000331	-0.004212	-0.002148	7436.294963	46091.322756	3981.437925	24369.580468
3.536000	-0.000502	-0.000472	-0.007879	-0.000126	7391.637035	45876.717174	3966.651382	24269.694676
4.039000	0.000477	-0.000739	0.000004	-0.000031	7400.848500	45840.916649	3986.941322	24265.009043
4.536500	-0.002595	-0.001454	-0.002635	0.003817	7329.247550	45392.151236	3970.015142	24076.225163
5.037000	0.000802	-0.000393	0.000130	-0.000030	7404.226160	45875.013512	3987.270398	24264.938295
5.534500	0.001455	-0.000415	-0.002929	-0.000691	7417.957510	45938.279305	3980.982999	24297.539290
6.035000	-0.000919	-0.000324	-0.002180	-0.000702	7393.293898	45948.359681	3982.970639	24298.075597
6.535000	0.001646	-0.000477	-0.000948	-0.000757	7420.652692	45938.777630	3986.350390	24300.822380
7.035500	0.000897	0.000027	-0.001989	0.000168	7403.153997	45897.013298	3981.195400	24255.214734
7.538500	0.001476	0.000159	0.001196	0.000434	7406.416240	45883.706617	3988.855837	24242.107458
8.036000	-0.001058	0.000018	0.000233	0.000177	7382.703740	45895.199717	3986.998333	24254.753597
8.539000	0.001667	0.000033	-0.004609	0.000471	7408.029030	45867.624915	3973.573504	24240.270676
9.037000	0.000757	0.000076	0.000326	0.000000	7403.444865	45918.524042	3987.706388	24263.473489
9.534500	-0.000331	-0.000829	0.000000	-0.000668	7399.065744	45895.024795	3988.608423	24296.430727
10.037000	-0.000125	0.000000	0.002570	-0.000268	7397.031697	45937.451534	3994.333982	24276.657019
10.535000	-0.003187	-0.000141	-0.002872	0.004801	7313.110502	45424.335256	3966.858447	24028.247162
11.035500	0.001580	0.000319	-0.006261	0.000244	7409.486135	45918.355712	3969.878327	24251.449840
11.535500	0.000000	-0.000738	0.000186	-0.000567	7401.466155	45894.049184	3988.831583	24291.446576
12.035500	0.001070	0.000202	0.001156	0.000412	7402.412623	45890.204747	3988.808138	24243.207689
12.536000	-0.002655	-0.000386	-0.001337	0.004262	7324.075424	45453.149947	3972.227800	24054.522892
13.039500	0.002498	-0.000198	-0.001812	-0.000256	7424.331003	45916.635351	3982.765296	24276.070144
13.536500	0.003053	0.000450	-0.000030	0.000363	7423.655342	45919.603823	3985.817176	24245.599971
14.037000	-0.001615	-0.000604	-0.002579	0.003304	7344.601375	45525.755412	3971.492480	24101.330273
14.537000	-0.001772	-0.000723	-0.004318	0.004132	7334.476002	45432.929410	3964.852785	24060.877784
15.037500	-0.000188	0.000226	-0.002463	-0.000172	7395.379478	45950.323648	3980.842500	24271.926988
15.535000	0.000216	-0.000128	-0.003822	-0.000516	7403.184087	45949.459146	3978.192423	24288.922483
16.035000	-0.000706	-0.000532	0.004876	-0.000854	7397.090740	45942.875505	4002.010428	24305.584176
16.535500	-0.002853	-0.000926	-0.006507	0.004844	7316.086077	45343.423426	3957.400307	24026.168558
17.035500	0.003082	0.000583	0.004992	-0.002748	7456.694132	46242.096179	4007.378955	24399.292697
17.539000	0.000522	-0.000670	-0.000761	0.000665	7394.064028	45778.950219	3983.105870	24230.719596
18.036000	0.001095	-0.000102	-0.002296	0.001351	7392.885784	45767.320465	3977.302781	24197.017170
18.536500	-0.001142	-0.001390	-0.001112	0.002654	7356.190127	45512.410169	3976.994517	24133.134129
19.037000	0.001074	-0.000213	0.002201	0.001565	7390.438584	45735.257003	3988.523301	24186.491925
19.537000	0.000601	0.000174	0.000682	0.001700	7384.117612	45760.030820	3984.175981	24179.868204
20.037500	-0.000434	0.000754	-0.001614	0.002230	7367.878141	45765.044888	3976.790000	24153.866061
20.535000	-0.001433	-0.000446	-0.001830	0.002996	7349.659614	45571.505485	3974.234220	24116.388965
21.035500	-0.000931	-0.000381	-0.001468	0.001517	7370.122026	45723.425137	3979.030304	24188.849830
21.535500	0.001131	0.000113	0.002438	0.001620	7390.457557	45761.956572	3989.000243	24183.788103
22.038500	0.000854	0.000054	0.004627	0.001730	7386.432201	45745.348878	3994.489887	24178.414435
22.536500	-0.000375	0.000689	-0.000798	0.004019	7350.015701	45582.507126	3974.257579	24066.379171
23.036500	0.000554	0.000157	-0.002301	0.001887	7381.694967	45739.973211	3975.894575	24170.726249
23.537000	0.001440	-0.000138	-0.007134	0.001773	7392.088974	45722.131158	3963.675001	24176.309846
24.037000	-0.000309	0.001146	0.002212	0.002488	7366.505969	45778.271991	3986.125372	24141.237519
24.537500	-0.001209	-0.000703	-0.002551	0.002966	7352.272284	45549.140144	3972.438772	24117.824924
25.035000	-0.000216	-0.000515	0.004161	0.001721	7375.422515	45690.064875	3993.280774	24178.852627
25.535000	0.001389	0.000896	-0.001890	0.002435	7384.663477	45758.800452	3975.537836	24143.837148
26.035000	-0.000362	0.000054	0.000961	0.002180	7369.150112	45700.979285	3983.650962	24156.357786
26.538500	0.001474	0.000489	0.000432	0.002313	7386.816994	45730.692718	3981.914798	24149.812030
27.036000	0.001028	-0.000748	0.000580	-0.001159	7418.392157	45951.650311	3991.430639	24320.647649
27.536000	-0.002537	-0.000984	-0.008786	0.005170	7315.986371	45305.848541	3950.748751	24010.286079
28.036500	0.000485	0.000229	-0.000987	0.000266	7397.824999	45907.282915	3983.559746	24250.355298
28.537000	-0.002416	-0.000037	-0.005402	0.006163	7307.065576	45301.390257	3956.852065	23961.989826
29.037500	0.001054	0.000197	0.002228	0.000489	7401.448022	45882.077937	3991.432136	24239.407425
29.534500	-0.001121	-0.000505	-0.001486	0.005304	7329.123485	45339.578495	3969.141354	24003.770675
30.035000	0.001157	0.000331	0.007041	0.001014	7397.038565	45843.357920	4002.801796	24213.574449
30.536000	0.001934	0.000807	0.000298	0.005767	7355.796539	45422.632802	3972.563865	23981.226326
31.038500	0.000408	0.000130	-0.002809	0.002664	7372.104145	45660.679843	3972.552521	24132.607659
31.536000	-0.000983	0.000508	0.000297	0.006074	7322.630325	45363.265536	3971.764613	23966.292258
32.036500	0.002167	0.000352	0.006043	0.000685	7411.022590	45878.034994	4001.022065	24229.771782
32.536500	-0.005084	0.000134	-0.001491	0.006850	7272.940640	45251.066616	3965.135435	23928.644185
33.098000	0.002928	0.001032	0.006463	0.000104	7425.055380	46002.896114	4003.687841	24258.334302
33.536500	-0.001614	0.000221	-0.006961	0.005041	7326.759538	45436.301175	3955.732224	24016.548472
34.034500	0.000578	-0.000497	-0.000550	0.002898	7371.451756	45576.055450	3977.821949	24121.156443
34.534000	0.000285	0.000533	0.002709	0.004621	7350.616063	45508.049572	3981.834926	24037.018701
35.034500	0.002196	0.000665	-0.001422	0.003502	7381.967258	45630.892563	3973.978837	24091.621026
35.535000	0.003409	0.000629	-0.002205	0.004755	7381.558452	45504.374930	3968.702954	24030.502365
36.035500	0.000398	0.000725	0.001729	0.003544	7362.904143	45632.672306	3982.088502	24089.580747
36.536000	-0.000671	-0.000171	-0.001891	0.003048	7356.975968	45593.323354	3973.940450	24113.825676
37.038000	0.002264	0.000426	0.003284	0.003671	7380.913375	45590.756361	3985.832962	24083.363263
37.536500	-0.001440	-0.000367	0.000081	0.002713	7352.505689	45607.029080	3979.954064	24130.237061
38.037000	0.001912	0.000659	0.000263	0.003712	7376.840192	45609.673032	3977.818557	24081.368107
38.537500	-0.000531	0.000618	-0.002686	0.003917	7349.458967	45585.526539	3969.624614	24071.351224
39.037500	0.001405	0.000046	0.003181	0.003319	7375.656266	45587.978375	3986.485329	24100.557468
39.537500	0.000252	-0.000133	-0.000699	0.003256	7364.371771	45576.650071	3976.501566	24103.667900
40.038000	0.001694	0.000834	0.001631	0.003978	7371.829533	45600.745587	3980.696597	24068.387952
40.535500	-0.001430	0.000708	-0.001751	0.004792	7331.203235	45508.470901	3969.780880	24028.690580
41.035500	0.001690	0.001341	0.000884	0.004023	7371.311436	45646.104104	3978.626537	24066.164003
41.535500	-0.000640	0.000071	0.001195	0.003186	7355.867193	45603.547634	3981.627414	24107.068663
42.036500	0.001088	0.000801	-0.003048	0.003969	7365.644533	45598.379463	3968.555019	24068.828544
42.537000	-0.000369	0.000982	0.001106	0.004867	7341.341701	45527.962197	3977.007961	24025.049530
43.037000	0.001792	0.000513	0.002293	0.003660	7376.140025	45600.460490	3983.263875	24083.929289
43.537500	0.002574	0.000635	0.002467	-0.001244	7435.501859	46097.504240	3996.647994	24324.874398
44.035000	0.000370	0.000181	0.001505	0.001017	7388.823718	45828.296856	3988.134718	24213.439690
44.537500	-0.001983	0.000770	-0.001722	0.006890	7304.065100	45309.210711	3964.436177	23926.719777
45.035500	0.002801	0.001038	-0.001748	0.001923	7404.701519	45823.382288	3977.239521	24168.927640
45.535500	0.001201	0.001284	-0.000323	0.006070	7345.112357	45439.573861	3970.168724	23966.488622
46.036000	0.001637	0.000819	0.001694	0.001687	7395.028827	45825.076374	3986.866631	24180.502937
46.536500	-0.000264	0.000152	0.001855	0.006744	7323.138738	45263.153605	3974.071550	23933.784243
47.036500	0.000951	0.000813	0.001478	0.004747	7356.187064	45523.206822	3978.291454	24030.898559
47.537000	-0.001190	-0.000307	-0.000822	0.004411	7337.580187	45446.286866	3973.177777	24047.248613
48.039500	0.002806	0.000373	0.001287	0.001824	7405.791717	45767.551912	3985.439489	24173.816556
48.540500	-0.000252	0.000024	0.000404	0.006511	7325.653530	45273.312589	3970.908623	23945.082646
49.037000	0.002219	0.000426	0.005392	0.001756	7400.383566	45779.517721	3996.448590	24177.148886
49.535000	-0.000291	0.000143	-0.000444	0.006468	7325.688017	45289.122963	3968.824673	23947.151772
50.035500	0.002329	0.000365	0.005478	0.003759	7380.682292	45576.150226	3991.375709	24079.060290
50.535500	-0.057173	-0.014931	0.004897	0.289218	4909.318114	24254.327709	3438.448702	13860.148247
51.036000	-0.065395	-0.007882	-0.024374	0.364307	4553.654633	21158.456952	3311.741225	12114.662394
51.536000	-0.055579	-0.026747	-0.036346	-0.122904	8154.119532	56569.301485	4238.632972	31262.339630
52.036500	-0.058588	-0.148388	-0.018410	-0.311643	10973.136253	65535.000000	5087.808473	46718.719461
52.537000	-0.055390	-0.152044	-0.013375	-0.315299	11102.001401	65535.000000	5133.138594	47089.445787
53.036500	-0.065267	-0.130195	-0.005797	-0.293450	10522.189709	65535.000000	5059.177550	44919.620547
53.537000	-0.053965	-0.095201	-0.007867	-0.258456	10116.008605	65535.000000	4878.072581	41664.077185
54.035000	-0.027203	-0.098619	-0.010182	-0.261874	10637.352658	65535.000000	4883.244785	41970.685087
54.535500	-0.013260	-0.083903	-0.008108	-0.247158	10623.533756	65535.000000	4824.779026	40667.858682
55.035500	0.001603	-0.066956	0.003025	-0.228394	10554.215427	65273.576540	4790.298726	39069.400865
55.536000	-0.003353	-0.031558	0.001991	-0.174651	9582.972635	62693.837206	4559.813235	34855.473783
56.036500	0.005217	-0.014195	0.013181	-0.136038	9134.411086	59838.841940	4454.898029	32134.170497
56.539500	0.009108	-0.003191	0.016779	-0.079222	8415.879137	54139.047966	4269.260021	28545.173398
57.037000	0.008067	0.001005	0.019641	-0.038531	7907.930852	50009.683243	4150.473304	26248.546129
57.539500	0.017858	0.009887	0.021768	0.005030	7531.159241	46394.596334	4031.705076	24017.067334
58.040000	0.027667	0.014771	0.031198	0.007726	7608.102035	46614.248467	4050.243893	23886.176714
58.534000	0.026176	0.014585	0.028479	0.031028	7345.291660	44313.151059	3980.170285	22788.141694
59.035000	0.027573	0.018872	0.027649	0.057440	7094.895455	42256.402879	3911.167186	21612.692340
59.535500	0.030544	0.021134	0.038798	0.076346	6942.753393	40776.859633	3892.296126	20814.139748
60.035500	0.033465	0.023157	0.042098	0.095340	6794.837235	39325.500952	3855.136538	20046.131055
60.538500	0.036585	0.024487	0.044291	0.108000	6709.605530	38387.658692	3831.090055	19552.590795
61.036500	0.037840	0.026391	0.043946	0.115971	6650.708284	37895.399174	3812.390530	19249.120547
61.539000	0.048084	0.031264	0.048364	0.122102	6686.671362	37794.256535	3808.584686	19019.492223
62.037000	0.047323	0.030765	0.043898	0.116448	6729.894419	38210.816119	3811.223419	19231.143700
62.542000	0.048749	0.032046	0.050237	0.117437	6733.774762	38234.597533	3823.196026	19193.923105
63.042000	0.052505	0.032756	0.049589	0.111603	6820.005604	38770.958925	3834.944579	19414.720539
63.536000	0.051223	0.033884	0.050278	0.114901	6778.590599	38592.163976	3829.016467	19289.543463
64.035000	0.056033	0.034015	0.058062	0.111195	6855.952476	38908.864866	3855.389735	19430.273485
64.535500	0.053270	0.033695	0.051447	0.115663	6790.170063	38514.128039	3829.939624	19260.757029
65.036000	0.056952	0.034955	0.054839	0.110458	6871.169637	39048.119937	3849.625188	19458.409521
65.536000	0.056099	0.034732	0.053099	0.111984	6849.328680	38902.951853	3842.100653	19400.230791
66.036500	0.059999	0.036468	0.052505	0.110997	6894.330095	39129.325983	3843.001346	19437.820115
66.536500	0.056741	0.035340	0.054304	0.116443	6814.520722	38585.126779	3834.658245	19231.320725
67.040000	0.060308	0.037258	0.065501	0.112451	6883.745175	39073.995837	3869.873331	19382.444838
67.537000	0.061701	0.037701	0.057258	0.115745	6866.223357	38837.283480	3843.014498	19257.655593
68.035000	0.062673	0.037082	0.058149	0.114954	6882.476168	38851.617921	3846.888336	19287.560008
68.535000	0.060735	0.038120	0.051003	0.122851	6792.659409	38288.297828	3812.785052	18991.639276
69.035000	0.064290	0.038508	0.057388	0.117723	6871.847620	38740.605917	3838.778516	19183.185313
69.536000	0.062312	0.038384	0.053345	0.120021	6832.658318	38541.240716	3824.377631	19097.064627
70.036000	0.063892	0.038278	0.059592	0.118522	6860.836847	38655.755881	3841.995769	19153.181181
70.536000	0.063556	0.038528	0.056782	0.124647	6801.934462	38175.390522	3821.700959	18925.106520
71.037000	0.066322	0.038638	0.060066	0.118551	6882.946240	38682.964707	3843.018698	19152.088351
71.543500	0.066951	0.039721	0.062054	0.121518	6861.422486	38528.176211	3840.773437	19041.235736
72.037000	0.065046	0.038023	0.057568	0.119004	6867.011965	38595.170717	3836.261433	19135.121526
72.537500	0.063717	0.039200	0.056173	0.125748	6793.435122	38140.588424	3817.864767	18884.468649
73.035000	0.067647	0.039921	0.064233	0.120355	6878.526753	38640.156703	3848.461606	19084.587723
73.535500	0.064960	0.040158	0.056885	0.122541	6833.819416	38480.126080	3826.677976	19003.158291
74.035500	0.067479	0.040265	0.064791	0.121324	6868.050086	38588.720579	3847.513661	19048.444225
74.536000	0.065864	0.039856	0.062138	0.121087	6855.400534	38574.634413	3841.953768	19057.291086
75.036000	0.068624	0.040000	0.062396	0.121715	6875.006549	38534.934097	3841.105525	19033.901983
75.535500	0.066450	0.040715	0.062175	0.123374	6839.826595	38457.548739	3836.803288	18972.251888
76.039500	0.069081	0.039958	0.059495	0.122285	6873.955680	38484.723616	3833.177602	19012.684465
76.537000	0.064649	0.039985	0.060729	0.127465	6786.350345	38065.055776	3824.241866	18821.252855
77.037500	0.068860	0.039986	0.063565	0.122214	6872.581384	38492.834496	3842.642284	19015.338658
77.535000	0.068869	0.040784	0.056782	0.124075	6855.545449	38405.764858	3822.986707	18946.263913
78.035000	0.070005	0.040688	0.062425	0.122488	6880.606453	38527.914899	3839.400690	19005.143434
78.535500	0.066530	0.040078	0.061335	0.128516	6793.842840	37987.575678	3823.240799	18782.702122
79.036000	0.069340	0.040101	0.064921	0.122834	6871.285302	38451.503413	3844.333072	18992.285167
79.536000	0.068743	0.040587	0.063321	0.123983	6855.231014	38397.191689	3838.028546	18949.660948
80.036000	0.068321	0.040151	0.064737	0.122603	6864.031005	38474.424079	3844.441863	19000.860342
80.536500	0.064983	0.039709	0.061280	0.128320	6781.658370	37973.640868	3823.557928	18789.869070
81.037000	0.068512	0.039602	0.063097	0.122571	6866.086495	38432.153146	3840.748804	19002.060320
81.537500	0.067830	0.039719	0.062127	0.123562	6850.728520	38360.717824	3836.264582	18965.261094
82.034500	0.068972	0.039626	0.058176	0.122784	6868.355628	38416.738869	3829.049895	18994.144931
82.538000	0.066240	0.039004	0.057634	0.127265	6802.524300	38001.821789	3817.737867	18828.585188
83.035000	0.069376	0.039815	0.061983	0.122624	6873.553397	38445.233251	3838.079034	19000.086818
83.535500	0.068651	0.039371	0.066823	0.123320	6860.483428	38352.133412	3847.597354	18974.259531
84.035500	0.069789	0.038903	0.064063	0.122453	6878.931952	38384.600021	3843.236658	19006.420805
84.536000	0.065891	0.039235	0.063823	0.127797	6794.561585	37977.594967	3830.489586	18809.067013
85.039500	0.067253	0.038363	0.064699	0.121887	6860.800631	38386.744494	3846.001465	19027.470715
85.536500	0.068774	0.039059	0.060256	0.123312	6861.684499	38327.312006	3832.572195	18974.549509
86.037000	0.066539	0.038226	0.064971	0.121910	6854.038096	38373.693211	3846.576233	19026.634027
86.537500	0.070265	0.037429	0.057948	0.121310	6893.906962	38357.625389	3831.878566	19048.978607
87.034500	0.071007	0.038218	0.068303	0.121923	6895.093160	38372.013371	3854.258911	19026.138360
87.535500	0.066498	0.037528	0.068213	0.121911	6853.656416	38316.731675	3854.077770	19026.610656
88.035500	0.068740	0.038480	0.062378	0.122627	6867.661538	38335.895173	3838.973186	18999.962164
88.535500	0.066924	0.037508	0.063977	0.121791	6858.666334	38324.863081	3844.562377	19031.062166
89.036000	0.068262	0.037580	0.065950	0.122064	6868.452468	38308.433678	3848.481212	19020.916420
89.539000	0.067101	0.036910	0.063973	0.122892	6850.182656	38186.479305	3842.020936	18990.113857
90.036000	0.066791	0.036742	0.065611	0.121412	6860.924992	38293.297980	3849.205189	19045.177831
90.536500	0.066475	0.036537	0.066218	0.121782	6854.622944	38246.405358	3849.752311	19031.383123
91.036500	0.066282	0.036660	0.066826	0.121672	6853.860621	38265.396296	3851.414318	19035.483897
91.537500	0.064649	0.035852	0.064222	0.121842	6837.365411	38185.898472	3845.010090	19029.174456
92.034500	0.066303	0.036447	0.066803	0.121750	6853.340498	38241.745491	3851.180727	19032.597574
92.535500	0.068441	0.036160	0.066994	0.121934	6871.293257	38203.453761	3851.196065	19025.729320
93.035500	0.067138	0.036423	0.067659	0.122042	6858.325514	38216.035962	3852.488784	19021.721014
93.535500	0.063650	0.033770	0.063798	0.120788	6837.870563	38102.459347	3846.458422	19068.429196
94.039000	0.065300	0.034537	0.060582	0.121270	6848.544469	38125.570499	3837.969193	19050.453823
94.536500	0.064651	0.034938	0.063977	0.121685	6838.820441	38124.422584	3844.805057	19035.005132
95.036500	0.065121	0.035327	0.066224	0.121986	6840.359119	38131.551078	3849.293547	19023.803888
95.537000	0.064777	0.034025	0.067627	0.122248	6834.823791	38004.937497	3851.935206	19014.059781
96.037000	0.064696	0.034682	0.066951	0.121836	6837.843685	38091.434103	3851.324686	19029.379183
