sample name	sample
index	703
start time	 03-25-2021  10:35:10 AM
880	-0.001131
Peak Time (s)	91.538
Peak Height 	-0.001131
calc peak height	90,93
Baseline Time (s)	11.036
Baseline Value 	-0.001886
subtract baseline	10,4
Abs	-0.004517
Peak Time (s)	92.035
Peak Height 	-0.004517
calc peak height	90,93
Baseline Time (s)	11.536
Baseline Value 	0.003017
subtract baseline	10,3
PK_550	0.000465
Peak Time (s)	90.538
Peak Height 	4.651E-4
calc peak height	90,93
Baseline Time (s)	10.535
Baseline Value 	2.7245E-5
subtract baseline	10,2
PK_880	-0.004454
Peak Time (s)	92.535
Peak Height 	-0.004454
calc peak height	90,93
Baseline Time (s)	8.536
Baseline Value 	-3.5808E-4
subtract baseline	10,1


Time (s)	A880-A510	A880-A775	A880-A975	A880	I510	I775	I975	I880	
0.034500	-0.004112	0.000368	-0.004394	0.007354	7067.228254	43784.620541	3823.720822	23196.859909
0.535500	-0.000457	-0.000888	-0.008087	0.003948	7138.142921	43988.144299	3822.987378	23358.003696
1.035500	-0.002421	0.000330	-0.010638	0.003642	7121.383475	44133.028714	3817.257018	23372.521841
1.535500	0.002796	0.000179	-0.001368	-0.000272	7214.449136	44492.941395	3851.321897	23559.374820
2.035500	-0.003336	-0.001047	-0.006131	0.005727	7091.232560	43804.634881	3823.438775	23273.672988
2.536000	0.002113	0.000443	-0.002248	-0.000195	7206.631187	44510.858375	3848.815779	23555.684706
3.036500	0.000033	0.000336	0.000974	-0.001028	7193.833114	44580.770431	3859.478677	23595.676722
3.537000	-0.000232	0.000197	-0.001472	0.000786	7172.564505	44393.159660	3848.279863	23508.700362
4.037000	-0.000494	0.000781	-0.006954	0.001627	7161.321068	44368.514366	3831.857014	23468.499946
4.540000	-0.001284	-0.000033	-0.000263	0.000496	7164.798286	44398.871951	3852.207494	23522.587356
5.035000	-0.000623	0.000248	-0.003493	0.000467	7171.835631	44428.680545	3843.834182	23523.973739
5.535000	0.001550	0.000424	-0.005421	0.000953	7189.076562	44398.899472	3837.560625	23500.710734
6.035500	-0.001433	-0.000153	-0.000721	0.000321	7165.061732	44404.174870	3851.463911	23530.947095
6.536000	-0.000092	0.000672	-0.001035	0.001088	7170.911100	44409.693781	3848.631557	23494.252964
7.035500	0.000668	0.000254	-0.003435	0.000841	7181.192258	44393.282250	3843.011193	23506.064668
7.536500	-0.001501	-0.000025	-0.003277	0.000393	7163.638373	44409.610230	3844.592432	23527.526262
8.036000	-0.000303	0.000343	-0.001052	0.000750	7172.204811	44410.635225	3849.471537	23510.423228
8.536000	0.000000	0.000295	0.000481	0.000391	7178.971397	44440.439626	3854.438777	23527.627300
9.037000	-0.000257	-0.000054	-0.003146	-0.000350	7183.918517	44478.088615	3846.873085	23563.148162
9.537500	0.000004	0.000547	0.001694	0.000429	7178.619066	44460.924954	3857.534312	23525.782758
10.035000	-0.000277	-0.000080	-0.001403	-0.000336	7183.567026	44474.235627	3851.400409	23562.450746
10.535000	0.001221	0.000000	-0.001063	0.000032	7195.146687	44446.572220	3851.325736	23544.809481
11.035500	-0.000185	0.000487	0.000253	0.000000	7181.078075	44496.378510	3854.867039	23546.348732
11.536000	0.001015	-0.000528	0.000000	-0.000106	7194.455413	44409.254325	3854.482431	23551.451220
12.036000	-0.000149	0.000274	-0.001436	0.000235	7179.038593	44453.378006	3849.815572	23535.092260
12.536500	0.001185	0.000175	0.001743	0.000178	7193.279937	44449.367217	3858.326215	23537.811822
13.036500	0.002749	0.001086	0.000874	-0.000972	7221.192155	44647.639015	3859.068971	23593.004391
13.536500	0.000285	0.000315	0.000554	0.000677	7178.957118	44414.904634	3853.880466	23513.935294
14.051000	-0.001398	-0.000876	0.001177	-0.001699	7186.052765	44528.753695	3861.792448	23627.947764
14.535000	-0.002144	0.000373	-0.008030	0.002920	7131.478610	44205.981588	3825.766387	23406.875811
15.035500	0.000654	-0.000125	-0.000606	-0.000125	7190.941978	44449.616242	3852.938081	23552.327921
15.547500	-0.000709	-0.000461	-0.003269	0.001271	7162.764536	44283.806897	3842.325534	23485.522425
16.036500	0.000514	0.000029	0.000265	-0.001410	7202.693037	44588.029096	3858.617575	23614.052437
16.535500	0.002536	0.000281	0.003270	-0.001144	7220.762697	44586.583907	3865.868772	23601.243746
17.036500	0.001786	0.000913	0.002417	-0.001253	7214.156984	44658.068521	3863.895712	23606.494588
17.536500	0.001048	0.000471	-0.001917	-0.000280	7196.573356	44521.798749	3849.904533	23559.772604
18.037000	0.002867	0.000571	0.004052	-0.001754	7230.484995	44673.388333	3869.573554	23630.594464
18.537000	0.000032	0.000262	-0.001785	0.001267	7170.359306	44353.297551	3846.204243	23485.722760
19.034500	0.000680	-0.000128	-0.001904	0.000937	7180.340604	44347.610035	3846.755945	23501.510340
19.535000	-0.000865	0.000369	-0.003053	0.001056	7163.367171	44383.858000	3843.449059	23495.819808
20.035500	-0.000716	0.000476	0.001409	0.001542	7159.937137	44347.572223	3853.853647	23472.598222
20.535500	0.000523	0.000008	-0.003538	0.000886	7179.255842	44365.490339	3842.628393	23503.937603
21.035500	-0.000840	0.001277	-0.000968	0.001482	7159.275163	44429.994794	3847.777599	23475.432120
21.536000	0.000628	-0.000251	-0.001004	0.000839	7180.812406	44345.192018	3849.367635	23506.192361
22.036000	0.002382	0.000679	-0.002617	0.000946	7197.682576	44424.024487	3844.871243	23501.067611
22.536500	0.000791	0.001571	0.003502	0.002403	7166.506336	44369.836817	3857.095241	23431.487270
23.037000	-0.000063	0.000369	0.000913	0.001289	7169.153592	44361.383199	3853.212158	23484.646930
23.540000	0.000476	0.000333	-0.003735	0.000998	7177.630699	44385.827808	3841.822065	23498.561748
24.037500	-0.000029	0.000105	0.000416	0.001136	7171.061055	44350.769139	3852.310346	23491.962689
24.535000	-0.000975	-0.000168	-0.004961	0.000722	7165.646284	44364.367839	3839.354041	23511.787897
25.035000	0.001898	0.001204	0.000963	0.001923	7182.711370	44380.649328	3851.679151	23454.371830
25.535500	-0.000340	0.000608	0.000471	0.001694	7162.208196	44345.582127	3850.989293	23465.315824
26.036000	-0.001963	0.000633	-0.000709	0.001349	7149.224940	44381.007339	3848.804590	23481.806747
26.535500	0.000035	0.001608	-0.001621	0.002163	7161.262025	44396.495811	3844.294823	23442.953854
27.036500	-0.000369	0.000683	-0.001874	0.001399	7164.914742	44380.943068	3845.626257	23479.386787
27.537000	0.000248	0.000241	-0.000641	0.001457	7170.617713	44333.198835	3848.698570	23476.654477
28.040000	0.000858	0.000554	0.000291	-0.000259	7194.407487	44527.742945	3855.650145	23558.763611
28.537000	0.002834	0.000827	0.003926	-0.000923	7221.559803	44617.940779	3867.025365	23590.626002
29.060500	0.001742	0.000128	-0.003713	-0.001124	7212.373981	44569.911576	3847.412822	23600.272499
29.540000	0.001771	0.000867	0.001299	-0.000836	7209.705282	44613.410168	3859.831868	23586.454724
30.035500	0.001445	0.000797	-0.000932	-0.000543	7203.346217	44578.523638	3853.179779	23572.410952
30.536000	0.002201	0.000865	0.009071	-0.000767	7213.421193	44606.539819	3880.370633	23583.126512
31.036000	0.000264	-0.000149	0.000436	-0.001605	7202.124297	44589.664972	3859.584231	23623.430853
31.536500	-0.001404	0.000650	0.000108	0.003006	7138.091980	44224.173833	3846.608010	23402.786050
32.037000	-0.001477	-0.000103	0.001249	0.002493	7142.543435	44201.262377	3850.935724	23427.195547
32.537000	-0.000064	0.001493	0.002902	-0.000410	7186.504012	44632.679960	3862.946562	23566.001971
33.097000	0.000956	0.000889	0.002140	-0.000661	7199.542409	44598.682047	3861.592975	23578.069628
33.537500	-0.002567	-0.000085	0.002206	0.002352	7132.943224	44216.461320	3853.818565	23433.938691
34.035000	0.001521	0.000248	-0.001327	0.000123	7197.292545	44461.707406	3850.395074	23540.460033
34.535500	0.001081	-0.000038	0.001666	-0.001202	7206.375005	44561.520013	3861.768642	23604.034896
35.035500	0.000121	0.000637	-0.002821	0.001823	7165.595047	44336.005276	3842.053625	23459.167553
35.535500	-0.001635	0.000289	-0.001466	0.002182	7144.098418	44268.403441	3844.650133	23442.055798
36.036000	-0.001094	0.000139	0.002073	0.002212	7149.287046	44251.223759	3853.838843	23440.624292
36.536000	-0.001031	-0.000268	-0.003814	0.001613	7156.008226	44269.511348	3840.018355	23469.179320
37.037000	-0.001070	-0.000547	0.000796	0.001212	7159.690836	44281.260467	3853.110803	23488.357857
37.540000	-0.000640	0.000131	-0.000539	0.002542	7150.550470	44218.968602	3846.130620	23424.894771
38.036500	-0.000904	0.000745	0.002859	0.002410	7149.206165	44290.197323	3855.384020	23431.188089
38.537000	-0.000699	0.001450	0.001027	0.002707	7148.270863	44329.284103	3849.793934	23417.035365
39.035500	-0.000551	0.000908	-0.002864	0.002430	7152.578489	44303.836819	3840.365694	23430.217537
39.535500	-0.000819	0.000422	0.000105	0.002795	7146.156329	44222.601111	3847.150243	23412.835295
40.035000	-0.000316	0.000871	-0.001238	0.002605	7153.184385	44283.583873	3844.138178	23421.849800
40.536000	-0.001976	0.000268	-0.007302	0.002157	7140.900307	44268.809590	3829.596708	23443.235262
41.036000	-0.000987	0.000805	0.002697	0.002756	7144.852835	44262.823244	3854.047336	23414.689315
41.536500	-0.000482	0.001099	-0.000854	0.003116	7146.319525	44256.549657	3843.808948	23397.554638
42.037000	0.001164	0.000842	-0.004757	0.002627	7168.034589	44278.793708	3834.949760	23420.844444
42.537000	-0.000333	0.000545	0.001818	0.002666	7152.399927	44246.588099	3851.973748	23418.948402
43.035000	0.001334	0.000913	0.003170	0.003305	7162.853125	44220.710222	3853.848311	23388.559180
43.535000	-0.000608	0.000188	0.001665	0.002049	7155.874527	44271.419942	3853.191726	23448.374838
44.035000	0.000508	0.000439	-0.001408	0.002478	7162.856682	44254.445486	3844.026685	23427.907375
44.535500	0.000945	0.001159	0.001811	0.003162	7160.346140	44257.885257	3850.654726	23395.341245
45.036000	0.002797	0.001163	0.003126	-0.000451	7216.312527	44604.805889	3863.646801	23567.967561
45.536500	0.000726	0.000649	0.002461	0.001250	7177.613307	44391.993636	3857.391266	23486.529523
46.036500	0.000494	0.000787	0.001020	-0.000258	7190.663809	44550.061629	3857.568206	23558.721229
46.536500	0.001476	0.000555	0.001064	-0.000133	7199.456290	44515.727331	3857.353172	23552.716592
47.040000	0.000408	0.001179	0.004676	-0.000025	7187.399738	44565.374813	3866.632788	23547.538003
47.537000	-0.004873	-0.000265	-0.002702	0.005524	7077.893711	43897.784964	3832.771375	23283.278723
48.034500	-0.000342	-0.000027	-0.003551	-0.000512	7184.708114	44496.253046	3846.239411	23570.925089
48.539000	0.000920	0.000817	0.004423	-0.000389	7196.371176	44565.515696	3866.928744	23564.997583
49.035500	-0.001709	0.000350	0.000120	0.004022	7124.739741	44098.797267	3843.988212	23354.486672
49.535500	-0.002772	-0.000028	-0.002820	0.005189	7102.284736	43952.050052	3833.332458	23299.142466
50.047500	0.001331	0.001006	-0.001963	-0.000219	7198.849307	44567.325999	3849.625411	23556.836705
50.539000	0.001941	0.000395	0.008525	-0.000118	7204.077462	44498.962312	3877.160523	23552.016435
51.036500	0.002984	0.001238	-0.001001	0.000527	7208.170211	44518.021366	3850.193414	23521.127873
51.536500	-0.000556	0.000998	-0.000619	0.005735	7119.084598	43997.560620	3837.614039	23273.284072
52.037000	0.000385	0.000355	0.004528	0.000478	7182.023555	44437.897005	3864.903389	23523.470160
52.537500	0.002528	0.000361	-0.000412	0.002121	7187.131351	44281.112298	3847.561670	23444.946817
53.037500	-0.031775	-0.007309	0.005359	0.104946	5983.351287	34956.997303	3620.158804	19078.206359
53.535000	-0.042433	-0.013483	-0.001952	0.012582	6654.480422	42021.986973	3816.612000	22952.006065
54.034000	-0.025694	-0.012355	0.005003	-0.077336	7743.831252	51176.044435	4092.634590	27603.318407
54.535000	-0.009281	-0.006011	0.007347	-0.023573	7331.578838	46169.516678	3938.484337	24707.363718
55.036000	-0.015549	-0.010896	-0.013982	-0.117456	8357.671138	56039.185079	4161.482474	30010.381977
55.536500	-0.012877	-0.027440	-0.022319	-0.180158	9270.067476	62012.221488	4354.768251	34247.250736
56.036500	0.017310	-0.042661	-0.003190	-0.211202	10258.626942	64210.266747	4555.939931	36582.451147
56.540000	0.025206	-0.033951	-0.005319	-0.197736	10162.834082	63541.151545	4490.903813	35548.981606
57.037000	0.019081	-0.015923	-0.004585	-0.158736	9430.384217	60676.376345	4340.873761	32730.402324
57.534500	0.001533	-0.010613	-0.007655	-0.117591	8584.811625	56090.547465	4183.211570	30018.876896
58.035000	-0.005544	-0.011592	-0.004742	-0.117014	8482.712863	55899.764918	4191.142264	29982.618460
58.535000	-0.009275	-0.010270	-0.004135	-0.102983	8252.623829	54367.615917	4146.123505	29116.272825
59.035500	-0.011375	-0.009748	-0.007239	-0.084267	7994.689228	52250.762312	4075.851699	28003.393404
59.536000	-0.015248	-0.008602	-0.011756	-0.066543	7739.836579	50397.854647	4007.771067	26992.855349
60.036500	-0.014541	-0.006937	-0.003063	-0.053828	7603.506159	49201.313574	3995.823110	26292.812478
60.536500	-0.006636	-0.004936	-0.009104	-0.053645	7690.740635	49396.075581	3977.559439	26282.924975
61.039500	-0.005845	-0.002732	-0.006334	-0.028435	7420.125998	46990.658850	3913.828744	24954.742556
61.537000	-0.011351	-0.001731	-0.008078	-0.002135	7089.698675	44488.502282	3838.680242	23648.930836
62.037500	-0.008770	-0.002650	-0.008794	-0.016649	7264.281315	45814.857166	3875.047498	24359.757336
62.535000	-0.013423	-0.005516	-0.005488	-0.027609	7330.447335	46624.543299	3913.885705	24912.507405
63.035000	-0.015943	-0.003787	-0.006126	-0.004789	7070.338763	44545.926419	3850.690410	23777.127612
63.535500	-0.016758	-0.003926	-0.012626	0.010504	6912.715326	43087.667212	3794.963981	23048.961130
64.035500	-0.005398	-0.000770	-0.004981	0.006378	7064.146254	43769.288900	3824.716329	23242.903871
64.536000	-0.005143	-0.001202	-0.010891	-0.002032	7151.254293	44529.308911	3831.138064	23643.945930
65.039500	-0.006563	-0.001316	-0.009392	-0.003416	7150.903147	44651.673205	3838.594673	23710.727093
65.577000	-0.008813	-0.001791	-0.008447	-0.002686	7120.736521	44535.617598	3839.150574	23675.477107
66.036500	-0.004866	-0.001568	-0.003015	-0.009850	7234.225857	45251.969681	3872.318599	24023.801725
66.537000	-0.005238	-0.001633	-0.009538	-0.010285	7234.890944	45288.322658	3856.169604	24045.173981
67.037500	-0.007916	-0.001870	-0.009266	-0.011046	7215.091594	45339.558683	3858.893391	24082.542333
67.538000	-0.010684	-0.002882	-0.011834	-0.004730	7122.480145	44627.355562	3835.670363	23774.263728
68.035500	-0.006164	-0.001834	-0.010616	-0.010678	7229.381951	45307.088247	3854.367030	24064.472207
68.535500	-0.007103	-0.001402	-0.006557	-0.010474	7217.574567	45329.314627	3864.549061	24054.422657
69.036000	-0.004301	-0.000656	-0.006424	-0.009198	7233.335962	45277.426083	3861.519644	23991.869603
69.536000	-0.009325	-0.001340	-0.006099	-0.002383	7112.530172	44549.890535	3844.470937	23660.874948
70.036500	-0.005328	-0.001232	-0.003028	-0.008584	7216.398942	45161.138608	3868.907588	23961.849019
70.539500	-0.006837	-0.001703	-0.007426	-0.008972	7204.864094	45153.146382	3858.277603	23980.839006
71.036500	-0.006589	-0.001750	-0.005661	-0.008779	7205.414801	45129.619980	3862.431681	23971.354861
71.537500	-0.011714	-0.001849	-0.011302	-0.001983	7084.553921	44462.560720	3829.955925	23641.612336
72.034500	-0.005745	-0.000493	-0.004746	-0.007089	7196.730870	45087.397716	3860.380489	23888.882315
72.535000	-0.006042	-0.001106	-0.008621	-0.007556	7198.479781	45073.286043	3851.406503	23911.674108
73.035000	-0.005954	-0.001475	-0.003695	-0.007594	7199.779174	45041.072267	3864.503238	23913.519856
73.536000	-0.010906	-0.002311	-0.009582	-0.001503	7087.830393	44372.241614	3833.153039	23618.512310
74.036000	-0.006049	-0.001124	-0.003633	-0.006862	7191.288282	45003.988731	3862.727259	23877.849136
74.536500	-0.006840	-0.000816	-0.005319	-0.006298	7177.421059	44978.990022	3856.777956	23850.374061
75.036500	-0.006657	-0.001244	-0.007713	-0.006734	7183.759472	44979.874098	3851.630626	23871.611405
75.537000	-0.009352	-0.002067	-0.008035	-0.006027	7149.088918	44831.428055	3848.935311	23837.228168
76.037000	-0.005842	-0.001328	-0.008373	-0.006658	7191.320249	44964.284204	3849.700997	23867.883515
76.535000	-0.005555	-0.000938	-0.003184	-0.005794	7185.408083	44918.307042	3861.086425	23825.898085
77.035000	-0.005818	-0.001655	-0.004844	-0.006824	7193.267585	44948.673325	3859.420218	23875.979565
77.535000	-0.008223	-0.001467	-0.006422	-0.000237	7102.035916	44331.844156	3838.052663	23557.719662
78.035500	-0.006764	-0.001298	-0.011489	-0.006417	7179.422002	44943.778038	3840.940910	23856.187085
78.536000	-0.006559	-0.001555	-0.008083	-0.006426	7181.599136	44919.671609	3849.852685	23856.594827
79.036500	-0.006521	-0.000441	-0.005074	-0.005847	7176.079718	44971.631931	3856.236325	23828.471120
79.536500	-0.010513	-0.001581	-0.011847	0.000310	7073.636728	44268.569757	3822.674157	23531.489268
80.039000	-0.005897	-0.001019	-0.007838	-0.005978	7183.794403	44928.295719	3849.320297	23834.836818
80.536500	-0.005447	-0.000846	-0.006344	-0.005338	7181.859321	44882.964723	3851.560377	23803.773545
81.037500	-0.007629	-0.001055	-0.007411	-0.005949	7165.810962	44921.929901	3850.362316	23833.406000
81.534500	-0.008735	-0.000849	-0.009702	0.000664	7087.871748	44304.744407	3827.264604	23514.560068
82.035000	-0.006782	-0.001260	-0.003424	-0.005848	7173.419864	44892.188214	3860.593716	23828.503220
82.535000	-0.006236	-0.001112	-0.006897	-0.005786	7178.362833	44900.565203	3851.283803	23825.484538
83.035500	-0.005200	-0.000824	-0.010873	-0.005678	7187.858940	44918.035202	3840.621215	23820.250507
83.536000	-0.010963	-0.000848	-0.014010	0.000271	7069.542348	44342.396399	3817.256794	23533.372250
84.036500	-0.005180	-0.001006	-0.004750	-0.005757	7188.867960	44908.124529	3856.853990	23824.102004
84.536500	-0.004906	-0.000050	-0.008214	-0.004434	7178.134072	44872.406694	3844.303017	23759.922608
85.037000	-0.004215	-0.000464	-0.007935	-0.005082	7191.851192	44895.253019	3846.723945	23791.362638
85.537500	-0.008794	-0.000656	-0.014806	0.001005	7083.864327	44290.570880	3813.366878	23498.220094
86.037500	-0.004631	-0.000726	-0.004750	-0.004700	7183.673056	44832.761420	3854.070626	23772.816726
86.537000	-0.004456	-0.000311	-0.004080	-0.004574	7184.175738	44860.702032	3855.502433	23766.716557
87.035000	-0.005301	-0.000938	-0.010990	-0.005044	7180.341049	44845.577082	3838.672582	23789.503532
87.535000	-0.008871	-0.000623	-0.012077	0.001424	7078.909796	44253.719651	3819.243005	23478.209285
88.035500	-0.005142	-0.000602	-0.013746	-0.004158	7172.922419	44792.353708	3829.265464	23746.606695
88.536000	-0.005867	-0.001210	-0.011047	-0.004914	7173.233693	44806.583174	3838.186241	23783.192441
89.036500	-0.004789	-0.000325	-0.003447	-0.003930	7174.188610	44797.100751	3855.474633	23735.564428
89.539500	-0.008445	-0.000357	-0.009096	0.001831	7079.107973	44240.287980	3825.825516	23458.802467
90.037000	-0.006578	-0.000858	-0.008818	-0.003943	7156.098841	44746.788134	3841.455119	23736.206646
90.537500	-0.006703	0.000465	-0.010422	-0.002940	7144.640082	44777.669753	3834.692208	23687.715534
91.035000	-0.006054	-0.000435	-0.008400	-0.003354	7155.437806	44730.716485	3841.010333	23707.736357
91.537500	-0.006430	0.000047	-0.006129	-0.001131	7129.099593	44562.927518	3841.135201	23600.647576
92.035500	-0.005434	0.000251	-0.004517	-0.002945	7157.587024	44757.486203	3850.075672	23687.980904
92.535500	-0.004454	-0.000404	-0.012701	-0.003158	7169.725495	44714.749244	3829.379436	23698.246492
93.036000	-0.007318	0.000012	-0.009417	-0.002752	7136.509724	44715.735385	3836.806282	23678.651520
93.536000	-0.005610	-0.001258	-0.007836	-0.002994	7156.290299	44616.579801	3841.539415	23690.345240
94.039500	-0.006494	-0.000370	-0.005416	-0.003366	7151.089368	44738.202349	3848.823973	23708.316312
94.537000	-0.005945	0.000051	-0.008589	-0.003003	7152.984577	44743.815982	3839.605655	23690.781562
95.037000	-0.005482	-0.000023	-0.004744	-0.002841	7156.033968	44720.918991	3849.208872	23682.943603
95.537500	-0.005266	0.000421	-0.011163	-0.002574	7155.512610	44738.079795	3831.836116	23670.072070
96.034500	-0.003956	-0.000212	-0.007297	-0.003072	7173.932328	44724.987166	3843.143342	23694.084685
96.565500	-0.005635	-0.000815	-0.012714	-0.003562	7161.815943	44714.127963	3830.387045	23717.787015
97.036000	-0.005415	-0.000028	-0.007214	-0.002894	7157.254307	44725.640546	3842.896618	23685.515376
97.535500	-0.005779	-0.000269	-0.007753	-0.002997	7154.612092	44712.305666	3841.762936	23690.505721
98.036500	-0.006611	-0.000099	-0.003766	-0.002478	7140.888696	44678.527939	3850.818962	23665.429757
98.537500	-0.004026	-0.000200	-0.006505	-0.002809	7170.541624	44700.848858	3844.525712	23681.430786
99.037000	-0.003427	0.000835	-0.007553	-0.002063	7169.039557	44728.663382	3839.856597	23645.468645
