sample name	sample
index	1182
start time	 04-26-2021  11:47:32 AM
880	-0.051810
Peak Time (s)	92.035
Peak Height 	-0.05181
calc peak height	90,93
Baseline Time (s)	10.037
Baseline Value 	-0.003482
subtract baseline	10,4
Abs	-0.023461
Peak Time (s)	90.037
Peak Height 	-0.02346
calc peak height	90,93
Baseline Time (s)	11.037
Baseline Value 	0.002407
subtract baseline	10,3
PK_550	-0.001525
Peak Time (s)	90.537
Peak Height 	-0.001525
calc peak height	90,93
Baseline Time (s)	9.037
Baseline Value 	7.9949E-4
subtract baseline	10,2
PK_880	-0.015896
Peak Time (s)	92.538
Peak Height 	-0.0159
calc peak height	90,93
Baseline Time (s)	11.037
Baseline Value 	0.001259
subtract baseline	10,1


Time (s)	A880-A510	A880-A775	A880-A975	A880	I510	I775	I975	I880	
0.036500	-0.003439	-0.000942	-0.003898	0.002507	6142.544232	43734.506118	3850.439554	22617.469748
0.534000	-0.006076	-0.000652	-0.004735	0.007503	6086.062812	43294.578409	3837.378950	22391.848707
1.037500	-0.004045	-0.000230	-0.004256	0.004362	6124.223084	43627.157642	3845.463965	22533.382781
1.541500	0.001583	0.000931	-0.000297	0.002011	6183.991402	43957.705799	3859.719996	22640.014366
2.220000	-0.005606	-0.000757	-0.005393	0.006460	6097.178479	43381.869661	3838.236058	22438.747923
2.534500	-0.001618	-0.000535	-0.002219	0.004129	6144.029105	43620.444837	3850.570430	22543.957716
3.036000	-0.001960	0.000163	-0.000040	0.000726	6166.966682	44006.611040	3863.234325	22698.527983
3.536000	-0.001697	-0.000674	-0.003740	-0.000540	6178.488338	44047.187393	3857.691801	22756.349600
4.036500	-0.002502	0.000092	-0.003103	0.000547	6164.238940	44016.782017	3856.669992	22706.698966
4.536500	-0.000460	-0.000539	-0.000592	0.000864	6177.227681	43927.239686	3861.661348	22692.241945
5.036500	0.000283	-0.001048	-0.005332	-0.000227	6191.089716	43982.241467	3853.375724	22742.040397
5.537000	-0.000032	-0.000335	-0.001056	0.000076	6186.407080	44020.952933	3862.398924	22728.168533
6.037500	-0.000120	-0.000511	-0.003865	-0.000006	6186.366614	44012.095417	3856.196286	22731.933122
6.535000	-0.002878	-0.000213	0.001204	0.000031	6165.287387	44036.700977	3867.670830	22730.228693
7.035000	-0.000934	-0.001147	-0.004451	-0.000175	6181.488073	43967.910761	3855.251715	22739.656716
7.535500	-0.001747	-0.000685	-0.002386	0.000028	6173.822994	43992.395105	3859.479348	22730.385386
8.036000	-0.000158	-0.000302	-0.002386	0.000043	6185.710519	44027.197936	3859.444335	22729.683816
8.536000	0.000792	-0.000169	0.001783	0.000146	6192.121019	44030.116530	3868.736741	22725.004262
9.036500	0.001157	0.000000	0.001845	-0.000094	6196.710817	44068.767974	3869.430886	22735.948645
9.536500	-0.000393	0.000075	-0.003227	0.000155	6183.083077	44052.291952	3857.279015	22724.576394
10.037000	0.000627	0.000096	-0.001876	0.000000	6191.979661	44068.979242	3860.703109	22731.660863
10.537000	-0.001767	-0.001604	-0.006585	-0.001181	6182.793444	44019.834078	3852.699911	22785.673609
11.037500	0.000000	0.000072	0.000000	0.000406	6184.161515	44028.271272	3864.057780	22713.138354
11.538000	-0.000518	-0.000471	0.004251	-0.000092	6184.007015	44024.017042	3874.971758	22735.872300
12.035000	-0.001371	0.000053	-0.004544	0.000326	6174.412437	44033.985723	3853.906011	22716.753267
12.536000	-0.001518	0.000293	-0.000679	0.000421	6172.592328	44047.838411	3862.472031	22712.457481
13.036000	-0.002071	-0.000686	-0.002430	0.000054	6171.184187	43989.820825	3859.318037	22729.184354
13.536000	0.000006	-0.000211	0.003037	0.000458	6183.813877	43996.582794	3870.901751	22710.751036
14.035500	-0.002541	-0.000505	0.000265	-0.000642	6172.894906	44072.867204	3867.062323	22761.010290
14.536500	-0.001473	-0.000705	-0.002708	0.002042	6160.735140	43800.489600	3854.177988	22638.585265
15.037000	-0.001991	0.000093	0.001925	0.001789	6158.746795	43899.549601	3865.295141	22650.098866
15.540000	-0.002319	-0.000516	-0.002562	-0.000482	6173.358900	44056.688511	3860.238716	22753.688245
16.035000	0.000030	-0.000815	0.001280	-0.001169	6196.318267	44093.450768	3870.604073	22785.146414
16.535500	-0.000889	0.000280	-0.003745	-0.000211	6182.102269	44106.392188	3856.933483	22741.300532
17.035500	0.000987	0.000311	0.004756	0.000311	6192.345383	44059.883376	3875.205572	22717.441479
17.536000	0.001872	0.000220	0.002241	-0.002250	6218.566843	44294.505148	3875.313090	22834.707436
18.036000	-0.002199	-0.000040	-0.001884	0.000978	6163.279230	43963.596015	3858.459053	22687.034867
18.536500	-0.002506	-0.000467	0.002091	0.000765	6162.571059	43943.333747	3868.023127	22696.735270
19.036500	-0.002717	-0.001699	-0.003275	0.000011	6166.651604	43898.244727	3857.495323	22731.155572
19.537000	-0.001452	-0.000569	0.003128	0.000941	6169.173510	43917.082076	3870.000834	22688.716887
20.036500	0.001202	-0.001149	-0.004703	0.000471	6192.766046	43906.681757	3853.219302	22710.165970
20.537500	-0.001026	0.000118	0.002353	0.001191	6170.493062	43958.322613	3867.647385	22677.322495
21.034000	-0.003163	-0.000110	-0.002519	0.001094	6155.174910	43946.053414	3856.755716	22681.759539
21.535000	-0.002057	-0.001015	-0.001755	0.000424	6168.505656	43923.807405	3860.011735	22712.286864
22.035500	-0.001589	0.000208	-0.003207	0.001346	6165.088222	43952.207652	3854.624204	22670.249849
22.536000	-0.002004	-0.000394	0.003245	0.001063	6164.106180	43922.152321	3869.989645	22683.179886
23.036500	-0.002948	0.000548	0.000783	0.001489	6153.830901	43970.862791	3863.372345	22663.774664
23.539500	-0.002765	-0.000442	-0.001519	0.000809	6160.292737	43941.508722	3859.673416	22694.725191
24.036500	0.001117	-0.000524	-0.006932	0.000971	6188.336331	43918.480060	3847.068048	22687.341151
24.537500	-0.001124	-0.000095	-0.001368	0.001070	6170.668659	43949.655234	3859.424573	22682.843610
25.037000	-0.001379	-0.000239	0.004177	0.001122	6168.357332	43931.136547	3871.999439	22680.483337
25.535000	-0.003653	-0.000058	0.001827	0.000533	6155.698837	44003.880569	3867.950020	22707.306173
26.035000	-0.003001	0.000378	0.000439	0.001421	6153.935894	43961.176716	3862.742355	22666.863522
26.535500	-0.000264	-0.000085	-0.005820	0.001538	6173.622149	43906.394206	3848.295114	22661.532149
27.035000	-0.001744	0.000450	-0.000805	0.001891	6159.834078	43923.603570	3858.835088	22645.445211
27.535500	-0.000171	0.000189	0.001856	-0.001594	6198.013125	44229.105868	3872.907053	22804.588036
28.036000	-0.001311	0.000775	0.000257	0.000043	6176.997685	44129.257739	3865.475299	22729.702132
28.536500	-0.000916	-0.000139	0.001251	-0.000414	6183.435458	44085.955603	3868.801499	22750.599899
29.036500	-0.000917	0.000691	0.003328	0.000370	6177.504319	44090.293989	3871.776073	22714.764153
29.537000	-0.000814	-0.000790	-0.006707	-0.001000	6188.640292	44079.815703	3852.014855	22777.392231
30.037500	-0.006092	-0.000576	-0.003095	0.002493	6122.900519	43770.149740	3852.284130	22618.091184
30.535000	0.001454	0.000531	0.001249	0.000469	6194.687739	44065.712434	3866.771789	22710.237802
31.035500	-0.001275	-0.000176	-0.000299	0.003208	6153.476248	43740.549741	3856.993886	22585.650878
31.536000	-0.002648	-0.000185	0.002190	-0.000003	6167.277560	44042.644330	3870.014364	22731.802725
32.035500	-0.002323	0.000197	-0.003079	0.003700	6141.966796	43729.350088	3849.597611	22563.342844
32.536000	-0.000176	0.000051	0.000008	0.000061	6185.436006	44058.947737	3864.864400	22728.879818
33.036000	-0.001418	-0.000221	0.000841	0.001038	6168.695879	43940.754835	3864.534412	22684.304628
33.537000	-0.000256	-0.000188	0.001909	-0.002566	6204.754068	44285.812300	3875.276648	22849.233134
34.037000	0.000427	0.000225	-0.002029	0.002927	6168.364447	43804.729932	3853.711719	22598.388523
34.540000	-0.000565	-0.000650	-0.000695	0.001470	6171.869581	43859.594474	3860.045767	22664.645767
35.034500	-0.002653	0.000034	-0.000141	0.002508	6148.403185	43826.207112	3858.942898	22617.408984
35.535500	-0.001844	-0.000741	0.000931	0.001156	6164.606391	43880.610299	3864.471083	22678.925642
36.035500	-0.002556	-0.000030	0.000023	0.002796	6146.974688	43793.048067	3858.661608	22604.325567
36.535500	-0.003569	-0.000285	-0.000890	0.001274	6150.787291	43912.510467	3860.047574	22673.561152
37.036000	-0.001206	-0.000177	0.001910	0.001965	6163.323649	43857.478602	3864.858840	22642.092153
37.536500	-0.001484	0.000193	-0.002448	0.002504	6157.189984	43841.573324	3853.722013	22617.624029
38.036000	-0.005303	-0.000007	-0.004762	0.002863	6126.018983	43788.993387	3847.695782	22601.323940
38.536500	-0.001006	-0.000014	-0.000166	0.002192	6163.120827	43851.487842	3859.606248	22631.788758
39.039500	-0.000167	0.000273	0.001634	0.001991	6170.941048	43897.546376	3864.170703	22640.937060
39.537000	0.000183	0.000181	0.000985	0.001982	6173.647495	43889.644147	3862.707498	22641.335959
40.037500	-0.003787	-0.000945	-0.004099	0.002423	6140.573971	43742.070333	3850.175976	22621.283005
40.535000	-0.001694	-0.000528	0.000095	0.001423	6163.725586	43875.550692	3861.952105	22666.773849
41.035000	0.000694	-0.000172	-0.004125	0.001992	6177.422894	43855.402812	3851.088995	22640.867122
41.535500	-0.001575	-0.000194	0.003829	0.002010	6160.207507	43851.594996	3869.154623	22640.035751
42.035500	-0.001202	-0.000683	-0.003778	0.001487	6166.945090	43854.924482	3853.014045	22663.869929
42.536000	-0.002644	-0.001166	-0.001665	0.001055	6159.354322	43850.011489	3858.780693	22683.513750
43.036500	-0.001052	0.000139	0.000134	0.002527	6160.258397	43834.217430	3859.526307	22616.543564
43.537000	0.000067	0.000300	0.000667	0.001812	6174.049680	43916.837207	3862.368421	22649.040810
44.037000	-0.000500	-0.000520	0.000755	-0.003098	6206.946074	44304.796684	3873.837336	22873.664438
44.539500	-0.000733	0.000380	0.001067	-0.000068	6182.204199	44102.365560	3867.585777	22734.785518
45.035000	-0.001337	0.000047	0.001224	0.001419	6166.436430	43930.092911	3864.539077	22666.936767
45.535500	0.000300	0.000072	-0.000999	0.000289	6187.315059	44039.308729	3862.044664	22718.471559
46.035500	-0.002528	0.000265	0.002579	0.005806	6124.767417	43538.294619	3857.630038	22468.186900
46.536000	-0.002365	-0.001080	0.001936	-0.000742	6174.970357	44027.848680	3871.128956	22765.570995
47.036000	0.000842	0.000449	0.001617	0.001748	6180.381027	43937.089037	3864.687615	22651.991418
47.540500	-0.001697	-0.000281	0.004952	0.002916	6152.514018	43758.187007	3869.655681	22598.922722
48.036500	-0.003122	-0.000108	-0.003223	0.005401	6123.367231	43541.361402	3845.452174	22486.467527
48.539500	0.000524	0.000119	-0.000757	0.000236	6189.406370	44048.816311	3862.715760	22720.870822
49.037500	-0.000708	0.000199	0.000124	0.001822	6168.136427	43906.372563	3861.108597	22648.592129
49.535000	-0.000311	-0.000584	0.002791	-0.002545	6204.176681	44246.042056	3877.268488	22848.265561
50.035500	-0.003089	-0.000545	0.002007	0.005778	6120.819336	43465.327775	3856.397033	22469.487856
50.535000	0.005049	-0.005171	0.003677	0.009029	6157.243247	42736.474168	3852.815691	22323.446618
51.035500	0.019516	-0.025398	-0.005574	0.479448	4040.553392	15786.391729	3196.677262	9470.417676
51.535500	-0.005093	-0.027989	-0.022856	-0.109251	7077.957991	52524.607663	4083.657076	28406.187208
52.036000	0.007543	-0.041025	-0.000945	-0.183780	8006.373537	60069.611933	4385.062299	33182.646724
52.536500	-0.037411	-0.025483	-0.037911	-0.127643	6946.133869	54969.852793	4093.005152	29509.855821
53.040000	-0.020557	-0.036410	-0.022259	-0.191831	7776.029802	61760.747795	4339.534064	33749.349023
53.536500	-0.002344	-0.030983	-0.005474	-0.182432	7875.986262	61225.060127	4364.716777	33088.744269
54.034500	-0.008309	-0.025172	-0.006484	-0.133489	7285.123282	55713.053475	4202.474140	29870.579730
54.535000	-0.012787	-0.019299	-0.009546	-0.108338	6995.985515	53420.829074	4118.757140	28352.592432
55.035000	-0.014150	-0.016361	-0.007345	-0.093691	6847.766632	52077.541353	4083.518609	27508.225329
55.535500	-0.013536	-0.009918	-0.019086	-0.104658	6954.431475	54088.110442	4081.359520	28137.755383
56.036000	-0.017784	-0.010375	-0.020175	-0.112309	6986.313366	54942.732097	4099.779252	28586.424463
56.535500	-0.012497	-0.011863	-0.015570	-0.132823	7236.394147	57272.453637	4172.919681	29829.231652
57.036500	-0.013896	-0.012971	-0.017643	-0.131606	7210.343294	56982.188844	4163.095353	29753.813083
57.536500	-0.011367	-0.010268	-0.021872	-0.114140	7064.658323	55175.425425	4100.160778	28695.015498
58.039500	-0.014883	-0.009178	-0.024472	-0.092514	6830.444621	52762.047650	4033.495187	27441.618968
58.534000	-0.010987	-0.006421	-0.012071	-0.072632	6688.436034	50834.974577	4013.652978	26343.128074
59.034500	-0.012438	-0.003829	-0.015166	-0.060737	6573.812131	49819.528623	3974.899894	25709.523955
59.535500	-0.013222	-0.009779	-0.019415	-0.072173	6665.012723	50415.744784	3993.315185	26318.368468
60.035000	-0.016323	-0.006917	-0.020382	-0.033509	6319.882926	46657.520061	3895.474614	24322.982748
60.536000	-0.017008	-0.003149	-0.027323	-0.009589	6131.562561	44674.395164	3825.232192	23174.554068
61.036000	-0.018505	-0.007206	-0.020004	-0.017160	6177.072193	45013.659680	3858.500969	23531.240015
61.536500	-0.017864	-0.008729	-0.021135	0.001754	6042.080545	43078.705930	3813.978156	22651.677496
62.036500	-0.023257	-0.007326	-0.018740	0.009665	5947.312861	42481.474607	3802.085421	22295.045456
62.537500	-0.020509	-0.002219	-0.028299	0.007715	5980.451307	43129.565999	3785.923274	22382.359798
63.037000	-0.022005	-0.000665	-0.025405	0.001251	6015.878254	43878.754274	3805.838143	22674.578149
63.538000	-0.021073	0.000785	-0.026792	-0.007808	6088.365197	44881.922222	3822.492259	23091.555814
64.038000	-0.024058	0.000648	-0.026769	-0.010734	6087.941272	45152.289936	3828.974017	23228.125984
64.535500	-0.018933	0.001771	-0.026795	-0.020819	6201.535157	46256.357176	3851.409205	23705.851114
65.035500	-0.021439	0.000663	-0.024635	-0.025825	6220.584240	46646.970382	3867.710645	23947.121274
65.536000	-0.020060	0.002399	-0.026036	-0.032574	6283.302538	47509.699200	3880.056206	24276.893992
66.036000	-0.024169	0.002416	-0.028525	-0.032372	6249.891357	47490.659646	3873.824787	24266.937484
66.538500	-0.020325	0.001546	-0.029067	-0.040732	6345.336431	48266.022980	3892.031740	24682.352672
67.039500	-0.020615	0.001788	-0.029365	-0.043774	6367.233664	48610.217702	3898.501328	24835.542147
67.539500	-0.022987	0.001520	-0.029741	-0.047514	6378.162912	48976.949297	3906.486796	25025.296159
68.037000	-0.023921	0.001950	-0.029008	-0.050947	6398.232280	49388.413954	3916.463054	25200.951323
68.534500	-0.024037	0.000390	-0.028003	-0.055450	6433.745346	49704.438594	3929.800885	25433.484688
69.035000	-0.026542	0.000578	-0.032005	-0.056269	6420.049323	49812.964300	3922.071093	25476.004226
69.535000	-0.025186	0.001348	-0.036204	-0.059853	6460.308318	50285.407159	3920.586406	25663.142822
70.036000	-0.028327	0.000616	-0.034798	-0.057444	6415.119051	49944.175637	3918.166907	25537.219747
70.536000	-0.024108	0.000877	-0.026899	-0.062809	6493.537478	50557.287408	3950.626362	25818.690049
71.037000	-0.027317	0.000463	-0.032318	-0.061038	6452.569027	50318.171152	3932.906869	25725.357109
71.539000	-0.025320	0.000862	-0.030305	-0.062828	6483.668436	50557.626961	3942.240811	25819.644143
72.040500	-0.027148	0.000595	-0.031648	-0.057922	6428.551085	49993.678904	3926.948098	25562.151957
72.537000	-0.026189	-0.000010	-0.030090	-0.061968	6469.440136	50368.105269	3940.653788	25774.303103
73.037500	-0.028637	-0.000542	-0.030522	-0.058958	6424.871934	49982.618174	3932.211897	25616.252146
73.534500	-0.028540	-0.000295	-0.032546	-0.059975	6433.919461	50119.797235	3929.756852	25669.544640
74.035000	-0.031143	-0.000801	-0.032811	-0.054862	6371.700830	49513.127893	3916.730900	25402.943433
74.535500	-0.028199	-0.000336	-0.029705	-0.057564	6417.123404	49854.122988	3930.805635	25543.452392
75.036000	-0.029991	-0.000664	-0.032314	-0.056896	6397.263429	49746.585948	3922.841960	25508.650368
75.536000	-0.029254	-0.000645	-0.030436	-0.055956	6395.623810	49647.368548	3925.114264	25459.738484
76.036500	-0.026926	0.000618	-0.037188	-0.049474	6362.361348	49089.296516	3893.491416	25125.419649
76.536000	-0.026326	-0.000476	-0.036295	-0.054096	6404.232294	49465.886471	3906.554790	25363.302550
77.037000	-0.025595	0.000279	-0.027384	-0.052920	6400.646871	49420.729335	3925.153408	25302.536343
77.537500	-0.027711	0.000057	-0.032741	-0.052361	6379.153404	49337.172765	3910.899253	25273.712454
78.037500	-0.026316	0.000486	-0.029873	-0.047732	6353.347764	48890.520277	3906.690848	25036.428611
78.535500	-0.025871	-0.000304	-0.025729	-0.051937	6390.509343	49253.364277	3926.785135	25251.843806
79.035000	-0.025482	0.000406	-0.030924	-0.050905	6385.353275	49219.061144	3911.762902	25198.807509
79.535000	-0.026406	-0.001115	-0.032031	-0.052202	6388.348465	49195.143534	3912.217604	25265.517351
80.036000	-0.028751	-0.000451	-0.031545	-0.049569	6348.593041	48985.822066	3907.083494	25130.263473
80.536500	-0.026573	-0.000380	-0.028808	-0.051328	6379.995768	49180.423379	3917.862172	25220.555742
81.036000	-0.027547	-0.000973	-0.031650	-0.051797	6375.951341	49167.194701	3912.160282	25244.678240
81.540000	-0.024520	-0.000970	-0.025244	-0.051393	6397.001169	49124.496524	3926.641934	25223.885398
82.037500	-0.027695	-0.001322	-0.031691	-0.049987	6360.316530	48937.827965	3907.734450	25151.684762
82.537500	-0.025198	-0.000556	-0.022908	-0.051393	6391.551763	49168.549654	3932.332393	25223.870749
83.035000	-0.025271	-0.001257	-0.026727	-0.048840	6370.509247	48823.398072	3916.881469	25093.008647
83.535000	-0.024398	-0.000907	-0.031658	-0.050979	6394.656047	49087.210673	3910.183918	25202.610599
84.035500	-0.025389	-0.000686	-0.027824	-0.048429	6366.278697	48840.223168	3913.257591	25071.969354
84.535500	-0.022054	-0.000757	-0.028053	-0.050919	6413.075024	49096.734331	3918.696815	25199.516900
85.036000	-0.024051	-0.001228	-0.027477	-0.048766	6379.674811	48818.605160	3914.902023	25089.232052
85.536500	-0.023724	-0.000754	-0.025656	-0.051028	6400.473793	49108.675970	3924.756493	25205.127237
86.036500	-0.022554	-0.002196	-0.021908	-0.052565	6422.352547	49118.692424	3937.650364	25284.209600
86.537000	-0.020659	-0.000389	-0.026430	-0.051054	6425.469677	49150.170293	3922.942936	25206.445760
87.037000	-0.021721	-0.001623	-0.025397	-0.049466	6404.032289	48850.852188	3921.601966	25125.036850
87.535000	-0.022221	-0.001987	-0.024506	-0.052615	6425.461969	49146.280262	3931.413608	25286.793885
88.035000	-0.022824	-0.002190	-0.030732	-0.051340	6410.256716	48989.272420	3913.265785	25221.167585
88.534500	-0.020737	-0.001481	-0.020800	-0.052829	6439.272126	49222.992117	3941.026139	25297.840726
89.035500	-0.023626	-0.002618	-0.027876	-0.051053	6401.464680	48913.391431	3919.446716	25206.393151
89.536000	-0.020162	-0.001331	-0.024942	-0.053210	6447.066606	49279.593152	3931.801366	25317.489031
90.036500	-0.020668	-0.002489	-0.023461	-0.051970	6432.838602	49024.415611	3932.392348	25253.574408
90.536500	-0.017651	-0.001525	-0.025588	-0.053512	6470.108484	49291.139884	3930.963796	25333.102200
91.039500	-0.016614	-0.001695	-0.023879	-0.053383	6477.584774	49259.272217	3934.824551	25326.436906
91.537000	-0.018123	-0.001774	-0.024627	-0.053329	6464.738329	49245.083749	3932.863438	25323.660734
92.034500	-0.018735	-0.001543	-0.024812	-0.051810	6447.288993	49107.836480	3928.705383	25245.310774
92.538000	-0.015896	-0.001785	-0.026007	-0.053403	6483.670610	49251.824056	3929.678116	25327.495773
93.035000	-0.016919	-0.001277	-0.016402	-0.052678	6469.275260	49228.597620	3951.535541	25290.038053
93.535500	-0.016998	-0.001230	-0.018766	-0.052315	6465.647000	49194.936935	3944.776537	25271.351181
94.036000	-0.016895	-0.001359	-0.026252	-0.051771	6462.028720	49123.367891	3925.114419	25243.337065
94.536000	-0.017204	-0.000971	-0.021003	-0.052285	6463.709299	49219.373763	3939.187347	25269.805401
95.036500	-0.019983	-0.000671	-0.022172	-0.048321	6408.814928	48830.369497	3926.640282	25066.455274
95.536500	-0.014358	-0.000515	-0.017486	-0.051233	6478.459155	49155.904977	3945.265115	25215.652841
96.037000	-0.014342	-0.000475	-0.024044	-0.051435	6480.255004	49181.658196	3929.666325	25226.062032
