sample name	sample
index	753
start time	 03-31-2021  11:59:47 AM
880	-0.044894
Peak Time (s)	92.036
Peak Height 	-0.04489
calc peak height	90,93
Baseline Time (s)	9.038
Baseline Value 	-0.003707
subtract baseline	10,4
Abs	-0.009141
Peak Time (s)	90.035
Peak Height 	-0.009141
calc peak height	90,93
Baseline Time (s)	10.537
Baseline Value 	0.003487
subtract baseline	10,3
PK_550	-0.003977
Peak Time (s)	90.035
Peak Height 	-0.003977
calc peak height	90,93
Baseline Time (s)	8.534
Baseline Value 	9.2212E-4
subtract baseline	10,2
PK_880	-0.013856
Peak Time (s)	91.036
Peak Height 	-0.01386
calc peak height	90,93
Baseline Time (s)	10.537
Baseline Value 	0.00307
subtract baseline	10,1


Time (s)	A880-A510	A880-A775	A880-A975	A880	I510	I775	I975	I880	
0.041000	-0.004123	-0.001351	-0.006012	0.005232	6668.391421	40457.092034	3951.387004	22115.811236
0.536000	-0.003287	-0.000092	-0.008303	0.003651	6688.935504	40702.850599	3949.766396	22185.654212
1.036000	-0.003403	-0.000788	-0.005222	0.005178	6674.953703	40510.380869	3953.317906	22118.200089
1.537000	-0.001072	-0.000695	-0.002685	0.000317	6736.527059	40940.595312	3970.397271	22333.703544
2.037000	-0.000747	-0.001019	-0.005419	0.000498	6737.766026	40896.450885	3963.632260	22325.610588
2.537000	-0.003237	-0.000650	-0.002165	0.000296	6718.059168	40946.377421	3971.658524	22334.634961
3.037500	-0.000547	-0.000645	-0.002032	0.000705	6737.711676	40911.113197	3971.013662	22316.412656
3.535000	-0.001154	-0.001318	-0.004812	-0.000408	6742.078395	40949.455575	3967.135847	22366.028272
4.035500	0.000558	-0.000652	0.002209	0.000553	6748.577336	40923.806105	3981.302986	22323.197340
4.537500	0.000634	-0.000056	0.002251	0.000480	6749.868033	40982.188201	3981.570385	22326.418557
5.035500	-0.002158	-0.001072	-0.000460	-0.000121	6730.932540	40945.923170	3976.615315	22353.224545
5.536000	0.000779	-0.000892	-0.000243	-0.000039	6755.624612	40954.539224	3976.934407	22349.585633
6.036500	-0.002293	-0.000719	-0.000338	0.000251	6726.565772	40944.264479	3976.031011	22336.624221
6.537000	-0.000334	-0.000507	-0.002043	-0.000030	6745.897224	40987.315466	3972.702109	22349.170307
7.037000	-0.002352	-0.000568	-0.002320	-0.000407	6731.725842	41015.009854	3972.936215	22365.998974
7.537000	-0.002065	-0.001272	-0.001927	-0.000615	6735.997944	40971.661136	3974.339328	22375.298792
8.037500	-0.002551	-0.000535	0.002536	-0.000393	6729.892492	41016.696671	3984.302881	22365.372879
8.534500	0.000168	0.000000	0.008391	0.000448	6746.111014	40989.908240	3996.206960	22327.868172
9.038000	-0.001809	0.000037	0.001507	0.000000	6732.897761	41032.364642	3980.951894	22347.834760
9.535500	-0.000237	0.000367	-0.001404	0.000461	6742.496638	41020.909939	3973.049224	22327.297932
10.034500	0.000299	-0.001374	-0.001633	-0.000369	6754.326355	40941.214488	3974.452784	22364.318733
10.536500	0.000000	-0.001095	0.000000	-0.000651	6754.171410	40990.180446	3978.937900	22376.882569
11.036000	0.000569	0.000092	-0.002265	0.000334	6750.572598	41007.947682	3971.335456	22332.941599
11.536500	-0.000538	-0.000984	0.000292	-0.000539	6748.540477	40990.201137	3979.361565	22371.905338
12.037000	0.000217	-0.000742	0.002996	-0.000417	6754.025458	41000.609897	3985.444292	22366.445821
12.537500	0.000297	-0.000256	-0.001092	-0.000357	6754.203081	41037.956540	3975.689834	22363.783175
13.037500	0.000497	-0.000486	-0.000089	-0.002023	6770.426890	41163.950304	3981.957694	22438.320597
13.535000	-0.002406	-0.000675	-0.000946	-0.000291	6730.259498	40995.444070	3975.875863	22360.815993
14.035000	-0.004218	-0.001356	-0.000282	0.003818	6679.582731	40578.786195	3967.842455	22178.240782
14.536000	-0.002143	-0.000611	-0.000207	0.002276	6710.460396	40777.156486	3971.606228	22246.558102
15.039000	-0.002014	-0.000497	0.000396	0.000630	6725.705719	40930.591273	3976.863331	22319.747361
15.539500	-0.001327	-0.000217	-0.000255	0.000307	6734.411884	40983.235792	3976.095321	22334.160856
16.038000	-0.003030	-0.001006	-0.001506	0.003703	6690.672508	40618.986941	3965.270976	22183.313338
16.537000	0.000606	-0.000010	-0.003030	0.000173	6752.283118	41013.068849	3969.930778	22340.127351
17.037500	-0.002407	0.000028	0.002452	0.000384	6724.443679	40997.993192	3982.271674	22330.719362
17.537000	0.000718	-0.000763	0.000674	-0.003051	6781.316414	41229.878982	3986.181643	22484.428004
18.034500	-0.002275	-0.000851	-0.004051	0.000902	6721.124567	40875.894127	3965.865282	22307.632633
18.537500	0.000386	-0.000554	0.001525	0.000963	6743.542368	40896.585981	3978.731576	22304.939665
19.034500	-0.001303	-0.000540	-0.001861	0.000840	6730.022684	40908.482172	3971.097958	22310.392773
19.535500	-0.003521	-0.000709	0.000418	0.001084	6708.865639	40872.394242	3975.850318	22299.517243
20.035000	-0.002673	-0.000497	0.000525	0.002926	6700.358738	40730.577123	3971.797370	22217.717395
20.536000	-0.002401	-0.000581	0.001220	0.000896	6720.095735	40899.980396	3978.171233	22307.909764
21.037000	-0.003222	-0.001094	-0.001417	0.000487	6716.549690	40890.937796	3972.955908	22326.111012
21.537000	-0.001965	-0.000578	-0.005212	0.001189	6721.314691	40874.651638	3962.512555	22294.853599
22.037500	-0.002900	-0.001138	-0.007257	0.002316	6703.638867	40727.939176	3955.212523	22244.789028
22.535000	-0.002678	-0.000544	-0.001890	0.000972	6717.056868	40896.602589	3970.723041	22304.498981
23.034500	-0.001887	-0.000622	-0.005761	0.001078	6722.944182	40880.501680	3961.501126	22299.790221
23.535000	-0.001908	-0.000005	-0.002688	0.001676	6717.619631	40882.210560	3967.230058	22273.195605
24.035500	-0.001872	-0.000649	-0.001749	0.001419	6720.142080	40848.446841	3970.011011	22284.637105
24.536000	-0.001139	-0.000667	-0.000354	0.001476	6725.959135	40841.932085	3973.130146	22282.101878
25.035500	-0.002704	-0.001218	-0.002669	0.000718	6719.012356	40859.980133	3969.501311	22315.816669
25.536500	-0.001775	0.000373	-0.002960	0.001553	6719.822062	40925.855363	3966.884750	22278.658940
26.036500	-0.002649	-0.000127	-0.001155	0.001997	6708.517803	40843.647924	3970.048210	22258.964580
26.537000	-0.001108	-0.001033	-0.001930	0.000981	6730.483170	40853.148163	3970.608914	22304.103092
27.037500	-0.000754	0.000603	-0.003497	0.001877	6725.814171	40917.644671	3964.886903	22264.254168
27.535000	-0.001952	-0.000490	-0.005374	0.001556	6718.283334	40850.392461	3961.292633	22278.560667
28.038000	-0.000412	0.000020	0.002089	-0.001710	6759.793944	41180.879735	3986.357087	22424.273724
28.535000	-0.001393	-0.000717	-0.003180	-0.000439	6740.279384	41004.753732	3971.004865	22367.416587
29.045500	-0.000579	-0.001209	-0.004286	-0.000704	6749.616643	40984.946540	3969.048417	22379.285200
29.538500	-0.001208	-0.000790	-0.001219	-0.000265	6740.373903	40983.129699	3975.176829	22359.639209
30.036500	-0.001335	0.000008	-0.003961	0.000478	6732.870389	40987.994939	3967.057335	22326.533374
30.536500	-0.001604	-0.000407	0.004930	0.000237	6732.619938	40972.726122	3988.473640	22337.253417
31.037000	-0.001234	-0.000676	-0.003905	-0.000495	6742.137834	41013.230624	3969.447071	22369.922120
31.537500	-0.002195	-0.000102	-0.002498	0.002084	6711.654993	40838.175393	3966.722906	22255.063697
32.035000	-0.003916	-0.000386	-0.003850	0.002550	6692.952214	40772.902146	3962.516084	22234.408050
32.581500	-0.001501	-0.000680	-0.002015	0.000092	6734.769304	40961.619541	3972.485353	22343.752820
33.035000	-0.002187	-0.000926	-0.002720	-0.000617	6734.958786	41002.010042	3972.491808	22375.372220
33.534500	-0.001211	-0.001025	0.001772	-0.000034	6738.348897	40942.363776	3981.653114	22349.330277
34.035500	-0.001064	0.000159	0.002712	0.000124	6738.259665	41032.168278	3983.496485	22342.307834
34.535500	-0.003572	-0.001199	0.000753	-0.002107	6735.873830	41108.666631	3984.139161	22442.078297
35.036000	-0.003304	0.000461	0.003731	0.002260	6700.659834	40871.926771	3980.866169	22247.261414
35.537000	-0.000828	-0.000247	0.001454	0.002420	6720.507554	40796.330476	3975.148737	22240.155254
36.036500	-0.001906	-0.000628	-0.001393	0.001774	6716.798413	40819.361208	3970.012371	22268.833554
36.537000	-0.001041	-0.000258	-0.002281	0.002376	6719.059343	40799.144022	3966.550183	22242.118018
37.037500	-0.003421	-0.001248	-0.001386	0.001310	6707.789424	40805.800191	3971.108475	22289.474820
37.538000	-0.002131	-0.000835	-0.006019	0.001208	6719.729421	40850.702534	3960.608093	22294.022143
38.035500	-0.001600	-0.001103	-0.000650	0.000871	6727.191283	40856.618806	3973.850216	22309.005963
38.535500	-0.001225	-0.001065	0.001379	0.001404	6725.832649	40813.552895	3977.352064	22285.290757
39.035500	-0.001370	-0.000118	-0.001230	0.002283	6717.031571	40819.482736	3969.207025	22246.245440
39.536500	-0.004053	-0.001329	-0.003138	0.001238	6702.998039	40805.056173	3967.203463	22292.695433
40.036500	-0.003044	-0.000401	0.000037	0.002225	6703.179664	40799.906917	3972.293540	22248.831230
40.537000	-0.003523	-0.000235	-0.003976	0.001871	6702.112985	40845.091043	3963.793036	22264.526731
41.037000	-0.002379	-0.000679	-0.000499	0.002043	6710.434060	40791.494223	3971.469482	22256.899998
41.537000	-0.001378	0.000111	0.000162	0.002514	6714.976525	40819.247205	3971.910740	22235.990652
42.038000	-0.004010	-0.000447	-0.004401	0.003955	6680.189862	40645.661553	3958.008280	22172.205854
42.535000	-0.003053	-0.000011	-0.003422	0.002458	6701.111921	40813.498769	3963.716710	22238.464542
43.035500	-0.002188	-0.000176	-0.003731	0.001606	6715.820669	40873.403692	3964.974814	22276.328927
43.535500	-0.002368	-0.001753	0.001212	0.001149	6718.196030	40775.881403	3977.557029	22296.624384
44.035500	-0.003701	-0.001251	-0.003382	0.002557	6694.730968	40697.174783	3963.581014	22234.082068
44.536500	-0.000940	-0.000699	0.001264	-0.000256	6742.619517	40990.393564	3980.981347	22359.276498
45.036500	0.001093	0.000597	0.005200	-0.001646	6772.328028	41225.997173	3993.590622	22421.423466
45.536500	-0.000355	0.000735	-0.000158	0.000516	6740.999018	41048.278032	3975.831985	22324.824431
46.034000	-0.001834	0.000052	-0.003054	0.003720	6700.747484	40709.385442	3961.653330	22182.596035
46.535000	-0.001252	0.000265	-0.000406	0.001047	6728.679317	40960.714426	3974.010544	22301.202205
47.035000	-0.001648	-0.000156	0.004301	0.000261	6732.036177	40992.589179	3986.927637	22336.198339
47.535000	-0.000024	-0.000217	0.006082	0.000512	6743.895391	40965.309711	3990.554285	22325.005787
48.038000	-0.003746	-0.000514	-0.006096	0.003927	6682.676442	40642.300078	3954.181108	22173.433054
48.535500	-0.003105	-0.001199	-0.001136	0.001839	6705.967833	40764.134169	3970.460687	22265.984709
49.036500	-0.000928	-0.000545	-0.006492	0.002702	6717.227080	40745.912773	3956.082179	22227.668306
49.538000	-0.001548	-0.000053	0.000757	0.000031	6734.889614	41021.786490	3979.115357	22346.457970
50.037000	-0.004247	-0.000951	0.003707	0.004803	6670.973951	40528.636304	3974.843846	22134.731316
50.537000	-0.003029	-0.000510	-0.002040	0.000981	6713.964245	40898.726334	3970.351138	22304.108446
51.037500	0.001757	-0.000079	0.003549	-0.001832	6779.734850	41182.835205	3990.104696	22429.723434
51.538000	-0.000852	0.000277	-0.000425	0.000835	6733.952780	40980.261497	3974.460667	22310.607124
52.035000	-0.004545	-0.001216	-0.004462	-0.000941	6717.449270	41005.006035	3969.189295	22389.852527
52.535500	-0.037524	-0.001290	0.004680	0.315860	4654.574114	21325.900653	3456.524107	12334.922345
53.035000	-0.064787	-0.010522	-0.011308	0.094299	5595.048088	32875.862101	3757.610238	18566.228810
53.536000	-0.046572	-0.016346	-0.012031	-0.126004	7503.297617	51949.967414	4282.975384	28869.706311
54.036000	-0.030615	-0.061749	-0.010582	-0.269725	9509.895509	64384.292533	4808.420849	39028.275983
54.536500	-0.019356	-0.025717	0.002813	-0.197840	8660.103238	59520.828011	4575.406931	33527.978315
55.037000	-0.021858	-0.017671	-0.005769	-0.160596	8164.021875	55846.288966	4413.551605	31016.830509
55.537000	-0.018508	-0.014994	-0.008473	-0.159754	8194.007568	56070.082298	4401.727156	30962.554860
56.035000	-0.016372	-0.011516	-0.010917	-0.144659	8040.938158	54669.474317	4344.628875	30006.351080
56.537000	-0.008581	-0.009433	-0.008621	-0.139363	8070.058709	54288.774384	4335.091397	29678.717304
57.035500	-0.006341	-0.006824	-0.007602	-0.131547	8005.225680	53677.659154	4313.727904	29202.410749
57.535500	-0.004560	-0.004541	-0.005372	-0.107485	7754.298729	51199.247288	4247.314082	27788.644822
58.035500	-0.005705	-0.004259	-0.008646	-0.099428	7654.368949	50344.187367	4214.141547	27332.527302
58.536500	-0.009079	-0.006083	-0.008313	-0.119822	7840.876270	52412.149171	4275.485793	28503.686766
59.036000	-0.009113	-0.005215	-0.009018	-0.101888	7644.184583	50508.348330	4220.188297	27470.868502
59.537000	-0.011627	-0.005583	-0.010065	-0.086844	7459.693472	48852.394313	4174.322190	26636.808460
60.039500	-0.011911	-0.006230	-0.012209	-0.084469	7432.389324	48534.385418	4161.741386	26507.716248
60.537000	-0.017459	-0.007401	-0.016986	-0.080857	7339.630983	48035.785371	4138.736543	26312.789146
61.037500	-0.017861	-0.008707	-0.009594	-0.086633	7393.815009	48501.600826	4175.049472	26625.269174
61.535000	-0.018529	-0.007482	-0.014221	-0.082010	7340.466727	48147.101167	4149.426328	26374.869095
62.035500	-0.016965	-0.007230	-0.013484	-0.079543	7331.414605	47917.404125	4144.693729	26242.271158
62.535500	-0.020629	-0.008100	-0.015981	-0.079104	7290.573578	47782.242808	4136.705783	26218.766398
63.038500	-0.020563	-0.008048	-0.011586	-0.084981	7349.861596	48397.668574	4164.888322	26535.476605
63.536500	-0.019002	-0.008069	-0.012135	-0.087204	7388.028934	48628.407878	4169.546161	26656.394051
64.042000	-0.018340	-0.007548	-0.012699	-0.086959	7392.255530	48657.425231	4167.292930	26643.032297
64.536500	-0.022451	-0.007848	-0.021367	-0.083882	7319.956488	48303.825632	4135.059562	26475.921474
65.054500	-0.019883	-0.007095	-0.021517	-0.087117	7378.236919	48721.708475	4143.440447	26651.645735
65.538000	-0.018082	-0.005774	-0.019795	-0.085744	7382.569003	48716.211938	4144.393125	26576.921512
66.034500	-0.018861	-0.006912	-0.020587	-0.085481	7372.027364	48568.936735	4141.516222	26562.616731
66.535500	-0.023421	-0.006562	-0.024034	-0.079662	7268.495313	47998.808585	4116.556807	26248.639408
67.035500	-0.019337	-0.005969	-0.019792	-0.080910	7321.377080	48189.955350	4131.281810	26315.640549
67.536000	-0.017938	-0.006141	-0.018891	-0.078964	7315.924462	47970.256433	4128.465689	26211.298070
68.035500	-0.018488	-0.006355	-0.019519	-0.077248	7293.399198	47770.767854	4122.171164	26119.632952
68.536500	-0.020818	-0.005299	-0.022225	-0.069126	7191.007247	47048.417779	4093.532805	25690.761859
69.038000	-0.017653	-0.005089	-0.022420	-0.070205	7232.294431	47179.273157	4095.844408	25747.286936
69.537000	-0.017473	-0.004958	-0.017394	-0.068206	7214.550720	46989.831024	4103.795913	25642.722498
70.037500	-0.015670	-0.004392	-0.015335	-0.065674	7207.457939	46791.046070	4102.547209	25510.890836
70.537500	-0.019700	-0.004039	-0.019961	-0.058072	7095.949486	46066.368818	4070.806928	25119.850585
71.035000	-0.016813	-0.004550	-0.015291	-0.061567	7156.754788	46363.229300	4091.901972	25298.790374
71.535000	-0.013548	-0.002909	-0.010164	-0.058729	7160.860037	46243.857959	4097.886735	25153.351226
72.035000	-0.018194	-0.003678	-0.016859	-0.051564	7048.897718	45461.213420	4062.120103	24790.406255
72.536000	-0.016770	-0.003861	-0.016671	-0.050165	7049.128060	45306.894465	4059.049871	24720.251611
73.036000	-0.014972	-0.003655	-0.014945	-0.054321	7105.186446	45733.823771	4074.047025	24929.344221
73.539000	-0.014112	-0.004084	-0.006957	-0.052744	7098.402714	45536.967883	4090.627344	24849.781175
74.036500	-0.013698	-0.003546	-0.009423	-0.050420	7080.361317	45362.401694	4078.215752	24733.015003
74.536000	-0.014748	-0.003545	-0.015517	-0.049084	7057.939070	45232.420487	4059.234558	24666.173350
75.040000	-0.015127	-0.004497	-0.011717	-0.048337	7047.405682	45067.598105	4066.995903	24628.913322
75.535000	-0.013854	-0.003825	-0.014934	-0.046516	7042.282569	44956.398197	4054.217657	24538.285143
76.035000	-0.018288	-0.004198	-0.015640	-0.040140	6942.604624	44309.553633	4036.506495	24223.993538
76.535500	-0.016752	-0.004068	-0.013122	-0.044446	6996.159384	44733.568172	4053.568285	24435.739080
77.035500	-0.014424	-0.003746	-0.013623	-0.042820	7002.644984	44608.448175	4048.220569	24355.520451
77.536000	-0.013429	-0.003786	-0.014107	-0.042557	7009.422045	44579.470611	4046.346988	24342.569326
78.036500	-0.018504	-0.003163	-0.016071	-0.035818	6901.491653	43998.160625	4024.778685	24013.544049
78.537000	-0.013997	-0.003129	-0.012993	-0.040544	6985.588495	44449.922726	4044.101727	24243.768360
79.037000	-0.014952	-0.002956	-0.010163	-0.039843	6970.376769	44399.517988	4049.432229	24209.469466
79.537000	-0.015644	-0.003963	-0.012900	-0.040572	6970.717934	44373.006085	4044.403760	24245.126804
80.037500	-0.017908	-0.003150	-0.017890	-0.034226	6892.527379	43849.370963	4016.441815	23936.550937
80.535000	-0.014190	-0.002898	-0.010376	-0.039398	6973.280503	44362.595842	4047.780963	24187.688986
81.035500	-0.016787	-0.003903	-0.012622	-0.040349	6958.200352	44357.523161	4044.539077	24234.201882
81.535500	-0.013284	-0.004091	-0.014122	-0.040684	6993.456791	44371.569191	4041.633324	24250.634446
82.035500	-0.015496	-0.003951	-0.014721	-0.040296	6969.538554	44347.901779	4039.173855	24231.596564
82.536500	-0.018549	-0.003496	-0.021398	-0.034349	6887.870089	43828.432922	4008.232311	23942.483261
83.036000	-0.012582	-0.002656	-0.018368	-0.040181	6995.287818	44460.424413	4029.861326	24226.002106
83.536000	-0.011962	-0.002950	-0.004893	-0.040377	7002.816975	44450.962132	4064.100736	24235.563329
84.037000	-0.015831	-0.004622	-0.011757	-0.042357	6985.393084	44480.428774	4051.745570	24332.748064
84.537500	-0.015619	-0.003781	-0.014582	-0.036320	6932.143916	43987.206921	4029.675899	24037.894920
85.034500	-0.013460	-0.003971	-0.014187	-0.042473	7008.355811	44553.760039	4045.938798	24338.465878
85.535000	-0.014743	-0.003930	-0.012217	-0.043183	7003.057248	44625.577962	4052.664441	24373.403683
86.035500	-0.013167	-0.004531	-0.010067	-0.043783	7023.219009	44625.479999	4059.611282	24402.988134
86.536000	-0.018242	-0.004120	-0.015642	-0.038522	6928.314118	44163.400105	4032.494723	24144.963905
87.036000	-0.014802	-0.004673	-0.007896	-0.044977	7019.125420	44726.434332	4068.171121	24461.996487
87.536500	-0.012988	-0.004122	-0.007066	-0.045260	7038.640622	44806.602657	4071.016024	24475.985422
88.037000	-0.017863	-0.004900	-0.015020	-0.040515	6949.893309	44278.496818	4038.976861	24242.346180
88.537000	-0.014945	-0.005312	-0.015482	-0.047146	7037.972324	44873.660939	4054.422759	24569.571641
89.037000	-0.012087	-0.004733	-0.010685	-0.046906	7062.463105	44906.358061	4065.976727	24557.646174
89.537500	-0.013700	-0.004706	-0.013054	-0.047910	7056.758554	45005.999463	4062.504176	24607.614549
90.035000	-0.015145	-0.003977	-0.009141	-0.047618	7040.516464	45048.287023	4071.741498	24593.064913
90.535500	-0.014356	-0.005388	-0.010731	-0.049674	7067.156118	45110.741194	4072.937391	24695.690147
91.036000	-0.013856	-0.004518	-0.012049	-0.049088	7066.339692	45138.330498	4068.063156	24666.380757
91.536000	-0.014696	-0.005326	-0.012616	-0.050507	7071.785937	45197.612399	4070.241180	24737.384186
92.036000	-0.017066	-0.005268	-0.012636	-0.044894	6997.397461	44661.392696	4055.924815	24457.893460
92.536500	-0.014274	-0.005132	-0.014873	-0.050914	7079.588915	45255.954945	4065.518565	24757.767812
93.036500	-0.013644	-0.005227	-0.013431	-0.051762	7093.539144	45329.306113	4071.368321	24800.360053
93.537000	-0.013997	-0.004126	-0.011985	-0.050929	7082.341361	45355.446987	4072.939112	24758.530475
94.040000	-0.018067	-0.005412	-0.012627	-0.046429	7002.335934	44795.068907	4059.830585	24533.971973
94.537500	-0.012507	-0.004962	-0.007438	-0.052502	7111.328262	45427.436591	4088.746861	24837.613137
95.035000	-0.012123	-0.004689	-0.007519	-0.052216	7112.250421	45426.115622	4087.790343	24823.171757
95.535500	-0.012801	-0.005437	-0.009542	-0.053730	7120.197672	45500.932138	4086.468463	24899.485502
96.066000	-0.017111	-0.004872	-0.016889	-0.047465	7020.787471	44946.882138	4051.683049	24585.441609
96.536000	-0.014780	-0.004701	-0.008710	-0.053623	7100.404399	45562.644727	4088.352338	24894.109671
97.036000	-0.013116	-0.005319	-0.012163	-0.054291	7122.541955	45567.542010	4081.135620	24927.859083
97.536500	-0.014797	-0.005496	-0.011759	-0.054469	7108.250511	45567.555377	4082.638503	24936.839594
98.037000	-0.011642	-0.004157	-0.012380	-0.053799	7131.903572	45633.146626	4079.303972	24902.976206
98.537000	-0.012702	-0.005261	-0.015219	-0.054484	7128.325016	45592.102087	4073.762791	24937.590137
