sample name	sample
index	1387
start time	 05-10-2021  10:21:34 AM
880	-0.029689
Peak Time (s)	90.036
Peak Height 	-0.02969
calc peak height	90,93
Baseline Time (s)	10.534
Baseline Value 	-0.003419
subtract baseline	10,4
Abs	-0.011935
Peak Time (s)	90.537
Peak Height 	-0.01193
calc peak height	90,93
Baseline Time (s)	10.534
Baseline Value 	0.001453
subtract baseline	10,3
PK_550	0.003484
Peak Time (s)	92.535
Peak Height 	0.003484
calc peak height	90,93
Baseline Time (s)	10.534
Baseline Value 	0.001074
subtract baseline	10,2
PK_880	-0.011214
Peak Time (s)	90.036
Peak Height 	-0.01121
calc peak height	90,93
Baseline Time (s)	11.535
Baseline Value 	0.002188
subtract baseline	10,1


Time (s)	A880-A510	A880-A775	A880-A975	A880	I510	I775	I975	I880	
0.038500	-0.000163	-0.001372	0.002521	-0.000168	6445.470515	45700.450124	3876.951048	23524.183193
0.537000	-0.003202	-0.000479	-0.002340	0.003899	6387.125853	45388.985906	3855.347510	23331.545678
1.037000	-0.000258	-0.000723	-0.003515	0.004251	6408.292582	45330.770766	3851.696366	23314.953595
1.540500	0.000943	0.000362	-0.001309	0.001721	6438.997217	45685.206924	3863.062274	23434.492235
2.037500	-0.000130	-0.000676	-0.000079	-0.000704	6450.185070	45821.877315	3871.916348	23549.712742
2.535000	-0.000314	-0.000914	0.001647	-0.001244	6453.135396	45851.691897	3877.443552	23575.442870
3.035500	-0.001551	0.000080	0.005092	0.002767	6409.863227	45554.711644	3876.063059	23385.005573
3.535500	0.000448	-0.000497	0.001305	0.000249	6447.076290	45745.577872	3872.968195	23504.366799
4.035500	0.003033	-0.000258	0.001207	0.000463	6466.764174	45748.011470	3872.207932	23494.191121
4.536500	0.000206	0.000270	-0.002354	0.000471	6443.233448	45799.242295	3863.556119	23493.801609
5.036500	-0.001112	-0.000009	0.000672	0.000441	6432.602232	45774.739055	3870.958712	23495.240937
5.537000	0.001892	-0.000682	0.000993	0.000085	6460.416028	45743.446014	3872.606741	23512.142337
6.037000	-0.001135	-0.000563	0.005107	-0.000088	6436.767266	45772.202788	3883.095401	23520.371014
6.537500	-0.000738	-0.000616	0.005434	-0.000104	6440.185293	45768.571927	3883.937928	23521.124444
7.034000	0.001656	-0.000075	-0.000811	-0.000045	6459.533346	45816.068655	3868.537337	23518.306463
7.535000	0.000949	0.000328	0.000160	0.000245	6451.260197	45827.378428	3870.193026	23504.558260
8.035500	0.001678	0.000232	0.001909	0.000243	6457.330964	45818.039818	3874.453864	23504.647452
8.535500	0.001569	-0.000097	-0.000091	0.000107	6457.545595	45798.924678	3869.915712	23511.088222
9.036000	-0.000557	-0.000312	-0.003237	-0.000258	6442.953006	45813.801866	3863.186092	23528.470135
9.539000	0.003055	0.000335	0.005564	0.000426	6467.256826	45810.055208	3882.954299	23495.919196
10.036500	-0.001233	0.000413	0.005027	-0.000119	6436.214928	45871.678295	3882.973527	23521.849026
10.534000	-0.000500	0.000000	0.000000	0.000000	6441.288287	45819.115827	3870.397388	23516.186890
11.037000	0.000790	0.000326	0.005275	0.000480	6447.995188	45803.922724	3882.112132	23493.376599
11.535000	0.000000	-0.000339	-0.003001	-0.000046	6445.807530	45790.222693	3863.241538	23518.368366
12.035000	0.001971	-0.000360	0.002145	0.000188	6460.217802	45765.057485	3875.162968	23507.245271
12.535500	-0.001120	-0.000565	0.003209	-0.000043	6436.525461	45767.602175	3878.328081	23518.224550
13.038500	-0.000587	-0.000017	-0.000795	0.000562	6435.925889	45761.967155	3867.105082	23489.458058
13.536000	0.001663	-0.000014	0.001361	-0.001245	6469.579023	45940.781788	3876.748115	23575.487237
14.036500	-0.000102	0.000091	0.002748	-0.000876	6451.839264	45914.724759	3879.238845	23557.907486
14.536500	-0.001566	0.000074	-0.000832	0.001720	6418.325907	45656.834967	3864.215252	23434.512360
15.037000	-0.000800	0.000491	0.001758	0.000256	6436.698094	45842.255049	3874.052663	23503.996443
15.553000	0.002391	0.000348	0.005902	-0.001031	6473.867973	45955.438461	3887.375398	23565.270744
16.037500	0.002000	0.000189	-0.002252	-0.001263	6472.532957	45962.673102	3867.997358	23576.327842
16.538500	0.003445	-0.000013	0.001537	-0.001464	6486.292717	45962.599090	3877.713722	23585.942453
17.035000	0.004227	0.000527	-0.002061	-0.000847	6487.681391	45955.057196	3867.454143	23556.537707
17.535000	0.001555	0.000516	-0.002724	-0.000748	6464.542177	45944.089704	3865.609636	23551.816161
18.036000	-0.000020	0.000313	-0.000537	-0.000076	6445.893353	45857.595919	3869.277839	23519.820119
18.536000	0.000753	0.000181	-0.000434	0.000889	6444.303537	45749.235796	3867.187123	23473.931851
19.039000	0.000754	0.000342	0.002292	0.001423	6439.899070	45712.520102	3872.512220	23448.631035
19.537000	0.001660	0.000399	0.001229	0.001346	6448.021325	45725.687366	3870.111656	23452.242543
20.036500	-0.000533	-0.000504	0.002751	0.000389	6437.805041	45731.108737	3876.152467	23497.711130
20.534500	-0.001391	-0.000424	0.000437	0.000934	6426.231210	45685.247372	3869.191064	23471.796935
21.037500	0.000129	0.000353	0.000451	0.001296	6435.779838	45726.066873	3868.346419	23454.628058
21.535000	-0.000357	-0.001017	0.000982	0.000258	6440.335791	45693.396064	3872.157891	23503.912161
22.035500	0.000521	-0.000104	0.003227	0.000407	6446.371132	45768.655350	3877.269314	23496.823447
22.535500	-0.000367	-0.000683	-0.002303	0.000179	6440.907595	45734.003325	3864.383551	23507.654762
23.036000	-0.001068	-0.000072	0.003714	0.000746	6430.438784	45738.349383	3877.630923	23480.714642
23.539000	0.001602	0.000272	0.000969	0.001001	6450.408692	45747.183297	3870.320821	23468.627852
24.036500	0.000779	0.000499	0.004439	0.000624	6446.712742	45806.791605	3879.707438	23486.528622
24.537000	0.000395	0.000777	0.003648	0.001436	6436.815636	45754.097134	3875.783800	23447.977170
25.037000	-0.000793	0.000414	0.000516	0.001150	6429.378232	45746.541746	3868.857392	23461.554542
25.534500	-0.000803	0.000631	0.002657	0.001276	6428.261205	45755.501600	3873.758290	23455.601131
26.037000	-0.001339	-0.000157	-0.002432	0.000130	6433.285452	45790.778477	3864.189483	23509.991603
26.535000	0.000191	0.000230	-0.000786	0.000777	6440.579375	45765.147537	3866.607931	23479.267158
27.035500	0.000135	-0.000202	-0.002687	0.002082	6429.348488	45594.155794	3858.873853	23417.389354
27.535500	-0.000743	0.000429	0.000070	0.001371	6427.968164	45726.146598	3867.241295	23451.053218
28.036000	0.001960	0.000057	0.006344	-0.002366	6481.416350	46058.965792	3891.772535	23629.026304
28.536000	0.000726	0.000723	0.004700	-0.000881	6458.751408	45977.738634	3884.043793	23558.135439
29.037000	0.001945	-0.000445	-0.000812	-0.001596	6474.859601	45932.948114	3872.304777	23592.244255
29.536500	0.000012	0.000211	0.001937	-0.001212	6455.570492	45959.832401	3878.074815	23573.913657
30.037500	0.001290	-0.000022	0.001468	-0.001328	6467.170213	45948.295209	3877.212285	23579.469491
30.537500	0.000495	-0.000202	0.004382	-0.001527	6462.203083	45950.110695	3884.849742	23588.929607
31.035000	-0.002276	-0.000726	-0.001126	0.003405	6398.712629	45413.205367	3859.446745	23354.879132
31.546000	-0.000830	-0.000258	0.006304	-0.001156	6448.127751	45907.818301	3888.676621	23571.233176
32.036000	-0.001287	-0.000582	0.003354	0.001914	6419.032546	45573.386413	3873.903454	23425.366166
32.560500	0.000415	0.000050	-0.001611	-0.000780	6455.334221	45901.094419	3868.379555	23553.306507
33.038500	-0.003214	0.000383	-0.000307	0.004520	6381.970575	45412.610819	3858.736057	23302.308029
33.536500	-0.000312	0.000151	0.001410	-0.001644	6456.474370	45996.722376	3877.844753	23594.556579
34.036500	0.002531	-0.000553	-0.000126	-0.001484	6478.820331	45911.164706	3873.702621	23586.898867
34.536000	0.001437	-0.000357	0.003973	-0.002369	6477.077200	46018.291275	3885.919182	23629.199327
35.037000	-0.000326	-0.000082	0.000072	0.001457	6430.700007	45667.469791	3867.038138	23447.001111
35.535000	-0.000547	0.000689	0.001197	0.001635	6427.410194	45725.811054	3869.334042	23438.570899
36.035000	-0.001901	-0.001095	0.001198	0.000394	6426.481167	45672.310713	3872.353165	23497.445126
36.535500	-0.000610	-0.000291	0.004250	0.001028	6431.894802	45689.040374	3878.252651	23467.326805
37.036000	-0.000641	0.000123	-0.001419	0.001296	6429.434903	45703.523993	3863.821263	23454.641294
37.536000	-0.001316	-0.000500	0.000753	0.000770	6428.198753	45693.867033	3870.356144	23479.583608
38.036500	-0.002277	0.000579	0.002089	0.001688	6412.755400	45709.772585	3871.372083	23436.062716
38.536500	0.000561	-0.000161	0.001232	0.001337	6439.013374	45671.492446	3870.143967	23452.705635
39.036500	0.001139	0.000643	0.004438	0.001722	6440.602794	45712.713573	3877.016272	23434.448349
39.537500	0.000160	0.000039	-0.000171	0.001488	6434.449021	45676.229894	3866.372912	23445.510802
40.034500	-0.000072	0.000135	0.005516	0.001660	6431.121263	45668.775397	3879.807966	23437.377243
40.535000	-0.000347	-0.000064	-0.000939	0.001392	6431.061429	45675.675886	3864.749447	23450.102157
41.035000	-0.002466	-0.000822	0.001543	0.001101	6416.018384	45629.702845	3871.472611	23463.878933
41.535500	0.001588	0.000037	0.005236	0.001761	6443.995376	45649.209467	3878.872794	23432.577396
42.035500	-0.000603	0.000475	0.002945	0.001990	6424.023047	45669.819875	3872.720179	23421.736275
42.539000	0.000836	-0.000111	0.002359	0.001365	6441.054437	45673.677624	3872.815010	23451.365184
43.036500	-0.001430	-0.000433	0.000920	0.000967	6425.645423	45681.185496	3870.282658	23470.252811
43.536500	-0.001502	-0.000295	0.009148	0.001514	6420.541777	45640.831581	3889.106449	23444.276744
44.037000	0.001200	0.000798	0.004530	0.002085	6438.109940	45692.239635	3876.353972	23417.251044
44.534500	0.000118	0.000278	-0.000262	0.001833	6431.263065	45665.883940	3865.320754	23429.195881
45.037500	-0.000191	-0.000279	0.002681	0.001630	6430.392044	45631.088652	3872.954975	23438.819695
45.535000	0.001383	0.000678	0.001587	-0.000341	6459.733253	45919.910911	3875.093253	23532.423992
46.075500	0.000270	0.000205	0.002561	-0.000985	6455.831517	45936.816318	3879.049355	23563.113059
46.535500	0.000796	0.000528	0.001360	-0.000816	6458.795777	45952.006106	3875.696716	23555.027778
47.036000	-0.005033	-0.000385	-0.000038	0.004233	6369.539408	45365.576527	3860.072362	23315.834206
47.536000	0.000876	0.000003	0.000606	-0.000558	6457.319156	45874.568361	3873.228381	23542.745465
48.036000	0.002194	0.000755	0.003783	-0.000369	6466.713037	45930.244506	3880.533750	23533.758668
48.536500	-0.001245	-0.000237	0.002194	0.000977	6427.080096	45699.382483	3873.357381	23469.756992
49.037000	-0.000250	-0.000269	-0.002129	0.002567	6422.188758	45540.005093	3859.049589	23394.445656
49.537500	0.001644	-0.000492	-0.001194	-0.000906	6466.601028	45860.099483	3869.699404	23559.347148
50.035000	0.001270	0.000047	0.003006	-0.001244	6466.294349	45946.806606	3880.773796	23575.439922
50.541500	0.001623	0.000040	0.001093	-0.000988	6467.105340	45920.767539	3875.465982	23563.235307
51.035500	0.000505	0.000185	0.001997	0.003097	6424.038265	45532.623217	3867.728531	23369.414570
51.536000	0.001643	0.001087	0.005874	-0.001304	6469.902253	46055.794968	3887.980668	23578.287354
52.039000	0.001062	0.000590	0.006338	-0.002041	6471.207872	46079.725981	3890.953056	23613.516099
52.536500	-0.002803	-0.008601	0.008613	0.010344	6338.226604	43988.891082	3866.199655	23029.979323
53.036500	0.015538	-0.013158	0.008511	0.412628	4291.223666	19026.476218	3231.357861	10846.690353
53.536500	0.008944	-0.016287	0.001756	-0.045388	6924.518907	48790.782964	3991.383077	25791.964310
54.037000	-0.017810	-0.039058	-0.003130	-0.158493	7820.737237	59392.247497	4324.199126	32614.608811
54.534500	-0.001885	-0.040454	0.007478	-0.183823	8316.030337	62590.553902	4454.375333	34401.708386
55.035000	-0.003145	-0.020695	0.007427	-0.120188	7557.417017	56858.578526	4230.804235	30102.464797
55.535000	-0.010684	-0.019325	0.001284	-0.077268	7041.103782	51939.262369	4079.590822	27538.815977
56.035000	-0.015714	-0.021568	-0.004819	-0.073095	6953.223637	51220.507560	4050.023900	27302.752956
56.538500	-0.013693	-0.016722	0.001159	-0.083869	7075.904428	52988.743444	4098.585167	27916.805204
57.036000	-0.016765	-0.013736	-0.007028	-0.086767	7074.208532	53671.348744	4083.051048	28084.535026
57.536500	-0.012243	-0.011274	-0.007995	-0.103639	7287.492022	55980.901365	4130.341680	29083.859295
58.037000	-0.006322	-0.008200	-0.007793	-0.105344	7366.093162	56567.798544	4136.127865	29187.011420
58.537000	-0.005433	-0.010573	-0.005780	-0.111125	7435.980676	56990.259129	4160.045193	29539.823766
59.034500	-0.005892	-0.007972	-0.006029	-0.097508	7289.739564	55636.454213	4117.790329	28716.221924
59.535000	-0.003818	-0.005059	-0.006081	-0.073843	7074.430524	53177.733980	4048.565429	27344.906682
60.035000	-0.006458	-0.007035	-0.009678	-0.069259	7004.758036	52424.514629	4025.549621	27087.819978
60.535500	-0.008145	-0.005414	-0.010063	-0.052100	6828.328408	50685.388475	3977.634422	26149.171196
61.036000	-0.008546	-0.003411	-0.011088	-0.043286	6744.813894	49942.528023	3951.595187	25681.254214
61.536000	-0.010540	-0.005413	-0.011461	-0.038092	6680.887955	49170.058326	3937.123760	25409.916575
62.036500	-0.010647	-0.005341	-0.008356	-0.026208	6576.580635	47929.675666	3914.672942	24801.206645
62.536500	-0.013558	-0.007473	-0.008407	-0.025454	6545.257455	47631.654910	3912.636019	24763.108838
63.037000	-0.014638	-0.008616	-0.010561	-0.015472	6452.336511	46501.372858	3882.395006	24265.382316
63.537000	-0.014287	-0.001856	-0.014535	0.019125	6179.221905	43796.936651	3791.709459	22626.240263
64.041500	-0.017322	0.000661	-0.012228	0.007560	6245.244493	45143.303403	3823.401060	23159.692916
64.534500	-0.016887	0.001817	-0.015072	-0.001062	6316.787239	46104.327605	3836.901406	23566.749839
65.054500	-0.015496	0.001797	-0.013634	-0.007136	6376.885556	46710.259301	3854.726832	23858.417442
65.546500	-0.015209	0.001619	-0.011659	-0.013983	6435.299340	47387.603505	3876.059909	24192.148951
66.038500	-0.014132	0.003314	-0.016816	-0.015676	6458.236177	47735.709954	3867.631910	24275.475752
66.536000	-0.014811	0.003872	-0.012526	-0.018309	6474.501933	48066.003135	3884.540496	24405.689764
67.036500	-0.014266	0.003526	-0.017914	-0.019641	6490.193761	48168.591128	3874.602109	24471.885196
67.537000	-0.014275	0.002507	-0.017852	-0.022958	6518.027123	48408.566741	3882.876682	24637.602862
68.037000	-0.013839	0.002715	-0.015227	-0.024927	6538.397092	48637.007689	3894.228165	24736.552785
68.537500	-0.016018	0.003314	-0.017212	-0.026479	6533.071602	48863.961352	3893.154594	24814.891525
69.035000	-0.017336	0.003633	-0.011236	-0.025525	6513.853196	48796.825744	3905.690831	24766.700106
69.535000	-0.016465	0.003487	-0.018437	-0.027339	6536.579651	48973.248911	3892.248048	24858.406613
70.035000	-0.017225	0.003183	-0.014182	-0.027088	6528.007038	48914.412508	3902.223548	24845.675619
70.536500	-0.018769	0.003347	-0.023509	-0.026230	6507.720224	48841.075860	3877.028442	24802.300736
71.036000	-0.022111	0.002980	-0.023870	-0.024233	6463.035368	48591.889518	3871.279748	24701.625450
71.536500	-0.020147	0.002327	-0.024793	-0.023987	6477.355271	48497.418448	3868.439356	24689.249859
72.036500	-0.020044	0.002087	-0.026630	-0.022472	6465.587216	48313.809145	3860.343823	24613.259002
72.534500	-0.020242	0.002308	-0.025337	-0.020258	6445.556041	48105.990123	3858.128842	24502.594419
73.037000	-0.019804	0.001952	-0.023293	-0.016520	6418.351994	47682.267859	3854.070626	24317.143740
73.537000	-0.019472	0.002043	-0.020588	-0.016548	6421.298714	47694.438693	3860.627747	24318.484702
74.035000	-0.018862	0.002217	-0.017087	-0.014980	6413.439806	47551.096641	3865.292128	24241.187085
74.536000	-0.017728	0.003062	-0.020948	-0.013056	6406.965224	47440.424520	3851.398085	24146.660032
75.035500	-0.018844	0.002731	-0.020288	-0.011432	6384.589223	47240.500385	3849.097982	24067.170017
75.539000	-0.020327	0.002602	-0.022561	-0.011932	6376.599827	47278.386918	3844.886581	24091.616969
76.036000	-0.018453	0.002680	-0.015055	-0.012087	6393.118604	47302.255784	3863.212240	24099.213679
76.536500	-0.017333	0.003059	-0.016598	-0.011944	6401.096389	47326.243780	3859.151322	24092.202760
77.036500	-0.019364	0.002194	-0.020319	-0.012880	6392.153706	47333.517459	3852.477888	24138.008756
77.537000	-0.017883	0.002370	-0.018331	-0.013513	6409.434559	47416.244042	3858.756868	24169.041555
78.037000	-0.018978	0.001977	-0.019154	-0.014200	6406.094103	47446.391256	3858.431029	24202.795962
78.535000	-0.015362	0.002694	-0.019063	-0.014771	6440.538711	47578.671845	3860.021960	24230.888861
79.035000	-0.019041	0.002138	-0.016633	-0.013156	6397.039362	47356.019562	3861.983813	24151.546360
79.535000	-0.016688	0.001486	-0.020849	-0.017492	6452.092285	47734.397591	3862.274055	24365.213873
80.036000	-0.015929	0.002380	-0.016684	-0.017178	6455.778946	47794.315625	3871.599580	24349.660775
80.536000	-0.017622	0.001894	-0.018341	-0.018891	6455.948862	47921.200148	3871.735276	24434.596796
81.036500	-0.019295	0.001009	-0.013737	-0.018303	6437.230420	47768.923676	3881.550895	24405.413442
81.537000	-0.015731	0.001370	-0.018859	-0.020829	6487.876554	48067.895379	3875.195502	24531.102431
82.036500	-0.017289	0.000732	-0.018913	-0.022195	6486.271669	48143.574054	3878.400741	24599.355434
82.537000	-0.016606	0.001377	-0.016431	-0.023052	6499.184667	48300.144161	3886.607767	24642.315564
83.037500	-0.016882	0.000924	-0.011453	-0.024185	6506.390346	48371.297058	3901.786955	24699.218908
83.535000	-0.014973	0.001824	-0.016766	-0.023967	6520.658519	48442.689111	3888.038369	24688.277138
84.035000	-0.015667	0.001206	-0.017829	-0.025276	6525.856683	48515.054982	3888.645584	24754.147459
84.535500	-0.014702	0.001258	-0.018484	-0.025762	6538.156966	48571.564757	3888.226722	24778.645210
85.038500	-0.014525	0.001549	-0.013294	-0.026353	6544.684218	48664.348571	3902.606503	24808.516027
85.538500	-0.013076	0.001603	-0.010560	-0.026466	6557.999253	48682.028978	3909.757843	24814.237874
86.036500	-0.015327	0.001206	-0.017167	-0.027531	6547.885194	48752.347916	3895.880480	24868.148435
86.536500	-0.015255	0.000916	-0.015968	-0.028004	6552.532949	48771.653157	3900.047710	24892.133525
87.034000	-0.014121	0.001529	-0.016092	-0.028121	6563.206805	48848.802106	3900.030738	24898.075832
87.537000	-0.015134	0.001391	-0.018843	-0.028793	6560.298524	48905.357237	3894.851097	24932.208440
88.038000	-0.013618	0.001740	-0.009149	-0.028994	6574.991215	48963.539215	3919.730864	24942.407367
88.537000	-0.014169	0.002997	-0.013461	-0.028810	6568.691983	49077.376703	3908.354146	24933.040895
89.035000	-0.012427	0.001809	-0.013377	-0.029926	6593.242252	49069.713355	3911.379053	24989.842805
89.538500	-0.012711	0.002750	-0.019302	-0.029486	6587.007696	49122.955479	3895.433215	24967.450123
90.036000	-0.011214	0.003145	-0.013328	-0.029689	6601.665504	49186.634031	3910.906466	24977.787720
90.536500	-0.013970	0.002868	-0.011935	-0.029941	6580.097628	49183.968289	3915.064073	24990.617681
91.036000	-0.012265	0.002572	-0.019680	-0.030477	6599.390245	49209.499125	3896.958630	25017.962864
91.536500	-0.011300	0.003287	-0.013686	-0.030750	6610.085248	49314.830808	3912.679742	25031.856960
92.037000	-0.012247	0.002750	-0.015868	-0.031236	6606.107422	49309.428920	3908.402603	25056.707287
92.534500	-0.011825	0.003484	-0.018490	-0.030716	6605.253397	49332.254938	3900.522397	25030.120644
93.037500	-0.013913	0.003884	-0.012300	-0.029466	6576.507510	49241.624826	3912.938431	24966.429216
93.538000	-0.012841	0.003808	-0.015769	-0.030787	6597.099669	49374.513604	3907.523323	25033.788854
94.035500	-0.014923	0.004077	-0.017128	-0.030785	6579.159015	49403.062350	3904.103739	25033.673045
94.535500	-0.015114	0.003816	-0.013044	-0.030621	6576.106907	49357.600689	3913.975784	25025.272337
95.036000	-0.013023	0.003541	-0.011714	-0.029603	6585.323905	49219.598288	3914.765655	24973.378805
95.544000	-0.012489	0.003258	-0.018049	-0.031384	6605.291343	49379.569127	3903.298927	25064.288538
96.036500	-0.011727	0.004325	-0.014749	-0.030612	6605.206756	49411.084075	3909.649499	25024.839359
96.539500	-0.011716	0.004554	-0.013381	-0.029687	6597.313014	49336.696431	3910.766122	24977.676363
97.034000	-0.011419	0.004457	-0.020589	-0.028808	6592.290991	49232.516325	3890.556967	24932.961961
97.543500	-0.012760	0.005225	-0.018356	-0.030186	6592.610763	49461.840397	3899.532605	25003.098557
98.038000	-0.011943	0.004620	-0.012148	-0.029851	6596.759195	49361.238252	3914.294721	24986.004215
98.565500	-0.013006	0.004441	-0.017112	-0.028755	6578.188337	49225.079681	3899.065647	24930.240474
99.038500	-0.014622	0.004552	-0.015958	-0.028910	6565.675943	49253.541488	3902.339328	24938.155352
