sample name	sample
index	610
start time	 03-19-2021  01:52:20 PM
880	0.038383
Peak Time (s)	91.537
Peak Height 	0.03838
calc peak height	90,93
Baseline Time (s)	10.037
Baseline Value 	-0.001297
subtract baseline	10,4
Abs	0.017348
Peak Time (s)	90.537
Peak Height 	0.01735
calc peak height	90,93
Baseline Time (s)	10.537
Baseline Value 	0.001444
subtract baseline	10,3
PK_550	0.016951
Peak Time (s)	92.535
Peak Height 	0.01695
calc peak height	90,93
Baseline Time (s)	9.537
Baseline Value 	-3.3881E-5
subtract baseline	10,2
PK_880	0.019114
Peak Time (s)	92.535
Peak Height 	0.01911
calc peak height	90,93
Baseline Time (s)	8.537
Baseline Value 	-7.4035E-5
subtract baseline	10,1


Time (s)	A880-A510	A880-A775	A880-A975	A880	I510	I775	I975	I880	
0.037000	0.000886	-0.000334	-0.002719	0.001941	7143.354475	47320.958586	4044.216457	24941.796853
0.537500	-0.001306	0.000140	-0.004708	0.004163	7100.494471	47142.790467	4033.123284	24829.348035
1.035000	-0.001859	-0.000154	-0.004587	0.003125	7105.183777	47218.538942	4036.165026	24881.789934
1.537500	-0.000970	0.000493	0.001898	0.000878	7135.613208	47514.449960	4059.343573	24995.761168
2.035500	0.000102	-0.000513	-0.000363	-0.000057	7155.215764	47507.247894	4055.796263	25043.392878
2.536000	0.001348	0.000344	0.000018	-0.000046	7167.317870	47594.051551	4056.784712	25042.840448
3.036000	0.002204	-0.000586	-0.002425	-0.001858	7193.572978	47684.761901	4055.097005	25135.350350
3.536500	0.000447	0.000763	0.000596	0.001829	7140.156858	47444.589979	4053.320647	24947.461632
4.036500	-0.002063	-0.000364	0.002256	0.000312	7130.485846	47484.520882	4061.825798	25024.561502
4.536500	-0.000068	-0.000108	0.000056	0.000069	7152.321022	47535.817900	4056.577716	25036.961458
5.037500	0.000205	0.000036	-0.004929	0.000413	7151.624956	47515.348300	4042.411988	25019.460489
5.537500	0.000123	-0.000156	0.000668	0.000271	7152.206789	47510.087002	4057.674354	25026.653458
6.035000	0.000743	0.000259	0.001992	0.000509	7155.944539	47528.325518	4060.587922	25014.552714
6.535500	-0.000004	0.000298	-0.000482	0.000039	7153.234979	47580.645168	4055.220376	25038.498852
7.035500	-0.000629	-0.000489	0.000853	0.000247	7145.098544	47478.445564	4058.235213	25027.897956
7.536000	0.000789	-0.000105	-0.001253	0.000074	7160.654449	47535.613955	4053.069102	25036.710408
8.036000	-0.000258	0.000050	-0.000215	0.000384	7147.377163	47519.636130	4055.011883	25020.905895
8.536500	0.000000	0.000060	-0.002292	0.000014	7153.516262	47558.631155	4050.460648	25039.747979
9.039500	0.000607	-0.000270	0.003180	-0.000279	7162.329988	47554.918958	4065.904446	25054.695520
9.537000	-0.000785	0.000000	-0.002049	-0.000287	7148.785748	47583.481822	4051.910254	25055.120897
10.037500	-0.000309	0.000904	0.001969	0.000000	7150.630907	47646.933303	4061.892898	25040.476770
10.537500	-0.000521	-0.000417	0.000000	0.001152	7137.323086	47393.167406	4053.536353	24981.853659
11.035000	0.000857	0.000557	0.000121	0.000100	7161.062563	47600.866346	4056.668777	25035.359816
11.535000	0.000407	-0.000370	-0.003882	-0.000384	7161.400022	47555.389323	4047.292988	25060.032216
12.035500	0.000421	-0.000143	-0.001198	-0.000274	7160.459137	47567.448003	4054.145824	25054.448442
12.536500	0.000417	0.000108	0.000678	-0.000500	7162.639038	47616.444266	4059.769803	25065.978976
13.039000	0.001033	0.000064	-0.000037	-0.002036	7183.778593	47770.065969	4061.971031	25144.453590
13.536500	0.001849	0.000019	0.003512	-0.000609	7177.763657	47618.534906	4067.689445	25071.533275
14.039500	0.000168	0.000182	0.003447	-0.000687	7162.022816	47643.315040	4067.723942	25075.511466
14.537500	-0.003608	0.000207	-0.001463	0.002735	7092.067118	47295.175045	4045.439684	24901.556553
15.037500	-0.001388	-0.000276	-0.001056	0.000197	7138.181854	47505.489776	4053.267904	25030.462360
15.535000	-0.000873	0.000581	-0.000197	0.002711	7118.740814	47335.795088	4048.859268	24902.738958
16.035500	0.001886	0.000922	0.003731	-0.000348	7175.568934	47684.638872	4067.576902	25058.226054
16.536000	-0.001751	0.000157	0.001958	0.004967	7088.450765	47062.779668	4048.593901	24788.807500
17.036000	0.001107	0.000744	0.004210	-0.000392	7168.348580	47670.821195	4068.991048	25060.479758
17.536000	-0.001409	0.000166	0.002219	0.002926	7111.465716	47271.433694	4054.724946	24891.875702
18.036500	0.001833	0.000897	-0.001988	-0.000272	7174.295233	47674.213431	4052.033247	25054.346343
18.539500	-0.000653	-0.000632	-0.001111	0.001017	7137.355004	47384.981104	4050.933683	24988.704072
19.037000	0.000649	0.000863	0.000227	0.001814	7142.277617	47456.405823	4052.375852	24948.215183
19.537500	0.001185	0.000067	0.002269	0.000942	7156.028039	47464.147340	4060.168749	24992.504757
20.034500	-0.001408	-0.000430	-0.000471	0.000830	7131.817156	47424.828565	4053.138526	24998.225038
20.535000	-0.002000	-0.000256	0.003641	0.001605	7118.533447	47363.263339	4062.071491	24958.831422
21.035500	0.000103	0.000097	0.002766	0.001569	7139.340680	47403.062899	4059.819086	24960.661224
21.535500	-0.000400	-0.000392	-0.004539	0.000704	7142.871902	47441.555094	4042.673243	25004.638380
22.036000	0.000144	-0.000124	-0.000750	0.001256	7142.789736	47412.480667	4051.258335	24976.539226
22.535500	-0.000997	-0.000165	0.002615	0.002035	7124.097629	47328.654033	4058.165790	24937.006721
23.039500	-0.000266	0.000515	0.003198	0.001804	7133.456825	47421.865640	4060.350579	24948.750650
23.536500	-0.001279	0.000021	0.002732	0.001029	7131.139618	47450.673520	4061.179663	24988.119755
24.037000	-0.001790	0.000243	0.000724	0.000789	7128.508865	47497.994794	4056.440144	25000.325600
24.534500	-0.000973	0.000330	0.000902	0.002194	7122.789442	47363.003950	4053.163761	24928.964692
25.034500	-0.000183	0.000035	-0.001151	0.000954	7142.549018	47459.678290	4050.994241	24991.898123
25.538000	-0.002531	-0.001042	0.000058	0.000062	7128.368842	47440.834789	4056.603485	25037.340445
26.035500	0.001265	0.000023	-0.004513	0.001322	7153.097772	47420.825227	4041.107547	24973.205385
26.536000	0.001364	0.000090	-0.000717	0.001250	7154.770297	47435.056708	4051.362926	24976.872189
27.036000	-0.001628	0.000537	0.003804	0.001561	7122.578912	47448.962332	4062.630474	24961.094445
27.536500	-0.000199	0.000229	-0.002269	0.001451	7137.555009	47428.662912	4046.706205	24966.673590
28.036500	0.000639	0.000214	0.000778	-0.001503	7174.659719	47730.554015	4062.731828	25117.188450
28.540000	0.000645	0.000647	0.001695	-0.000393	7163.815355	47660.845116	4062.211766	25060.494980
29.037000	0.001210	0.000220	0.003881	-0.000580	7171.203054	47636.180065	4068.610124	25070.067025
29.535000	-0.003248	0.000685	-0.002480	0.005512	7068.823307	47061.019243	4035.430755	24761.353902
30.035000	0.001772	0.001180	0.001513	0.000103	7170.021204	47664.767721	4060.392494	25035.247253
30.535500	0.001928	-0.000378	0.002290	-0.001166	7184.024696	47634.897988	4065.896029	25099.960160
31.035500	-0.000838	0.000193	0.003123	-0.000646	7151.773625	47640.154617	4066.739624	25073.408382
31.567500	-0.003631	0.000021	-0.005205	0.005014	7069.929562	47044.253034	4029.596182	24786.442530
32.036000	-0.001071	-0.000391	0.000843	0.002554	7118.350290	47252.563734	4052.046622	24910.711141
32.540000	0.001715	0.000579	0.002377	0.000055	7169.918040	47607.767934	4062.840017	25037.658033
33.055500	0.001503	0.000205	0.003380	-0.000625	7174.521326	47639.322543	4067.376671	25072.349845
33.536500	-0.002497	0.000152	-0.000179	0.005018	7080.780745	47057.114784	4042.795322	24786.241019
34.037500	0.002730	-0.000008	0.003134	-0.000583	7186.191207	47613.042472	4066.600020	25070.211262
34.538000	-0.004593	-0.000421	-0.002368	0.004454	7066.068588	47056.181672	4038.504584	24814.639391
35.035000	0.001237	0.000103	-0.000846	-0.001605	7181.551803	47729.685668	4058.646570	25122.429302
35.535500	-0.002480	0.000171	0.000408	0.003518	7095.390874	47211.635816	4048.325607	24861.943974
36.036000	-0.001795	0.000241	-0.006036	0.001815	7118.491252	47392.682685	4035.800938	24948.195150
36.536000	-0.000318	-0.000244	0.000009	0.002010	7130.949544	47323.178591	4051.274636	24938.300429
37.036500	0.000213	0.000610	-0.001276	0.002237	7133.899920	47387.168589	4047.255272	24926.770584
37.537000	-0.001315	-0.000104	-0.002475	0.003239	7109.337991	47212.034952	4041.427912	24876.027661
38.037000	-0.001665	0.000406	-0.001981	0.002206	7115.952695	47369.531890	4045.466434	24928.322894
38.540000	-0.002057	0.000947	0.004541	0.002913	7105.315303	47352.529125	4060.974853	24892.506012
39.037500	-0.000932	0.000268	-0.001626	0.002168	7123.435210	47359.253758	4046.506422	24930.252870
39.537500	-0.001990	0.000555	0.001786	0.003090	7104.250847	47294.467228	4053.131692	24883.573420
40.035500	-0.001653	0.000996	0.001579	0.002391	7114.285951	47410.962766	4054.443501	24918.984063
40.535500	-0.002383	-0.000403	-0.001973	0.001973	7111.262401	47310.695323	4046.106494	24940.183838
41.036000	-0.001685	-0.000391	-0.002501	0.001210	7125.432250	47389.926324	4046.730458	24978.914813
41.536000	-0.001051	0.000421	0.000801	0.002155	7122.405587	47376.230907	4052.995324	24930.913977
42.039000	-0.000126	-0.000199	-0.000026	0.001690	7135.933276	47360.447670	4052.034004	24954.534461
42.536500	0.000120	0.000859	-0.001337	0.002579	7129.675399	47377.764243	4046.185454	24909.451031
43.037000	-0.002515	-0.000691	0.002586	0.001509	7114.473258	47328.611552	4059.497895	24963.688750
43.536500	0.001637	0.000867	0.002816	0.002644	7143.821384	47371.857823	4057.072767	24906.150192
44.034500	-0.000667	-0.000183	0.003895	0.002032	7127.345148	47327.165393	4061.607924	24937.185190
44.535000	-0.001901	0.000481	-0.001931	0.002410	7111.694230	47356.333828	4045.057866	24917.985986
45.034500	-0.002844	0.000159	0.002067	0.001699	7109.446837	47396.075050	4057.597339	24954.038763
45.535500	0.000581	0.000407	0.001237	-0.000269	7161.980028	47623.465899	4060.650804	25054.213747
46.036000	0.000531	-0.000642	0.002081	-0.000850	7167.182639	47575.343458	4064.480765	25083.816306
46.544500	-0.002529	-0.000160	0.000970	0.002044	7109.153104	47328.176729	4053.744089	24936.548234
47.036500	-0.000023	0.000445	0.002140	0.000322	7150.292162	47566.630578	4061.487703	25024.098800
47.536500	-0.002262	0.000434	-0.000477	0.005574	7077.692717	47029.288613	4040.540370	24758.241100
48.037000	0.001321	0.000296	0.000686	0.000118	7165.441337	47572.352757	4058.135442	25034.487988
48.537500	-0.000942	0.000876	0.000173	0.005706	7089.129390	47060.777139	4041.906954	24751.614967
49.035000	-0.000081	-0.000235	-0.005534	0.001609	7137.153664	47365.012797	4037.661815	24958.629491
49.535000	-0.003317	-0.000121	-0.002838	0.003759	7085.008281	47157.351594	4039.100163	24849.757980
50.035500	0.000513	0.000010	0.002407	-0.000013	7158.810031	47556.377550	4063.107863	25041.159780
50.536000	-0.003142	-0.000550	0.000319	0.002545	7098.385224	47237.266609	4050.673428	24911.156392
51.036000	0.001588	0.000137	0.000629	-0.000124	7170.444882	47580.791453	4058.631767	25046.820052
51.539000	-0.001832	0.000652	-0.003497	0.005015	7087.207352	47108.177388	4034.064171	24786.382819
52.037000	0.001183	-0.000146	0.001744	-0.000637	7171.495009	47604.391573	4063.002153	25072.973084
52.537000	-0.002676	-0.000519	0.000639	0.010940	7022.536926	46392.749336	4029.383558	24489.946173
53.037500	-0.027936	-0.018797	0.011996	0.194658	5450.026772	30237.986711	3657.726290	17045.685228
53.535000	-0.038276	-0.028328	-0.008453	-0.054158	7311.887248	50286.751200	4185.543089	27979.863884
54.035000	-0.046806	-0.040691	-0.016927	-0.150346	8297.374003	60362.964108	4474.414467	34195.618633
54.535000	-0.018939	-0.068858	0.012499	-0.208490	9478.304041	64465.261694	4827.300911	38677.732527
55.035500	-0.030395	-0.041984	0.012092	-0.151857	8524.542503	60391.813827	4589.455295	34304.698873
55.536000	-0.033796	-0.029455	0.000045	-0.108171	7947.177270	56415.733743	4385.358324	31300.159557
56.039000	-0.033533	-0.033283	-0.017001	-0.146920	8421.024484	60891.648216	4461.737731	33949.781330
56.536000	-0.016134	-0.040589	-0.012252	-0.172328	8992.386540	63357.521973	4574.410443	35820.051829
57.037000	-0.003575	-0.046669	-0.004430	-0.184300	9346.088111	64182.509370	4652.730823	36739.917642
57.537000	-0.000396	-0.039034	-0.010626	-0.174534	9249.145467	63882.853103	4589.293537	35987.627608
58.037000	0.005552	-0.034018	-0.005029	-0.167177	9228.596096	63555.328002	4582.441218	35431.994286
58.535000	0.007391	-0.023689	-0.001578	-0.148656	8990.309113	62422.939746	4524.885154	34074.105619
59.035000	0.005499	-0.013662	-0.001334	-0.119564	8571.330529	59868.956323	4420.125027	32054.825292
59.535500	-0.000522	-0.005907	-0.005811	-0.083843	8052.112472	56319.839841	4285.282855	29753.467335
60.035500	0.002592	-0.005449	-0.001414	-0.076638	8003.852619	55497.222671	4276.323226	29311.769351
60.536000	0.002029	-0.003605	-0.004236	-0.061946	7827.889111	53965.798553	4221.719496	28433.528876
61.036000	0.004751	0.000412	-0.002694	-0.032858	7537.936598	51104.517743	4140.171208	26779.900053
61.536500	-0.003034	-0.000012	-0.001776	-0.005644	7179.262117	48136.086872	4067.008228	25329.986688
62.037000	-0.000112	0.000837	0.004164	-0.000544	7157.890935	47696.087276	4069.278432	25068.238064
62.537500	-0.001000	0.002317	0.000694	0.015499	6995.300418	46220.749425	4017.678504	24264.588186
63.037500	-0.001391	0.002106	0.000957	0.024239	6910.212640	45338.274482	3995.972096	23839.098938
63.535000	-0.003074	0.001682	0.005014	0.029608	6845.697751	44776.687348	3992.649735	23581.915375
64.035000	-0.000162	0.003490	0.003384	0.019957	6961.351821	45894.790290	4013.116752	24046.482063
64.540500	0.002465	0.004609	0.005332	0.018447	7000.166557	46155.468890	4022.056104	24120.114754
65.036000	0.003286	0.004271	0.008006	0.022136	6973.219138	45756.761411	4019.423378	23940.687990
65.566500	0.006256	0.005924	0.000704	0.021154	7010.396083	46017.118494	4003.175662	23988.267475
66.047500	0.005014	0.005483	0.002539	0.021427	6996.104244	45946.461083	4007.168431	23975.035521
66.539500	0.001642	0.006343	0.005762	0.022608	6953.445135	45914.722105	4012.413053	23917.844008
67.037000	0.005175	0.006143	0.004043	0.022536	6987.189032	45901.992795	4008.182494	23921.312875
67.537000	0.004061	0.006466	0.011168	0.021926	6982.453034	45994.373335	4028.187665	23950.849195
68.037500	0.003743	0.007037	0.008024	0.022146	6977.404330	46029.163020	4019.441711	23940.177070
68.535500	0.002729	0.007180	-0.000341	0.025092	6940.452935	45752.174623	3990.532424	23798.032987
69.035500	0.005783	0.007275	0.002179	0.020486	7012.247764	46217.826473	4008.657783	24020.740478
69.535000	0.008516	0.008174	0.007865	0.020886	7034.363333	46267.494994	4022.297734	24001.289774
70.036000	0.008076	0.008775	0.005740	0.021062	7028.511099	46310.027971	4016.340392	23992.759929
70.536000	0.005520	0.008131	0.006773	0.023491	6981.450043	46004.242242	4012.741389	23875.149821
71.036500	0.008863	0.008218	0.007552	0.020533	7041.025025	46307.224991	4022.403220	24018.472613
71.537000	0.007804	0.009297	0.003427	0.024910	6989.584601	45979.210501	4000.542489	23806.769422
72.037500	0.011210	0.009863	0.009134	0.022254	7046.988329	46299.567264	4022.041679	23934.955313
72.534500	0.007390	0.008731	0.008419	0.026645	6969.428818	45751.883868	4008.867550	23723.452099
73.035000	0.011097	0.010409	0.010318	0.022969	7039.105358	46282.708805	4023.259346	23900.378233
73.535500	0.008457	0.010102	0.005999	0.026016	6985.321739	45949.395699	4004.280184	23753.599176
74.035500	0.010277	0.010427	0.012530	0.023713	7024.243592	46210.378348	4027.080665	23864.459734
74.536000	0.012206	0.011278	0.011434	0.024558	7034.535818	46210.935927	4022.031453	23823.705389
75.039000	0.012799	0.011319	0.010212	0.024632	7039.467819	46207.672030	4018.671756	23820.138577
75.536500	0.013057	0.011992	0.009505	0.026964	7019.779736	46042.798012	4010.834000	23708.153065
76.037000	0.014656	0.012601	0.008235	0.025854	7045.526678	46213.712979	4010.425947	23761.400467
76.537000	0.015327	0.012451	0.010743	0.026436	7046.367857	46140.783341	4015.382601	23733.467745
77.037500	0.015271	0.012557	0.008557	0.027363	7037.011527	46059.261454	4007.380987	23689.079898
77.535000	0.011543	0.012521	0.014528	0.029979	6977.094787	45796.871667	4016.009577	23564.279043
78.035500	0.013615	0.013119	0.009554	0.028257	7012.815022	46026.284472	4007.642291	23646.310060
78.535500	0.013998	0.013812	0.014250	0.028724	7012.029131	46048.779122	4018.532910	23624.063272
79.036000	0.015796	0.013345	0.010081	0.029044	7026.028670	45970.787387	4006.978941	23608.797952
79.536000	0.014291	0.013296	0.012460	0.029489	7007.569870	45921.824743	4011.940329	23587.586087
80.035500	0.015984	0.014376	0.017107	0.030497	7014.038721	45928.934725	4021.341440	23539.660756
80.536500	0.016684	0.013870	0.006832	0.030784	7017.950685	45850.591553	3994.275300	23526.025963
81.036500	0.015406	0.013955	0.012846	0.031260	7001.368714	45811.864798	4008.382346	23503.409270
81.536500	0.014943	0.014775	0.008110	0.033466	6976.281869	45675.440246	3990.726200	23399.099579
82.034500	0.014938	0.013911	0.014662	0.031431	6995.355063	45790.802537	4012.609463	23495.325974
82.535000	0.018631	0.014866	0.014403	0.032282	7022.202974	45800.972856	4009.756676	23455.016248
83.035500	0.015520	0.014260	0.014850	0.032556	6990.240893	45714.299772	4010.201084	23442.078237
83.535500	0.014633	0.014339	0.008814	0.034672	6962.098728	45514.213404	3989.460437	23342.274596
84.036000	0.015616	0.014832	0.012738	0.032917	6987.749670	45735.022553	4003.867708	23424.987240
84.539000	0.011609	0.014863	0.011049	0.038691	6896.842021	45173.189104	3984.973065	23154.055778
85.036000	0.016854	0.014951	0.017314	0.033716	6991.872607	45668.086092	4013.555152	23387.274523
85.537000	0.016397	0.015312	0.008080	0.035957	6966.569749	45483.561548	3984.381703	23281.871496
86.037000	0.017165	0.015707	0.012838	0.034905	6983.619568	45625.511000	3999.057871	23331.291619
86.537000	0.015865	0.015160	0.008582	0.038145	6941.218025	45255.131111	3980.160973	23179.506996
87.037000	0.017132	0.014796	0.008876	0.034489	6987.219320	45576.930737	3990.078101	23350.861684
87.535000	0.014330	0.015325	0.009488	0.036478	6942.447406	45433.920054	3986.611781	23257.479023
88.035000	0.017698	0.016575	0.018193	0.036352	6975.049375	45568.701662	4009.037657	23263.347750
88.535500	0.015171	0.015685	0.012711	0.038998	6926.864820	45223.206498	3988.379721	23139.748195
89.038500	0.016334	0.015418	0.012141	0.035855	6966.938731	45504.032777	3994.878694	23286.683190
89.536000	0.016256	0.015776	0.011112	0.037455	6951.274671	45382.550215	3988.240135	23211.756828
90.036500	0.015187	0.015802	0.016906	0.036299	6952.086451	45498.165321	4005.877880	23265.866976
90.537000	0.017113	0.016449	0.017348	0.036932	6964.148734	45499.482079	4005.387718	23236.183228
91.037000	0.017038	0.016450	0.013298	0.037158	6961.343125	45477.499285	3994.509338	23225.636209
91.537000	0.016547	0.016345	0.016226	0.038383	6945.347682	45347.489532	3998.829908	23168.415696
92.034500	0.018739	0.015930	0.015189	0.037252	6976.372534	45417.425429	3999.067717	23221.234511
92.535000	0.019114	0.016951	0.013217	0.038298	6970.089854	45414.939315	3991.422221	23172.375930
93.035500	0.017380	0.016382	0.005903	0.037368	6962.562970	45450.203777	3975.418235	23215.792653
93.535500	0.017867	0.017450	0.011798	0.039306	6949.030143	45365.189128	3985.309061	23125.367611
94.036000	0.018942	0.017197	0.014332	0.038181	6969.568249	45450.489222	3994.534212	23177.818720
94.536000	0.017827	0.016771	0.009035	0.038038	6960.483319	45422.793827	3981.562053	23184.496348
95.036500	0.017685	0.017075	0.017389	0.038301	6956.699966	45426.808370	4001.996382	23172.210125
95.537000	0.017830	0.017842	0.013662	0.040143	6940.909074	45321.775132	3987.891814	23086.454227
96.059000	0.020040	0.017139	0.011963	0.038422	6977.605275	45421.209697	3987.947415	23166.587667
96.581500	0.016995	0.017082	0.012123	0.041017	6925.065364	45162.700161	3981.835149	23045.908338
97.035000	0.018420	0.017406	0.015638	0.039309	6954.157209	45360.658956	3994.986590	23125.246746
97.535000	0.019422	0.017159	0.014471	0.038630	6969.870431	45402.938771	3993.751554	23156.903088
98.035500	0.020635	0.017205	0.013175	0.038925	6978.469083	45378.529941	3989.733911	23143.151310
98.539000	0.016960	0.017328	0.014093	0.041514	6920.142059	45138.343242	3985.528829	23022.863387
99.036500	0.018998	0.017800	0.017706	0.040331	6950.027453	45299.438650	3997.639438	23077.738246
