sample name	sample
index	734
start time	 03-25-2021  03:27:11 PM
880	-0.024805
Peak Time (s)	91.035
Peak Height 	-0.0248
calc peak height	90,93
Baseline Time (s)	8.537
Baseline Value 	-0.00466
subtract baseline	10,4
Abs	0.000845
Peak Time (s)	92.536
Peak Height 	8.4524E-4
calc peak height	90,93
Baseline Time (s)	8.537
Baseline Value 	0.002409
subtract baseline	10,3
PK_550	-0.001460
Peak Time (s)	90.538
Peak Height 	-0.00146
calc peak height	90,93
Baseline Time (s)	8.537
Baseline Value 	7.0329E-4
subtract baseline	10,2
PK_880	-0.004034
Peak Time (s)	90.035
Peak Height 	-0.004034
calc peak height	90,93
Baseline Time (s)	10.035
Baseline Value 	0.002526
subtract baseline	10,1


Time (s)	A880-A510	A880-A775	A880-A975	A880	I510	I775	I975	I880	
0.035000	-0.003596	-0.000976	-0.001521	0.003988	7120.461809	43825.745629	3949.474123	23402.999773
0.535500	-0.001838	-0.000806	-0.000536	0.004036	7137.120907	43837.239662	3951.806692	23400.702847
1.035500	-0.000752	-0.000130	-0.000025	0.004460	7143.594748	43860.998573	3952.025256	23380.716043
1.536500	-0.002828	-0.000228	-0.003043	0.005379	7114.407743	43765.242203	3942.249074	23337.409898
2.036500	-0.000652	-0.000634	0.000942	0.001595	7172.696376	44084.135906	3961.629523	23516.338497
2.537000	-0.000227	-0.000602	-0.002148	0.001115	7181.599235	44132.674054	3955.078186	23539.111725
3.037000	-0.000312	-0.001142	-0.002732	-0.002016	7211.767542	44379.233290	3961.470158	23688.552977
3.537000	-0.001565	-0.000395	-0.001292	0.004976	7130.611640	43787.419694	3947.584464	23356.358435
4.034500	0.001146	0.000164	0.002372	0.000659	7199.686434	44248.746708	3967.598277	23560.807861
4.535000	-0.001155	-0.000176	-0.003358	0.000465	7178.869270	44234.895760	3953.677640	23570.056690
5.035500	0.001079	-0.000659	0.001997	0.000039	7205.176603	44229.452801	3968.219849	23590.364695
5.535500	-0.001576	-0.000384	0.001289	-0.000022	7179.516669	44261.400742	3966.581736	23593.262421
6.035500	0.001492	-0.000553	-0.001979	-0.000477	7214.403335	44288.667814	3959.495240	23614.978950
6.536000	0.000197	-0.000519	0.002899	-0.000468	7201.464348	44291.119504	3971.795339	23614.556016
7.036500	0.001568	-0.000331	0.004893	-0.000125	7211.649308	44276.212085	3975.993519	23598.151094
7.536500	0.001372	-0.000163	-0.001362	-0.000016	7208.629068	44281.868070	3959.885924	23592.964470
8.037000	0.001091	-0.000050	0.001902	-0.000372	7209.376272	44326.569966	3969.019567	23609.959484
8.537500	-0.000621	0.000000	0.000000	0.000000	7188.725070	44295.906977	3963.273129	23592.214530
9.035000	0.002068	0.000388	0.000148	0.000287	7212.525122	44305.526804	3962.921279	23578.514971
9.535000	0.000043	0.000048	-0.003246	0.000053	7194.766192	44295.439616	3954.988331	23589.677171
10.035000	0.000000	0.000218	0.002539	-0.000214	7196.990314	44337.133488	3970.234532	23602.428710
10.535500	0.001131	-0.000263	0.000436	-0.000239	7208.455397	44293.612924	3964.977808	23603.628055
11.036000	-0.002994	-0.000548	-0.001806	0.002619	7139.668505	43995.302181	3952.175067	23467.732172
11.536500	-0.000626	-0.000232	-0.001676	-0.001070	7199.267253	44375.810786	3961.748229	23643.301306
12.036500	-0.000317	0.000110	0.000880	-0.000383	7195.525551	44342.895547	3966.460843	23610.480843
12.536500	0.000490	0.000188	0.001258	-0.000810	7207.751227	44391.092256	3968.496940	23630.847926
13.037000	-0.002318	-0.000215	0.001502	0.003274	7139.872562	43964.875785	3958.815434	23436.717421
13.534500	-0.001027	-0.000898	-0.000984	-0.000409	7188.762472	44249.371194	3961.825847	23611.729069
14.035000	-0.002022	-0.000097	0.000606	0.002381	7151.520555	44060.600532	3958.807997	23479.050791
14.535500	-0.001117	0.000379	-0.000082	0.002267	7161.507337	44116.481592	3957.367480	23484.445992
15.051500	-0.001671	0.000246	-0.003802	0.004692	7132.349483	43874.485267	3942.067710	23369.739681
15.536000	0.000456	-0.000849	0.000113	-0.000311	7202.467339	44244.741632	3964.342637	23607.067746
16.036000	0.000466	-0.000524	-0.003401	0.000182	7197.687516	44228.710138	3954.279692	23583.553776
16.536500	0.000545	-0.000199	0.004364	0.000247	7197.820969	44253.479781	3973.702057	23580.450721
17.038500	-0.000444	-0.000072	-0.000784	0.000763	7182.935388	44216.412632	3959.379976	23555.863090
17.537000	-0.002139	-0.001097	-0.000064	0.001301	7160.964141	44068.124830	3959.837312	23530.301325
18.034500	-0.002620	-0.000346	-0.000109	0.000583	7163.284708	44207.467444	3961.528392	23564.431582
18.535000	-0.000208	-0.000248	-0.000271	0.001201	7180.938595	44158.113831	3959.567211	23535.025125
19.035000	-0.001196	-0.000492	-0.000202	0.001233	7170.890991	44131.911048	3959.660303	23533.512699
19.535500	-0.001624	-0.000917	0.001091	0.000346	7175.409789	44175.734233	3965.150910	23575.716451
20.035500	0.000295	-0.000354	-0.002599	0.001122	7186.689244	44155.548138	3953.932421	23538.778616
20.535500	-0.002646	-0.000648	-0.001887	0.000647	7162.403755	44172.720295	3956.902932	23561.390582
21.036500	-0.000213	-0.000033	-0.002279	0.000828	7184.575600	44213.956694	3955.468509	23552.785537
21.536500	0.000304	-0.000573	0.000711	0.000991	7188.071693	44147.139600	3962.566659	23545.021335
22.036500	-0.000161	-0.000995	-0.001291	0.000756	7185.804981	44129.477907	3958.125196	23556.228024
22.537000	0.000267	0.000896	0.001483	0.001904	7178.698761	44200.026277	3962.212846	23501.670189
23.035000	-0.001536	-0.000017	0.000471	0.000865	7171.175287	44211.919191	3962.279275	23551.013309
23.535000	-0.001913	0.000048	0.000842	0.001381	7162.391502	44169.040673	3961.913758	23526.466341
24.035000	-0.000309	0.000935	-0.001057	0.002252	7169.598614	44170.652800	3954.963009	23485.153817
24.535500	-0.002374	-0.000226	0.002502	0.000771	7163.857945	44201.107963	3967.647044	23555.506750
25.035500	-0.000859	0.000050	-0.001178	0.001218	7174.358624	44184.763961	3957.247861	23534.217247
25.536000	-0.000458	0.000201	0.002878	0.001741	7173.162890	44149.452880	3966.143043	23509.378981
26.036500	-0.000586	-0.000110	0.000890	0.001228	7176.948961	44168.644851	3962.420668	23533.747899
26.537000	-0.000307	-0.000573	-0.001321	0.000335	7188.517802	44209.473709	3959.105744	23576.232755
27.037000	0.001914	0.000435	0.002511	0.000606	7207.835074	44279.578796	3968.084463	23563.347115
27.537500	-0.002861	-0.000294	0.000725	0.003501	7132.372606	43936.064097	3956.300072	23426.020146
28.035000	-0.000335	0.000248	0.003826	0.000450	7187.108278	44276.689041	3971.815703	23570.773543
28.535000	0.000193	-0.000072	0.003604	0.000488	7191.950997	44242.652969	3971.157534	23568.975171
29.035500	-0.002563	-0.000647	-0.002716	0.003486	7135.421355	43904.116742	3947.751559	23426.728995
29.535500	-0.003266	-0.001090	-0.003717	0.003993	7123.625778	43814.587962	3944.010783	23402.753895
30.036000	0.000468	-0.000104	0.002124	0.000051	7198.995704	44281.105870	3968.511296	23589.779203
30.536000	0.001594	0.000956	0.001933	0.000848	7202.258342	44306.267507	3966.012304	23551.851051
31.036500	-0.000792	-0.000005	-0.000934	0.002790	7159.564301	44030.534435	3953.926258	23459.651252
31.548000	-0.003506	-0.000162	-0.005967	0.005878	7102.986040	43724.513999	3933.816719	23313.901885
32.037000	0.001478	-0.000624	-0.001177	-0.000362	7213.112736	44270.919310	3961.219905	23609.461922
32.537000	0.001540	-0.000147	0.002775	0.000285	7207.300079	44254.733256	3969.566156	23578.615023
33.034500	-0.001697	-0.000467	-0.003221	0.002316	7155.332319	44031.683082	3949.404029	23482.099399
33.535000	-0.002476	-0.000210	0.001297	0.005231	7119.261925	43780.819940	3953.400257	23344.337826
34.035000	-0.001098	-0.000841	0.000844	0.001168	7172.504473	44104.988125	3962.456886	23536.621803
34.536000	-0.000121	-0.000189	0.003653	0.001594	7177.929570	44126.454155	3968.475904	23516.373027
35.036000	-0.001002	-0.000293	-0.004439	0.002113	7164.157162	44067.392274	3946.881970	23491.744483
35.536500	-0.000093	0.000133	0.000195	0.003507	7159.385442	43975.691774	3954.954591	23425.697143
36.036500	-0.000377	-0.000145	0.002897	0.001705	7174.314651	44120.137410	3966.282250	23511.123202
36.536500	-0.000489	-0.000816	0.003661	0.000858	7181.556843	44136.813439	3970.363240	23551.364952
37.037000	-0.000308	-0.000401	-0.001138	0.001949	7172.590444	44072.642440	3955.519289	23499.507540
37.534500	-0.002502	0.000010	0.001871	0.002351	7147.103835	44073.509030	3962.062209	23480.435189
38.035000	0.000382	-0.000614	0.003189	0.001018	7188.579859	44140.826664	3968.760362	23543.766433
38.535000	-0.000176	-0.000022	-0.001458	0.001763	7175.724570	44126.246164	3955.183225	23508.354133
39.035500	-0.000200	-0.000361	-0.001948	0.001514	7177.935697	44117.666842	3954.579383	23520.147064
39.536000	-0.001041	-0.000093	0.004285	0.001496	7169.834292	44144.882076	3970.325972	23521.038925
40.036500	-0.001527	-0.000930	0.000807	0.000914	7170.777648	44120.589574	3963.004749	23548.694241
40.536500	-0.001077	-0.000831	-0.001544	0.001115	7173.231469	44110.930801	3956.590382	23539.118193
41.037000	-0.000387	-0.000501	0.001280	0.001552	7175.725805	44100.810398	3962.587607	23518.383015
41.537000	0.000657	-0.000733	0.001454	0.001480	7186.730501	44085.704784	3963.209111	23521.795181
42.035000	-0.000175	-0.000050	0.004323	0.001754	7175.826006	44124.435604	3969.768263	23508.778693
42.535000	-0.000662	-0.000277	0.000954	0.001552	7173.013232	44122.020059	3961.766115	23518.367885
43.035500	0.000807	0.000136	0.001189	0.001721	7185.833984	44145.174590	3961.934190	23510.345263
43.535500	0.000410	0.000149	0.004033	0.001328	7185.791888	44183.703150	3970.112142	23528.985714
44.036000	0.002953	-0.000067	0.004688	-0.003089	7255.092134	44584.811690	3983.053730	23740.009049
44.536500	-0.000201	-0.000674	0.002528	0.000048	7192.412176	44227.208571	3969.543468	23589.933039
45.036000	-0.001071	-0.000348	0.002665	0.002526	7159.420028	44023.088947	3963.623842	23472.177816
45.537000	-0.000827	0.000291	0.001993	0.003657	7150.720237	43976.582900	3959.088995	23418.647387
46.036500	0.000478	-0.000303	0.004792	0.000343	7196.205708	44234.420946	3974.546392	23575.877803
46.537000	-0.002224	-0.001268	0.000369	-0.000628	7179.095511	44234.954977	3965.787217	23622.153360
47.034500	-0.004701	-0.001698	-0.004575	0.004159	7108.067798	43741.703698	3941.477467	23394.909108
47.535000	-0.001533	0.000000	0.004108	0.002576	7154.392421	44051.266114	3967.140271	23469.778737
48.035000	0.000451	-0.000059	0.001708	0.000515	7194.241672	44241.258300	3966.286089	23567.691842
48.535500	0.000966	-0.000909	0.005656	-0.000050	7204.938207	44214.133374	3977.752749	23594.601580
49.036000	-0.004507	-0.000579	-0.004292	0.005111	7100.724813	43757.459304	3939.824773	23350.020086
49.536500	-0.002207	-0.001104	-0.000433	0.000114	7171.964439	44180.053191	3961.895649	23586.792109
50.036500	0.000919	-0.000795	0.000740	-0.002209	7225.942827	44430.771404	3970.733112	23697.778106
50.536500	0.000170	-0.001190	0.000342	-0.001995	7216.352152	44372.602719	3969.178399	23687.517361
51.037000	-0.019434	-0.003757	0.008542	0.164877	5708.401898	30983.948717	3632.321262	17052.567345
51.534500	-0.063855	-0.012827	-0.006464	0.104976	5810.427387	34467.697138	3715.503688	19147.046146
52.035000	-0.069288	-0.022478	-0.009742	-0.076083	7262.652961	49730.520489	4143.951644	27556.016260
52.535000	-0.039892	-0.083801	-0.000250	-0.263574	10090.654164	65508.586315	4875.955270	40872.956406
53.035500	-0.033501	-0.038842	0.003662	-0.193847	9114.419142	62039.433866	4593.665714	35239.087429
53.535500	-0.017605	-0.036431	-0.001616	-0.194603	9357.456897	62471.965617	4575.795446	35295.441377
54.036000	-0.016387	-0.021320	-0.000883	-0.158037	8852.428454	59601.864554	4440.586484	32678.769410
54.536500	-0.009992	-0.014687	-0.005591	-0.142223	8724.647623	58416.279841	4368.026141	31613.543865
55.036500	0.002208	-0.009222	-0.004946	-0.129499	8717.622829	57496.549955	4326.897970	30784.244419
55.537000	0.000316	-0.006801	-0.000355	-0.100488	8317.824507	54255.771747	4247.156834	28981.813681
56.037500	-0.018290	-0.008079	-0.005691	-0.068197	7718.296322	50437.671436	4132.738336	27112.159721
56.535000	0.006796	-0.007193	-0.005527	-0.124115	8706.963301	57076.670425	4307.003018	30440.554982
57.037500	-0.000647	-0.011340	-0.006610	-0.129553	8680.208179	57237.944344	4321.499990	30787.738644
57.535000	0.002651	-0.003352	-0.009181	-0.083125	8133.436462	52637.342647	4166.479029	27959.239765
58.035000	-0.006122	-0.003620	-0.005425	-0.052390	7678.063118	49212.349310	4088.298993	26246.419278
58.535500	-0.006468	-0.003247	-0.004683	-0.033246	7468.225225	47254.421884	4037.692162	25239.202089
59.036000	-0.011339	-0.004981	-0.001947	-0.040215	7490.377652	47792.067201	4064.117795	25600.769101
59.536500	-0.005430	-0.003172	-0.004953	-0.038555	7535.529616	47807.388478	4051.336915	25514.082091
60.036500	-0.005246	-0.004715	0.000445	-0.053275	7697.488496	49189.983604	4107.418430	26294.051859
60.536500	-0.006112	-0.004946	-0.005631	-0.046710	7616.048495	48471.728492	4071.879965	25942.953689
61.037000	-0.010908	-0.006248	-0.000887	-0.049490	7594.194297	48626.984918	4092.910320	26090.978474
61.537500	-0.009039	-0.005347	-0.004289	-0.042950	7543.933845	48037.380780	4065.197752	25744.213330
62.034500	0.005496	0.000969	-0.003297	-0.042620	7698.456061	48663.425988	4067.023548	25726.848296
62.535500	0.005124	-0.001297	-0.007227	-0.064358	7940.602883	50760.803531	4117.189947	26899.024513
63.035000	0.002766	-0.001308	-0.007827	-0.064183	7911.267850	50740.373556	4114.963019	26889.351666
63.541500	0.004897	-0.000907	-0.009816	-0.063580	7928.939672	50718.044618	4107.544504	26856.006627
64.036000	0.004754	0.000373	-0.005530	-0.059140	7876.110080	50371.563168	4107.105948	26612.244743
64.536500	0.007555	0.001003	-0.008752	-0.055081	7861.715669	49998.544783	4086.515044	26391.610800
65.037000	0.004463	0.000486	-0.011438	-0.048862	7756.393203	49274.003836	4061.794469	26057.451118
65.536500	0.008495	0.001185	-0.006125	-0.047861	7790.425152	49241.714328	4073.700580	26004.090520
66.040000	0.007982	0.001150	-0.007806	-0.045112	7753.810771	48945.785438	4061.468699	25858.248989
66.537500	0.008306	0.001125	-0.008720	-0.042647	7729.928060	48682.751957	4052.224457	25728.278870
67.035500	0.008131	0.001578	-0.006131	-0.037065	7666.283699	48145.612490	4044.096924	25436.643453
67.535500	0.010487	0.002674	-0.005275	-0.036586	7686.935246	48209.802056	4045.115119	25411.740481
68.038500	0.009439	0.002093	-0.007218	-0.035593	7664.470804	48046.010896	4037.186388	25360.312715
68.536000	0.008851	0.002322	-0.010188	-0.033217	7632.057970	47823.560085	4022.890524	25237.747693
69.036000	0.006218	0.002010	-0.011806	-0.028762	7555.390727	47333.425338	4006.859788	25009.658657
69.536500	0.003788	0.002415	-0.005142	-0.029546	7537.766534	47455.119956	4026.550533	25049.606421
70.037000	0.004763	0.001846	-0.007295	-0.027839	7529.946510	47222.426390	4016.303124	24962.680324
70.537000	0.001745	0.001136	-0.009357	-0.025705	7475.317314	46933.303030	4005.269683	24854.516194
71.034500	0.002251	0.002174	-0.005886	-0.020917	7430.392383	46555.008168	4001.825983	24613.710119
71.535000	0.001878	0.001250	-0.012343	-0.021827	7436.001823	46553.595206	3987.444102	24659.261484
72.035500	0.000441	0.001152	-0.010138	-0.021310	7415.626568	46491.839916	3991.801337	24633.378458
72.535500	0.001129	0.001537	-0.010121	-0.019856	7407.663358	46384.750353	3988.091666	24560.697498
73.036000	0.000600	0.001580	-0.007440	-0.015623	7358.466523	45967.521586	3984.096040	24350.499120
73.536500	0.002494	0.001031	-0.004214	-0.017080	7393.028328	46057.581926	3996.190883	24422.630872
74.036500	0.003850	0.001737	-0.004765	-0.016015	7396.036314	46021.897874	3992.001568	24369.847464
74.537000	0.001365	0.001980	-0.007084	-0.014930	7359.203153	45938.343740	3983.228862	24316.249076
75.037000	0.000899	0.001521	-0.011996	-0.012228	7326.772433	45626.495803	3963.857054	24183.365980
75.534500	0.001413	0.001427	-0.007952	-0.014037	7350.526436	45795.433180	3978.718958	24272.241147
76.034500	0.001085	0.001587	-0.009464	-0.013948	7346.254137	45802.479953	3974.633253	24267.864058
76.535500	0.001503	0.001255	-0.010816	-0.014172	7352.834305	45791.817882	3971.765284	24278.908341
77.035500	-0.001711	0.000752	-0.003225	-0.011879	7296.691876	45516.751338	3985.306203	24166.288517
77.535500	0.002351	0.001793	-0.001664	-0.013866	7358.400958	45814.729064	3994.467647	24263.835421
78.035500	0.002947	0.001101	-0.005358	-0.014564	7371.717721	45815.351060	3986.727785	24298.223141
78.536500	0.001505	0.001196	-0.001770	-0.015105	7362.439901	45878.108658	3997.408860	24324.894761
79.039500	0.002587	0.001542	-0.002767	-0.015264	7375.224288	45928.164102	3995.232712	24332.757626
79.536500	0.001038	0.000748	-0.001735	-0.015806	7364.851280	45903.234534	3999.324133	24359.544970
80.037000	0.000750	0.000539	-0.000570	-0.016349	7367.474424	45936.277142	4003.780778	24386.410097
80.535000	-0.000437	0.000783	-0.003630	-0.016930	7361.240807	46018.025459	3997.318178	24415.150453
81.034500	-0.001191	-0.000235	-0.008634	-0.017961	7364.095875	46019.388762	3987.038080	24466.344041
81.535500	-0.000415	-0.000106	-0.004547	-0.017907	7371.519198	46026.710616	3997.472344	24463.638380
82.036000	-0.000497	0.000468	-0.002856	-0.018328	7375.011289	46125.616240	4002.977084	24484.571907
82.536000	-0.000995	-0.000081	-0.004551	-0.018916	7375.944763	46129.565524	4000.091248	24513.848661
83.037000	0.000788	0.000318	-0.000309	-0.019620	7401.662455	46239.306968	4013.049360	24548.890155
83.536500	-0.000404	-0.000078	-0.004928	-0.020303	7396.392302	46267.974148	4002.723440	24583.003631
84.037500	0.000615	0.000440	-0.005393	-0.020550	7409.524723	46344.376259	4002.154076	24595.320535
84.537500	-0.002157	0.000488	-0.000811	-0.021302	7388.587990	46424.515031	4016.165035	24632.956937
85.037500	-0.001890	-0.000071	-0.003063	-0.021885	7397.379977	46426.857406	4011.761667	24662.151870
85.534500	-0.000470	0.000864	0.000712	-0.021897	7412.246832	46521.828413	4021.775485	24662.762811
86.035000	-0.000182	-0.000618	-0.000711	-0.023238	7429.223329	46507.727011	4021.556922	24730.105515
86.535500	-0.003478	-0.002179	-0.003494	-0.025121	7414.507318	46540.062150	4019.169888	24825.015849
87.035000	-0.004747	-0.001280	-0.004523	-0.022579	7375.028631	46375.351701	4009.747879	24696.998114
87.536000	-0.003700	-0.000695	-0.003822	-0.024998	7410.913644	46676.888529	4017.975201	24818.789223
88.036000	-0.001747	-0.001813	-0.006243	-0.025722	7438.821613	46637.203229	4013.492047	24855.347742
88.536500	-0.003606	-0.001647	-0.007419	-0.026307	7425.520017	46712.884284	4011.934837	24884.970542
89.037000	-0.003921	-0.001725	-0.002881	-0.025103	7409.699233	46583.794623	4020.747444	24824.073547
89.537500	-0.003335	-0.001276	-0.001219	-0.026169	7426.906567	46736.311094	4028.007438	24877.974990
90.034500	-0.004034	-0.001490	-0.001564	-0.027001	7428.285013	46798.694605	4029.307680	24920.136330
90.537500	-0.005270	-0.001460	-0.003623	-0.027737	7423.076967	46876.260561	4025.779597	24957.529589
91.035000	-0.005323	-0.002055	-0.003889	-0.024805	7392.072126	46520.630803	4017.285927	24809.016086
91.535500	-0.004329	-0.002510	-0.003165	-0.028210	7437.838928	46817.823331	4028.261151	24981.552370
92.035500	-0.005088	-0.001670	-0.003683	-0.028360	7431.480208	46918.001986	4027.280070	24989.217337
92.536000	-0.004367	-0.002136	0.000845	-0.028644	7441.974811	46899.579686	4040.190018	25003.641509
93.036500	-0.006151	-0.002441	-0.007497	-0.025630	7392.045890	46564.841094	4009.950657	24850.741494
93.564000	-0.005539	-0.001811	-0.003164	-0.028312	7426.274781	46898.883514	4028.538086	24986.764260
94.037000	-0.004287	-0.002951	-0.006898	-0.029742	7454.327270	46928.287204	4022.400052	25059.648807
94.537500	-0.003667	-0.001627	-0.003961	-0.028804	7450.989037	46967.321066	4027.722601	25011.784814
95.034500	-0.007415	-0.002494	-0.003997	-0.025377	7376.372739	46534.090049	4018.516677	24837.934971
95.535000	-0.003043	-0.001828	-0.005607	-0.028195	7451.150702	46885.365235	4021.721158	24980.824030
96.035500	-0.004854	-0.003045	-0.004838	-0.029423	7445.038876	46886.345075	4027.032656	25043.338040
