sample name	sample
index	324
start time	 02-25-2021  03:30:59 PM
880	-0.008860
Peak Time (s)	91.037
Peak Height 	-0.00886
calc peak height	90,93
Baseline Time (s)	8.539
Baseline Value 	-0.003453
subtract baseline	10,4
Abs	-0.008046
Peak Time (s)	92.535
Peak Height 	-0.008046
calc peak height	90,93
Baseline Time (s)	11.036
Baseline Value 	0.003361
subtract baseline	10,3
PK_550	-0.000466
Peak Time (s)	91.037
Peak Height 	-4.6629E-4
calc peak height	90,93
Baseline Time (s)	10.536
Baseline Value 	1.2483E-4
subtract baseline	10,2
PK_880	-0.004438
Peak Time (s)	92.535
Peak Height 	-0.004438
calc peak height	90,93
Baseline Time (s)	9.037
Baseline Value 	0.001068
subtract baseline	10,1


Time (s)	A880-A510	A880-A775	A880-A975	A880	I510	I775	I975	I880	
0.034500	0.001484	0.000053	-0.006111	0.002556	6853.315053	44922.199874	3997.852150	23830.350077
0.537000	-0.000643	0.000176	-0.004049	0.004600	6816.311630	44737.307505	3997.896991	23732.463595
1.035500	-0.003000	-0.000351	-0.000752	0.003701	6803.452537	44772.993388	4008.016071	23775.456994
1.539000	-0.003383	-0.000347	-0.005346	0.005692	6782.613633	44582.247078	3992.176253	23680.297018
2.036000	0.001022	-0.000331	-0.004798	0.001474	6858.840795	44989.641673	4003.617368	23882.379038
2.536500	-0.000674	-0.000223	-0.005014	0.000971	6848.209826	45048.816238	4004.310910	23906.638823
3.036500	0.001835	-0.000210	0.001256	-0.000064	6879.891810	45150.357134	4022.100274	23956.562075
3.537000	-0.004553	-0.000195	-0.008655	0.005271	6776.067705	44637.206140	3985.306874	23700.393797
4.034500	0.000023	0.000275	-0.001439	0.001310	6851.404576	45064.164468	4012.155811	23890.304952
4.534500	0.000570	0.000340	0.002174	0.001217	6857.103989	45079.498618	4021.208980	23894.768224
5.035000	-0.001747	-0.000493	0.003956	0.000865	6839.610729	45032.954924	4026.460677	23911.742182
5.535000	-0.000166	0.000146	-0.000751	0.000733	6854.859660	45107.572220	4015.235784	23918.080591
6.036000	0.000326	0.001290	0.001517	0.001590	6851.609720	45135.473959	4018.685802	23876.819652
6.536000	-0.000844	0.000334	-0.004346	0.001092	6845.620230	45090.987579	4005.632274	23900.780232
7.036500	-0.001164	0.000026	-0.002801	0.000674	6846.491054	45101.646427	4010.388610	23920.933438
7.539500	0.000453	0.000340	0.003152	0.001171	6856.470029	45083.868827	4023.723826	23896.959659
8.036500	-0.000814	-0.000527	-0.002715	-0.000140	6856.861245	45126.936458	4012.577823	23960.225205
8.539000	-0.000421	0.000155	-0.000015	0.000000	6859.120842	45179.593520	4018.827127	23953.468101
9.037500	0.000000	-0.000422	0.000826	-0.000056	6863.384396	45128.976946	4021.026187	23956.175420
9.538000	0.001240	-0.000073	-0.001123	0.000111	6872.982038	45146.656711	4015.847149	23948.097600
10.035000	-0.001415	-0.000465	0.000736	-0.000266	6852.632771	45145.212090	4021.321299	23966.336838
10.536000	-0.000806	0.000000	-0.003718	-0.000171	6857.211799	45181.078205	4010.212875	23961.707517
11.036000	0.000537	0.000631	0.000000	0.000001	6867.680017	45225.714219	4018.861761	23953.427315
11.540000	0.001339	0.000677	0.001159	0.000644	6869.092505	45167.728219	4020.125425	23922.365876
12.036000	0.000469	-0.000274	-0.001730	-0.000190	6868.770955	45156.340368	4015.098074	23962.634000
12.539500	-0.000453	-0.000328	-0.001110	-0.000182	6860.459712	45150.349480	4016.594260	23962.253844
13.037000	0.000703	0.000124	-0.002912	-0.001293	6880.762485	45302.351439	4014.907690	24016.039240
13.536500	-0.001809	-0.000725	0.001964	0.000034	6846.447327	45090.909191	4023.601125	23951.829614
14.037500	0.001637	-0.000361	-0.001764	-0.000121	6878.623099	45141.172223	4014.848182	23959.309973
14.537500	-0.002259	0.000769	-0.003984	0.003134	6814.990003	44935.623194	4001.578190	23802.642603
15.035500	0.000569	-0.000120	-0.000995	0.001542	6854.194572	45003.472827	4012.670089	23879.099798
15.577000	-0.000165	0.000580	0.002888	0.000844	6853.876481	45138.911257	4023.879868	23912.727352
16.035500	-0.000251	0.000322	-0.004846	0.000485	6856.305499	45148.629412	4005.889224	23930.034333
16.538000	-0.002160	0.000062	-0.000140	-0.000104	6844.557355	45180.648050	4018.775882	23958.509648
17.036500	-0.000166	-0.000213	-0.002670	0.000618	6855.879252	45083.865220	4010.843020	23923.624420
17.539000	-0.001994	-0.000812	-0.003384	0.003640	6812.860697	44734.519467	4001.802985	23778.379870
18.037500	0.001130	0.000618	0.002478	-0.001614	6887.483073	45381.708326	4028.930732	24031.562437
18.538000	-0.000657	-0.000378	0.000390	0.000962	6848.442342	45034.655803	4017.465209	23907.060794
19.035000	0.000258	-0.000129	-0.003388	0.001395	6852.738407	45016.878990	4007.218161	23886.206828
19.535500	0.001589	0.000319	0.001146	0.002013	6859.099201	45000.455685	4016.744295	23856.474382
20.035500	-0.001019	0.000871	-0.000346	0.002003	6835.966905	45054.820950	4013.127648	23856.946167
20.538500	-0.000478	0.000492	-0.003700	0.001435	6845.824929	45073.100207	4006.364961	23884.287110
21.036000	0.000766	0.000584	-0.004351	0.001813	6853.537934	45045.386648	4003.878604	23866.077292
21.536500	-0.000280	0.000431	-0.002087	0.001575	6846.340407	45053.608234	4009.934511	23877.537139
22.037000	0.000058	-0.000215	-0.000145	0.001076	6853.796983	45039.335353	4015.879149	23901.558927
22.537000	-0.001215	0.000185	-0.003404	0.001518	6838.533476	45035.308963	4006.880668	23880.265331
23.037500	-0.000480	-0.000425	-0.002483	0.001074	6849.014936	45019.223490	4010.190187	23901.642673
23.537500	-0.001320	0.000348	-0.001911	0.001119	6841.142589	45089.709494	4011.470599	23899.483874
24.035500	-0.001284	-0.000790	0.000825	0.001010	6842.431952	44990.152907	4018.410520	23904.723320
24.535500	0.001023	0.000876	-0.003088	0.001929	6854.799431	45062.393606	4006.650176	23860.498598
25.035500	-0.001087	-0.000193	-0.001540	0.001394	6840.775929	45010.795322	4011.704414	23886.259199
25.538500	-0.000568	0.000328	-0.000329	0.001944	6840.498352	45007.939644	4013.314125	23859.785838
26.036000	-0.000385	-0.000281	-0.003903	0.001109	6849.549239	45029.726550	4006.660986	23899.954245
26.536500	-0.001328	-0.000498	0.001718	0.001040	6841.771756	45015.395478	4020.524526	23903.273973
27.037000	-0.000135	-0.000126	0.001185	0.001155	6851.373548	45040.336196	4018.937347	23897.758510
27.538500	-0.002311	-0.000049	-0.001529	0.001635	6827.772365	45001.361734	4011.143624	23874.620433
28.037500	0.000901	-0.000643	0.003463	-0.001801	6887.104307	45277.080744	4031.830323	24040.639266
28.538000	-0.001016	-0.000096	0.001298	-0.000248	6856.025748	45179.208245	4022.655504	23965.436553
29.059000	-0.000758	0.000011	-0.000491	-0.000028	6856.361133	45168.334723	4017.731024	23954.817853
29.539000	-0.002744	-0.000158	-0.000272	0.003434	6808.062000	44817.249547	4009.828578	23788.256390
30.035000	0.000508	0.000090	0.002191	0.000157	6866.018904	45157.976794	4023.854702	23945.877165
30.539000	-0.000029	0.000339	0.001497	0.000579	6857.450985	45141.182972	4021.113185	23925.499527
31.036500	-0.001986	0.000426	-0.000606	0.001053	6835.817049	45103.695960	4014.808435	23902.648206
31.536500	-0.002077	0.000297	-0.003999	0.003593	6812.538899	44845.780239	4000.437382	23780.642503
32.037000	-0.000635	0.000567	-0.005642	0.002611	6833.979598	44966.486685	3998.846072	23827.711465
32.550500	0.000426	0.000596	-0.003286	0.000560	6861.688748	45168.071141	4009.489277	23926.442706
33.037000	-0.001470	-0.000234	0.002390	0.000708	6843.465527	45073.157208	4022.991723	23919.310708
33.538000	-0.002342	-0.000159	0.000834	0.002218	6822.336941	44934.369462	4015.480271	23846.583993
34.035000	0.000542	0.000383	-0.000658	0.000354	6864.564418	45167.409503	4016.389675	23936.394189
34.535500	0.003592	0.000644	0.003929	-0.001342	6907.229111	45357.802326	4031.850308	24018.406463
35.036000	-0.001124	0.000019	-0.002406	0.001753	6837.248659	44996.458537	4008.728635	23868.941358
35.536000	-0.000305	0.000367	-0.000116	0.002071	6841.707574	44999.378138	4013.522395	23853.668431
36.036500	-0.000677	-0.000024	-0.005721	0.001385	6844.496336	45027.951513	4001.606369	23886.667033
36.539000	-0.000603	0.001178	0.003936	0.002735	6833.164952	45013.633825	4021.808690	23821.770511
37.034500	-0.001374	0.000327	-0.003199	0.002134	6831.655474	44989.438077	4005.884266	23850.624270
37.534500	-0.003107	-0.000505	-0.002398	0.001676	6820.369101	44953.376111	4008.934426	23872.672111
38.035000	-0.001236	0.000408	-0.002265	0.002308	6831.338667	44980.404211	4007.724711	23842.257014
38.538500	-0.000945	0.000495	0.000802	0.001989	6836.745681	45019.670069	4015.960674	23857.591547
39.035000	-0.001650	0.000011	0.002000	0.001877	6831.492772	44983.759679	4019.166049	23862.996797
39.535500	-0.000848	0.000008	0.003231	0.002128	6836.379910	44959.287018	4021.567371	23850.939910
40.036000	0.001060	0.000673	0.000733	0.001814	6856.146256	45053.853560	4016.220257	23866.011746
40.536500	0.000474	-0.000062	0.003244	0.001937	6849.832201	44970.950389	4022.070150	23860.128364
41.036500	0.000278	0.000462	-0.002875	0.002373	6844.203245	44979.377970	4006.089902	23839.137714
41.537000	-0.002165	-0.000258	-0.001771	0.001567	6829.668711	44987.706180	4010.721680	23877.889325
42.037000	-0.002208	0.000160	0.001481	0.001905	6826.302810	44995.479850	4017.826663	23861.671836
42.537500	0.000401	0.000756	-0.002817	0.002715	6842.254773	44974.785615	4005.404846	23822.720249
43.035000	-0.001413	0.000271	0.003070	0.001973	6832.743844	44999.609878	4021.555114	23858.396446
43.535000	-0.000651	0.000294	0.001467	0.002149	6837.942453	44984.803644	4017.194952	23849.923364
44.035500	-0.001484	-0.000607	0.001617	0.001700	6834.532084	44941.168474	4018.661910	23871.518608
44.536000	-0.000883	0.000661	0.000258	0.001930	6837.822983	45041.489622	4014.776659	23860.432211
45.036500	-0.000434	0.000228	0.001178	-0.001626	6873.548456	45344.825713	4025.751952	24032.141309
45.536500	-0.000039	0.000149	-0.000883	0.000269	6860.129565	45152.819829	4016.044522	23940.455134
46.050500	-0.001720	0.000202	0.000440	0.000121	6846.467189	45172.375762	4019.645849	23947.638991
46.537000	0.000936	0.000531	-0.000191	0.000813	6863.982683	45137.179672	4016.409213	23914.231172
47.037000	0.001862	0.000102	-0.003071	0.001376	6867.225311	45041.002247	4008.029980	23887.103891
47.537500	-0.001019	-0.000490	-0.001976	0.001976	6836.212218	44925.890080	4009.232551	23858.254737
48.035000	-0.001971	-0.000001	0.001464	0.000477	6841.067784	45118.218580	4021.283584	23930.461987
48.535500	-0.001339	0.000391	-0.002567	0.002082	6832.430051	45000.690043	4007.541918	23853.157542
49.035500	-0.001690	0.000422	0.000552	0.003394	6817.710433	44876.983448	4011.928830	23790.174031
49.535500	-0.001112	0.000502	-0.001742	0.002388	6831.729834	44981.829074	4008.798661	23838.416951
50.036500	0.000130	0.000825	-0.001303	0.000436	6860.152392	45202.390351	4014.615572	23932.439882
50.539000	0.000318	-0.000166	-0.000035	-0.000064	6866.297864	45154.608599	4018.936676	23956.575884
51.037000	-0.000054	0.000294	0.003356	-0.000184	6864.048644	45210.969911	4027.566093	23962.355998
51.536500	-0.000094	-0.000423	-0.001470	-0.001250	6873.227252	45244.845966	4018.323969	24013.931399
52.037000	-0.000050	-0.000242	0.001058	-0.000175	6863.998445	45158.071936	4021.886600	23961.929275
52.535000	-0.000072	0.000275	0.004688	0.000686	6856.111966	45124.571158	4028.707280	23920.347288
53.035000	-0.021885	-0.020718	0.012957	0.131790	5706.178567	32679.645786	3764.306050	18462.706719
53.535500	-0.026729	-0.020792	-0.001866	0.030735	6381.854860	40447.809234	3941.961087	22520.173053
54.036000	-0.030186	-0.025607	-0.004156	-0.097159	7510.037375	52715.527925	4272.808450	29213.008362
54.536500	-0.021677	-0.025288	-0.001752	-0.124121	7895.429723	55938.422331	4364.964035	30893.552100
55.036500	-0.024143	-0.020859	-0.002939	-0.114894	7764.888097	55356.788575	4331.566929	30306.625957
55.536500	-0.016803	-0.014639	-0.010505	-0.120688	7911.756351	56825.178915	4325.965053	30673.703168
56.036500	-0.005163	-0.008323	-0.002901	-0.111436	7938.951010	56462.665073	4320.775721	30089.909592
56.537000	-0.005883	-0.010083	-0.011192	-0.120509	8035.211175	57370.387092	4323.236153	30662.304805
57.034000	-0.004018	-0.010455	-0.008022	-0.119780	8048.455950	57232.720527	4330.945289	30615.875120
57.535000	-0.006402	-0.009410	-0.007338	-0.101755	7815.855336	55153.492510	4277.106332	29492.172296
58.035500	-0.005884	-0.008365	-0.009499	-0.078356	7567.737652	52537.158791	4201.564582	28101.259645
58.535500	-0.005831	-0.007907	-0.000673	-0.070645	7487.584445	51716.838420	4204.768236	27659.105397
59.035500	-0.005928	-0.008103	-0.003771	-0.059893	7376.422987	50504.213101	4165.556095	27055.530292
59.536500	-0.008254	-0.008520	-0.006011	-0.053127	7285.363852	49725.054458	4140.721996	26683.276653
60.036000	-0.012054	-0.008966	-0.008632	-0.046790	7186.077864	49001.013484	4116.522552	26339.847841
60.536500	-0.013054	-0.008165	-0.010724	-0.044564	7154.959878	48850.314165	4105.037559	26220.405671
61.036500	-0.007840	-0.007107	-0.006790	-0.045469	7214.179959	49057.975935	4117.917607	26268.888817
61.537500	-0.006209	-0.000817	-0.007607	-0.024520	7030.020132	47529.460212	4061.092062	25171.928092
62.035000	-0.006071	-0.004082	-0.002422	-0.031343	7095.438800	47895.730580	4092.089809	25523.403592
62.535000	-0.004661	-0.004430	-0.008307	-0.034355	7137.542311	48171.924404	4084.594280	25680.337812
63.037500	-0.011646	-0.006021	-0.010172	-0.024891	6983.077952	47036.763911	4055.522030	25190.928069
63.535500	-0.008008	-0.002242	-0.014535	-0.032873	7091.583903	48245.415465	4064.725699	25602.981379
64.036000	-0.005715	-0.000892	-0.011371	-0.032548	7110.249231	48352.324137	4072.002510	25586.061724
64.536500	-0.007334	-0.001678	-0.015116	-0.031050	7080.728372	48114.411039	4058.602916	25508.194439
65.049500	-0.007351	-0.001813	-0.010253	-0.032965	7098.684145	48299.773168	4075.956961	25607.812753
65.539500	-0.005507	-0.000969	-0.010842	-0.032458	7111.379993	48334.870985	4073.130925	25581.381598
66.043000	-0.005413	-0.001877	-0.012088	-0.032646	7114.055806	48259.835949	4070.411511	25591.162525
66.537500	-0.006941	-0.001385	-0.013340	-0.032251	7095.802990	48269.901182	4066.191762	25570.615835
67.034500	-0.005897	-0.001348	-0.009455	-0.031925	7102.603075	48239.850155	4075.330586	25553.651745
67.538000	-0.005874	-0.001745	-0.007315	-0.031649	7100.212842	48169.815673	4080.148083	25539.335409
68.035500	-0.006399	-0.001809	-0.016092	-0.031326	7092.173593	48129.577573	4056.826937	25522.539348
68.535500	-0.007027	-0.002268	-0.013074	-0.030924	7082.436324	48040.204323	4063.483003	25501.693982
69.036500	-0.009565	-0.002802	-0.014247	-0.030954	7058.825754	47988.034399	4060.569968	25503.259170
69.536000	-0.009507	-0.002137	-0.012998	-0.029521	7045.930691	47908.449983	4060.101513	25429.011427
70.036500	-0.006334	-0.002295	-0.012510	-0.029647	7076.927133	47905.123647	4061.663972	25435.526137
70.536500	-0.007892	-0.002729	-0.012994	-0.029080	7056.939981	47801.846422	4058.989779	25406.255790
71.037500	-0.010224	-0.002389	-0.010425	-0.026851	7014.359975	47607.404009	4059.853273	25291.405761
71.537500	-0.007859	-0.002632	-0.012339	-0.028088	7047.947149	47709.477527	4058.132516	25355.035852
72.035000	-0.008057	-0.002796	-0.008962	-0.027817	7043.561852	47664.853360	4066.048182	25341.110057
72.535000	-0.008733	-0.002805	-0.013117	-0.027702	7036.163974	47652.028854	4055.183487	25335.180353
73.035500	-0.008675	-0.002716	-0.012527	-0.025886	7019.784233	47474.803386	4052.081256	25241.850063
73.536000	-0.005679	-0.001769	-0.008212	-0.025291	7042.172585	47510.907705	4061.515951	25211.401757
74.036000	-0.007406	-0.002776	-0.009596	-0.025910	7031.833867	47471.243974	4059.570175	25243.125449
74.536500	-0.006935	-0.001673	-0.004484	-0.024631	7024.299572	47453.095144	4069.356788	25177.598140
75.037000	-0.008881	-0.002456	-0.013201	-0.023261	6993.547603	47233.391355	4043.784890	25107.700479
75.537500	-0.006854	-0.002758	-0.009803	-0.024053	7019.679289	47283.299819	4054.334710	25148.090668
76.035000	-0.005989	-0.002188	-0.011539	-0.023468	7022.275308	47281.720157	4048.477003	25118.229957
76.537500	-0.006956	-0.001781	-0.007378	-0.022978	7008.746681	47273.288676	4057.755723	25093.254227
77.035000	-0.008801	-0.002701	-0.008465	-0.021347	6976.641760	47014.086136	4050.878529	25010.385828
77.535500	-0.007761	-0.002420	-0.014903	-0.022203	6994.126868	47129.466903	4036.891481	25053.864424
78.036000	-0.009239	-0.002540	-0.012884	-0.022097	6979.513083	47106.415498	4041.663224	25048.442782
78.536000	-0.009537	-0.002187	-0.010907	-0.021590	6972.103347	47090.729582	4045.344045	25022.679598
79.036500	-0.007267	-0.001686	-0.013248	-0.018668	6966.128235	46845.704983	4032.217254	24874.864175
79.536500	-0.006529	-0.002083	-0.013026	-0.020232	6987.300004	46963.702345	4036.655033	24953.888088
80.037000	-0.008045	-0.002921	-0.009147	-0.020845	6978.981597	46940.879055	4047.895848	24984.901609
80.537500	-0.009038	-0.002757	-0.011637	-0.020164	6963.599164	46888.654785	4039.950127	24950.426079
81.035000	-0.007231	-0.002198	-0.014792	-0.017879	6959.216980	46714.586188	4026.449488	24835.096682
81.535500	-0.006874	-0.001352	-0.010217	-0.018378	6967.068972	46850.241692	4039.037642	24860.266651
82.035000	-0.007890	-0.001552	-0.005383	-0.017968	6954.008045	46788.696571	4050.129610	24839.603786
82.535500	-0.005490	-0.001113	-0.016122	-0.017767	6974.171190	46812.602096	4022.898115	24829.471574
83.036000	-0.005775	-0.000945	-0.008278	-0.016798	6962.661491	46731.934365	4039.931571	24780.771489
83.536000	-0.008622	-0.001489	-0.008866	-0.016859	6937.201216	46683.250575	4038.615698	24783.812519
84.036500	-0.005717	-0.001716	-0.009356	-0.017107	6966.021167	46685.456389	4038.012907	24796.295984
84.537000	-0.006426	-0.001432	-0.009789	-0.016206	6951.281736	46623.473626	4034.693627	24751.089100
85.036500	-0.005359	-0.001620	-0.015202	-0.014825	6948.409919	46466.100321	4017.940635	24681.920077
85.537500	-0.006538	-0.001473	-0.009632	-0.015443	6943.284780	46542.668345	4033.186544	24712.824166
86.035000	-0.006811	-0.001901	-0.008314	-0.015474	6941.086697	46502.963891	4036.542644	24714.407699
86.535000	-0.005683	-0.001484	-0.010385	-0.015470	6951.344485	46544.253153	4031.388170	24714.176500
87.035500	-0.007871	-0.001600	-0.011091	-0.013175	6910.583698	46303.345654	4023.979570	24599.640600
87.535500	-0.006074	-0.001340	-0.007704	-0.013949	6933.906908	46406.506313	4034.265073	24638.185133
88.036000	-0.007736	-0.000844	-0.011033	-0.013820	6917.644758	46443.216587	4025.711224	24631.779825
88.536500	-0.007930	-0.001432	-0.003834	-0.014006	6917.564618	46402.990224	4044.064683	24641.034550
89.036500	-0.007620	-0.001467	-0.010174	-0.011580	6898.435197	46157.732035	4022.312227	24520.347973
89.537000	-0.006114	-0.001112	-0.010498	-0.012907	6924.073341	46325.189744	4024.778978	24586.279235
90.037500	-0.005877	-0.001006	-0.015187	-0.012488	6922.417269	46294.031873	4012.275722	24565.457997
90.534500	-0.006024	-0.001713	-0.009736	-0.013152	6927.114283	46289.800531	4027.262184	24598.494467
91.037000	-0.006489	-0.000466	-0.008857	-0.008860	6884.129671	45987.276666	4018.870403	24385.832700
91.535500	-0.006258	-0.000759	-0.010777	-0.011824	6912.946953	46252.498603	4021.432724	24532.479793
92.035500	-0.006550	-0.000976	-0.013372	-0.011811	6910.191049	46229.579749	4015.047431	24531.809020
92.535500	-0.004438	-0.000989	-0.008046	-0.011687	6928.213424	46215.954078	4027.816520	24525.673808
93.036500	-0.008118	-0.001457	-0.013812	-0.009293	6873.403096	45932.147901	4007.856879	24407.214793
93.536500	-0.005789	-0.000899	-0.012472	-0.011042	6910.114713	46160.806965	4015.369381	24493.694822
94.036500	-0.006384	-0.000722	-0.009112	-0.010609	6900.821180	46135.283198	4022.535817	24472.211361
94.537000	-0.006959	-0.001097	-0.010732	-0.010937	6898.595428	46130.676378	4019.365609	24488.463380
95.037500	-0.008192	-0.001373	-0.005479	-0.008492	6865.571214	45861.308958	4026.266901	24367.708942
95.562000	-0.006571	-0.000627	-0.008525	-0.010068	6894.259343	46091.115095	4022.649273	24445.477832
96.062500	-0.004917	0.000028	-0.006302	-0.009130	6900.716929	46062.930786	4025.809652	24399.127075
96.535500	-0.006945	-0.001683	-0.006135	-0.010221	6892.265366	46001.511058	4028.914052	24453.023554
97.036000	-0.008824	-0.001210	-0.010131	-0.007873	6854.394380	45816.330718	4013.349809	24337.219577
97.536000	-0.005413	-0.001576	-0.010916	-0.009545	6899.986375	45945.240732	4015.511911	24419.609004
98.036500	-0.004782	-0.000126	-0.010965	-0.008804	6898.998009	46015.459821	4013.584829	24383.077767
98.536000	-0.006581	-0.001724	-0.009271	-0.009652	6890.421689	45941.170652	4019.796710	24424.909452
