sample name	sample
index	485
start time	 03-11-2021  01:54:58 PM
880	-0.045431
Peak Time (s)	92.536
Peak Height 	-0.04543
calc peak height	90,93
Baseline Time (s)	10.536
Baseline Value 	-0.005409
subtract baseline	10,4
Abs	-0.012058
Peak Time (s)	92.536
Peak Height 	-0.01206
calc peak height	90,93
Baseline Time (s)	9.535
Baseline Value 	0.003456
subtract baseline	10,3
PK_550	-0.004074
Peak Time (s)	92.536
Peak Height 	-0.004074
calc peak height	90,93
Baseline Time (s)	10.536
Baseline Value 	3.5795E-4
subtract baseline	10,2
PK_880	-0.012099
Peak Time (s)	92.536
Peak Height 	-0.0121
calc peak height	90,93
Baseline Time (s)	10.536
Baseline Value 	0.002509
subtract baseline	10,1


Time (s)	A880-A510	A880-A775	A880-A975	A880	I510	I775	I975	I880	
0.035000	0.001011	0.000920	-0.000091	0.002126	7065.867298	45559.754424	3971.220279	24146.244950
0.535000	-0.002698	-0.000612	0.000114	0.006031	6993.265876	45029.597295	3961.735836	23955.948284
1.035500	-0.002925	0.000198	-0.001075	0.004020	7010.156156	45303.763925	3963.836311	24053.727739
1.536000	0.000435	0.000608	0.003412	0.001531	7066.042105	45587.481222	3981.821482	24175.382730
2.036500	-0.000769	-0.000779	-0.004259	0.000269	7066.610451	45575.252747	3965.287656	24237.347922
2.539000	-0.002109	-0.000459	-0.003608	0.003826	7019.763481	45258.713815	3957.872894	24063.228800
3.036500	0.001615	-0.000255	-0.002637	-0.001356	7105.360511	45786.748114	3973.635628	24317.391451
3.537000	-0.001565	0.000738	-0.000262	0.000566	7056.112390	45695.218855	3974.804392	24222.776383
4.037500	-0.000176	0.000077	-0.000518	0.000350	7071.538697	45651.342862	3974.699887	24233.354327
4.535000	-0.000975	0.000057	0.001664	0.000454	7062.853580	45639.258089	3980.081927	24228.285109
5.035500	0.000318	-0.000553	-0.005313	-0.000095	7080.589139	45633.252571	3963.522264	24255.264066
5.535500	0.000968	0.000261	-0.001143	0.000332	7082.750759	45671.320838	3973.134278	24234.283338
6.035500	-0.001245	0.000208	-0.000950	0.000744	7057.474087	45625.585305	3972.568375	24214.015674
6.536000	0.001259	-0.000273	0.000937	-0.000257	7091.254843	45676.710916	3980.039409	24263.248966
7.042000	-0.000192	-0.000297	0.003315	-0.000201	7076.694024	45668.751062	3986.078568	24260.460886
7.536500	-0.000947	-0.000229	0.003106	-0.000123	7068.671574	45667.889234	3985.333780	24256.657551
8.037000	0.002256	0.000711	-0.000769	0.000949	7089.239176	45654.877611	3972.507369	24203.971150
8.537000	-0.001507	-0.000193	0.000414	0.000203	7060.145602	45639.300570	3977.489637	24240.584208
9.037000	0.001660	-0.000843	-0.000664	-0.000416	7096.678854	45636.276617	3976.304262	24271.073153
9.535000	0.000441	-0.000079	0.000000	0.000039	7080.491805	45666.665678	3976.844775	24248.688591
10.035000	-0.001583	0.000437	-0.003199	0.000401	7057.516183	45681.771566	3967.665222	24230.849244
10.535500	0.000000	0.000000	0.002547	0.000000	7076.607609	45678.266939	3983.554633	24250.584572
11.036000	0.002086	0.000564	0.000658	-0.000095	7097.691529	45743.130924	3978.894539	24255.268335
11.536000	-0.000051	0.000217	-0.000321	-0.000218	7078.218028	45721.140440	3976.677749	24261.321609
12.036500	-0.000749	-0.000371	-0.001521	-0.000908	7078.139666	45731.152005	3975.361051	24295.305260
12.537000	-0.000943	-0.000129	-0.005584	-0.000899	7076.182795	45754.129636	3964.888400	24294.874238
13.037500	0.002878	-0.000317	0.001924	-0.002381	7127.628209	45881.793151	3988.139228	24368.019313
13.537000	0.000851	-0.000175	-0.001119	-0.000620	7090.819851	45722.077086	3975.653547	24281.101969
14.062000	-0.002120	0.000634	0.002091	0.001563	7041.241483	45586.936644	3978.310906	24173.846274
14.535500	-0.000339	0.000275	-0.001476	0.002341	7050.847030	45475.520670	3967.110526	24135.753462
15.035000	-0.000948	0.000096	0.000682	0.001148	7056.442537	45574.815030	3975.737017	24194.169738
15.561000	0.001014	-0.000151	0.002151	-0.000427	7090.525327	45705.382582	3983.634729	24271.580308
16.036000	-0.000272	-0.000016	-0.002155	-0.000752	7081.236193	45750.671042	3973.318276	24287.590396
16.536500	-0.000175	0.000601	0.007912	0.000483	7070.266577	45689.934924	3996.334618	24226.847225
17.036500	-0.000596	-0.000534	-0.001694	-0.000893	7079.474188	45713.615283	3974.873970	24294.568947
17.537000	0.003316	-0.000065	0.002188	-0.002992	7137.892914	45967.291037	3990.429640	24398.290533
18.037500	0.001844	0.000149	0.003272	-0.003192	7125.461994	46008.339549	3993.798134	24408.197496
18.537500	-0.000357	-0.000146	0.002602	0.000465	7068.685606	45618.162650	3982.487535	24227.705458
19.035000	-0.000762	0.000570	-0.001415	0.000845	7061.139700	45651.210989	3971.110885	24209.070117
19.535000	0.000990	0.000292	0.001277	0.000998	7076.531322	45608.925791	3977.667851	24201.559498
20.035500	0.000755	-0.000636	-0.001101	0.000569	7078.393626	45559.800585	3972.630207	24222.589344
20.536000	-0.001113	0.000032	0.000873	0.000768	7058.505834	45605.871350	3977.217057	24212.835583
21.039000	-0.001098	0.000987	0.000804	0.001471	7051.906446	45630.708504	3975.221533	24178.357976
21.536500	0.000413	-0.000488	-0.000624	0.000652	7074.310758	45566.315250	3973.647438	24218.554329
22.036500	0.001108	-0.000878	-0.001887	0.000271	7084.693351	45565.395669	3971.375942	24237.276900
22.537000	-0.000217	-0.000549	-0.003686	0.000389	7070.769210	45586.118541	3966.449654	24231.462737
23.040000	-0.000923	0.000068	0.000102	0.000825	7059.783438	45603.815996	3975.073822	24210.023194
23.534500	-0.000089	0.000246	0.003267	0.000882	7067.252464	45615.684501	3983.133292	24207.235924
24.035000	-0.000714	0.000319	-0.002932	0.001223	7057.971086	45589.428013	3966.242677	24190.495358
24.535000	-0.000053	0.000096	0.002335	0.001154	7064.984567	45574.264812	3980.005154	24193.894982
25.035000	-0.000055	0.000040	0.000791	0.000622	7070.085594	45621.083313	3977.382119	24220.017723
25.539000	0.000791	0.000887	-0.001157	0.001462	7070.146317	45621.698039	3970.188175	24178.793574
26.036000	0.000505	0.000692	-0.000461	0.001102	7070.853204	45637.892351	3972.905420	24196.434029
26.536500	-0.000688	0.000627	-0.005210	0.001077	7059.619402	45634.000965	3960.792625	24197.681834
27.036500	-0.000234	0.000006	-0.002905	0.000730	7067.322476	45607.087271	3967.577397	24214.723171
27.537000	-0.000087	0.001064	-0.004697	0.001308	7063.169300	45654.272278	3961.512246	24186.324287
28.038000	0.001730	0.000624	-0.002557	-0.001659	7109.420107	45903.478670	3974.623320	24332.336983
28.534500	-0.001798	0.000546	-0.005452	0.005157	7010.068308	45226.949476	3949.823270	23998.398724
29.060000	0.000390	0.000957	0.002502	0.000192	7078.512897	45753.624463	3982.937347	24241.134287
29.535500	-0.000185	0.000118	0.000830	-0.000601	7080.616166	45749.022568	3980.652719	24280.153199
30.039000	0.000298	0.000612	-0.001180	-0.000159	7081.021760	45754.153971	3974.305072	24258.409777
30.536000	-0.002429	0.000137	0.002875	0.003207	7022.604566	45377.326581	3976.086232	24093.427340
31.036500	0.001570	-0.000098	0.001895	-0.000745	7098.993639	45741.972353	3983.796263	24287.243229
31.537000	0.000758	0.000710	-0.000372	0.001217	7072.183181	45628.461985	3972.842160	24190.825135
32.037000	-0.001656	0.000961	0.000880	0.002225	7039.348151	45554.032025	3973.468311	24141.409549
32.537000	-0.004641	0.000357	-0.002070	0.003698	6996.949030	45350.791314	3962.116759	24069.441105
33.062000	-0.001536	-0.000059	0.000422	-0.000980	7071.250547	45768.982416	3980.580438	24298.860311
33.535500	-0.000170	-0.000107	0.003736	-0.001026	7084.871617	45768.751885	3989.335481	24301.109257
34.035500	0.000002	-0.000147	-0.002761	-0.000720	7083.583539	45734.771568	3971.675428	24286.050986
34.536000	-0.001148	0.000169	0.001968	0.002721	7039.460210	45427.838913	3974.996584	24117.139836
35.036000	0.000859	0.000863	0.001752	0.001026	7074.999215	45662.205947	3978.824668	24200.170763
35.536500	0.000559	0.000704	-0.002293	0.001868	7064.003562	45563.829904	3966.226065	24158.874332
36.036500	-0.000315	0.000362	-0.000121	0.001532	7058.838452	45563.278753	3972.675290	24175.364682
36.537000	-0.001215	-0.000287	0.001717	0.001662	7048.948807	45486.920093	3977.084820	24168.969692
37.040000	-0.000573	-0.000341	-0.003764	0.000983	7061.630128	45548.229060	3964.727313	24202.297554
37.537500	-0.001559	-0.000345	0.000548	0.001189	7050.192467	45527.589703	3975.286825	24192.172779
38.035000	0.000303	0.000824	0.000090	0.001989	7060.378908	45563.820163	3972.043269	24152.985687
38.535000	-0.001175	0.000236	0.001123	0.001743	7048.559863	45530.197199	3975.340550	24165.002538
39.035500	0.000279	0.001134	0.000315	0.001871	7061.282243	45605.878400	3972.926387	24158.758132
39.538000	0.000207	-0.000507	0.000393	0.000994	7069.019409	45530.793138	3975.388627	24201.735469
40.036000	-0.000686	0.000972	0.002174	0.001762	7053.060331	45600.593664	3978.011283	24164.067272
40.536500	-0.002086	0.000390	-0.002429	0.001839	7038.929464	45535.906193	3965.955206	24160.321602
41.036500	-0.000976	0.000026	-0.001151	0.001250	7055.197345	45558.026756	3970.749344	24189.186520
41.537000	0.000209	0.000661	-0.000121	0.001356	7065.563387	45609.910155	3973.129991	24183.996832
42.037500	0.000354	0.000471	0.000630	0.002096	7059.839714	45518.663614	3973.156742	24147.734333
42.535000	-0.000214	-0.000028	-0.002617	0.001137	7063.600389	45563.829904	3967.273936	24194.751466
43.035000	-0.001110	0.000347	-0.001278	0.001580	7050.739320	45557.093113	3969.572834	24172.987591
43.535000	0.000487	0.001340	0.004329	0.002583	7056.446539	45556.185874	3981.472714	24123.911467
44.038500	-0.000182	0.000232	-0.000401	0.001478	7060.622196	45555.849177	3972.092035	24177.986902
44.536000	-0.001387	0.000911	0.001805	0.002402	7040.230438	45531.866491	3975.401624	24132.778002
45.036000	0.004374	0.000598	0.002583	-0.002532	7143.743912	45987.375690	3990.259173	24375.515374
45.536500	0.000873	0.000177	0.002840	-0.000473	7089.612062	45742.270213	3985.551362	24273.867398
46.036500	0.000979	0.001091	0.004226	0.001135	7075.103714	45673.943440	3984.970655	24194.814485
46.534500	0.001142	0.000424	0.000971	0.000877	7079.169980	45633.693016	3977.187225	24207.494642
47.034500	-0.000950	-0.000761	-0.002021	-0.000531	7072.569456	45655.641129	3973.095960	24276.740698
47.535000	0.000534	0.001020	0.005777	0.000472	7077.209403	45732.184141	3990.757597	24227.383983
48.035000	0.000780	0.000132	0.000588	0.000137	7082.817609	45677.812339	3978.113911	24243.864076
48.549000	0.000364	0.000017	0.001432	0.001171	7068.831360	45564.861418	3977.619084	24193.047671
49.036000	0.001295	0.000465	0.001559	0.002796	7062.155389	45449.539759	3973.749687	24113.503330
49.536000	0.000385	0.001138	0.006180	0.001709	7063.855929	45622.130556	3988.573566	24166.689066
50.047000	0.000947	0.000469	0.004438	0.001491	7071.360283	45577.771124	3984.596583	24177.361976
50.536500	0.000941	0.000747	-0.003209	0.001508	7071.140217	45603.388679	3964.803725	24176.522608
51.038000	0.002517	0.000670	-0.001680	0.000540	7095.715290	45690.981361	3971.213806	24224.018444
51.537000	0.002018	0.000745	0.000634	-0.002723	7122.581432	46020.926310	3985.666539	24384.954799
52.034500	0.001386	0.000923	0.002110	0.000611	7084.084491	45709.021133	3980.830933	24220.552434
52.535000	-0.002039	-0.000448	-0.000176	0.003162	7026.752801	45324.540722	3968.340295	24095.629544
53.035000	0.005787	-0.000113	0.003484	-0.009405	7225.701071	46602.369104	4010.797111	24718.244364
53.535500	-0.024640	-0.002194	-0.013270	0.252963	5098.536526	26692.156007	3461.899761	14819.096854
54.036000	-0.053210	-0.024321	-0.024602	-0.070898	7250.705454	50516.016165	4103.363383	28038.892606
54.536500	-0.058238	-0.063077	-0.022595	-0.217470	8931.538105	63920.852467	4613.375326	38135.569009
55.036500	-0.034201	-0.070626	0.000517	-0.230405	9468.543550	64681.774590	4765.718272	39201.199074
55.536500	-0.040092	-0.041275	-0.007569	-0.176300	8619.505795	61261.340887	4510.538372	34947.623775
56.037000	-0.035574	-0.041451	-0.014015	-0.187217	8826.845498	62721.589805	4527.684595	35763.696827
56.534500	-0.027224	-0.028849	-0.020585	-0.164890	8638.777364	61397.869516	4419.888509	34116.257213
57.034500	-0.013698	-0.030040	-0.015079	-0.173024	8932.842439	62339.823439	4469.878123	34706.647832
57.535000	-0.005424	-0.021932	-0.013583	-0.159980	8866.815207	61668.646199	4427.454357	33765.165030
58.035500	-0.009666	-0.006456	-0.019343	-0.094443	7979.436394	55275.192310	4189.097905	29440.126310
58.536000	-0.019952	-0.009488	-0.019476	-0.081270	7711.729939	53358.554017	4148.786423	28646.830578
59.035500	-0.010570	-0.013313	-0.011278	-0.126119	8353.251058	58352.825265	4317.120514	31449.171315
59.536000	-0.012784	-0.013947	-0.019885	-0.122896	8285.263694	57862.923888	4277.778168	31237.988553
60.036500	-0.017754	-0.007703	-0.017623	-0.073813	7653.670808	52704.413032	4132.173036	28208.280023
60.536500	-0.024602	-0.007736	-0.019824	-0.037500	7202.860433	48709.639412	4023.628926	26177.218521
61.036500	-0.023284	-0.008034	-0.020672	-0.033586	7177.143482	48267.899440	4010.863521	25968.271415
61.535000	-0.019213	-0.006751	-0.016816	-0.041339	7295.509680	49220.731499	4042.228748	26383.987916
62.035000	-0.019166	-0.007406	-0.014721	-0.049906	7383.802436	50071.557680	4071.783276	26852.088750
62.538000	-0.021422	-0.009344	-0.017946	-0.060801	7474.120098	51053.601533	4093.498171	27460.880709
63.035500	-0.021777	-0.009244	-0.024551	-0.065535	7520.598283	51592.137793	4088.166085	27730.260372
63.535500	-0.018100	-0.004130	-0.022938	-0.052193	7418.648636	50679.096230	4055.257265	26978.653440
64.053500	-0.011142	-0.003244	-0.023471	-0.055172	7523.499103	51105.814908	4062.046238	27144.438462
64.536500	-0.012641	-0.008085	-0.021668	-0.083128	7814.645570	53738.490542	4147.789333	28757.246785
65.036500	-0.009564	-0.005566	-0.020597	-0.079902	7812.959951	53655.929212	4141.383315	28565.815535
65.553500	-0.009243	-0.004819	-0.018701	-0.075350	7765.213106	53213.547049	4133.527226	28298.071173
66.034500	-0.007695	-0.003711	-0.017947	-0.069820	7720.708294	52704.330451	4119.524324	27976.581337
66.542500	-0.008594	-0.003756	-0.016030	-0.063015	7635.736775	51925.725139	4105.351383	27586.523155
67.038000	-0.008602	-0.003750	-0.019797	-0.058724	7588.981952	51444.828733	4082.332339	27343.691457
67.538000	-0.008575	-0.002690	-0.018987	-0.052497	7522.338943	50871.079537	4067.091164	26995.486170
68.035500	-0.010372	-0.002802	-0.021475	-0.047827	7453.854283	50346.284122	4047.246700	26737.644052
68.536000	-0.012732	-0.002499	-0.019893	-0.043175	7380.739902	49874.148736	4038.837412	26483.572120
69.036500	-0.011658	-0.002392	-0.018896	-0.040550	7364.723658	49602.819162	4034.399857	26341.377987
69.537000	-0.011975	-0.002541	-0.021577	-0.038173	7337.027998	49332.157379	4020.722501	26213.330315
70.037000	-0.012186	-0.002637	-0.021188	-0.035687	7309.492322	49057.202034	4015.099503	26080.210031
70.537000	-0.014624	-0.002889	-0.025976	-0.033386	7261.517209	48786.935029	3996.283751	25957.645040
71.037500	-0.013216	-0.003019	-0.023087	-0.032361	7265.368845	48665.093102	4001.199900	25903.232281
71.541000	-0.013838	-0.002128	-0.020232	-0.029719	7232.595230	48481.141316	4001.764443	25763.638318
72.035000	-0.013624	-0.002978	-0.018854	-0.028377	7221.325755	48251.984879	4001.859343	25693.080866
72.536000	-0.011924	-0.002107	-0.022496	-0.026496	7219.521112	48146.794444	3987.343728	25594.537571
73.035500	-0.012461	-0.001728	-0.019339	-0.024720	7196.510904	48001.552477	3990.955573	25501.839754
73.536500	-0.009407	-0.001245	-0.014940	-0.023463	7214.378779	47921.312960	3999.215497	25436.467604
74.036000	-0.012286	-0.001984	-0.017201	-0.021942	7170.772707	47687.877848	3989.278831	25357.647065
74.537000	-0.012972	-0.002123	-0.021200	-0.022817	7172.634911	47763.811847	3981.137389	25402.992466
75.037000	-0.011219	-0.001397	-0.021020	-0.022195	7183.804977	47774.466135	3979.989145	25370.752288
75.537500	-0.010479	-0.001337	-0.021916	-0.022061	7189.806473	47766.915177	3977.319530	25363.816119
76.034500	-0.009418	-0.002182	-0.023426	-0.021675	7196.497119	47639.964790	3972.421266	25343.837135
76.537500	-0.010771	-0.002358	-0.023255	-0.022636	7192.608822	47720.871585	3975.343321	25393.581079
77.035500	-0.010998	-0.002155	-0.019583	-0.023713	7201.041461	47852.997064	3987.682048	25449.477386
77.536000	-0.009637	-0.001787	-0.017846	-0.024104	7218.478643	47931.589261	3993.255005	25469.801331
78.035500	-0.011629	-0.002016	-0.021913	-0.024075	7198.372663	47904.808813	3982.551845	25468.277807
78.536000	-0.008346	-0.001773	-0.020776	-0.025209	7242.423263	48047.571350	3988.472590	25527.309805
79.036500	-0.008799	-0.001406	-0.015375	-0.026329	7249.122061	48202.249103	4005.649402	25585.774993
79.537000	-0.011199	-0.001529	-0.013658	-0.027723	7239.032707	48334.979695	4013.938400	25658.778572
80.039500	-0.008968	-0.001674	-0.017929	-0.027293	7257.120795	48274.960422	4001.441220	25636.255883
80.540500	-0.012111	-0.002053	-0.013400	-0.029982	7252.542361	48516.598426	4020.682444	25777.510809
81.037500	-0.012452	-0.002058	-0.019795	-0.031432	7263.705064	48668.535308	4007.465282	25854.051300
81.535500	-0.011809	-0.002045	-0.016756	-0.032412	7280.084411	48773.148388	4018.196846	25905.950942
82.035500	-0.009830	-0.002419	-0.023195	-0.032803	7304.126267	48775.070699	4002.086169	25926.701067
82.536000	-0.013453	-0.002303	-0.016402	-0.034799	7287.611196	48998.469124	4025.575166	26032.823298
83.036000	-0.012246	-0.003469	-0.024967	-0.036878	7321.016991	49095.357808	4008.194527	26143.886359
83.536500	-0.012665	-0.002961	-0.015332	-0.037381	7321.882133	49202.858720	4035.474857	26170.843802
84.036500	-0.013839	-0.003084	-0.017711	-0.036967	7305.696715	49145.637283	4027.893913	26148.628030
84.537000	-0.013817	-0.003502	-0.022127	-0.039546	7332.235081	49376.149809	4022.937483	26287.198084
85.034500	-0.013953	-0.004198	-0.018356	-0.040875	7344.448604	49443.839206	4036.754511	26358.888397
85.540500	-0.014806	-0.004164	-0.019463	-0.041475	7341.854858	49511.836899	4035.372676	26391.342451
86.035000	-0.014042	-0.004205	-0.019432	-0.041998	7355.077350	49563.545431	4036.883287	26419.661737
86.535000	-0.014033	-0.004274	-0.018521	-0.042455	7359.879012	49605.242837	4040.619106	26444.465589
87.035500	-0.014554	-0.004741	-0.018489	-0.043893	7369.331046	49709.750943	4044.645011	26522.613526
87.536000	-0.015036	-0.004862	-0.019718	-0.044555	7371.190335	49767.976227	4043.091348	26558.662423
88.036000	-0.015213	-0.004371	-0.020156	-0.044143	7365.105586	49776.406518	4040.762307	26536.187713
88.536500	-0.014822	-0.005190	-0.015270	-0.045182	7379.872191	49800.161272	4057.076296	26592.846708
89.036500	-0.014657	-0.005222	-0.021380	-0.046170	7391.818512	49903.489804	4042.962261	26646.848898
89.537000	-0.012636	-0.004526	-0.015799	-0.045886	7409.861491	49948.094342	4057.563755	26631.310022
90.040000	-0.015535	-0.005012	-0.017285	-0.046041	7381.387696	49912.216984	4053.877151	26639.789457
90.535000	-0.014369	-0.005082	-0.014431	-0.046250	7395.627410	49927.193654	4062.373748	26651.195849
91.035000	-0.012797	-0.005279	-0.013171	-0.046772	7417.409769	49962.372862	4067.344895	26679.767841
91.535500	-0.014961	-0.004748	-0.015050	-0.046450	7391.560106	49985.005044	4061.208065	26662.154613
92.036000	-0.015152	-0.005015	-0.016279	-0.045534	7380.097691	49857.129070	4055.257489	26612.058904
92.536000	-0.012099	-0.004074	-0.012058	-0.045431	7410.705783	49947.703500	4066.707469	26606.416138
93.036500	-0.013628	-0.005469	-0.018255	-0.046252	7403.344269	49885.592635	4051.777949	26651.298660
93.537000	-0.014111	-0.005258	-0.015400	-0.045761	7393.233472	49855.382891	4058.322521	26624.490174
94.036500	-0.013390	-0.004557	-0.021209	-0.043883	7381.246141	49728.401046	4037.178263	26522.051442
94.537500	-0.015136	-0.005161	-0.019352	-0.045253	7377.358289	49811.025803	4046.010321	26596.731895
95.037000	-0.013161	-0.004850	-0.015042	-0.044666	7391.727749	49781.190915	4056.277783	26564.696176
95.604500	-0.015477	-0.005581	-0.015840	-0.044570	7366.794910	49692.189171	4053.805852	26559.479712
96.035000	-0.015813	-0.004926	-0.018012	-0.042160	7338.565243	49503.592827	4041.202962	26428.481553
96.538000	-0.014048	-0.005236	-0.016938	-0.042753	7362.791886	49533.981521	4045.774027	26460.642712
97.036000	-0.013152	-0.004483	-0.014651	-0.041627	7360.424728	49493.990872	4048.965512	26399.616367
97.535500	-0.016535	-0.005414	-0.019255	-0.041919	7328.702377	49425.522466	4037.150084	26415.405178
98.036500	-0.014209	-0.004509	-0.020451	-0.038862	7321.229151	49195.693422	4025.610179	26250.358876
98.537500	-0.013600	-0.004749	-0.018980	-0.040051	7339.631873	49296.944736	4032.816362	26314.434675
99.037000	-0.014303	-0.005175	-0.013230	-0.039746	7329.307828	49219.031939	4047.700954	26297.985988
