sample name	sample
index	541
start time	 03-15-2021  10:39:26 AM


Wavelength (nm)	Absorbance
494.344910	-0.231959
494.563924	-0.231959
494.782919	-0.231959
495.001897	0.455875
495.220856	-0.155476
495.439797	-0.126092
495.658719	-0.100549
495.877624	-0.072619
496.096510	-0.088260
496.315378	-0.055881
496.534227	-0.036973
496.753059	-0.002180
496.971872	0.012153
497.190667	0.041141
497.409444	0.032405
497.628203	0.035488
497.846943	0.036016
498.065665	0.035854
498.284369	0.037450
498.503055	0.036663
498.721723	0.036759
498.940372	0.036920
499.159003	0.036393
499.377616	0.037247
499.596210	0.036078
499.814787	0.036335
500.033345	0.036765
500.251885	0.035714
500.470406	0.036039
500.688910	0.035891
500.907395	0.036167
501.125862	0.035146
501.344311	0.035466
501.562742	0.035926
501.781154	0.036736
501.999548	0.037032
502.217924	0.037019
502.436282	0.037705
502.654621	0.038096
502.872942	0.038416
503.091245	0.039470
503.309530	0.039176
503.527797	0.040019
503.746045	0.039104
503.964275	0.037848
504.182487	0.037233
504.400681	0.036848
504.618856	0.037025
504.837013	0.036162
505.055152	0.036292
505.273273	0.036402
505.491376	0.035596
505.709460	0.034928
505.927526	0.036364
506.145574	0.036741
506.363604	0.036966
506.581615	0.037529
506.799608	0.037445
507.017583	0.036720
507.235540	0.037438
507.453478	0.038166
507.671399	0.038508
507.889301	0.037972
508.107185	0.038290
508.325050	0.038320
508.542898	0.037287
508.760727	0.037056
508.978538	0.038149
509.196330	0.037773
509.414105	0.037334
509.631861	0.037163
509.849599	0.037340
510.067319	0.037475
510.285021	0.036709
510.502704	0.036191
510.720369	0.037074
510.938016	0.036620
511.155645	0.036480
511.373255	0.036774
511.590848	0.037067
511.808422	0.036686
512.025977	0.036569
512.243515	0.037677
512.461034	0.038724
512.678536	0.038389
512.896018	0.037610
513.113483	0.037951
513.330930	0.038518
513.548358	0.038767
513.765768	0.038907
513.983160	0.038510
514.200533	0.038055
514.417889	0.038232
514.635226	0.038040
514.852545	0.039225
515.069845	0.038533
515.287128	0.038046
515.504392	0.038665
515.721638	0.038970
515.938866	0.039591
516.156075	0.039884
516.373267	0.039783
516.590440	0.040245
516.807594	0.040096
517.024731	0.040834
517.241850	0.040294
517.458950	0.040240
517.676032	0.040154
517.893095	0.039940
518.110141	0.039785
518.327168	0.040154
518.544177	0.039999
518.761168	0.040196
518.978141	0.040055
519.195095	0.041477
519.412031	0.041309
519.628949	0.041050
519.845849	0.042402
520.062731	0.042733
520.279594	0.042495
520.496439	0.041995
520.713266	0.041938
520.930074	0.041827
521.146865	0.041084
521.363637	0.040995
521.580391	0.041331
521.797127	0.040182
522.013844	0.040261
522.230543	0.040300
522.447224	0.041277
522.663887	0.041441
522.880532	0.041601
523.097158	0.041283
523.313766	0.041400
523.530356	0.041373
523.746928	0.041592
523.963481	0.041249
524.180017	0.040868
524.396534	0.040498
524.613032	0.040035
524.829513	0.040016
525.045975	0.039977
525.262420	0.040352
525.478845	0.040693
525.695253	0.041154
525.911643	0.042279
526.128014	0.042994
526.344367	0.042804
526.560702	0.043246
526.777018	0.043543
526.993316	0.043993
527.209597	0.044018
527.425858	0.044637
527.642102	0.044792
527.858328	0.043832
528.074535	0.043629
528.290724	0.044465
528.506894	0.044421
528.723047	0.044599
528.939181	0.044769
529.155297	0.044392
529.371395	0.043960
529.587475	0.043804
529.803536	0.044424
530.019579	0.044547
530.235604	0.044580
530.451611	0.044530
530.667600	0.043760
530.883570	0.043667
531.099522	0.043728
531.315456	0.043779
531.531372	0.043594
531.747269	0.043293
531.963148	0.043705
532.179009	0.043463
532.394852	0.044110
532.610676	0.045009
532.826482	0.045218
533.042271	0.045062
533.258040	0.045099
533.473792	0.045178
533.689525	0.045889
533.905240	0.045057
534.120937	0.045221
534.336616	0.045353
534.552277	0.045313
534.767919	0.045685
534.983543	0.046238
535.199149	0.046443
535.414736	0.046656
535.630306	0.046163
535.845857	0.046554
536.061390	0.046461
536.276904	0.045932
536.492401	0.045946
536.707879	0.045739
536.923339	0.045682
537.138781	0.045830
537.354204	0.045321
537.569610	0.045734
537.784997	0.045883
538.000366	0.046373
538.215716	0.046582
538.431049	0.046629
538.646363	0.046702
538.861659	0.046596
539.076937	0.046336
539.292196	0.047194
539.507438	0.046921
539.722661	0.046813
539.937866	0.046907
540.153052	0.046848
540.368221	0.047011
540.583371	0.046995
540.798503	0.047205
541.013617	0.048244
541.228712	0.048242
541.443789	0.047839
541.658848	0.048199
541.873889	0.048030
542.088912	0.047972
542.303916	0.047944
542.518902	0.048014
542.733870	0.048420
542.948820	0.047231
543.163752	0.047295
543.378665	0.047998
543.593560	0.047784
543.808437	0.047621
544.023295	0.047612
544.238136	0.047684
544.452958	0.048197
544.667762	0.048091
544.882548	0.048354
545.097315	0.048352
545.312064	0.048320
545.526795	0.048667
545.741508	0.048910
545.956203	0.049508
546.170879	0.049562
546.385537	0.048916
546.600177	0.049011
546.814799	0.049423
547.029402	0.049632
547.243988	0.049340
547.458555	0.049745
547.673103	0.050160
547.887634	0.050283
548.102146	0.050461
548.316640	0.050694
548.531116	0.050446
548.745574	0.050330
548.960013	0.050344
549.174435	0.050620
549.388838	0.050237
549.603222	0.049772
549.817589	0.050076
550.031937	0.049969
550.246267	0.050140
550.460579	0.050479
550.674873	0.050432
550.889148	0.050176
551.103405	0.050154
551.317644	0.050089
551.531865	0.050725
551.746068	0.050537
551.960252	0.050393
552.174418	0.050385
552.388566	0.050592
552.602696	0.050846
552.816807	0.051019
553.030900	0.051710
553.244975	0.052257
553.459032	0.052005
553.673070	0.051655
553.887091	0.052193
554.101093	0.052422
554.315077	0.052170
554.529042	0.052514
554.742990	0.052878
554.956919	0.052112
555.170830	0.051735
555.384722	0.051999
555.598597	0.052196
555.812453	0.051949
556.026291	0.052229
556.240111	0.052536
556.453913	0.052274
556.667696	0.051858
556.881461	0.051970
557.095208	0.051836
557.308937	0.051498
557.522647	0.051477
557.736339	0.051588
557.950013	0.051610
558.163669	0.051481
558.377307	0.051204
558.590926	0.051594
558.804527	0.052156
559.018110	0.052575
559.231675	0.052739
559.445221	0.052938
559.658749	0.053325
559.872259	0.052889
560.085751	0.052871
560.299225	0.053054
560.512680	0.053051
560.726117	0.052763
560.939536	0.052938
561.152937	0.052979
561.366319	0.052953
561.579683	0.052990
561.793029	0.053134
562.006357	0.053516
562.219667	0.053793
562.432958	0.053720
562.646231	0.053901
562.859486	0.053738
563.072723	0.053740
563.285941	0.053694
563.499141	0.053293
563.712323	0.053464
563.925487	0.053539
564.138632	0.053840
564.351760	0.053914
564.564869	0.054056
564.777960	0.054008
564.991032	0.054103
565.204087	0.054389
565.417123	0.054504
565.630141	0.054835
565.843140	0.054603
566.056122	0.054331
566.269085	0.053979
566.482030	0.054212
566.694957	0.054321
566.907866	0.054522
567.120756	0.054470
567.333628	0.054838
567.546482	0.054754
567.759318	0.054596
567.972135	0.054799
568.184935	0.055615
568.397716	0.055566
568.610478	0.055893
568.823223	0.056064
569.035949	0.056129
569.248657	0.055970
569.461347	0.056186
569.674019	0.056364
569.886672	0.056767
570.099308	0.056332
570.311925	0.056349
570.524523	0.056436
570.737104	0.056228
570.949666	0.056175
571.162210	0.056407
571.374736	0.056242
571.587244	0.056602
571.799733	0.056189
572.012205	0.056695
572.224658	0.056777
572.437092	0.056700
572.649509	0.057126
572.861907	0.057217
573.074287	0.056977
573.286649	0.057257
573.498993	0.057301
573.711318	0.057231
573.923625	0.056660
574.135914	0.056556
574.348185	0.056457
574.560438	0.056205
574.772672	0.056450
574.984888	0.056552
575.197086	0.056635
575.409266	0.056369
575.621427	0.056350
575.833570	0.056677
576.045695	0.056891
576.257802	0.057219
576.469890	0.057214
576.681961	0.057039
576.894013	0.057167
577.106046	0.056856
577.318062	0.057403
577.530059	0.057789
577.742039	0.058149
577.954000	0.057690
578.165942	0.057459
578.377867	0.057564
578.589773	0.057900
578.801661	0.058051
579.013531	0.058134
579.225382	0.057693
579.437216	0.057680
579.649031	0.057689
579.860828	0.058109
580.072606	0.058145
580.284367	0.058185
580.496109	0.057981
580.707833	0.058021
580.919539	0.058440
581.131227	0.058525
581.342896	0.058469
581.554547	0.058272
581.766180	0.058586
581.977795	0.059077
582.189391	0.059393
582.400969	0.059292
582.612529	0.059317
582.824071	0.059404
583.035595	0.059798
583.247100	0.059703
583.458587	0.059588
583.670056	0.059181
583.881506	0.059018
584.092939	0.058674
584.304353	0.058959
584.515749	0.059000
584.727127	0.058783
584.938486	0.058436
585.149828	0.058920
585.361151	0.059255
585.572456	0.059257
585.783742	0.059546
585.995011	0.059820
586.206261	0.059845
586.417493	0.059778
586.628706	0.059525
586.839902	0.059712
587.051079	0.059439
587.262238	0.059259
587.473379	0.059546
587.684502	0.058918
587.895606	0.059016
588.106692	0.059019
588.317760	0.059220
588.528810	0.059449
588.739841	0.059654
588.950855	0.059545
589.161850	0.059821
589.372827	0.059400
589.583785	0.059202
589.794726	0.058938
590.005648	0.059307
590.216552	0.059530
590.427437	0.059848
590.638305	0.060057
590.849154	0.060560
591.059985	0.060522
591.270798	0.061054
591.481592	0.061875
591.692369	0.062226
591.903127	0.062137
592.113867	0.062030
592.324588	0.061733
592.535292	0.061206
592.745977	0.061013
592.956644	0.061124
593.167293	0.061075
593.377923	0.060891
593.588536	0.060765
593.799130	0.060620
594.009706	0.060486
594.220263	0.060921
594.430803	0.061204
594.641324	0.061526
594.851827	0.061286
595.062312	0.061218
595.272778	0.061016
595.483227	0.061221
595.693657	0.061397
595.904069	0.061523
596.114462	0.061405
596.324838	0.061455
596.535195	0.061382
596.745534	0.061768
596.955855	0.062192
597.166157	0.062496
597.376441	0.062464
597.586707	0.062574
597.796955	0.062820
598.007185	0.062603
598.217396	0.062990
598.427589	0.063167
598.637764	0.063029
598.847921	0.062962
599.058060	0.062891
599.268180	0.063082
599.478282	0.063235
599.688366	0.063241
599.898431	0.063309
600.108479	0.063078
600.318508	0.062849
600.528519	0.063019
600.738511	0.063380
600.948486	0.063388
601.158442	0.063181
601.368380	0.063072
601.578300	0.063243
601.788202	0.063461
601.998085	0.063496
602.207950	0.063648
602.417797	0.063596
602.627626	0.063316
602.837436	0.063431
603.047228	0.063684
603.257002	0.063926
603.466758	0.063852
603.676496	0.063844
603.886215	0.063736
604.095916	0.063855
604.305599	0.063852
604.515264	0.063700
604.724910	0.063695
604.934538	0.063596
605.144148	0.063100
605.353740	0.062838
605.563314	0.062823
605.772869	0.062807
605.982406	0.062631
606.191925	0.062528
606.401425	0.062543
606.610908	0.062612
606.820372	0.062638
607.029818	0.062960
607.239246	0.063127
607.448655	0.063114
607.658047	0.063287
607.867420	0.063356
608.076775	0.063599
608.286111	0.063651
608.495430	0.063700
608.704730	0.063507
608.914012	0.063556
609.123275	0.063585
609.332521	0.063633
609.541748	0.063681
609.750957	0.063778
609.960148	0.063902
610.169321	0.064118
610.378475	0.064211
610.587611	0.064479
610.796729	0.064404
611.005829	0.064388
611.214910	0.064454
611.423974	0.064442
611.633019	0.064466
611.842045	0.064456
612.051054	0.064308
612.260044	0.064082
612.469017	0.064104
612.677970	0.064012
612.886906	0.064183
613.095824	0.064356
613.304723	0.064624
613.513604	0.064546
613.722467	0.064577
613.931311	0.064581
614.140138	0.064943
614.348946	0.064837
614.557736	0.065324
614.766507	0.065448
614.975261	0.065683
615.183996	0.065614
615.392713	0.065933
615.601412	0.065852
615.810092	0.066067
616.018754	0.066224
616.227399	0.066460
616.436024	0.066469
616.644632	0.066613
616.853222	0.066515
617.061793	0.066609
617.270346	0.066416
617.478880	0.066561
617.687397	0.066676
617.895895	0.066465
618.104375	0.066464
618.312837	0.066396
618.521281	0.066166
618.729706	0.066068
618.938113	0.066178
619.146502	0.066184
619.354873	0.066108
619.563226	0.066054
619.771560	0.066365
619.979876	0.066451
620.188174	0.066246
620.396453	0.066352
620.604715	0.066332
620.812958	0.066093
621.021183	0.066124
621.229390	0.066288
621.437578	0.066511
621.645748	0.066322
621.853900	0.066277
622.062034	0.066692
622.270150	0.066703
622.478247	0.066721
622.686326	0.067028
622.894387	0.067301
623.102430	0.067669
623.310454	0.067519
623.518461	0.067671
623.726449	0.067871
623.934418	0.067672
624.142370	0.067860
624.350303	0.067893
624.558218	0.067748
624.766115	0.067646
624.973994	0.067422
625.181855	0.067456
625.389697	0.067662
625.597521	0.067473
625.805327	0.067656
626.013114	0.067742
626.220883	0.067803
626.428634	0.067756
626.636367	0.067783
626.844082	0.067904
627.051778	0.068055
627.259457	0.068077
627.467117	0.068371
627.674758	0.068264
627.882382	0.068139
628.089987	0.068404
628.297574	0.068642
628.505143	0.068668
628.712694	0.068737
628.920226	0.068929
629.127740	0.068669
629.335236	0.068559
629.542714	0.068869
629.750174	0.068712
629.957615	0.068597
630.165038	0.068519
630.372443	0.068673
630.579829	0.068626
630.787198	0.068546
630.994548	0.068645
631.201880	0.068890
631.409194	0.068872
631.616489	0.069182
631.823766	0.069233
632.031025	0.069503
632.238266	0.069593
632.445489	0.069787
632.652693	0.069962
632.859879	0.070220
633.067047	0.070030
633.274197	0.069844
633.481329	0.069932
633.688442	0.070239
633.895537	0.070156
634.102614	0.069989
634.309672	0.069857
634.516713	0.069812
634.723735	0.069833
634.930739	0.070088
635.137724	0.070275
635.344692	0.070523
635.551641	0.070531
635.758572	0.070752
635.965485	0.071041
636.172379	0.071146
636.379256	0.071217
636.586114	0.071248
636.792954	0.071306
636.999775	0.071188
637.206579	0.070919
637.413364	0.070851
637.620131	0.070744
637.826880	0.070717
638.033610	0.070878
638.240323	0.070912
638.447017	0.070986
638.653692	0.070880
638.860350	0.070923
639.066990	0.071092
639.273611	0.071106
639.480214	0.071205
639.686798	0.071293
639.893365	0.071038
640.099913	0.071014
640.306443	0.071023
640.512955	0.071292
640.719449	0.071298
640.925924	0.071472
641.132381	0.071567
641.338820	0.071791
641.545241	0.071904
641.751644	0.072484
641.958028	0.072612
642.164394	0.072782
642.370742	0.072648
642.577071	0.073026
642.783383	0.072915
642.989676	0.072930
643.195951	0.072643
643.402207	0.072632
643.608446	0.072391
643.814666	0.072411
644.020868	0.072470
644.227052	0.072625
644.433218	0.072858
644.639365	0.073032
644.845494	0.073102
645.051605	0.073432
645.257698	0.073677
645.463772	0.073770
645.669828	0.074007
645.875866	0.074263
646.081886	0.074389
646.287888	0.074224
646.493871	0.074413
646.699836	0.074584
646.905783	0.074728
647.111712	0.074491
647.317622	0.074617
647.523514	0.074771
647.729388	0.074626
647.935244	0.074780
648.141082	0.074935
648.346901	0.074928
648.552702	0.075028
648.758485	0.074905
648.964250	0.075442
649.169996	0.075386
649.375724	0.075159
649.581434	0.075064
649.787126	0.074926
649.992800	0.075062
650.198455	0.075141
650.404092	0.075145
650.609711	0.075295
650.815311	0.075145
651.020894	0.075292
651.226458	0.075555
651.432004	0.075822
651.637532	0.075804
651.843041	0.075669
652.048532	0.075654
652.254006	0.075629
652.459460	0.075727
652.664897	0.075466
652.870315	0.075420
653.075716	0.075620
653.281097	0.075449
653.486461	0.075619
653.691807	0.075683
653.897134	0.075777
654.102443	0.075755
654.307734	0.075749
654.513006	0.076251
654.718261	0.076520
654.923497	0.076308
655.128715	0.076644
655.333915	0.076696
655.539096	0.076855
655.744259	0.076902
655.949404	0.077132
656.154531	0.077276
656.359640	0.077250
656.564730	0.077142
656.769802	0.077295
656.974856	0.077161
657.179892	0.077343
657.384909	0.077446
657.589908	0.077343
657.794889	0.077706
657.999852	0.077632
658.204797	0.077681
658.409723	0.077740
658.614631	0.077849
658.819521	0.078052
659.024393	0.078082
659.229246	0.077996
659.434081	0.078215
659.638898	0.077938
659.843697	0.078136
660.048478	0.078072
660.253240	0.077848
660.457984	0.077903
660.662710	0.078016
660.867417	0.077934
661.072107	0.078154
661.276778	0.078316
661.481431	0.078419
661.686066	0.078405
661.890682	0.078409
662.095281	0.078928
662.299861	0.079050
662.504422	0.079034
662.708966	0.079349
662.913491	0.079325
663.117999	0.079366
663.322488	0.079452
663.526958	0.079561
663.731411	0.079707
663.935845	0.079745
664.140261	0.079734
664.344659	0.079617
664.549038	0.079619
664.753400	0.079703
664.957743	0.079738
665.162068	0.079770
665.366375	0.079778
665.570663	0.079865
665.774933	0.079847
665.979185	0.079852
666.183419	0.080001
666.387635	0.079909
666.591832	0.079899
666.796011	0.079885
667.000172	0.080020
667.204315	0.080439
667.408439	0.080393
667.612545	0.080417
667.816634	0.080441
668.020703	0.080339
668.224755	0.080507
668.428788	0.080717
668.632803	0.080787
668.836800	0.080842
669.040779	0.080549
669.244739	0.080606
669.448681	0.080611
669.652605	0.080782
669.856511	0.081003
670.060399	0.081230
670.264268	0.081272
670.468119	0.081386
670.671952	0.081309
670.875767	0.081467
671.079563	0.081691
671.283341	0.081944
671.487101	0.081968
671.690843	0.082011
671.894567	0.081926
672.098272	0.082059
672.301959	0.082258
672.505628	0.082542
672.709278	0.082533
672.912911	0.082558
673.116525	0.082594
673.320121	0.082891
673.523699	0.083180
673.727258	0.083317
673.930799	0.083122
674.134322	0.083124
674.337827	0.083037
674.541314	0.083084
674.744782	0.083276
674.948232	0.083270
675.151664	0.083147
675.355078	0.083214
675.558474	0.083190
675.761851	0.083351
675.965210	0.083501
676.168551	0.083607
676.371873	0.083738
676.575178	0.083780
676.778464	0.083994
676.981732	0.084150
677.184981	0.084153
677.388213	0.084284
677.591426	0.084288
677.794621	0.084185
677.997798	0.084258
678.200956	0.084095
678.404097	0.084071
678.607219	0.084022
678.810323	0.083895
679.013408	0.083902
679.216476	0.083959
679.419525	0.084170
679.622556	0.084302
679.825569	0.084516
680.028563	0.084884
680.231540	0.084959
680.434498	0.084998
680.637438	0.085091
680.840359	0.085095
681.043263	0.085020
681.246148	0.085065
681.449015	0.085146
681.651864	0.085070
681.854694	0.085007
682.057506	0.085011
682.260301	0.084888
682.463076	0.085073
682.665834	0.085168
682.868573	0.085318
683.071295	0.085358
683.273998	0.085411
683.476682	0.085373
683.679349	0.085516
683.881997	0.085621
684.084627	0.086083
684.287239	0.085955
684.489833	0.086035
684.692408	0.086112
684.894965	0.086166
685.097504	0.086304
685.300025	0.086368
685.502527	0.086393
685.705012	0.086548
685.907478	0.086495
686.109925	0.086796
686.312355	0.087001
686.514766	0.087121
686.717159	0.086979
686.919534	0.087006
687.121891	0.087092
687.324230	0.087199
687.526550	0.087217
687.728852	0.087308
687.931136	0.087263
688.133401	0.087052
688.335649	0.087191
688.537878	0.087587
688.740089	0.087644
688.942281	0.087755
689.144456	0.087758
689.346612	0.087710
689.548750	0.087561
689.750870	0.087586
689.952971	0.087685
690.155055	0.087710
690.357120	0.087474
690.559167	0.087273
690.761195	0.087248
690.963206	0.087391
691.165198	0.087356
691.367172	0.087325
691.569128	0.087294
691.771065	0.087365
691.972984	0.087118
692.174885	0.087423
692.376768	0.087628
692.578633	0.087600
692.780479	0.087483
692.982308	0.087607
693.184118	0.087846
693.385909	0.088029
693.587683	0.088258
693.789438	0.088409
693.991175	0.088280
694.192894	0.088462
694.394595	0.088628
694.596277	0.088689
694.797941	0.088905
694.999587	0.088812
695.201215	0.088887
695.402824	0.088740
695.604416	0.088799
695.805989	0.088978
696.007543	0.088788
696.209080	0.088967
696.410598	0.089057
696.612099	0.089058
696.813580	0.089167
697.015044	0.088996
697.216490	0.088981
697.417917	0.088859
697.619326	0.088795
697.820717	0.088763
698.022089	0.088693
698.223444	0.088701
698.424780	0.088476
698.626098	0.088460
698.827397	0.088530
699.028679	0.088628
699.229942	0.088620
699.431187	0.088712
699.632414	0.088685
699.833622	0.088582
700.034813	0.088427
700.235985	0.088647
700.437139	0.088546
700.638274	0.088571
700.839392	0.088486
701.040491	0.088760
701.241572	0.088671
701.442635	0.088799
701.643679	0.088852
701.844706	0.089126
702.045714	0.089074
702.246704	0.089227
702.447675	0.089141
702.648629	0.089184
702.849564	0.089255
703.050481	0.089465
703.251380	0.089589
703.452260	0.089664
703.653122	0.089590
703.853966	0.089668
704.054792	0.089832
704.255600	0.090018
704.456389	0.090166
704.657160	0.090025
704.857913	0.089919
705.058648	0.089774
705.259365	0.089701
705.460063	0.089658
705.660743	0.089419
705.861405	0.089222
706.062048	0.089144
706.262674	0.089160
706.463281	0.089329
706.663870	0.089204
706.864441	0.089373
707.064993	0.089459
707.265527	0.089517
707.466043	0.089745
707.666541	0.089946
707.867021	0.089953
708.067482	0.089810
708.267925	0.089584
708.468350	0.089592
708.668757	0.089565
708.869145	0.089596
709.069516	0.089742
709.269868	0.089697
709.470201	0.089442
709.670517	0.089489
709.870814	0.089438
710.071093	0.089378
710.271354	0.089482
710.471597	0.089387
710.671821	0.089183
710.872028	0.089038
711.072216	0.089077
711.272385	0.089108
711.472537	0.088870
711.672670	0.088849
711.872785	0.089076
712.072882	0.088982
712.272961	0.088883
712.473021	0.088914
712.673063	0.088607
712.873087	0.088423
713.073093	0.088555
713.273081	0.088645
713.473050	0.088717
713.673001	0.088542
713.872934	0.088649
714.072849	0.088824
714.272745	0.088832
714.472623	0.088964
714.672483	0.088934
714.872325	0.088826
715.072148	0.088919
715.271954	0.088908
715.471741	0.088964
715.671509	0.088890
715.871260	0.088625
716.070992	0.088629
716.270707	0.088755
716.470403	0.088851
716.670080	0.088745
716.869740	0.088612
717.069381	0.088746
717.269004	0.088655
717.468609	0.088599
717.668195	0.088654
717.867764	0.088521
718.067314	0.088293
718.266846	0.088329
718.466360	0.088322
718.665855	0.088424
718.865332	0.088453
719.064791	0.088313
719.264232	0.088137
719.463655	0.087941
719.663059	0.088088
719.862445	0.088108
720.061813	0.088245
720.261163	0.087976
720.460494	0.087858
720.659807	0.087630
720.859102	0.087731
721.058379	0.087630
721.257638	0.087738
721.456878	0.087634
721.656100	0.087778
721.855304	0.087577
722.054490	0.087994
722.253657	0.087997
722.452806	0.088051
722.651937	0.088103
722.851050	0.088228
723.050145	0.088084
723.249221	0.088047
723.448279	0.087970
723.647319	0.087810
723.846340	0.087540
724.045344	0.087307
724.244329	0.087076
724.443296	0.086731
724.642245	0.086821
724.841175	0.087036
725.040088	0.086893
725.238982	0.086765
725.437857	0.086660
725.636715	0.086575
725.835554	0.086489
726.034376	0.086516
726.233179	0.086793
726.431963	0.086733
726.630730	0.086570
726.829478	0.086546
727.028208	0.086507
727.226920	0.086520
727.425614	0.086452
727.624289	0.086603
727.822946	0.086567
728.021585	0.086535
728.220206	0.086231
728.418808	0.086095
728.617392	0.086308
728.815958	0.086173
729.014506	0.086231
729.213036	0.086213
729.411547	0.086085
729.610040	0.086102
729.808515	0.085883
730.006972	0.085909
730.205410	0.085847
730.403831	0.085445
730.602233	0.085378
730.800616	0.085086
730.998982	0.085076
731.197329	0.084902
731.395658	0.084873
731.593969	0.084848
731.792262	0.084604
731.990536	0.084564
732.188793	0.084583
732.387031	0.084454
732.585250	0.084368
732.783452	0.084129
732.981635	0.084244
733.179800	0.083990
733.377947	0.083751
733.576076	0.083772
733.774186	0.083612
733.972278	0.083750
734.170352	0.084032
734.368408	0.084105
734.566446	0.084238
734.764465	0.084070
734.962466	0.084176
735.160449	0.084230
735.358413	0.084127
735.556360	0.084243
735.754288	0.084304
735.952198	0.084216
736.150090	0.084297
736.347963	0.084313
736.545818	0.084309
736.743655	0.084078
736.941474	0.083911
737.139275	0.084019
737.337057	0.083822
737.534821	0.083501
737.732567	0.083138
737.930295	0.082924
738.128005	0.082867
738.325696	0.082691
738.523369	0.082521
738.721024	0.082702
738.918660	0.082671
739.116279	0.082703
739.313879	0.082588
739.511461	0.082684
739.709024	0.082640
739.906570	0.082542
740.104097	0.082729
740.301606	0.082597
740.499097	0.082421
740.696569	0.082324
740.894024	0.082115
741.091460	0.082066
741.288878	0.081873
741.486277	0.081616
741.683659	0.081424
741.881022	0.081153
742.078367	0.081361
742.275694	0.081212
742.473002	0.080981
742.670293	0.081135
742.867565	0.081000
743.064819	0.080894
743.262054	0.081033
743.459272	0.081050
743.656471	0.081008
743.853652	0.080681
744.050815	0.080732
744.247959	0.080828
744.445085	0.080776
744.642194	0.080987
744.839283	0.081083
745.036355	0.080924
745.233408	0.080767
745.430444	0.080495
745.627461	0.080764
745.824459	0.080734
746.021440	0.080757
746.218402	0.080397
746.415346	0.080060
746.612272	0.079941
746.809180	0.079982
747.006069	0.079849
747.202940	0.080091
747.399793	0.079863
747.596628	0.079871
747.793444	0.079596
747.990243	0.079914
748.187023	0.079804
748.383784	0.079896
748.580528	0.079968
748.777253	0.080068
748.973960	0.080143
749.170649	0.080112
749.367320	0.079951
749.563973	0.080034
749.760607	0.079728
749.957223	0.079969
750.153821	0.079814
750.350400	0.079686
750.546962	0.079666
750.743505	0.079503
750.940030	0.079589
751.136536	0.079768
751.333025	0.079647
751.529495	0.079883
751.725947	0.079970
751.922381	0.079902
752.118796	0.079945
752.315194	0.080026
752.511573	0.079991
752.707934	0.079782
752.904276	0.079610
753.100601	0.079806
753.296907	0.079687
753.493195	0.079501
753.689465	0.079337
753.885716	0.079298
754.081949	0.079086
754.278164	0.079035
754.474361	0.079171
754.670540	0.079018
754.866700	0.078923
755.062843	0.078898
755.258967	0.078870
755.455072	0.078949
755.651160	0.078770
755.847229	0.078885
756.043280	0.078843
756.239313	0.078963
756.435328	0.078847
756.631324	0.078923
756.827302	0.079098
757.023262	0.078816
757.219204	0.078834
757.415127	0.078898
757.611033	0.078653
757.806920	0.078698
758.002788	0.078390
758.198639	0.078446
758.394471	0.078266
758.590286	0.078179
758.786081	0.078279
758.981859	0.078424
759.177619	0.078245
759.373360	0.078235
759.569083	0.077892
759.764788	0.077961
759.960474	0.077937
760.156143	0.078018
760.351793	0.077803
760.547425	0.077835
760.743038	0.077553
760.938634	0.077475
761.134211	0.077608
761.329770	0.077810
761.525311	0.077812
761.720833	0.077938
761.916338	0.077883
762.111824	0.077879
762.307292	0.077917
762.502741	0.077966
762.698173	0.077979
762.893586	0.078072
763.088981	0.077812
763.284358	0.077932
763.479716	0.077962
763.675057	0.077940
763.870379	0.077871
764.065683	0.077708
764.260968	0.077708
764.456236	0.077631
764.651485	0.077635
764.846716	0.077993
765.041929	0.077882
765.237123	0.077753
765.432299	0.077670
765.627457	0.077770
765.822597	0.077865
766.017719	0.077923
766.212822	0.078142
766.407907	0.077931
766.602974	0.077776
766.798023	0.077585
766.993054	0.077475
767.188066	0.077407
767.383060	0.077336
767.578036	0.077326
767.772993	0.076971
767.967933	0.076847
768.162854	0.076888
768.357757	0.076821
768.552642	0.076826
768.747508	0.076738
768.942356	0.076843
769.137186	0.076795
769.331998	0.076681
769.526792	0.077023
769.721567	0.077122
769.916324	0.077032
770.111063	0.077196
770.305784	0.077300
770.500486	0.077430
770.695171	0.077442
770.889837	0.077440
771.084484	0.077419
771.279114	0.077443
771.473725	0.077494
771.668318	0.077535
771.862893	0.077366
772.057450	0.077235
772.251988	0.077193
772.446509	0.077327
772.641011	0.077559
772.835494	0.077556
773.029960	0.077803
773.224407	0.077677
773.418836	0.077621
773.613247	0.077783
773.807640	0.077833
774.002014	0.077815
774.196370	0.077711
774.390708	0.077383
774.585028	0.077577
774.779330	0.077076
774.973613	0.077208
775.167878	0.077106
775.362125	0.076989
775.556354	0.077036
775.750564	0.077124
775.944756	0.076989
776.138930	0.077290
776.333086	0.077157
776.527223	0.077240
776.721343	0.077117
776.915444	0.077194
777.109526	0.077560
777.303591	0.077869
777.497637	0.077880
777.691666	0.078067
777.885676	0.078025
778.079667	0.078142
778.273641	0.078401
778.467596	0.078529
778.661533	0.078694
778.855452	0.078281
779.049352	0.077883
779.243235	0.077790
779.437099	0.077841
779.630945	0.077928
779.824773	0.077881
780.018582	0.077751
780.212373	0.077758
780.406146	0.077841
780.599901	0.077999
780.793638	0.078131
780.987356	0.078222
781.181056	0.078335
781.374738	0.078180
781.568402	0.078190
781.762047	0.078240
781.955674	0.078505
782.149283	0.078549
782.342874	0.078525
782.536447	0.078645
782.730001	0.078984
782.923537	0.078764
783.117055	0.078935
783.310555	0.078916
783.504036	0.079021
783.697499	0.078824
783.890944	0.079037
784.084371	0.079237
784.277780	0.079012
784.471170	0.078826
784.664542	0.078819
784.857896	0.078636
785.051231	0.078968
785.244549	0.079106
785.437848	0.079194
785.631129	0.078858
785.824392	0.078889
786.017636	0.079251
786.210863	0.079249
786.404071	0.079605
786.597260	0.079697
786.790432	0.079554
786.983585	0.079455
787.176721	0.079575
787.369838	0.079814
787.562936	0.079898
787.756017	0.079838
787.949079	0.080063
788.142123	0.079964
788.335149	0.080170
788.528156	0.080143
788.721146	0.080308
788.914117	0.080406
789.107070	0.080345
789.300005	0.080366
789.492921	0.080322
789.685819	0.080240
789.878699	0.080179
790.071561	0.080191
790.264405	0.080354
790.457230	0.080480
790.650037	0.080377
790.842826	0.080428
791.035597	0.080313
791.228349	0.080322
791.421084	0.080242
791.613800	0.080279
791.806497	0.080274
791.999177	0.080284
792.191838	0.080112
792.384481	0.080121
792.577106	0.080130
792.769713	0.080314
792.962301	0.080442
793.154871	0.080740
793.347423	0.081011
793.539957	0.081144
793.732473	0.081319
793.924970	0.081486
794.117449	0.081518
794.309910	0.081660
794.502353	0.081773
794.694777	0.081798
794.887183	0.081347
795.079571	0.081365
795.271941	0.081189
795.464293	0.081012
795.656626	0.080829
795.848941	0.081136
796.041238	0.081195
796.233516	0.081310
796.425777	0.081411
796.618019	0.082071
796.810243	0.082223
797.002449	0.082497
797.194636	0.082738
797.386805	0.083036
797.578956	0.082854
797.771089	0.083123
797.963204	0.083177
798.155300	0.083171
798.347378	0.082962
798.539438	0.082927
798.731480	0.083065
798.923503	0.083088
799.115509	0.083219
799.307496	0.083286
799.499465	0.083394
799.691415	0.083403
799.883348	0.083737
800.075262	0.083918
800.267158	0.084167
800.459035	0.084142
800.650895	0.084375
800.842736	0.084424
801.034559	0.084745
801.226364	0.084655
801.418150	0.084627
801.609919	0.084693
801.801669	0.084777
801.993401	0.084543
802.185114	0.084787
802.376810	0.084868
802.568487	0.085074
802.760146	0.085057
802.951787	0.085182
803.143409	0.085462
803.335014	0.085413
803.526600	0.085664
803.718168	0.085989
803.909717	0.085895
804.101249	0.085816
804.292762	0.085836
804.484257	0.085907
804.675734	0.085732
804.867192	0.085752
805.058632	0.085830
805.250054	0.085596
805.441458	0.085526
805.632844	0.085695
805.824211	0.085955
806.015561	0.086128
806.206891	0.086216
806.398204	0.086536
806.589499	0.086525
806.780775	0.086788
806.972033	0.086919
807.163273	0.087025
807.354495	0.087013
807.545698	0.086988
807.736883	0.086842
807.928050	0.086861
808.119199	0.086944
808.310329	0.087082
808.501441	0.087049
808.692535	0.087393
808.883611	0.087413
809.074669	0.087726
809.265708	0.088066
809.456729	0.088037
809.647732	0.088111
809.838717	0.088207
810.029683	0.088415
810.220632	0.088459
810.411562	0.088427
810.602474	0.088773
810.793367	0.088813
810.984242	0.088667
811.175100	0.089220
811.365938	0.089249
811.556759	0.089222
811.747562	0.089301
811.938346	0.089653
812.129112	0.089751
812.319860	0.089738
812.510589	0.089984
812.701300	0.090119
812.891994	0.090024
813.082668	0.090221
813.273325	0.090292
813.463964	0.090253
813.654584	0.090307
813.845186	0.090452
814.035769	0.090305
814.226335	0.090006
814.416882	0.089869
814.607411	0.089928
814.797922	0.089765
814.988415	0.089775
815.178889	0.089916
815.369345	0.089979
815.559783	0.090021
815.750203	0.090278
815.940605	0.090419
816.130988	0.090721
816.321353	0.090591
816.511700	0.090632
816.702028	0.090664
816.892339	0.090613
817.082631	0.090245
817.272905	0.090087
817.463161	0.090000
817.653398	0.090172
817.843617	0.090209
818.033819	0.090237
818.224001	0.090516
818.414166	0.090718
818.604312	0.090770
818.794440	0.091091
818.984550	0.091364
819.174642	0.091538
819.364716	0.091544
819.554771	0.091708
819.744808	0.091918
819.934827	0.092145
820.124827	0.092212
820.314810	0.092202
820.504774	0.092363
820.694720	0.092488
820.884647	0.092538
821.074557	0.092659
821.264448	0.092862
821.454321	0.093069
821.644176	0.093214
821.834012	0.093481
822.023831	0.093596
822.213631	0.093686
822.403413	0.093909
822.593176	0.093962
822.782922	0.094022
822.972649	0.093784
823.162358	0.093756
823.352049	0.093766
823.541721	0.093728
823.731376	0.093734
823.921012	0.093805
824.110629	0.093624
824.300229	0.093707
824.489811	0.093828
824.679374	0.094123
824.868919	0.094155
825.058445	0.094013
825.247954	0.094187
825.437444	0.094246
825.626916	0.094416
825.816370	0.094776
826.005806	0.094677
826.195223	0.095042
826.384622	0.095125
826.574003	0.095460
826.763366	0.096063
826.952711	0.096116
827.142037	0.096630
827.331345	0.096568
827.520635	0.096658
827.709906	0.097030
827.899160	0.096938
828.088395	0.097094
828.277612	0.097055
828.466810	0.096891
828.655991	0.097143
828.845153	0.097075
829.034297	0.097224
829.223423	0.097170
829.412531	0.097460
829.601620	0.097596
829.790691	0.097578
829.979744	0.097834
830.168779	0.097924
830.357795	0.097960
830.546793	0.098193
830.735773	0.098465
830.924735	0.098514
831.113679	0.098585
831.302604	0.098474
831.491511	0.098521
831.680400	0.098445
831.869271	0.098334
832.058123	0.098209
832.246957	0.098296
832.435773	0.098190
832.624571	0.098216
832.813351	0.098130
833.002112	0.098094
833.190855	0.098063
833.379580	0.098302
833.568287	0.098363
833.756975	0.098812
833.945645	0.098852
834.134297	0.099137
834.322931	0.099439
834.511547	0.099483
834.700144	0.099804
834.888723	0.100075
835.077284	0.100351
835.265826	0.100412
835.454351	0.100283
835.642857	0.100392
835.831345	0.100386
836.019815	0.100528
836.208266	0.100997
836.396699	0.101438
836.585114	0.101573
836.773511	0.101558
836.961890	0.101988
837.150250	0.102134
837.338592	0.102536
837.526916	0.102873
837.715222	0.103214
837.903510	0.103172
838.091779	0.103364
838.280030	0.103272
838.468263	0.103242
838.656477	0.103456
838.844674	0.103755
839.032852	0.103793
839.221012	0.103713
839.409153	0.103452
839.597277	0.103460
839.785382	0.103210
839.973469	0.103456
840.161538	0.103594
840.349589	0.103489
840.537621	0.103473
840.725635	0.103333
840.913631	0.103177
841.101609	0.103467
841.289568	0.103564
841.477509	0.103747
841.665432	0.103801
841.853337	0.103939
842.041224	0.104053
842.229092	0.104262
842.416942	0.104393
842.604774	0.104892
842.792588	0.104951
842.980383	0.105083
843.168160	0.105141
843.355919	0.105307
843.543660	0.105478
843.731382	0.105575
843.919087	0.105480
844.106773	0.105481
844.294441	0.105542
844.482090	0.105620
844.669722	0.105733
844.857335	0.105953
845.044930	0.106229
845.232507	0.106253
845.420065	0.106399
845.607605	0.106795
845.795127	0.107071
845.982631	0.107082
846.170117	0.107162
846.357584	0.107355
846.545033	0.107465
846.732464	0.107642
846.919877	0.107718
847.107272	0.107987
847.294648	0.107950
847.482006	0.107967
847.669346	0.108090
847.856667	0.107940
848.043971	0.108258
848.231256	0.108457
848.418523	0.108668
848.605771	0.108671
848.793002	0.108872
848.980214	0.109108
849.167408	0.109583
849.354584	0.109759
849.541742	0.109957
849.728881	0.109898
849.916002	0.109834
850.103105	0.109916
850.290190	0.110473
850.477256	0.110500
850.664304	0.110403
850.851334	0.110399
851.038346	0.110660
851.225340	0.111102
851.412315	0.111180
851.599272	0.111452
851.786211	0.111339
851.973132	0.111320
852.160034	0.111409
852.346918	0.111880
852.533784	0.112037
852.720632	0.111981
852.907462	0.111890
853.094273	0.112066
853.281066	0.112095
853.467841	0.112294
853.654598	0.112401
853.841336	0.112520
854.028056	0.112616
854.214758	0.112630
854.401442	0.112984
854.588107	0.113258
854.774755	0.113224
854.961384	0.113322
855.147995	0.113491
855.334587	0.113542
855.521162	0.113782
855.707718	0.113795
855.894256	0.113882
856.080775	0.113900
856.267277	0.113766
856.453760	0.114165
856.640225	0.114499
856.826672	0.114542
857.013101	0.114579
857.199511	0.114823
857.385903	0.114768
857.572277	0.115030
857.758633	0.115296
857.944970	0.115630
858.131290	0.115917
858.317591	0.115877
858.503873	0.116063
858.690138	0.116221
858.876384	0.116250
859.062612	0.116493
859.248822	0.116573
859.435014	0.116674
859.621188	0.117173
859.807343	0.116949
859.993480	0.117028
860.179599	0.116952
860.365699	0.117279
860.551781	0.117263
860.737846	0.117542
860.923891	0.117482
861.109919	0.117506
861.295929	0.117346
861.481920	0.117534
861.667893	0.117650
861.853848	0.118064
862.039784	0.117972
862.225702	0.118449
862.411603	0.118069
862.597484	0.118379
862.783348	0.118404
862.969193	0.118437
863.155021	0.118614
863.340830	0.118767
863.526620	0.118605
863.712393	0.118654
863.898147	0.118078
864.083883	0.118374
864.269601	0.118435
864.455301	0.118214
864.640982	0.118228
864.826645	0.118254
865.012290	0.118093
865.197917	0.118368
865.383526	0.118460
865.569116	0.118998
865.754688	0.119236
865.940242	0.119361
866.125777	0.119827
866.311295	0.119964
866.496794	0.120421
866.682275	0.120683
866.867737	0.120895
867.053182	0.121134
867.238608	0.121080
867.424016	0.121156
867.609406	0.120959
867.794778	0.121175
867.980131	0.121448
868.165466	0.121202
868.350783	0.121538
868.536082	0.121321
868.721362	0.121223
868.906625	0.121223
869.091869	0.121228
869.277094	0.121474
869.462302	0.121106
869.647491	0.120972
869.832662	0.121165
870.017815	0.121208
870.202950	0.121234
870.388066	0.121492
870.573165	0.121484
870.758245	0.121481
870.943306	0.121865
871.128350	0.122480
871.313375	0.122410
871.498382	0.122331
871.683371	0.122252
871.868342	0.122598
872.053294	0.122730
872.238229	0.123261
872.423144	0.123383
872.608042	0.123178
872.792922	0.122804
872.977783	0.123103
873.162626	0.123183
873.347451	0.123207
873.532258	0.123314
873.717046	0.123482
873.901816	0.123259
874.086568	0.123522
874.271302	0.123761
874.456017	0.123855
874.640715	0.123964
874.825394	0.124214
875.010055	0.124334
875.194697	0.124188
875.379322	0.124215
875.563928	0.124108
875.748516	0.124323
875.933085	0.124400
876.117637	0.124688
876.302170	0.124590
876.486685	0.124232
876.671182	0.123927
876.855661	0.124196
877.040121	0.124218
877.224563	0.124259
877.408987	0.124150
877.593393	0.123821
877.777780	0.123775
877.962150	0.123596
878.146501	0.123782
878.330833	0.124030
878.515148	0.124266
878.699444	0.124167
878.883722	0.124357
879.067982	0.124396
879.252224	0.124866
879.436447	0.125211
879.620653	0.125570
879.804840	0.125857
879.989008	0.126164
880.173159	0.126018
880.357291	0.126128
880.541405	0.126258
880.725501	0.126253
880.909579	0.126129
881.093638	0.125937
881.277680	0.126008
881.461703	0.126046
881.645707	0.125941
881.829694	0.126038
882.013662	0.126088
882.197612	0.126068
882.381544	0.125883
882.565458	0.125908
882.749353	0.126018
882.933230	0.125912
883.117089	0.125546
883.300930	0.125375
883.484753	0.125183
883.668557	0.125241
883.852343	0.125483
884.036111	0.125924
884.219861	0.125813
884.403592	0.125697
884.587305	0.125755
884.771000	0.125962
884.954677	0.126263
885.138335	0.126410
885.321976	0.126367
885.505598	0.126227
885.689201	0.125948
885.872787	0.125790
886.056354	0.125650
886.239904	0.125368
886.423434	0.125188
886.606947	0.124860
886.790442	0.124635
886.973918	0.124458
887.157376	0.124499
887.340816	0.124857
887.524237	0.125242
887.707641	0.125565
887.891026	0.125800
888.074393	0.126212
888.257741	0.126598
888.441072	0.126532
888.624384	0.126506
888.807678	0.126643
888.990954	0.126364
889.174211	0.126133
889.357451	0.126021
889.540672	0.126033
889.723875	0.125936
889.907059	0.125725
890.090226	0.126106
890.273374	0.126260
890.456504	0.125996
890.639616	0.125956
890.822709	0.126074
891.005785	0.126019
891.188842	0.126136
891.371881	0.126115
891.554901	0.126301
891.737904	0.126104
891.920888	0.126179
892.103854	0.126049
892.286802	0.125961
892.469731	0.126039
892.652643	0.126033
892.835536	0.125970
893.018410	0.125845
893.201267	0.125507
893.384106	0.125660
893.566926	0.125508
893.749728	0.125677
893.932511	0.125835
894.115277	0.125371
894.298024	0.124975
894.480753	0.124828
894.663464	0.125117
894.846157	0.125505
895.028831	0.125258
895.211487	0.125014
895.394125	0.124644
895.576745	0.124188
895.759346	0.124053
895.941930	0.124469
896.124495	0.124385
896.307041	0.123490
896.489570	0.122966
896.672080	0.122989
896.854573	0.123356
897.037046	0.123417
897.219502	0.123614
897.401940	0.123965
897.584359	0.123485
897.766760	0.123487
897.949143	0.124130
898.131507	0.124376
898.313854	0.124156
898.496182	0.123891
898.678492	0.124072
898.860783	0.123885
899.043057	0.123510
899.225312	0.123718
899.407549	0.123830
899.589768	0.123550
899.771968	0.123561
899.954151	0.123565
900.136315	0.123565
900.318461	0.123376
900.500588	0.123346
900.682698	0.123715
900.864789	0.123412
901.046862	0.123527
901.228917	0.123459
901.410953	0.123333
901.592971	0.123551
901.774972	0.123014
901.956953	0.122711
902.138917	0.122845
902.320862	0.122650
902.502790	0.122496
902.684699	0.122285
902.866589	0.122387
903.048462	0.122364
903.230316	0.122044
903.412152	0.122311
903.593970	0.122273
903.775770	0.122043
903.957551	0.121783
904.139314	0.121912
904.321059	0.121764
904.502786	0.121426
904.684494	0.121147
904.866185	0.120806
905.047857	0.120521
905.229510	0.120563
905.411146	0.120514
905.592763	0.120485
905.774363	0.120314
905.955943	0.120087
906.137506	0.120074
906.319051	0.120202
906.500577	0.120370
906.682085	0.120456
906.863575	0.119689
907.045046	0.119304
907.226500	0.119098
907.407935	0.118606
907.589352	0.118186
907.770750	0.117777
907.952131	0.117459
908.133493	0.117259
908.314837	0.116671
908.496163	0.117156
908.677470	0.116735
908.858760	0.116597
909.040031	0.116909
909.221284	0.116953
909.402518	0.117202
909.583735	0.116909
909.764933	0.117048
909.946113	0.117169
910.127275	0.116819
910.308418	0.117122
910.489544	0.116713
910.670651	0.116559
910.851740	0.116544
911.032810	0.116045
911.213863	0.115576
911.394897	0.115063
911.575913	0.114744
911.756911	0.114741
911.937890	0.114550
912.118851	0.114776
912.299794	0.114621
912.480719	0.114278
912.661626	0.114634
912.842514	0.114592
913.023384	0.114386
913.204236	0.114274
913.385070	0.114309
913.565886	0.114143
913.746683	0.113875
913.927462	0.113909
914.108223	0.113753
914.288965	0.113646
914.469690	0.113308
914.650396	0.112556
914.831084	0.112412
915.011754	0.111746
915.192405	0.111570
915.373038	0.111379
915.553653	0.110908
915.734250	0.110829
915.914829	0.109917
916.095389	0.109534
916.275931	0.109217
916.456455	0.109337
916.636961	0.109413
916.817448	0.108942
916.997917	0.108744
917.178368	0.108414
917.358801	0.108309
917.539216	0.108524
917.719612	0.109184
917.899990	0.109280
918.080350	0.108503
918.260692	0.108020
918.441015	0.108171
918.621320	0.107894
918.801607	0.107929
918.981876	0.107403
919.162127	0.106705
919.342359	0.106061
919.522573	0.106071
919.702769	0.105381
919.882947	0.105345
920.063106	0.104868
920.243247	0.104742
920.423370	0.104340
920.603475	0.103721
920.783562	0.103222
920.963630	0.102975
921.143680	0.102567
921.323712	0.103102
921.503725	0.103247
921.683721	0.103322
921.863698	0.102857
922.043657	0.103027
922.223598	0.102793
922.403520	0.102418
922.583424	0.102359
922.763311	0.102219
922.943178	0.101384
923.123028	0.100666
923.302859	0.100232
923.482673	0.099927
923.662467	0.098677
923.842244	0.098768
924.022003	0.099170
924.201743	0.098811
924.381465	0.098426
924.561169	0.098453
924.740854	0.098090
924.920522	0.097050
925.100171	0.097028
925.279802	0.096897
925.459414	0.096778
925.639009	0.096374
925.818585	0.095503
925.998143	0.095043
926.177683	0.095045
926.357205	0.094712
926.536708	0.094327
926.716193	0.093593
926.895660	0.093295
927.075109	0.092134
927.254539	0.091956
927.433951	0.091469
927.613345	0.091217
927.792721	0.090551
927.972079	0.089973
928.151418	0.090560
928.330739	0.089713
928.510042	0.090060
928.689327	0.090610
928.868593	0.089987
929.047841	0.090390
929.227071	0.090532
929.406283	0.089802
929.585476	0.089765
929.764652	0.089133
929.943809	0.089750
930.122948	0.088558
930.302068	0.088440
930.481171	0.088056
930.660255	0.087485
930.839321	0.086564
931.018369	0.087401
931.197398	0.086858
931.376409	0.086134
931.555402	0.085206
931.734377	0.084995
931.913334	0.083844
932.092272	0.083421
932.271192	0.083104
932.450094	0.083143
932.628978	0.081883
932.807844	0.081587
932.986691	0.080837
933.165520	0.080789
933.344331	0.081022
933.523123	0.080811
933.701898	0.080422
933.880654	0.079889
934.059392	0.078761
934.238111	0.078036
934.416813	0.077976
934.595496	0.078110
934.774161	0.077453
934.952808	0.076974
935.131437	0.076457
935.310047	0.075797
935.488639	0.075457
935.667213	0.075558
935.845769	0.076320
936.024306	0.075463
936.202825	0.075221
936.381326	0.075338
936.559809	0.074736
936.738274	0.074688
936.916720	0.074642
937.095148	0.074690
937.273558	0.074627
937.451950	0.073698
937.630323	0.073358
937.808678	0.072629
937.987015	0.071874
938.165334	0.071554
938.343635	0.071376
938.521917	0.070913
938.700181	0.070131
938.878427	0.069626
939.056655	0.068911
939.234864	0.069208
939.413055	0.068495
939.591228	0.068442
939.769383	0.068505
939.947519	0.067293
940.125638	0.066359
940.303738	0.065583
940.481820	0.064980
940.659883	0.065910
940.837929	0.065095
941.015956	0.065997
941.193965	0.065582
941.371955	0.063728
941.549928	0.063810
941.727882	0.064350
941.905818	0.063870
942.083736	0.063977
942.261636	0.062530
942.439517	0.062052
942.617380	0.061531
942.795225	0.061818
942.973052	0.061518
943.150860	0.061440
943.328651	0.060581
943.506423	0.061304
943.684176	0.060701
943.861912	0.060752
944.039629	0.059788
944.217328	0.060244
944.395009	0.058869
944.572672	0.059677
944.750317	0.059529
944.927943	0.059571
945.105551	0.058554
945.283141	0.057391
945.460712	0.056381
945.638265	0.055155
945.815801	0.053898
945.993317	0.054772
946.170816	0.054310
946.348297	0.052976
946.525759	0.053579
946.703203	0.052096
946.880629	0.052879
947.058036	0.053742
947.235425	0.055434
947.412797	0.053507
947.590149	0.051461
947.767484	0.051559
947.944800	0.050784
948.122099	0.048630
948.299379	0.049409
948.476640	0.048503
948.653884	0.047412
948.831109	0.046155
949.008316	0.047188
949.185505	0.047709
949.362676	0.048094
949.539828	0.048017
949.716962	0.047783
949.894078	0.047122
950.071176	0.047172
950.248256	0.045700
950.425317	0.044988
950.602360	0.044447
950.779385	0.043088
950.956391	0.040907
951.133380	0.040443
951.310350	0.041475
951.487302	0.041826
951.664235	0.040540
951.841151	0.039715
952.018048	0.040419
952.194927	0.040279
952.371788	0.041198
952.548631	0.040310
952.725455	0.040362
952.902261	0.038939
953.079049	0.037542
953.255819	0.038373
953.432570	0.039168
953.609303	0.038091
953.786018	0.037292
953.962715	0.035767
954.139394	0.035871
954.316054	0.035513
954.492696	0.034928
954.669320	0.035277
954.845926	0.034701
955.022513	0.035890
955.199083	0.036289
955.375634	0.037053
955.552166	0.037434
955.728681	0.038001
955.905177	0.038788
956.081655	0.038774
956.258115	0.038429
956.434557	0.037958
956.610980	0.038117
956.787385	0.037714
956.963772	0.035809
957.140141	0.036253
957.316492	0.035407
957.492824	0.034565
957.669138	0.034652
957.845434	0.034260
958.021712	0.033298
958.197971	0.029727
958.374212	0.030009
958.550435	0.030881
958.726640	0.030215
958.902826	0.031754
959.078995	0.032432
959.255145	0.031532
959.431277	0.029574
959.607390	0.030175
959.783486	0.031004
959.959563	0.030966
960.135622	0.030910
960.311662	0.031221
960.487685	0.030013
960.663689	0.031451
960.839675	0.031413
961.015643	0.034142
961.191593	0.034470
961.367524	0.036823
961.543437	0.038076
961.719332	0.037536
961.895209	0.035916
962.071067	0.035118
962.246907	0.032093
962.422730	0.032443
962.598533	0.031776
962.774319	0.031025
962.950086	0.028756
963.125835	0.025813
963.301566	0.026575
963.477279	0.027029
963.652973	0.027630
963.828650	0.029476
964.004308	0.029378
964.179947	0.030226
964.355569	0.030693
964.531172	0.030540
964.706757	0.032340
964.882324	0.032750
965.057873	0.032601
965.233403	0.032082
965.408916	0.031381
965.584410	0.032245
965.759885	0.031671
965.935343	0.032667
966.110782	0.032529
966.286203	0.031636
966.461606	0.031372
966.636991	0.030116
966.812357	0.030255
966.987705	0.029635
967.163035	0.029662
967.338347	0.029900
967.513641	0.026772
967.688916	0.025737
967.864173	0.027071
968.039412	0.027667
968.214632	0.030367
968.389835	0.030726
968.565019	0.030817
968.740185	0.030292
968.915333	0.030959
969.090462	0.033130
969.265573	0.035864
969.440667	0.034448
969.615741	0.033390
969.790798	0.031962
969.965836	0.033684
970.140856	0.035189
970.315858	0.036982
970.490842	0.035489
970.665808	0.035128
970.840755	0.034564
971.015684	0.036156
971.190595	0.036066
971.365487	0.035104
971.540362	0.034695
971.715218	0.033928
971.890056	0.033855
972.064875	0.035455
972.239677	0.035684
972.414460	0.034552
972.589225	0.033658
972.763972	0.032895
972.938700	0.034558
973.113411	0.032165
973.288103	0.032760
973.462777	0.030476
973.637432	0.028576
973.812070	0.027641
973.986689	0.027647
974.161290	0.028119
974.335873	0.029448
974.510437	0.029895
974.684984	0.031068
974.859512	0.029005
975.034022	0.028715
975.208513	0.030462
975.382987	0.030765
975.557442	0.031486
975.731879	0.028899
975.906298	0.028938
976.080698	0.028545
976.255080	0.029983
976.429445	0.030981
976.603790	0.032936
976.778118	0.031307
976.952427	0.033970
977.126719	0.035998
977.300992	0.039316
977.475246	0.039806
977.649483	0.040726
977.823701	0.037065
977.997901	0.037317
978.172083	0.035302
978.346247	0.037005
978.520392	0.034376
978.694519	0.032619
978.868628	0.032372
979.042719	0.032170
979.216791	0.031624
979.390845	0.032636
979.564882	0.032125
979.738899	0.035354
979.912899	0.034915
980.086880	0.037726
980.260843	0.036928
980.434788	0.037341
980.608715	0.036803
980.782623	0.034912
980.956514	0.033461
981.130386	0.034810
981.304240	0.032373
981.478075	0.031990
981.651892	0.029999
981.825692	0.031525
981.999472	0.032475
982.173235	0.030743
982.346980	0.032898
982.520706	0.035542
982.694414	0.035446
982.868104	0.037626
983.041775	0.037668
983.215428	0.036835
983.389064	0.036510
983.562680	0.032613
983.736279	0.034573
983.909860	0.033769
984.083422	0.033350
984.256966	0.031140
984.430491	0.028605
984.603999	0.027918
984.777488	0.027973
984.950959	0.028709
985.124412	0.029412
985.297847	0.028501
985.471263	0.030103
985.644661	0.032177
985.818041	0.034582
985.991403	0.036030
986.164747	0.036451
986.338072	0.037000
986.511379	0.037065
986.684668	0.035723
986.857938	0.038391
987.031191	0.036269
987.204425	0.035080
987.377641	0.035241
987.550839	0.034321
987.724018	0.034031
987.897179	0.034789
988.070322	0.033085
988.243447	0.035606
988.416554	0.032782
988.589642	0.032856
988.762712	0.032709
988.935764	0.032467
989.108798	0.032863
989.281813	0.034614
989.454811	0.035214
989.627790	0.036877
989.800751	0.035466
989.973693	0.038627
990.146617	0.038913
990.319524	0.037994
990.492412	0.038793
990.665281	0.039535
990.838133	0.037519
991.010966	0.034813
991.183781	0.034046
991.356578	0.034649
991.529356	0.034138
991.702117	0.033943
991.874859	0.035130
992.047583	0.032550
992.220288	0.031496
992.392976	0.032017
992.565645	0.034726
992.738296	0.033921
992.910929	0.033916
993.083543	0.031332
993.256139	0.033039
993.428718	0.031087
993.601277	0.033271
993.773819	0.033963
993.946342	0.032730
994.118848	0.031470
994.291335	0.032313
994.463803	0.031090
994.636254	0.031360
994.808686	0.030271
994.981100	0.030601
995.153496	0.029012
995.325874	0.029512
995.498233	0.031161
995.670574	0.031371
995.842897	0.031209
996.015202	0.031678
996.187488	0.031483
996.359757	0.030248
996.532007	0.030806
996.704239	0.032789
996.876452	0.033921
997.048648	0.033339
997.220825	0.032702
997.392984	0.033109
997.565124	0.034707
997.737247	0.036476
997.909351	0.035645
998.081437	0.037055
998.253505	0.035256
998.425554	0.033774
998.597586	0.034192
998.769599	0.034780
998.941594	0.033715
999.113571	0.034387
999.285529	0.032082
999.457469	0.034805
999.629391	0.034448
999.801295	0.036042
999.973181	0.034818
1000.145048	0.036206
1000.316897	0.036550
1000.488728	0.038364
1000.660541	0.040718
1000.832335	0.042302
1001.004111	0.042966
1001.175869	0.042172
1001.347609	0.041196
1001.519331	0.042216
1001.691034	0.041356
1001.862719	0.042266
1002.034386	0.041199
1002.206035	0.038643
1002.377665	0.038385
1002.549277	0.036108
1002.720871	0.036354
1002.892447	0.036229
1003.064004	0.036419
1003.235544	0.036348
1003.407065	0.035632
1003.578568	0.034734
1003.750052	0.033910
1003.921519	0.033510
1004.092967	0.034462
1004.264397	0.034248
1004.435809	0.032743
1004.607202	0.032590
1004.778577	0.033027
1004.949934	0.031126
1005.121273	0.031820
1005.292594	0.030213
1005.463896	0.031225
1005.635180	0.029002
1005.806446	0.028012
1005.977694	0.030417
1006.148923	0.031152
1006.320135	0.030103
1006.491328	0.031634
1006.662503	0.031630
1006.833659	0.034451
1007.004798	0.033839
1007.175918	0.036491
1007.347020	0.039518
1007.518103	0.039418
1007.689169	0.038395
1007.860216	0.039758
1008.031245	0.040333
1008.202256	0.039728
1008.373248	0.038706
1008.544223	0.037791
1008.715179	0.037356
1008.886117	0.034783
1009.057036	0.034562
1009.227938	0.034600
1009.398821	0.035067
1009.569686	0.034111
1009.740533	0.035041
1009.911361	0.034708
1010.082172	0.034225
1010.252964	0.033738
1010.423738	0.035053
1010.594493	0.034709
1010.765231	0.033810
1010.935950	0.031956
1011.106651	0.032499
1011.277334	0.032721
1011.447998	0.032927
1011.618645	0.034603
1011.789273	0.034337
1011.959882	0.032237
1012.130474	0.033411
1012.301048	0.034530
1012.471603	0.034440
1012.642140	0.034073
1012.812658	0.032242
1012.983159	0.033266
1013.153641	0.032568
1013.324105	0.031918
1013.494551	0.032073
1013.664979	0.031185
1013.835388	0.030805
1014.005779	0.031033
1014.176152	0.028487
1014.346507	0.030692
1014.516843	0.031577
1014.687162	0.033054
1014.857462	0.034601
1015.027744	0.034916
1015.198007	0.035660
1015.368252	0.034513
1015.538480	0.034928
1015.708689	0.037893
1015.878879	0.037121
1016.049052	0.036130
1016.219206	0.036999
1016.389342	0.036614
1016.559460	0.037482
1016.729559	0.036675
1016.899641	0.039539
1017.069704	0.039493
1017.239749	0.039051
1017.409775	0.040946
1017.579784	0.039814
1017.749774	0.039203
1017.919746	0.037662
1018.089700	0.037867
1018.259635	0.036693
1018.429553	0.035998
1018.599452	0.037460
1018.769333	0.038340
1018.939195	0.036209
1019.109040	0.037841
1019.278866	0.035343
1019.448674	0.037558
1019.618464	0.038499
1019.788235	0.039645
1019.957989	0.038870
1020.127724	0.037169
1020.297441	0.036202
1020.467139	0.037139
1020.636820	0.035352
1020.806482	0.034936
1020.976126	0.033364
1021.145752	0.032477
1021.315359	0.033503
1021.484948	0.034336
1021.654519	0.036575
1021.824072	0.036208
1021.993607	0.034552
1022.163123	0.036639
1022.332621	0.039876
1022.502101	0.041846
1022.671563	0.040436
1022.841007	0.038245
1023.010432	0.038405
1023.179839	0.035056
1023.349228	0.035196
1023.518598	0.035161
1023.687951	0.034058
1023.857285	0.031858
1024.026601	0.031601
1024.195899	0.033385
1024.365178	0.033069
1024.534439	0.032541
1024.703682	0.034653
1024.872907	0.035575
1025.042114	0.036715
1025.211302	0.035681
1025.380472	0.036895
1025.549624	0.036146
1025.718758	0.035913
1025.887873	0.037457
1026.056970	0.036570
1026.226049	0.036825
1026.395110	0.038823
1026.564153	0.039203
1026.733177	0.041220
1026.902183	0.039605
1027.071171	0.041488
1027.240141	0.041192
1027.409092	0.041279
1027.578026	0.040337
1027.746940	0.037990
1027.915837	0.036404
1028.084716	0.036122
1028.253576	0.034477
1028.422418	0.034861
1028.591242	0.032616
1028.760048	0.032642
1028.928835	0.032391
1029.097604	0.034940
1029.266355	0.036379
1029.435088	0.035809
1029.603803	0.036628
1029.772499	0.037252
1029.941177	0.038986
1030.109837	0.040317
1030.278478	0.040873
1030.447102	0.039254
1030.615707	0.037906
1030.784294	0.038018
1030.952863	0.038492
1031.121413	0.038606
1031.289945	0.037710
1031.458460	0.035873
1031.626955	0.034468
1031.795433	0.034396
1031.963892	0.035276
1032.132334	0.036307
1032.300756	0.036950
1032.469161	0.037320
1032.637548	0.037275
1032.805916	0.037097
1032.974266	0.039688
1033.142598	0.041751
1033.310911	0.040869
1033.479207	0.042432
1033.647484	0.041580
1033.815743	0.039698
1033.983983	0.037984
1034.152206	0.037281
1034.320410	0.036996
1034.488596	0.036425
1034.656764	0.036200
1034.824914	0.035851
1034.993045	0.035586
1035.161158	0.035583
1035.329253	0.036262
1035.497330	0.036609
1035.665388	0.037429
1035.833428	0.037471
1036.001450	0.034856
1036.169454	0.034676
1036.337440	0.036322
1036.505407	0.036737
1036.673356	0.036001
1036.841287	0.037566
1037.009200	0.039370
1037.177094	0.038030
1037.344970	0.037768
1037.512828	0.037898
1037.680668	0.037229
1037.848489	0.037850
1038.016293	0.034969
1038.184078	0.037325
1038.351845	0.035992
1038.519593	0.034444
1038.687324	0.034853
1038.855036	0.036100
1039.022730	0.037950
1039.190406	0.037855
1039.358063	0.036609
1039.525702	0.039440
1039.693323	0.038018
1039.860926	0.037409
1040.028511	0.035702
1040.196077	0.034384
1040.363625	0.035678
1040.531155	0.035841
1040.698667	0.035538
1040.866161	0.036707
1041.033636	0.034760
1041.201093	0.035261
1041.368532	0.037790
1041.535952	0.039818
1041.703355	0.038637
1041.870739	0.038216
1042.038105	0.035841
1042.205452	0.037574
1042.372782	0.035689
1042.540093	0.036078
1042.707386	0.034580
1042.874661	0.032164
1043.041918	0.030854
1043.209156	0.033762
1043.376376	0.033159
1043.543578	0.034638
1043.710762	0.033017
1043.877927	0.033348
1044.045074	0.033513
1044.212203	0.035172
1044.379314	0.035506
1044.546407	0.036800
1044.713481	0.037258
1044.880537	0.036079
1045.047575	0.035885
1045.214595	0.036712
1045.381596	0.038617
1045.548579	0.038878
1045.715544	0.037742
1045.882491	0.037402
1046.049420	0.037352
1046.216330	0.035922
1046.383222	0.036245
1046.550096	0.036723
1046.716951	0.036282
1046.883789	0.035493
1047.050608	0.036505
1047.217409	0.037562
1047.384192	0.038879
1047.550956	0.038856
1047.717703	0.038963
1047.884431	0.039674
1048.051140	0.039733
1048.217832	0.038758
1048.384505	0.037688
1048.551161	0.037511
1048.717798	0.036129
1048.884416	0.035065
1049.051017	0.034855
1049.217599	0.036537
1049.384163	0.036037
1049.550709	0.034776
1049.717237	0.034938
1049.883746	0.034656
1050.050237	0.033863
1050.216710	0.033593
1050.383165	0.035035
1050.549601	0.036799
1050.716019	0.035367
1050.882420	0.036564
1051.048801	0.035982
1051.215165	0.037330
1051.381510	0.039488
1051.547837	0.038525
1051.714146	0.038283
1051.880437	0.037627
1052.046709	0.035722
1052.212964	0.035698
1052.379200	0.035450
1052.545417	0.037244
1052.711617	0.035998
1052.877798	0.034368
1053.043961	0.034412
1053.210106	0.036392
1053.376233	0.036289
1053.542341	0.036189
1053.708432	0.035995
1053.874504	0.033992
1054.040557	0.033044
1054.206593	0.031868
1054.372610	0.030879
1054.538609	0.030123
1054.704590	0.030576
1054.870553	0.031266
1055.036497	0.031463
1055.202424	0.031948
1055.368331	0.035241
1055.534221	0.036417
1055.700093	0.037043
1055.865946	0.039417
1056.031781	0.042558
1056.197598	0.039863
1056.363397	0.039323
1056.529177	0.040095
1056.694939	0.039625
1056.860683	0.037560
1057.026409	0.038172
1057.192116	0.038447
1057.357806	0.037887
1057.523477	0.036365
1057.689130	0.038196
1057.854764	0.036670
1058.020381	0.036324
1058.185979	0.036109
1058.351559	0.036167
1058.517120	0.036348
1058.682664	0.035450
1058.848189	0.035746
1059.013696	0.036177
1059.179185	0.034548
1059.344656	0.035219
1059.510108	0.033915
1059.675542	0.036824
1059.840958	0.035558
1060.006356	0.034424
1060.171735	0.037040
1060.337096	0.035799
1060.502439	0.034775
1060.667764	0.037484
1060.833071	0.037385
1060.998359	0.036432
1061.163629	0.035182
1061.328881	0.035578
1061.494115	0.034575
1061.659330	0.032955
1061.824527	0.032433
1061.989706	0.033791
1062.154867	0.031496
1062.320010	0.030091
1062.485134	0.031884
1062.650240	0.030860
1062.815328	0.032231
1062.980398	0.033145
1063.145449	0.032390
1063.310482	0.033281
1063.475497	0.031257
1063.640494	0.032274
1063.805473	0.034515
1063.970433	0.036303
1064.135375	0.036691
1064.300299	0.036981
1064.465204	0.036651
1064.630092	0.036987
1064.794961	0.038208
1064.959812	0.039882
1065.124645	0.038676
1065.289459	0.039823
1065.454256	0.039361
1065.619034	0.038523
1065.783793	0.037339
1065.948535	0.036842
1066.113258	0.037618
1066.277964	0.035698
1066.442651	0.036871
1066.607319	0.037913
1066.771970	0.036801
1066.936602	0.037251
1067.101216	0.036729
1067.265812	0.037070
1067.430389	0.039653
1067.594949	0.040740
1067.759490	0.041399
1067.924013	0.039468
1068.088518	0.040680
1068.253004	0.041018
1068.417472	0.039575
1068.581922	0.041169
1068.746354	0.041861
1068.910768	0.040130
1069.075163	0.037717
1069.239540	0.035829
1069.403899	0.037638
1069.568240	0.035170
1069.732562	0.032189
1069.896866	0.034507
1070.061152	0.035163
1070.225420	0.033334
1070.389670	0.034226
1070.553901	0.036013
1070.718114	0.038036
1070.882309	0.035994
1071.046486	0.036357
1071.210644	0.039513
1071.374784	0.038478
1071.538906	0.037224
1071.703010	0.039959
1071.867096	0.039505
1072.031163	0.038958
1072.195212	0.037715
1072.359243	0.038633
1072.523256	0.039793
1072.687250	0.039626
1072.851226	0.036146
1073.015184	0.034646
1073.179124	0.034755
1073.343045	0.035044
1073.506949	0.034927
1073.670834	0.034358
1073.834701	0.032781
1073.998549	0.032622
1074.162380	0.031972
1074.326192	0.034009
1074.489986	0.034402
1074.653761	0.032401
1074.817519	0.031932
1074.981258	0.033971
1075.144979	0.036193
1075.308682	0.037004
1075.472367	0.036746
1075.636033	0.036541
1075.799681	0.036856
1075.963311	0.039298
1076.126923	0.038841
1076.290516	0.039212
1076.454092	0.036054
1076.617649	0.033457
1076.781187	0.033513
1076.944708	0.034688
1077.108210	0.036806
1077.271695	0.037118
1077.435160	0.035874
1077.598608	0.037988
1077.762038	0.036070
1077.925449	0.040647
1078.088842	0.042294
1078.252217	0.044012
1078.415573	0.044320
1078.578912	0.042239
1078.742232	0.042626
1078.905534	0.042579
1079.068817	0.041082
1079.232083	0.045301
1079.395330	0.041865
1079.558559	0.044253
1079.721770	0.042650
1079.884962	0.041724
1080.048136	0.044406
1080.211293	0.044466
1080.374430	0.047571
1080.537550	0.048262
1080.700651	0.045534
1080.863735	0.046512
1081.026800	0.044168
1081.189846	0.044384
1081.352875	0.047305
1081.515885	0.046091
1081.678877	0.044852
1081.841851	0.041062
1082.004807	0.041033
1082.167744	0.042093
1082.330663	0.040995
1082.493564	0.040994
1082.656447	0.041350
1082.819312	0.038300
1082.982158	0.038723
1083.144986	0.040015
1083.307796	0.041309
1083.470587	0.041876
1083.633361	0.041151
1083.796116	0.042587
1083.958853	0.045005
1084.121571	0.045162
1084.284272	0.045031
1084.446954	0.041756
1084.609618	0.041977
1084.772264	0.041688
1084.934892	0.040775
1085.097501	0.040090
1085.260092	0.037966
1085.422665	0.035638
1085.585220	0.036649
1085.747756	0.037650
1085.910274	0.039440
1086.072774	0.038300
1086.235256	0.036568
1086.397720	0.037129
1086.560165	0.038325
1086.722592	0.040036
1086.885001	0.040051
1087.047392	0.038866
1087.209764	0.038503
1087.372119	0.040211
1087.534455	0.041399
1087.696772	0.044853
1087.859072	0.042824
1088.021353	0.041355
1088.183616	0.041783
1088.345861	0.042768
1088.508088	0.043014
1088.670296	0.041977
1088.832486	0.042113
1088.994658	0.040287
1089.156812	0.038904
1089.318948	0.040141
1089.481065	0.040030
1089.643164	0.040765
1089.805245	0.040558
1089.967308	0.039996
1090.129352	0.042125
1090.291378	0.039716
1090.453386	0.039635
1090.615376	0.038191
1090.777347	0.037552
1090.939301	0.040108
1091.101236	0.038294
1091.263153	0.037829
1091.425051	0.038049
1091.586932	0.038382
1091.748794	0.040532
1091.910638	0.040787
1092.072463	0.041988
1092.234271	0.041739
1092.396060	0.041640
1092.557831	0.039517
1092.719584	0.039036
1092.881319	0.041663
1093.043035	0.040119
1093.204733	0.039552
1093.366413	0.039682
1093.528075	0.038525
1093.689718	0.039642
1093.851343	0.039011
1094.012950	0.041413
1094.174539	0.043151
1094.336110	0.039628
1094.497662	0.040055
1094.659196	0.041141
1094.820712	0.041971
1094.982210	0.045284
1095.143689	0.047185
1095.305151	0.045831
1095.466594	0.048253
1095.628018	0.046950
1095.789425	0.048024
1095.950813	0.044363
1096.112183	0.040993
1096.273535	0.042750
1096.434869	0.041016
1096.596184	0.037009
1096.757482	0.036522
1096.918761	0.032035
1097.080021	0.030632
1097.241264	0.030975
1097.402488	0.031784
1097.563694	0.032251
1097.724882	0.028840
1097.886052	0.031062
1098.047203	0.035607
1098.208336	0.033050
1098.369451	0.039236
1098.530548	0.040677
1098.691627	0.038131
1098.852687	0.039459
1099.013729	0.036496
1099.174753	0.040135
1099.335758	0.036253
1099.496746	0.035947
1099.657715	0.041469
1099.818666	0.038901
1099.979599	0.039614
1100.140513	0.040141
1100.301409	0.040507
1100.462287	0.046213
1100.623147	0.042611
1100.783989	0.044236
1100.944812	0.039367
1101.105617	0.037198
1101.266404	0.035684
1101.427173	0.037300
1101.587923	0.040813
1101.748656	0.040836
1101.909370	0.037777
1102.070066	0.039972
1102.230743	0.039627
1102.391403	0.042680
1102.552044	0.047583
1102.712667	0.046158
1102.873271	0.047765
1103.033858	0.046556
1103.194426	0.046483
1103.354976	0.044926
1103.515508	0.046035
1103.676021	0.047351
1103.836517	0.050424
1103.996994	0.043547
1104.157453	0.048877
1104.317893	0.046326
1104.478316	0.048849
1104.638720	0.050365
1104.799106	0.050303
1104.959474	0.045216
1105.119823	0.041550
1105.280155	0.040367
1105.440468	0.043177
1105.600763	0.041732
1105.761039	0.042219
1105.921298	0.039701
1106.081538	0.041744
1106.241760	0.047569
1106.401964	0.052642
1106.562149	0.054495
1106.722316	0.051138
1106.882465	0.051953
1107.042596	0.053222
1107.202709	0.051839
1107.362803	0.053317
1107.522879	0.050437
1107.682937	0.050640
1107.842977	0.048095
1108.002999	0.047270
1108.163002	0.047225
1108.322987	0.045850
1108.482954	0.044604
1108.642902	0.042974
1108.802833	0.043988
1108.962745	0.044766
1109.122639	0.042040
1109.282515	0.043250
1109.442372	0.042625
1109.602211	0.043767
1109.762032	0.044037
1109.921835	0.040454
1110.081620	0.042766
1110.241386	0.040332
1110.401134	0.036534
1110.560864	0.037126
1110.720576	0.035006
1110.880269	0.037660
1111.039945	0.040745
1111.199602	0.043541
1111.359240	0.045333
1111.518861	0.042544
1111.678463	0.045445
1111.838047	0.047584
1111.997613	0.043219
1112.157161	0.044652
1112.316690	0.041203
1112.476202	0.037080
1112.635695	0.032201
1112.795169	0.032500
1112.954626	0.033022
1113.114064	0.029687
1113.273484	0.030011
1113.432886	0.032627
1113.592270	0.032450
1113.751635	0.030444
1113.910983	0.029360
1114.070312	0.034108
1114.229622	0.029974
1114.388915	0.028206
1114.548189	0.025569
1114.707445	0.029664
1114.866683	0.028315
1115.025903	0.028499
1115.185104	0.037170
1115.344287	0.040547
1115.503452	0.038144
1115.662599	0.042016
1115.821727	0.044799
1115.980838	0.046580
1116.139930	0.042291
1116.299004	0.046274
1116.458059	0.045570
1116.617097	0.040143
1116.776116	0.040377
1116.935117	0.036885
1117.094099	0.031630
1117.253064	0.029779
1117.412010	0.034393
1117.570938	0.037840
1117.729848	0.038784
1117.888740	0.039491
1118.047613	0.044890
1118.206468	0.043373
1118.365305	0.046304
1118.524124	0.053625
1118.682924	0.056733
1118.841707	0.049422
1119.000471	0.048113
1119.159216	0.045579
1119.317944	0.043900
1119.476653	0.035306
1119.635344	0.035961
1119.794017	0.035750
1119.952672	0.031267
1120.111308	0.027649
1120.269927	0.030356
1120.428527	0.028666
1120.587108	0.024150
1120.745672	0.024682
1120.904217	0.029813
1121.062744	0.027821
1121.221253	0.028329
1121.379744	0.032076
1121.538216	0.035240
1121.696671	0.042859
1121.855107	0.040778
1122.013524	0.045960
1122.171924	0.047653
1122.330305	0.048735
1122.488668	0.054108
1122.647013	0.053123
1122.805340	0.053769
1122.963648	0.051186
1123.121938	0.043318
1123.280210	0.043839
1123.438464	0.044872
1123.596700	0.047858
1123.754917	0.046219
1123.913116	0.044635
1124.071297	0.049245
1124.229459	0.047689
1124.387604	0.047826
1124.545730	0.048490
1124.703838	0.049506
1124.861928	0.051455
1125.019999	0.055741
1125.178052	0.056118
1125.336088	0.050095
1125.494104	0.044574
1125.652103	0.046841
1125.810083	0.048030
1125.968045	0.045492
1126.125989	0.044977
1126.283915	0.041115
1126.441823	0.034247
1126.599712	0.031564
1126.757583	0.036139
1126.915436	0.039163
1127.073270	0.036654
1127.231087	0.042637
1127.388885	0.049404
1127.546665	0.048913
1127.704426	0.044447
1127.862170	0.044473
1128.019895	0.042346
1128.177602	0.040845
1128.335291	0.037547
1128.492961	0.040865
1128.650614	0.037040
1128.808248	0.031813
1128.965864	0.031868
1129.123461	0.039002
1129.281041	0.042759
1129.438602	0.049879
1129.596145	0.053313
1129.753670	0.056971
1129.911176	0.052539
1130.068665	0.048626
1130.226135	0.050343
1130.383587	0.051716
1130.541020	0.054633
1130.698436	0.048214
1130.855833	0.042513
1131.013212	0.038083
1131.170573	0.039149
1131.327915	0.040074
1131.485239	0.047319
1131.642545	0.047422
1131.799833	0.048190
1131.957103	0.042750
1132.114354	0.046510
1132.271588	0.049513
1132.428803	0.052752
1132.585999	0.046979
1132.743178	0.043532
1132.900338	0.038285
1133.057480	0.030072
1133.214604	0.029413
1133.371710	0.029702
1133.528797	0.030491
1133.685866	0.031937
1133.842917	0.029053
1133.999950	0.027079
1134.156964	0.028144
1134.313960	0.025891
1134.470938	0.026180
1134.627898	0.024005
1134.784840	0.022671
1134.941763	0.021404
1135.098668	0.016389
1135.255555	0.014541
1135.412424	0.021618
1135.569274	0.020842
1135.726107	0.024277
1135.882921	0.033612
1136.039716	0.034751
1136.196494	0.039273
1136.353253	0.042860
1136.509995	0.046416
1136.666717	0.054320
1136.823422	0.051335
1136.980109	0.055856
1137.136777	0.054406
1137.293427	0.053254
1137.450059	0.053334
1137.606672	0.046815
1137.763267	0.043314
1137.919844	0.042209
1138.076403	0.038548
1138.232944	0.042782
1138.389466	0.038787
1138.545971	0.031977
1138.702457	0.029722
1138.858924	0.033996
1139.015374	0.038691
1139.171805	0.036087
1139.328218	0.034066
1139.484613	0.029214
1139.640990	0.026842
1139.797348	0.027129
1139.953688	0.035197
1140.110010	0.033006
1140.266314	0.033010
1140.422600	0.034155
1140.578867	0.035872
1140.735116	0.042568
1140.891347	0.052451
1141.047559	0.048704
1141.203754	0.054142
1141.359930	0.051291
1141.516088	0.058065
1141.672228	0.053035
1141.828349	0.051792
1141.984452	0.051947
1142.140537	0.046381
1142.296604	0.047855
1142.452653	0.047386
1142.608683	0.050890
1142.764695	0.052963
1142.920689	0.050795
1143.076665	0.051338
1143.232622	0.047975
1143.388562	0.045805
1143.544483	0.044017
1143.700385	0.039314
1143.856270	0.043155
1144.012136	0.035669
1144.167985	0.037214
1144.323814	0.034329
1144.479626	0.036907
1144.635420	0.037963
1144.791195	0.032802
1144.946952	0.034798
1145.102691	0.031525
1145.258411	0.028767
1145.414113	0.032696
1145.569798	0.031320
1145.725463	0.033029
1145.881111	0.038028
1146.036741	0.046403
1146.192352	0.048104
1146.347945	0.047802
1146.503519	0.046812
1146.659076	0.046432
1146.814614	0.038868
1146.970134	0.033154
1147.125636	0.029468
1147.281120	0.028961
1147.436585	0.018852
1147.592032	0.028702
1147.747461	0.027412
1147.902872	0.032057
1148.058265	0.040415
1148.213639	0.047273
1148.368995	0.053639
1148.524333	0.053072
1148.679653	0.043236
1148.834954	0.052816
1148.990237	0.046264
1149.145502	0.043399
1149.300749	0.040689
1149.455977	0.030052
1149.611188	0.023603
1149.766380	0.025798
1149.921553	0.027131
1150.076709	0.034857
1150.231846	0.023192
1150.386966	0.026611
1150.542066	0.041005
1150.697149	0.045403
1150.852214	0.051145
1151.007260	0.057044
1151.162288	0.052907
1151.317298	0.058300
1151.472289	0.059912
1151.627263	0.067808
1151.782218	0.065404
1151.937155	0.050700
1152.092073	0.047128
1152.246974	0.041802
1152.401856	0.040917
1152.556720	0.040283
1152.711566	0.035920
1152.866393	0.029563
1153.021203	0.025685
1153.175994	0.024404
1153.330767	0.020287
1153.485521	0.020550
1153.640258	0.033313
1153.794976	0.026739
1153.949676	0.029178
1154.104358	0.031416
1154.259021	0.036494
1154.413667	0.030023
1154.568294	0.031749
1154.722903	0.040252
1154.877493	0.033866
1155.032066	0.023237
1155.186620	0.033893
1155.341156	0.037264
1155.495674	0.033774
1155.650173	0.027080
1155.804654	0.036289
1155.959118	0.042892
1156.113562	0.048670
1156.267989	0.049704
1156.422397	0.049935
1156.576788	0.040145
1156.731160	0.035187
1156.885513	0.040105
1157.039849	0.041623
1157.194166	0.028489
1157.348465	0.025134
1157.502746	0.018617
1157.657009	0.027412
1157.811253	0.035111
1157.965479	0.042251
1158.119687	0.042237
1158.273877	0.041534
1158.428048	0.044790
1158.582201	0.060956
1158.736337	0.053198
1158.890453	0.060415
1159.044552	0.052325
1159.198632	0.050757
1159.352694	0.042649
1159.506738	0.036423
1159.660764	0.035321
1159.814771	0.032959
1159.968761	0.026884
1160.122732	0.026667
1160.276685	0.018232
1160.430619	0.025064
1160.584535	0.018400
1160.738434	0.022205
1160.892313	0.033690
1161.046175	0.041678
1161.200019	0.042660
1161.353844	0.047844
1161.507651	0.047521
1161.661440	0.054372
1161.815210	0.052447
1161.968962	0.042095
1162.122697	0.041187
1162.276412	0.027540
1162.430110	0.023973
1162.583789	0.022144
1162.737451	0.016196
1162.891094	0.015268
1163.044718	0.009197
1163.198325	0.005801
1163.351913	0.017203
1163.505483	0.013414
1163.659035	0.019722
1163.812569	0.015892
1163.966084	0.013586
1164.119581	0.007296
1164.273060	0.014641
1164.426521	0.015805
1164.579964	0.028120
1164.733388	0.028041
1164.886794	0.035693
1165.040182	0.044597
1165.193551	0.045408
1165.346903	0.041603
1165.500236	0.048129
1165.653551	0.041139
1165.806848	0.034859
1165.960126	0.026286
1166.113386	0.029164
1166.266628	0.021870
1166.419852	0.015685
1166.573058	0.015418
1166.726245	0.012338
1166.879414	0.019213
1167.032565	0.020841
1167.185698	0.034240
1167.338812	0.031460
1167.491909	0.027936
1167.644987	0.040865
1167.798046	0.048834
1167.951088	0.057305
1168.104111	0.057975
1168.257117	0.052806
1168.410103	0.060183
1168.563072	0.061583
1168.716023	0.055577
1168.868955	0.059932
1169.021869	0.059302
1169.174765	0.033119
1169.327642	0.031023
1169.480501	0.026445
1169.633343	0.029893
1169.786165	0.014387
1169.938970	0.010277
1170.091757	0.010617
1170.244525	0.002928
1170.397275	-0.002522
1170.550007	0.018627
1170.702720	0.015220
1170.855415	0.035548
1171.008092	0.017681
1171.160751	0.013732
1171.313392	-0.002821
1171.466014	0.099724
1171.618619	-0.091051
1171.771205	-0.091051
1171.923772	-0.091051
