sample name	sample
index	718
start time	 03-25-2021  11:38:29 AM


Wavelength (nm)	Absorbance
494.344910	-0.191103
494.563924	-0.191103
494.782919	-0.191103
495.001897	0.195508
495.220856	-0.128917
495.439797	-0.148840
495.658719	-0.187223
495.877624	-0.107378
496.096510	-0.172316
496.315378	-0.252026
496.534227	-0.277475
496.753059	-0.253227
496.971872	-0.163978
497.190667	-0.007129
497.409444	0.008026
497.628203	0.009273
497.846943	0.010222
498.065665	0.013091
498.284369	0.013324
498.503055	0.015735
498.721723	0.016624
498.940372	0.016144
499.159003	0.016073
499.377616	0.015938
499.596210	0.017576
499.814787	0.017829
500.033345	0.016654
500.251885	0.016794
500.470406	0.016597
500.688910	0.016347
500.907395	0.015993
501.125862	0.016187
501.344311	0.016240
501.562742	0.015958
501.781154	0.015309
501.999548	0.015881
502.217924	0.016011
502.436282	0.015265
502.654621	0.014937
502.872942	0.014753
503.091245	0.014817
503.309530	0.015278
503.527797	0.014570
503.746045	0.015615
503.964275	0.016327
504.182487	0.015946
504.400681	0.015802
504.618856	0.015895
504.837013	0.016275
505.055152	0.015758
505.273273	0.015329
505.491376	0.015996
505.709460	0.014877
505.927526	0.014199
506.145574	0.014978
506.363604	0.015267
506.581615	0.015540
506.799608	0.015757
507.017583	0.015811
507.235540	0.015464
507.453478	0.015237
507.671399	0.015527
507.889301	0.015034
508.107185	0.014576
508.325050	0.015232
508.542898	0.015080
508.760727	0.015433
508.978538	0.015584
509.196330	0.015616
509.414105	0.015066
509.631861	0.015634
509.849599	0.015963
510.067319	0.015916
510.285021	0.014893
510.502704	0.014495
510.720369	0.014269
510.938016	0.014360
511.155645	0.014236
511.373255	0.014454
511.590848	0.014002
511.808422	0.014535
512.025977	0.014517
512.243515	0.014966
512.461034	0.014497
512.678536	0.014497
512.896018	0.014556
513.113483	0.015070
513.330930	0.015188
513.548358	0.014611
513.765768	0.013984
513.983160	0.013499
514.200533	0.013034
514.417889	0.013033
514.635226	0.012300
514.852545	0.011555
515.069845	0.010897
515.287128	0.010298
515.504392	0.010603
515.721638	0.010439
515.938866	0.010465
516.156075	0.011433
516.373267	0.011539
516.590440	0.011607
516.807594	0.012893
517.024731	0.013220
517.241850	0.013618
517.458950	0.012976
517.676032	0.013446
517.893095	0.013562
518.110141	0.012296
518.327168	0.012095
518.544177	0.012137
518.761168	0.011548
518.978141	0.011519
519.195095	0.010767
519.412031	0.010944
519.628949	0.010395
519.845849	0.010133
520.062731	0.011058
520.279594	0.011464
520.496439	0.011628
520.713266	0.011543
520.930074	0.011474
521.146865	0.012439
521.363637	0.012945
521.580391	0.013047
521.797127	0.012810
522.013844	0.012123
522.230543	0.012224
522.447224	0.012224
522.663887	0.012214
522.880532	0.012223
523.097158	0.011570
523.313766	0.011500
523.530356	0.011702
523.746928	0.012294
523.963481	0.012229
524.180017	0.012129
524.396534	0.011911
524.613032	0.011653
524.829513	0.011427
525.045975	0.011499
525.262420	0.011616
525.478845	0.011739
525.695253	0.011709
525.911643	0.012060
526.128014	0.011673
526.344367	0.011915
526.560702	0.011847
526.777018	0.012132
526.993316	0.012594
527.209597	0.012259
527.425858	0.011613
527.642102	0.011331
527.858328	0.010533
528.074535	0.010642
528.290724	0.010122
528.506894	0.010198
528.723047	0.009734
528.939181	0.009207
529.155297	0.009062
529.371395	0.009309
529.587475	0.009170
529.803536	0.009477
530.019579	0.009622
530.235604	0.009959
530.451611	0.010085
530.667600	0.010303
530.883570	0.010771
531.099522	0.010535
531.315456	0.010404
531.531372	0.010536
531.747269	0.010721
531.963148	0.010570
532.179009	0.010609
532.394852	0.010490
532.610676	0.010224
532.826482	0.010053
533.042271	0.010100
533.258040	0.010326
533.473792	0.010289
533.689525	0.010551
533.905240	0.010662
534.120937	0.010311
534.336616	0.010622
534.552277	0.010823
534.767919	0.010698
534.983543	0.010892
535.199149	0.010556
535.414736	0.010185
535.630306	0.009933
535.845857	0.009803
536.061390	0.009939
536.276904	0.009421
536.492401	0.009479
536.707879	0.009654
536.923339	0.009354
537.138781	0.009462
537.354204	0.010136
537.569610	0.009982
537.784997	0.009869
538.000366	0.009708
538.215716	0.009874
538.431049	0.009819
538.646363	0.009679
538.861659	0.010004
539.076937	0.009868
539.292196	0.009622
539.507438	0.009674
539.722661	0.009635
539.937866	0.009900
540.153052	0.009773
540.368221	0.009687
540.583371	0.009629
540.798503	0.009886
541.013617	0.010302
541.228712	0.010236
541.443789	0.010095
541.658848	0.009938
541.873889	0.009458
542.088912	0.009517
542.303916	0.009439
542.518902	0.009472
542.733870	0.009148
542.948820	0.009000
543.163752	0.008915
543.378665	0.009536
543.593560	0.010142
543.808437	0.010624
544.023295	0.010730
544.238136	0.010985
544.452958	0.010685
544.667762	0.010317
544.882548	0.010364
545.097315	0.010575
545.312064	0.009595
545.526795	0.009233
545.741508	0.009294
545.956203	0.009228
546.170879	0.008945
546.385537	0.009232
546.600177	0.009546
546.814799	0.009469
547.029402	0.009378
547.243988	0.009649
547.458555	0.009563
547.673103	0.009492
547.887634	0.009575
548.102146	0.009572
548.316640	0.009317
548.531116	0.009339
548.745574	0.009239
548.960013	0.009365
549.174435	0.009599
549.388838	0.009503
549.603222	0.009406
549.817589	0.009615
550.031937	0.009882
550.246267	0.009899
550.460579	0.009843
550.674873	0.009716
550.889148	0.009346
551.103405	0.008946
551.317644	0.009151
551.531865	0.009123
551.746068	0.009110
551.960252	0.009050
552.174418	0.009114
552.388566	0.009278
552.602696	0.009248
552.816807	0.009444
553.030900	0.009689
553.244975	0.009554
553.459032	0.010071
553.673070	0.009638
553.887091	0.008977
554.101093	0.009278
554.315077	0.009098
554.529042	0.009073
554.742990	0.008909
554.956919	0.008926
555.170830	0.008947
555.384722	0.008369
555.598597	0.008606
555.812453	0.009439
556.026291	0.009217
556.240111	0.009289
556.453913	0.009327
556.667696	0.009401
556.881461	0.009316
557.095208	0.009013
557.308937	0.009151
557.522647	0.008798
557.736339	0.008448
557.950013	0.008657
558.163669	0.008524
558.377307	0.008547
558.590926	0.008592
558.804527	0.008711
559.018110	0.008870
559.231675	0.008800
559.445221	0.009275
559.658749	0.009628
559.872259	0.009269
560.085751	0.009555
560.299225	0.009774
560.512680	0.009794
560.726117	0.009630
560.939536	0.009872
561.152937	0.009781
561.366319	0.009636
561.579683	0.009207
561.793029	0.009143
562.006357	0.009168
562.219667	0.009137
562.432958	0.008913
562.646231	0.008804
562.859486	0.008705
563.072723	0.008623
563.285941	0.008400
563.499141	0.008541
563.712323	0.008841
563.925487	0.008706
564.138632	0.008727
564.351760	0.009111
564.564869	0.009317
564.777960	0.009183
564.991032	0.009328
565.204087	0.009471
565.417123	0.009275
565.630141	0.009273
565.843140	0.009456
566.056122	0.009427
566.269085	0.009413
566.482030	0.009398
566.694957	0.009488
566.907866	0.009584
567.120756	0.009380
567.333628	0.009559
567.546482	0.009419
567.759318	0.009234
567.972135	0.009179
568.184935	0.008923
568.397716	0.009007
568.610478	0.008975
568.823223	0.009137
569.035949	0.009156
569.248657	0.008961
569.461347	0.008829
569.674019	0.008680
569.886672	0.008653
570.099308	0.008616
570.311925	0.008442
570.524523	0.008329
570.737104	0.008235
570.949666	0.008232
571.162210	0.008513
571.374736	0.008708
571.587244	0.008698
571.799733	0.008666
572.012205	0.008630
572.224658	0.008554
572.437092	0.008929
572.649509	0.008886
572.861907	0.008831
573.074287	0.008692
573.286649	0.008759
573.498993	0.008853
573.711318	0.008928
573.923625	0.008871
574.135914	0.008926
574.348185	0.008686
574.560438	0.008616
574.772672	0.008896
574.984888	0.008845
575.197086	0.008664
575.409266	0.008760
575.621427	0.008992
575.833570	0.009402
576.045695	0.009598
576.257802	0.009779
576.469890	0.009651
576.681961	0.009567
576.894013	0.009879
577.106046	0.010191
577.318062	0.010077
577.530059	0.009632
577.742039	0.009426
577.954000	0.009164
578.165942	0.008806
578.377867	0.008816
578.589773	0.008660
578.801661	0.008525
579.013531	0.008005
579.225382	0.007844
579.437216	0.007809
579.649031	0.007718
579.860828	0.008009
580.072606	0.008235
580.284367	0.008126
580.496109	0.008152
580.707833	0.008161
580.919539	0.008379
581.131227	0.008711
581.342896	0.009106
581.554547	0.009162
581.766180	0.009159
581.977795	0.009245
582.189391	0.009599
582.400969	0.009671
582.612529	0.009726
582.824071	0.009763
583.035595	0.009483
583.247100	0.009249
583.458587	0.009121
583.670056	0.009087
583.881506	0.008849
584.092939	0.008416
584.304353	0.008402
584.515749	0.008317
584.727127	0.008370
584.938486	0.008322
585.149828	0.008119
585.361151	0.008136
585.572456	0.008141
585.783742	0.008073
585.995011	0.008205
586.206261	0.008284
586.417493	0.008037
586.628706	0.008022
586.839902	0.008031
587.051079	0.008153
587.262238	0.008171
587.473379	0.007969
587.684502	0.008069
587.895606	0.008267
588.106692	0.008263
588.317760	0.008657
588.528810	0.008563
588.739841	0.008609
588.950855	0.008570
589.161850	0.008457
589.372827	0.008490
589.583785	0.008605
589.794726	0.008574
590.005648	0.008483
590.216552	0.008100
590.427437	0.008268
590.638305	0.008174
590.849154	0.008233
591.059985	0.008491
591.270798	0.008381
591.481592	0.008201
591.692369	0.008191
591.903127	0.008045
592.113867	0.007934
592.324588	0.007845
592.535292	0.008150
592.745977	0.008166
592.956644	0.008380
593.167293	0.008748
593.377923	0.008994
593.588536	0.008981
593.799130	0.009054
594.009706	0.009345
594.220263	0.009314
594.430803	0.009191
594.641324	0.009359
594.851827	0.009082
595.062312	0.009193
595.272778	0.009181
595.483227	0.009166
595.693657	0.009241
595.904069	0.008978
596.114462	0.009178
596.324838	0.008970
596.535195	0.008904
596.745534	0.008730
596.955855	0.008513
597.166157	0.008426
597.376441	0.008383
597.586707	0.008769
597.796955	0.009188
598.007185	0.008915
598.217396	0.009324
598.427589	0.009127
598.637764	0.009189
598.847921	0.008916
599.058060	0.008977
599.268180	0.009127
599.478282	0.008931
599.688366	0.008622
599.898431	0.008697
600.108479	0.008549
600.318508	0.008669
600.528519	0.008801
600.738511	0.008815
600.948486	0.008637
601.158442	0.008263
601.368380	0.008248
601.578300	0.008319
601.788202	0.008345
601.998085	0.008170
602.207950	0.008371
602.417797	0.008279
602.627626	0.008634
602.837436	0.008993
603.047228	0.009124
603.257002	0.009143
603.466758	0.009253
603.676496	0.009276
603.886215	0.009491
604.095916	0.009345
604.305599	0.009522
604.515264	0.009265
604.724910	0.009028
604.934538	0.009334
605.144148	0.009385
605.353740	0.009428
605.563314	0.009187
605.772869	0.008964
605.982406	0.009022
606.191925	0.009197
606.401425	0.009317
606.610908	0.009339
606.820372	0.009179
607.029818	0.009147
607.239246	0.009154
607.448655	0.009350
607.658047	0.009578
607.867420	0.009713
608.076775	0.009474
608.286111	0.009399
608.495430	0.009496
608.704730	0.009447
608.914012	0.009450
609.123275	0.009447
609.332521	0.009468
609.541748	0.009418
609.750957	0.009396
609.960148	0.009599
610.169321	0.009672
610.378475	0.009628
610.587611	0.009497
610.796729	0.009370
611.005829	0.009014
611.214910	0.008932
611.423974	0.008969
611.633019	0.008754
611.842045	0.008674
612.051054	0.008760
612.260044	0.008863
612.469017	0.008988
612.677970	0.009017
612.886906	0.009389
613.095824	0.009396
613.304723	0.009251
613.513604	0.009352
613.722467	0.009380
613.931311	0.009290
614.140138	0.009261
614.348946	0.009389
614.557736	0.009410
614.766507	0.009228
614.975261	0.009262
615.183996	0.009332
615.392713	0.009308
615.601412	0.009249
615.810092	0.009312
616.018754	0.009377
616.227399	0.009404
616.436024	0.009267
616.644632	0.009240
616.853222	0.009339
617.061793	0.009444
617.270346	0.009561
617.478880	0.009468
617.687397	0.009316
617.895895	0.009100
618.104375	0.008909
618.312837	0.008957
618.521281	0.009182
618.729706	0.009096
618.938113	0.008998
619.146502	0.008870
619.354873	0.009051
619.563226	0.009080
619.771560	0.009218
619.979876	0.009223
620.188174	0.009378
620.396453	0.009404
620.604715	0.009609
620.812958	0.009269
621.021183	0.009244
621.229390	0.009006
621.437578	0.009014
621.645748	0.009005
621.853900	0.008996
622.062034	0.008851
622.270150	0.008771
622.478247	0.008673
622.686326	0.009007
622.894387	0.008964
623.102430	0.009061
623.310454	0.008946
623.518461	0.008961
623.726449	0.009277
623.934418	0.009372
624.142370	0.009157
624.350303	0.009020
624.558218	0.009008
624.766115	0.008980
624.973994	0.009109
625.181855	0.009252
625.389697	0.009203
625.597521	0.009011
625.805327	0.009130
626.013114	0.009157
626.220883	0.008955
626.428634	0.008941
626.636367	0.008940
626.844082	0.008593
627.051778	0.008508
627.259457	0.008590
627.467117	0.008464
627.674758	0.008218
627.882382	0.008347
628.089987	0.008786
628.297574	0.008820
628.505143	0.008923
628.712694	0.009009
628.920226	0.009003
629.127740	0.008813
629.335236	0.008803
629.542714	0.008915
629.750174	0.009024
629.957615	0.008889
630.165038	0.008979
630.372443	0.008859
630.579829	0.008946
630.787198	0.008949
630.994548	0.009079
631.201880	0.009294
631.409194	0.009269
631.616489	0.009121
631.823766	0.009015
632.031025	0.008855
632.238266	0.009003
632.445489	0.009055
632.652693	0.009389
632.859879	0.009231
633.067047	0.009188
633.274197	0.009205
633.481329	0.009328
633.688442	0.009327
633.895537	0.009443
634.102614	0.009449
634.309672	0.009562
634.516713	0.009411
634.723735	0.009538
634.930739	0.009408
635.137724	0.009245
635.344692	0.009370
635.551641	0.009438
635.758572	0.009338
635.965485	0.009420
636.172379	0.009285
636.379256	0.009162
636.586114	0.009051
636.792954	0.009167
636.999775	0.009456
637.206579	0.009232
637.413364	0.009257
637.620131	0.009520
637.826880	0.009334
638.033610	0.009383
638.240323	0.009412
638.447017	0.009581
638.653692	0.009569
638.860350	0.009349
639.066990	0.009338
639.273611	0.009455
639.480214	0.009258
639.686798	0.009446
639.893365	0.009540
640.099913	0.009635
640.306443	0.009675
640.512955	0.009815
640.719449	0.010171
640.925924	0.010199
641.132381	0.010198
641.338820	0.010222
641.545241	0.010336
641.751644	0.010442
641.958028	0.010412
642.164394	0.010231
642.370742	0.010021
642.577071	0.009884
642.783383	0.009858
642.989676	0.009837
643.195951	0.010004
643.402207	0.009829
643.608446	0.009645
643.814666	0.009632
644.020868	0.009750
644.227052	0.009911
644.433218	0.009843
644.639365	0.009898
644.845494	0.009762
645.051605	0.009539
645.257698	0.009470
645.463772	0.009485
645.669828	0.009456
645.875866	0.009423
646.081886	0.009385
646.287888	0.009309
646.493871	0.009381
646.699836	0.009303
646.905783	0.009404
647.111712	0.009501
647.317622	0.009565
647.523514	0.009448
647.729388	0.009578
647.935244	0.009588
648.141082	0.009744
648.346901	0.009772
648.552702	0.009950
648.758485	0.009903
648.964250	0.009974
649.169996	0.009880
649.375724	0.009925
649.581434	0.009908
649.787126	0.009898
649.992800	0.010022
650.198455	0.009948
650.404092	0.009840
650.609711	0.010112
650.815311	0.010030
651.020894	0.010220
651.226458	0.010341
651.432004	0.010407
651.637532	0.010411
651.843041	0.010217
652.048532	0.010359
652.254006	0.010483
652.459460	0.010176
652.664897	0.010215
652.870315	0.010079
653.075716	0.010020
653.281097	0.010065
653.486461	0.010084
653.691807	0.010128
653.897134	0.010052
654.102443	0.010132
654.307734	0.010109
654.513006	0.010058
654.718261	0.010236
654.923497	0.010421
655.128715	0.010246
655.333915	0.010289
655.539096	0.010364
655.744259	0.010227
655.949404	0.010121
656.154531	0.010308
656.359640	0.010391
656.564730	0.010236
656.769802	0.010095
656.974856	0.010095
657.179892	0.009909
657.384909	0.009796
657.589908	0.009901
657.794889	0.009863
657.999852	0.009764
658.204797	0.009650
658.409723	0.009616
658.614631	0.009744
658.819521	0.009868
659.024393	0.009944
659.229246	0.009898
659.434081	0.009988
659.638898	0.010073
659.843697	0.010018
660.048478	0.010034
660.253240	0.010003
660.457984	0.009821
660.662710	0.009824
660.867417	0.009773
661.072107	0.009728
661.276778	0.009748
661.481431	0.009691
661.686066	0.009728
661.890682	0.009746
662.095281	0.009740
662.299861	0.009823
662.504422	0.009672
662.708966	0.009811
662.913491	0.009909
663.117999	0.009687
663.322488	0.009706
663.526958	0.009775
663.731411	0.009781
663.935845	0.009747
664.140261	0.009707
664.344659	0.009792
664.549038	0.009860
664.753400	0.009845
664.957743	0.009935
665.162068	0.009860
665.366375	0.009883
665.570663	0.009974
665.774933	0.010057
665.979185	0.010106
666.183419	0.010087
666.387635	0.009932
666.591832	0.009987
666.796011	0.010100
667.000172	0.010201
667.204315	0.009991
667.408439	0.009937
667.612545	0.010051
667.816634	0.010120
668.020703	0.010248
668.224755	0.010413
668.428788	0.010420
668.632803	0.010514
668.836800	0.010586
669.040779	0.010759
669.244739	0.010781
669.448681	0.010809
669.652605	0.010837
669.856511	0.010880
670.060399	0.010840
670.264268	0.010725
670.468119	0.010663
670.671952	0.010470
670.875767	0.010495
671.079563	0.010565
671.283341	0.010551
671.487101	0.010602
671.690843	0.010514
671.894567	0.010517
672.098272	0.010869
672.301959	0.010897
672.505628	0.011094
672.709278	0.010916
672.912911	0.010900
673.116525	0.010702
673.320121	0.010734
673.523699	0.010587
673.727258	0.010610
673.930799	0.010304
674.134322	0.010167
674.337827	0.010227
674.541314	0.010399
674.744782	0.010524
674.948232	0.010572
675.151664	0.010612
675.355078	0.010602
675.558474	0.010513
675.761851	0.010730
675.965210	0.010744
676.168551	0.010660
676.371873	0.010735
676.575178	0.010605
676.778464	0.010711
676.981732	0.010545
677.184981	0.010712
677.388213	0.010851
677.591426	0.010972
677.794621	0.011033
677.997798	0.010944
678.200956	0.010896
678.404097	0.010961
678.607219	0.010906
678.810323	0.011027
679.013408	0.011083
679.216476	0.011211
679.419525	0.011112
679.622556	0.011194
679.825569	0.011425
680.028563	0.011461
680.231540	0.011379
680.434498	0.011524
680.637438	0.011659
680.840359	0.011776
681.043263	0.011582
681.246148	0.011437
681.449015	0.011601
681.651864	0.011459
681.854694	0.011570
682.057506	0.011711
682.260301	0.011700
682.463076	0.011586
682.665834	0.011459
682.868573	0.011519
683.071295	0.011570
683.273998	0.011401
683.476682	0.011376
683.679349	0.011378
683.881997	0.011313
684.084627	0.011333
684.287239	0.011364
684.489833	0.011471
684.692408	0.011446
684.894965	0.011567
685.097504	0.011609
685.300025	0.011872
685.502527	0.011760
685.705012	0.011667
685.907478	0.011727
686.109925	0.011783
686.312355	0.011765
686.514766	0.011770
686.717159	0.011707
686.919534	0.011834
687.121891	0.011692
687.324230	0.011790
687.526550	0.011983
687.728852	0.011922
687.931136	0.011904
688.133401	0.011723
688.335649	0.011780
688.537878	0.011742
688.740089	0.011550
688.942281	0.011575
689.144456	0.011434
689.346612	0.011399
689.548750	0.011304
689.750870	0.011280
689.952971	0.011381
690.155055	0.011347
690.357120	0.011295
690.559167	0.011468
690.761195	0.011367
690.963206	0.011535
691.165198	0.011462
691.367172	0.011486
691.569128	0.011367
691.771065	0.011376
691.972984	0.011392
692.174885	0.011578
692.376768	0.011475
692.578633	0.011570
692.780479	0.011526
692.982308	0.011648
693.184118	0.011729
693.385909	0.011946
693.587683	0.011956
693.789438	0.011988
693.991175	0.011898
694.192894	0.011905
694.394595	0.012035
694.596277	0.012130
694.797941	0.012018
694.999587	0.012056
695.201215	0.011985
695.402824	0.012129
695.604416	0.012030
695.805989	0.012033
696.007543	0.012007
696.209080	0.011919
696.410598	0.011905
696.612099	0.011996
696.813580	0.011975
697.015044	0.011870
697.216490	0.011778
697.417917	0.011895
697.619326	0.011940
697.820717	0.011870
698.022089	0.011878
698.223444	0.011893
698.424780	0.011992
698.626098	0.012181
698.827397	0.012338
699.028679	0.012409
699.229942	0.012546
699.431187	0.012592
699.632414	0.012754
699.833622	0.012888
700.034813	0.012988
700.235985	0.012877
700.437139	0.012735
700.638274	0.012668
700.839392	0.012716
701.040491	0.012709
701.241572	0.012698
701.442635	0.012827
701.643679	0.012700
701.844706	0.012601
702.045714	0.012604
702.246704	0.012575
702.447675	0.012676
702.648629	0.012674
702.849564	0.012570
703.050481	0.012595
703.251380	0.012529
703.452260	0.012534
703.653122	0.012489
703.853966	0.012515
704.054792	0.012603
704.255600	0.012563
704.456389	0.012464
704.657160	0.012409
704.857913	0.012373
705.058648	0.012181
705.259365	0.012184
705.460063	0.012163
705.660743	0.012062
705.861405	0.011903
706.062048	0.011624
706.262674	0.011710
706.463281	0.011732
706.663870	0.011668
706.864441	0.011757
707.064993	0.011749
707.265527	0.011653
707.466043	0.011723
707.666541	0.011668
707.867021	0.011923
708.067482	0.011909
708.267925	0.012080
708.468350	0.011979
708.668757	0.011964
708.869145	0.011822
709.069516	0.011961
709.269868	0.012101
709.470201	0.012270
709.670517	0.012246
709.870814	0.012179
710.071093	0.012036
710.271354	0.012095
710.471597	0.012066
710.671821	0.012272
710.872028	0.012168
711.072216	0.011976
711.272385	0.011935
711.472537	0.011892
711.672670	0.011785
711.872785	0.011621
712.072882	0.011849
712.272961	0.011829
712.473021	0.011731
712.673063	0.011809
712.873087	0.011913
713.073093	0.011862
713.273081	0.011855
713.473050	0.012030
713.673001	0.012238
713.872934	0.012133
714.072849	0.012200
714.272745	0.012279
714.472623	0.012219
714.672483	0.012102
714.872325	0.012204
715.072148	0.012200
715.271954	0.012047
715.471741	0.012003
715.671509	0.011987
715.871260	0.012055
716.070992	0.011961
716.270707	0.012201
716.470403	0.012367
716.670080	0.012434
716.869740	0.012436
717.069381	0.012396
717.269004	0.012405
717.468609	0.012326
717.668195	0.012223
717.867764	0.012152
718.067314	0.011851
718.266846	0.011531
718.466360	0.011208
718.665855	0.011101
718.865332	0.011098
719.064791	0.011024
719.264232	0.011002
719.463655	0.010946
719.663059	0.010970
719.862445	0.011151
720.061813	0.011412
720.261163	0.011744
720.460494	0.011807
720.659807	0.011893
720.859102	0.011927
721.058379	0.011958
721.257638	0.012044
721.456878	0.012140
721.656100	0.012007
721.855304	0.011981
722.054490	0.011857
722.253657	0.011773
722.452806	0.011782
722.651937	0.011678
722.851050	0.011653
723.050145	0.011559
723.249221	0.011433
723.448279	0.011438
723.647319	0.011476
723.846340	0.011524
724.045344	0.011596
724.244329	0.011430
724.443296	0.011500
724.642245	0.011539
724.841175	0.011555
725.040088	0.011502
725.238982	0.011547
725.437857	0.011395
725.636715	0.011277
725.835554	0.011261
726.034376	0.011229
726.233179	0.011134
726.431963	0.010981
726.630730	0.010914
726.829478	0.010997
727.028208	0.010945
727.226920	0.010768
727.425614	0.010666
727.624289	0.010460
727.822946	0.010469
728.021585	0.010448
728.220206	0.010427
728.418808	0.010277
728.617392	0.009988
728.815958	0.009945
729.014506	0.010032
729.213036	0.009999
729.411547	0.010136
729.610040	0.010007
729.808515	0.010049
730.006972	0.010214
730.205410	0.010309
730.403831	0.010476
730.602233	0.010526
730.800616	0.010514
730.998982	0.010518
731.197329	0.010559
731.395658	0.010745
731.593969	0.010778
731.792262	0.010827
731.990536	0.010943
732.188793	0.011042
732.387031	0.010958
732.585250	0.010957
732.783452	0.011070
732.981635	0.011070
733.179800	0.011032
733.377947	0.010979
733.576076	0.010923
733.774186	0.010706
733.972278	0.010636
734.170352	0.010507
734.368408	0.010439
734.566446	0.010415
734.764465	0.010415
734.962466	0.010453
735.160449	0.010398
735.358413	0.010370
735.556360	0.010379
735.754288	0.010384
735.952198	0.010381
736.150090	0.010414
736.347963	0.010255
736.545818	0.010162
736.743655	0.009892
736.941474	0.009991
737.139275	0.009811
737.337057	0.009748
737.534821	0.009515
737.732567	0.009522
737.930295	0.009434
738.128005	0.009357
738.325696	0.009109
738.523369	0.009133
738.721024	0.008851
738.918660	0.008851
739.116279	0.008948
739.313879	0.009119
739.511461	0.008958
739.709024	0.008931
739.906570	0.009039
740.104097	0.009230
740.301606	0.009434
740.499097	0.009516
740.696569	0.009502
740.894024	0.009438
741.091460	0.009352
741.288878	0.009569
741.486277	0.009665
741.683659	0.009589
741.881022	0.009629
742.078367	0.009563
742.275694	0.009641
742.473002	0.009612
742.670293	0.009649
742.867565	0.009778
743.064819	0.009874
743.262054	0.009967
743.459272	0.009991
743.656471	0.009957
743.853652	0.009910
744.050815	0.009618
744.247959	0.009564
744.445085	0.009517
744.642194	0.009478
744.839283	0.009336
745.036355	0.009301
745.233408	0.009299
745.430444	0.009346
745.627461	0.009404
745.824459	0.009822
746.021440	0.009857
746.218402	0.009781
746.415346	0.009675
746.612272	0.009774
746.809180	0.009774
747.006069	0.009597
747.202940	0.009475
747.399793	0.009405
747.596628	0.009170
747.793444	0.009260
747.990243	0.009439
748.187023	0.009431
748.383784	0.009214
748.580528	0.009096
748.777253	0.009191
748.973960	0.009208
749.170649	0.009353
749.367320	0.009478
749.563973	0.009499
749.760607	0.009503
749.957223	0.009565
750.153821	0.009556
750.350400	0.009558
750.546962	0.009724
750.743505	0.009935
750.940030	0.009807
751.136536	0.009811
751.333025	0.009754
751.529495	0.009779
751.725947	0.009873
751.922381	0.010119
752.118796	0.010262
752.315194	0.010358
752.511573	0.010356
752.707934	0.010470
752.904276	0.010564
753.100601	0.010719
753.296907	0.010627
753.493195	0.010610
753.689465	0.010724
753.885716	0.010770
754.081949	0.010815
754.278164	0.010777
754.474361	0.010846
754.670540	0.010722
754.866700	0.010621
755.062843	0.010732
755.258967	0.010686
755.455072	0.010512
755.651160	0.010246
755.847229	0.010203
756.043280	0.010028
756.239313	0.009909
756.435328	0.009838
756.631324	0.009774
756.827302	0.009740
757.023262	0.009668
757.219204	0.009735
757.415127	0.009999
757.611033	0.009728
757.806920	0.009787
758.002788	0.009782
758.198639	0.009986
758.394471	0.010122
758.590286	0.010117
758.786081	0.010187
758.981859	0.010044
759.177619	0.009885
759.373360	0.009994
759.569083	0.010105
759.764788	0.010078
759.960474	0.010006
760.156143	0.009952
760.351793	0.010094
760.547425	0.010024
760.743038	0.010228
760.938634	0.010343
761.134211	0.010449
761.329770	0.010476
761.525311	0.010611
761.720833	0.010549
761.916338	0.010663
762.111824	0.010567
762.307292	0.010715
762.502741	0.010662
762.698173	0.010730
762.893586	0.010575
763.088981	0.010471
763.284358	0.010606
763.479716	0.010829
763.675057	0.010798
763.870379	0.011000
764.065683	0.010870
764.260968	0.010972
764.456236	0.010815
764.651485	0.010942
764.846716	0.010901
765.041929	0.010601
765.237123	0.010459
765.432299	0.010250
765.627457	0.010027
765.822597	0.010068
766.017719	0.009830
766.212822	0.009790
766.407907	0.009895
766.602974	0.009925
766.798023	0.010007
766.993054	0.009925
767.188066	0.010044
767.383060	0.010061
767.578036	0.010255
767.772993	0.010263
767.967933	0.010467
768.162854	0.010438
768.357757	0.010618
768.552642	0.010686
768.747508	0.010774
768.942356	0.010809
769.137186	0.010844
769.331998	0.010655
769.526792	0.010743
769.721567	0.010688
769.916324	0.010763
770.111063	0.010765
770.305784	0.010695
770.500486	0.010622
770.695171	0.010616
770.889837	0.010693
771.084484	0.010819
771.279114	0.010946
771.473725	0.011121
771.668318	0.011184
771.862893	0.011091
772.057450	0.011287
772.251988	0.011412
772.446509	0.011452
772.641011	0.011341
772.835494	0.011554
773.029960	0.011592
773.224407	0.011450
773.418836	0.011315
773.613247	0.011465
773.807640	0.011431
774.002014	0.011463
774.196370	0.011661
774.390708	0.011620
774.585028	0.011476
774.779330	0.011368
774.973613	0.011396
775.167878	0.011574
775.362125	0.011505
775.556354	0.011456
775.750564	0.011420
775.944756	0.011224
776.138930	0.011284
776.333086	0.011150
776.527223	0.011016
776.721343	0.010882
776.915444	0.010648
777.109526	0.010581
777.303591	0.010636
777.497637	0.010432
777.691666	0.010463
777.885676	0.010519
778.079667	0.010566
778.273641	0.010693
778.467596	0.010886
778.661533	0.010954
778.855452	0.010965
779.049352	0.011104
779.243235	0.011252
779.437099	0.011152
779.630945	0.011137
779.824773	0.011140
780.018582	0.011418
780.212373	0.011405
780.406146	0.011418
780.599901	0.011368
780.793638	0.011120
780.987356	0.011174
781.181056	0.011379
781.374738	0.011263
781.568402	0.011413
781.762047	0.011148
781.955674	0.011144
782.149283	0.011046
782.342874	0.011062
782.536447	0.011072
782.730001	0.011150
782.923537	0.011031
783.117055	0.011078
783.310555	0.010945
783.504036	0.011118
783.697499	0.011029
783.890944	0.011093
784.084371	0.011064
784.277780	0.011228
784.471170	0.011184
784.664542	0.011276
784.857896	0.011180
785.051231	0.010978
785.244549	0.010829
785.437848	0.010916
785.631129	0.010814
785.824392	0.011043
786.017636	0.010961
786.210863	0.011081
786.404071	0.011017
786.597260	0.011201
786.790432	0.011548
786.983585	0.011543
787.176721	0.011490
787.369838	0.011824
787.562936	0.011737
787.756017	0.012002
787.949079	0.011908
788.142123	0.011982
788.335149	0.011882
788.528156	0.011930
788.721146	0.011930
788.914117	0.012062
789.107070	0.011910
789.300005	0.011944
789.492921	0.011817
789.685819	0.011982
789.878699	0.012009
790.071561	0.012195
790.264405	0.012034
790.457230	0.012128
790.650037	0.012101
790.842826	0.012109
791.035597	0.012266
791.228349	0.012244
791.421084	0.012180
791.613800	0.012273
791.806497	0.012507
791.999177	0.012623
792.191838	0.012495
792.384481	0.012531
792.577106	0.012683
792.769713	0.012654
792.962301	0.012638
793.154871	0.012705
793.347423	0.012747
793.539957	0.012510
793.732473	0.012541
793.924970	0.012567
794.117449	0.012427
794.309910	0.012296
794.502353	0.012216
794.694777	0.012218
794.887183	0.012192
795.079571	0.012104
795.271941	0.012164
795.464293	0.012108
795.656626	0.012140
795.848941	0.012369
796.041238	0.012495
796.233516	0.012536
796.425777	0.012552
796.618019	0.012603
796.810243	0.012504
797.002449	0.012451
797.194636	0.012601
797.386805	0.012695
797.578956	0.012469
797.771089	0.012435
797.963204	0.012343
798.155300	0.012216
798.347378	0.012018
798.539438	0.012000
798.731480	0.012108
798.923503	0.011906
799.115509	0.012037
799.307496	0.012271
799.499465	0.012253
799.691415	0.012347
799.883348	0.012412
800.075262	0.012427
800.267158	0.012489
800.459035	0.012444
800.650895	0.012573
800.842736	0.012470
801.034559	0.012328
801.226364	0.012224
801.418150	0.012288
801.609919	0.012385
801.801669	0.012442
801.993401	0.012524
802.185114	0.012609
802.376810	0.012851
802.568487	0.012984
802.760146	0.013080
802.951787	0.013233
803.143409	0.013312
803.335014	0.013432
803.526600	0.013625
803.718168	0.013693
803.909717	0.013674
804.101249	0.013629
804.292762	0.013487
804.484257	0.013636
804.675734	0.013603
804.867192	0.013443
805.058632	0.013130
805.250054	0.013046
805.441458	0.013084
805.632844	0.013061
805.824211	0.012808
806.015561	0.013017
806.206891	0.012922
806.398204	0.012910
806.589499	0.012959
806.780775	0.013256
806.972033	0.013138
807.163273	0.012968
807.354495	0.012847
807.545698	0.013014
807.736883	0.012741
807.928050	0.012599
808.119199	0.012626
808.310329	0.012666
808.501441	0.012738
808.692535	0.012866
808.883611	0.012952
809.074669	0.013305
809.265708	0.013241
809.456729	0.013641
809.647732	0.013684
809.838717	0.013883
810.029683	0.013854
810.220632	0.013652
810.411562	0.013636
810.602474	0.013471
810.793367	0.013094
810.984242	0.013009
811.175100	0.012727
811.365938	0.012755
811.556759	0.012543
811.747562	0.012708
811.938346	0.012672
812.129112	0.012576
812.319860	0.012738
812.510589	0.012860
812.701300	0.012939
812.891994	0.012899
813.082668	0.012742
813.273325	0.012651
813.463964	0.012499
813.654584	0.012485
813.845186	0.012502
814.035769	0.012488
814.226335	0.012519
814.416882	0.012455
814.607411	0.012487
814.797922	0.012899
814.988415	0.013207
815.178889	0.013349
815.369345	0.013578
815.559783	0.013714
815.750203	0.013800
815.940605	0.013904
816.130988	0.014063
816.321353	0.014025
816.511700	0.014016
816.702028	0.014117
816.892339	0.013964
817.082631	0.013925
817.272905	0.013929
817.463161	0.013934
817.653398	0.013874
817.843617	0.013852
818.033819	0.014036
818.224001	0.013885
818.414166	0.013536
818.604312	0.013609
818.794440	0.013409
818.984550	0.013469
819.174642	0.013490
819.364716	0.013517
819.554771	0.013275
819.744808	0.013085
819.934827	0.012901
820.124827	0.012961
820.314810	0.012959
820.504774	0.013051
820.694720	0.013034
820.884647	0.012922
821.074557	0.012792
821.264448	0.012980
821.454321	0.013005
821.644176	0.012990
821.834012	0.012865
822.023831	0.012962
822.213631	0.012918
822.403413	0.012603
822.593176	0.012642
822.782922	0.012546
822.972649	0.012506
823.162358	0.012548
823.352049	0.012606
823.541721	0.012455
823.731376	0.012362
823.921012	0.012572
824.110629	0.012829
824.300229	0.012887
824.489811	0.013085
824.679374	0.013089
824.868919	0.013125
825.058445	0.013193
825.247954	0.013461
825.437444	0.013521
825.626916	0.013533
825.816370	0.013380
826.005806	0.013272
826.195223	0.013359
826.384622	0.013398
826.574003	0.013376
826.763366	0.013507
826.952711	0.013542
827.142037	0.013565
827.331345	0.013489
827.520635	0.013580
827.709906	0.013620
827.899160	0.013595
828.088395	0.013808
828.277612	0.013989
828.466810	0.013952
828.655991	0.013920
828.845153	0.013815
829.034297	0.013759
829.223423	0.013816
829.412531	0.013764
829.601620	0.013668
829.790691	0.013422
829.979744	0.013160
830.168779	0.013256
830.357795	0.013321
830.546793	0.013303
830.735773	0.013282
830.924735	0.013387
831.113679	0.013413
831.302604	0.013587
831.491511	0.013803
831.680400	0.013879
831.869271	0.013834
832.058123	0.013863
832.246957	0.013959
832.435773	0.014093
832.624571	0.013948
832.813351	0.013992
833.002112	0.013833
833.190855	0.013566
833.379580	0.013483
833.568287	0.013584
833.756975	0.013565
833.945645	0.013546
834.134297	0.013446
834.322931	0.013376
834.511547	0.013299
834.700144	0.013540
834.888723	0.013643
835.077284	0.013883
835.265826	0.013709
835.454351	0.013562
835.642857	0.013619
835.831345	0.013624
836.019815	0.013835
836.208266	0.014067
836.396699	0.013873
836.585114	0.013872
836.773511	0.013880
836.961890	0.013823
837.150250	0.014097
837.338592	0.014317
837.526916	0.014404
837.715222	0.014424
837.903510	0.014201
838.091779	0.014266
838.280030	0.014342
838.468263	0.014418
838.656477	0.014459
838.844674	0.014454
839.032852	0.014180
839.221012	0.014171
839.409153	0.014048
839.597277	0.014205
839.785382	0.014266
839.973469	0.014320
840.161538	0.014220
840.349589	0.014223
840.537621	0.013822
840.725635	0.013827
840.913631	0.013833
841.101609	0.014080
841.289568	0.014069
841.477509	0.013880
841.665432	0.013897
841.853337	0.013665
842.041224	0.013813
842.229092	0.014016
842.416942	0.014136
842.604774	0.014159
842.792588	0.014099
842.980383	0.014246
843.168160	0.014718
843.355919	0.014678
843.543660	0.015025
843.731382	0.015107
843.919087	0.015476
844.106773	0.015455
844.294441	0.015692
844.482090	0.015739
844.669722	0.015879
844.857335	0.015863
845.044930	0.015925
845.232507	0.016148
845.420065	0.016351
845.607605	0.016342
845.795127	0.016161
845.982631	0.016153
846.170117	0.016219
846.357584	0.016168
846.545033	0.016014
846.732464	0.016150
846.919877	0.016049
847.107272	0.016038
847.294648	0.015923
847.482006	0.016484
847.669346	0.016448
847.856667	0.016243
848.043971	0.016398
848.231256	0.016446
848.418523	0.016393
848.605771	0.016225
848.793002	0.016094
848.980214	0.016393
849.167408	0.016256
849.354584	0.016119
849.541742	0.016200
849.728881	0.016008
849.916002	0.015988
850.103105	0.015819
850.290190	0.016046
850.477256	0.016047
850.664304	0.015846
850.851334	0.015702
851.038346	0.015802
851.225340	0.015860
851.412315	0.015877
851.599272	0.015787
851.786211	0.015960
851.973132	0.015895
852.160034	0.015964
852.346918	0.015743
852.533784	0.015706
852.720632	0.015473
852.907462	0.015326
853.094273	0.015388
853.281066	0.015595
853.467841	0.015615
853.654598	0.015517
853.841336	0.015384
854.028056	0.015642
854.214758	0.015853
854.401442	0.016153
854.588107	0.016344
854.774755	0.016433
854.961384	0.016493
855.147995	0.016769
855.334587	0.017027
855.521162	0.017250
855.707718	0.017357
855.894256	0.017245
856.080775	0.017493
856.267277	0.017618
856.453760	0.017443
856.640225	0.017323
856.826672	0.016946
857.013101	0.016764
857.199511	0.016798
857.385903	0.017022
857.572277	0.017365
857.758633	0.017209
857.944970	0.017186
858.131290	0.017252
858.317591	0.017447
858.503873	0.017745
858.690138	0.017983
858.876384	0.017896
859.062612	0.017646
859.248822	0.017388
859.435014	0.017512
859.621188	0.017819
859.807343	0.017931
859.993480	0.017936
860.179599	0.018038
860.365699	0.017950
860.551781	0.018173
860.737846	0.018673
860.923891	0.018688
861.109919	0.018706
861.295929	0.018783
861.481920	0.018944
861.667893	0.019069
861.853848	0.019124
862.039784	0.019425
862.225702	0.019303
862.411603	0.019147
862.597484	0.019306
862.783348	0.019436
862.969193	0.019391
863.155021	0.019670
863.340830	0.019506
863.526620	0.019663
863.712393	0.019339
863.898147	0.019474
864.083883	0.019469
864.269601	0.019421
864.455301	0.019414
864.640982	0.019286
864.826645	0.019086
865.012290	0.019464
865.197917	0.019481
865.383526	0.019887
865.569116	0.020083
865.754688	0.019882
865.940242	0.019863
866.125777	0.019776
866.311295	0.019858
866.496794	0.019938
866.682275	0.019726
866.867737	0.019489
867.053182	0.019611
867.238608	0.019601
867.424016	0.019864
867.609406	0.020044
867.794778	0.019965
867.980131	0.020000
868.165466	0.019887
868.350783	0.019877
868.536082	0.020110
868.721362	0.019867
868.906625	0.019862
869.091869	0.019703
869.277094	0.019520
869.462302	0.019427
869.647491	0.019234
869.832662	0.019305
870.017815	0.019423
870.202950	0.019484
870.388066	0.019704
870.573165	0.019506
870.758245	0.019730
870.943306	0.019997
871.128350	0.020209
871.313375	0.020424
871.498382	0.020380
871.683371	0.020448
871.868342	0.020581
872.053294	0.020342
872.238229	0.020593
872.423144	0.020744
872.608042	0.020750
872.792922	0.020977
872.977783	0.020892
873.162626	0.020980
873.347451	0.020849
873.532258	0.020872
873.717046	0.020935
873.901816	0.021059
874.086568	0.020940
874.271302	0.020953
874.456017	0.021102
874.640715	0.021413
874.825394	0.021473
875.010055	0.021745
875.194697	0.021396
875.379322	0.021586
875.563928	0.021284
875.748516	0.021279
875.933085	0.021196
876.117637	0.020856
876.302170	0.020580
876.486685	0.020533
876.671182	0.020088
876.855661	0.020301
877.040121	0.019790
877.224563	0.020259
877.408987	0.020097
877.593393	0.020158
877.777780	0.020294
877.962150	0.020392
878.146501	0.020634
878.330833	0.020750
878.515148	0.020582
878.699444	0.020970
878.883722	0.020684
879.067982	0.020882
879.252224	0.020998
879.436447	0.021135
879.620653	0.021230
879.804840	0.021390
879.989008	0.021578
880.173159	0.021706
880.357291	0.021618
880.541405	0.021461
880.725501	0.021385
880.909579	0.021523
881.093638	0.021105
881.277680	0.021181
881.461703	0.020848
881.645707	0.020785
881.829694	0.020848
882.013662	0.020954
882.197612	0.021123
882.381544	0.021233
882.565458	0.021088
882.749353	0.021378
882.933230	0.021561
883.117089	0.021609
883.300930	0.021873
883.484753	0.021781
883.668557	0.021798
883.852343	0.021747
884.036111	0.021717
884.219861	0.021808
884.403592	0.021831
884.587305	0.021582
884.771000	0.021687
884.954677	0.021389
885.138335	0.021424
885.321976	0.021276
885.505598	0.021170
885.689201	0.021179
885.872787	0.020905
886.056354	0.020881
886.239904	0.020590
886.423434	0.020368
886.606947	0.020334
886.790442	0.020609
886.973918	0.020537
887.157376	0.020837
887.340816	0.020655
887.524237	0.020631
887.707641	0.020395
887.891026	0.020638
888.074393	0.020659
888.257741	0.020701
888.441072	0.020524
888.624384	0.020828
888.807678	0.020487
888.990954	0.020485
889.174211	0.020499
889.357451	0.020491
889.540672	0.020646
889.723875	0.020683
889.907059	0.020702
890.090226	0.020470
890.273374	0.020489
890.456504	0.020513
890.639616	0.020822
890.822709	0.020861
891.005785	0.021162
891.188842	0.021053
891.371881	0.021002
891.554901	0.020829
891.737904	0.020994
891.920888	0.020909
892.103854	0.020905
892.286802	0.020630
892.469731	0.020796
892.652643	0.020802
892.835536	0.020947
893.018410	0.021167
893.201267	0.021506
893.384106	0.021523
893.566926	0.021605
893.749728	0.021767
893.932511	0.022100
894.115277	0.022211
894.298024	0.022187
894.480753	0.022099
894.663464	0.022132
894.846157	0.022189
895.028831	0.022058
895.211487	0.022059
895.394125	0.022170
895.576745	0.021890
895.759346	0.021848
895.941930	0.022048
896.124495	0.022003
896.307041	0.021765
896.489570	0.021564
896.672080	0.021815
896.854573	0.021509
897.037046	0.021280
897.219502	0.021433
897.401940	0.021282
897.584359	0.021235
897.766760	0.021106
897.949143	0.021439
898.131507	0.021356
898.313854	0.021238
898.496182	0.021397
898.678492	0.021829
898.860783	0.021592
899.043057	0.021790
899.225312	0.021763
899.407549	0.021991
899.589768	0.021797
899.771968	0.021821
899.954151	0.021985
900.136315	0.021881
900.318461	0.021884
900.500588	0.022076
900.682698	0.022098
900.864789	0.022313
901.046862	0.021910
901.228917	0.021986
901.410953	0.022176
901.592971	0.022086
901.774972	0.022187
901.956953	0.021867
902.138917	0.021957
902.320862	0.021572
902.502790	0.021275
902.684699	0.021550
902.866589	0.021443
903.048462	0.021533
903.230316	0.021622
903.412152	0.021510
903.593970	0.021595
903.775770	0.021297
903.957551	0.021476
904.139314	0.021443
904.321059	0.021440
904.502786	0.021612
904.684494	0.021397
904.866185	0.021171
905.047857	0.021394
905.229510	0.021314
905.411146	0.021177
905.592763	0.020925
905.774363	0.021010
905.955943	0.020515
906.137506	0.020160
906.319051	0.020101
906.500577	0.020241
906.682085	0.019973
906.863575	0.019902
907.045046	0.020167
907.226500	0.020449
907.407935	0.020259
907.589352	0.020672
907.770750	0.021035
907.952131	0.021181
908.133493	0.020981
908.314837	0.020776
908.496163	0.020439
908.677470	0.020172
908.858760	0.020331
909.040031	0.020279
909.221284	0.020367
909.402518	0.019883
909.583735	0.019960
909.764933	0.019745
909.946113	0.019938
910.127275	0.020026
910.308418	0.020005
910.489544	0.019885
910.670651	0.019827
910.851740	0.019601
911.032810	0.019496
911.213863	0.019192
911.394897	0.019399
911.575913	0.019560
911.756911	0.019857
911.937890	0.019859
912.118851	0.019364
912.299794	0.019154
912.480719	0.018892
912.661626	0.018815
912.842514	0.018728
913.023384	0.018298
913.204236	0.017920
913.385070	0.017731
913.565886	0.017698
913.746683	0.017901
913.927462	0.017644
914.108223	0.017882
914.288965	0.017711
914.469690	0.017480
914.650396	0.017405
914.831084	0.017783
915.011754	0.017498
915.192405	0.017504
915.373038	0.016981
915.553653	0.017317
915.734250	0.016674
915.914829	0.017027
916.095389	0.017239
916.275931	0.017248
916.456455	0.016938
916.636961	0.017036
916.817448	0.016853
916.997917	0.017401
917.178368	0.017317
917.358801	0.017639
917.539216	0.017560
917.719612	0.017232
917.899990	0.017236
918.080350	0.017228
918.260692	0.016991
918.441015	0.016935
918.621320	0.016715
918.801607	0.016564
918.981876	0.016338
919.162127	0.016133
919.342359	0.016079
919.522573	0.015921
919.702769	0.015307
919.882947	0.015308
920.063106	0.014894
920.243247	0.014575
920.423370	0.014521
920.603475	0.014644
920.783562	0.014324
920.963630	0.013986
921.143680	0.013868
921.323712	0.014437
921.503725	0.014466
921.683721	0.014411
921.863698	0.014606
922.043657	0.014387
922.223598	0.014228
922.403520	0.014299
922.583424	0.014559
922.763311	0.014702
922.943178	0.014273
923.123028	0.013837
923.302859	0.014104
923.482673	0.013664
923.662467	0.013718
923.842244	0.013606
924.022003	0.013846
924.201743	0.013653
924.381465	0.013370
924.561169	0.013173
924.740854	0.012742
924.920522	0.012079
925.100171	0.012113
925.279802	0.011804
925.459414	0.011660
925.639009	0.010660
925.818585	0.010424
925.998143	0.010089
926.177683	0.010030
926.357205	0.010375
926.536708	0.010209
926.716193	0.010060
926.895660	0.009784
927.075109	0.009686
927.254539	0.009617
927.433951	0.009887
927.613345	0.009780
927.792721	0.009824
927.972079	0.009777
928.151418	0.010675
928.330739	0.010467
928.510042	0.010420
928.689327	0.010613
928.868593	0.010881
929.047841	0.010934
929.227071	0.010747
929.406283	0.010212
929.585476	0.009674
929.764652	0.009230
929.943809	0.009267
930.122948	0.009161
930.302068	0.008223
930.481171	0.008553
930.660255	0.007964
930.839321	0.008133
931.018369	0.008198
931.197398	0.008157
931.376409	0.007436
931.555402	0.006845
931.734377	0.007045
931.913334	0.007239
932.092272	0.006938
932.271192	0.006439
932.450094	0.006494
932.628978	0.006364
932.807844	0.006234
932.986691	0.006594
933.165520	0.006515
933.344331	0.006364
933.523123	0.005970
933.701898	0.005958
933.880654	0.005921
934.059392	0.005644
934.238111	0.005238
934.416813	0.005644
934.595496	0.005587
934.774161	0.005886
934.952808	0.005748
935.131437	0.006025
935.310047	0.005552
935.488639	0.005932
935.667213	0.005308
935.845769	0.004866
936.024306	0.004410
936.202825	0.003300
936.381326	0.003036
936.559809	0.002317
936.738274	0.002125
936.916720	0.001877
937.095148	0.001483
937.273558	0.001624
937.451950	0.002256
937.630323	0.001839
937.808678	0.002761
937.987015	0.003351
938.165334	0.003440
938.343635	0.003702
938.521917	0.003683
938.700181	0.003779
938.878427	0.004042
939.056655	0.003788
939.234864	0.003958
939.413055	0.002533
939.591228	0.001676
939.769383	0.001783
939.947519	0.001143
940.125638	0.000688
940.303738	0.000544
940.481820	0.000631
940.659883	0.000731
940.837929	0.000396
941.015956	0.001011
941.193965	0.001206
941.371955	0.001135
941.549928	0.000838
941.727882	0.001060
941.905818	0.001751
942.083736	0.000708
942.261636	0.000932
942.439517	0.001585
942.617380	0.002206
942.795225	0.001293
942.973052	0.001353
943.150860	0.002388
943.328651	0.002282
943.506423	0.001395
943.684176	0.001898
943.861912	0.001338
944.039629	0.000619
944.217328	-0.000701
944.395009	-0.000517
944.572672	-0.001103
944.750317	-0.001882
944.927943	-0.001836
945.105551	-0.003073
945.283141	-0.002250
945.460712	-0.003258
945.638265	-0.003739
945.815801	-0.003130
945.993317	-0.002547
946.170816	-0.001707
946.348297	-0.002220
946.525759	-0.002979
946.703203	-0.002615
946.880629	-0.003398
947.058036	-0.002207
947.235425	-0.002013
947.412797	-0.001914
947.590149	-0.002854
947.767484	-0.003274
947.944800	-0.003145
948.122099	-0.003197
948.299379	-0.002815
948.476640	-0.003683
948.653884	-0.004313
948.831109	-0.003258
949.008316	-0.002970
949.185505	-0.001889
949.362676	-0.001873
949.539828	-0.001432
949.716962	-0.001891
949.894078	-0.001010
950.071176	0.000029
950.248256	0.000326
950.425317	-0.000535
950.602360	-0.000894
950.779385	-0.001305
950.956391	-0.000710
951.133380	-0.000337
951.310350	0.001310
951.487302	0.001008
951.664235	0.000712
951.841151	0.001332
952.018048	0.001546
952.194927	0.001373
952.371788	0.000100
952.548631	-0.000774
952.725455	-0.000282
952.902261	-0.001007
953.079049	-0.000632
953.255819	0.000808
953.432570	0.000626
953.609303	0.002221
953.786018	0.003050
953.962715	0.004642
954.139394	0.003751
954.316054	0.004466
954.492696	0.003982
954.669320	0.004129
954.845926	0.003287
955.022513	0.001796
955.199083	0.000470
955.375634	0.000432
955.552166	0.000691
955.728681	0.002342
955.905177	0.001412
956.081655	0.002159
956.258115	0.001446
956.434557	0.001389
956.610980	0.003449
956.787385	0.003248
956.963772	0.002968
957.140141	0.002939
957.316492	0.000555
957.492824	0.001840
957.669138	0.002698
957.845434	0.001355
958.021712	0.001182
958.197971	0.000108
958.374212	-0.000318
958.550435	-0.001054
958.726640	-0.001012
958.902826	0.002091
959.078995	0.000603
959.255145	0.001509
959.431277	0.002934
959.607390	0.004014
959.783486	0.006133
959.959563	0.007620
960.135622	0.008679
960.311662	0.009808
960.487685	0.009275
960.663689	0.008872
960.839675	0.008087
961.015643	0.008708
961.191593	0.007253
961.367524	0.005996
961.543437	0.007541
961.719332	0.007207
961.895209	0.006029
962.071067	0.006534
962.246907	0.008611
962.422730	0.009008
962.598533	0.009475
962.774319	0.009873
962.950086	0.010162
963.125835	0.008771
963.301566	0.009962
963.477279	0.012297
963.652973	0.012246
963.828650	0.010173
964.004308	0.010229
964.179947	0.010525
964.355569	0.011137
964.531172	0.012589
964.706757	0.012706
964.882324	0.012229
965.057873	0.010816
965.233403	0.011603
965.408916	0.012490
965.584410	0.010843
965.759885	0.010456
965.935343	0.012055
966.110782	0.010265
966.286203	0.011519
966.461606	0.013682
966.636991	0.013583
966.812357	0.012678
966.987705	0.014566
967.163035	0.015882
967.338347	0.016352
967.513641	0.015439
967.688916	0.016226
967.864173	0.015755
968.039412	0.013815
968.214632	0.014992
968.389835	0.016677
968.565019	0.014846
968.740185	0.015638
968.915333	0.015144
969.090462	0.014963
969.265573	0.016081
969.440667	0.015713
969.615741	0.017229
969.790798	0.017368
969.965836	0.017177
970.140856	0.018563
970.315858	0.018242
970.490842	0.018635
970.665808	0.019369
970.840755	0.019570
971.015684	0.020064
971.190595	0.018940
971.365487	0.016403
971.540362	0.015819
971.715218	0.014826
971.890056	0.015563
972.064875	0.015916
972.239677	0.015931
972.414460	0.013807
972.589225	0.010592
972.763972	0.010267
972.938700	0.012363
973.113411	0.010697
973.288103	0.013615
973.462777	0.013661
973.637432	0.013208
973.812070	0.012517
973.986689	0.012768
974.161290	0.015996
974.335873	0.018271
974.510437	0.018087
974.684984	0.020579
974.859512	0.019600
975.034022	0.020445
975.208513	0.020738
975.382987	0.021307
975.557442	0.022522
975.731879	0.022307
975.906298	0.021747
976.080698	0.020846
976.255080	0.020812
976.429445	0.018057
976.603790	0.018061
976.778118	0.016070
976.952427	0.014706
977.126719	0.015578
977.300992	0.016382
977.475246	0.015681
977.649483	0.015913
977.823701	0.014338
977.997901	0.015262
978.172083	0.015072
978.346247	0.015575
978.520392	0.016342
978.694519	0.015169
978.868628	0.014310
979.042719	0.013795
979.216791	0.013936
979.390845	0.015320
979.564882	0.015525
979.738899	0.015096
979.912899	0.018001
980.086880	0.017502
980.260843	0.017270
980.434788	0.017576
980.608715	0.017422
980.782623	0.019096
980.956514	0.019229
981.130386	0.019143
981.304240	0.017853
981.478075	0.016028
981.651892	0.016679
981.825692	0.017557
981.999472	0.017877
982.173235	0.020174
982.346980	0.017760
982.520706	0.018159
982.694414	0.018300
982.868104	0.020434
983.041775	0.020321
983.215428	0.021578
983.389064	0.021230
983.562680	0.019312
983.736279	0.017545
983.909860	0.017685
984.083422	0.015717
984.256966	0.015774
984.430491	0.014846
984.603999	0.014682
984.777488	0.013744
984.950959	0.012411
985.124412	0.011783
985.297847	0.012070
985.471263	0.012744
985.644661	0.013825
985.818041	0.012519
985.991403	0.012424
986.164747	0.013708
986.338072	0.013192
986.511379	0.013346
986.684668	0.015398
986.857938	0.015468
987.031191	0.014097
987.204425	0.013621
987.377641	0.015064
987.550839	0.013903
987.724018	0.013697
987.897179	0.014772
988.070322	0.015844
988.243447	0.015363
988.416554	0.016290
988.589642	0.017786
988.762712	0.018084
988.935764	0.015722
989.108798	0.017998
989.281813	0.016869
989.454811	0.017466
989.627790	0.017327
989.800751	0.018801
989.973693	0.017766
990.146617	0.016802
990.319524	0.015952
990.492412	0.018231
990.665281	0.014428
990.838133	0.014420
991.010966	0.013390
991.183781	0.013346
991.356578	0.011668
991.529356	0.011064
991.702117	0.012984
991.874859	0.013050
992.047583	0.012032
992.220288	0.013797
992.392976	0.014196
992.565645	0.014699
992.738296	0.014587
992.910929	0.015324
993.083543	0.016100
993.256139	0.013894
993.428718	0.014986
993.601277	0.015317
993.773819	0.015761
993.946342	0.017148
994.118848	0.016947
994.291335	0.018049
994.463803	0.017950
994.636254	0.018019
994.808686	0.018339
994.981100	0.017763
995.153496	0.017997
995.325874	0.019517
995.498233	0.018273
995.670574	0.016671
995.842897	0.015109
996.015202	0.016189
996.187488	0.015728
996.359757	0.016748
996.532007	0.016911
996.704239	0.017187
996.876452	0.016044
997.048648	0.015651
997.220825	0.015755
997.392984	0.017288
997.565124	0.016552
997.737247	0.017378
997.909351	0.016858
998.081437	0.017355
998.253505	0.016914
998.425554	0.017267
998.597586	0.017831
998.769599	0.018336
998.941594	0.017363
999.113571	0.015597
999.285529	0.015099
999.457469	0.015383
999.629391	0.015205
999.801295	0.014748
999.973181	0.014498
1000.145048	0.014015
1000.316897	0.013792
1000.488728	0.013742
1000.660541	0.014100
1000.832335	0.012121
1001.004111	0.012170
1001.175869	0.010206
1001.347609	0.009963
1001.519331	0.008737
1001.691034	0.008713
1001.862719	0.010212
1002.034386	0.011252
1002.206035	0.012830
1002.377665	0.014294
1002.549277	0.014119
1002.720871	0.014847
1002.892447	0.015216
1003.064004	0.016895
1003.235544	0.016472
1003.407065	0.015514
1003.578568	0.012860
1003.750052	0.012471
1003.921519	0.011147
1004.092967	0.011807
1004.264397	0.012276
1004.435809	0.011775
1004.607202	0.011898
1004.778577	0.011559
1004.949934	0.011821
1005.121273	0.013198
1005.292594	0.013855
1005.463896	0.015886
1005.635180	0.015066
1005.806446	0.015743
1005.977694	0.016382
1006.148923	0.014865
1006.320135	0.016471
1006.491328	0.015195
1006.662503	0.015362
1006.833659	0.012442
1007.004798	0.012040
1007.175918	0.011790
1007.347020	0.011006
1007.518103	0.009656
1007.689169	0.009003
1007.860216	0.008971
1008.031245	0.007201
1008.202256	0.007369
1008.373248	0.008772
1008.544223	0.007466
1008.715179	0.008575
1008.886117	0.009287
1009.057036	0.011178
1009.227938	0.011094
1009.398821	0.010078
1009.569686	0.011837
1009.740533	0.011583
1009.911361	0.010464
1010.082172	0.011615
1010.252964	0.010533
1010.423738	0.010043
1010.594493	0.010886
1010.765231	0.011590
1010.935950	0.012876
1011.106651	0.013610
1011.277334	0.014862
1011.447998	0.016775
1011.618645	0.015936
1011.789273	0.016193
1011.959882	0.017096
1012.130474	0.014790
1012.301048	0.014255
1012.471603	0.012742
1012.642140	0.013592
1012.812658	0.013334
1012.983159	0.013442
1013.153641	0.013918
1013.324105	0.012851
1013.494551	0.011836
1013.664979	0.013363
1013.835388	0.014419
1014.005779	0.015265
1014.176152	0.015475
1014.346507	0.015179
1014.516843	0.016310
1014.687162	0.015848
1014.857462	0.017366
1015.027744	0.018217
1015.198007	0.018015
1015.368252	0.017420
1015.538480	0.017864
1015.708689	0.018921
1015.878879	0.017943
1016.049052	0.017021
1016.219206	0.016243
1016.389342	0.016890
1016.559460	0.015497
1016.729559	0.014867
1016.899641	0.013756
1017.069704	0.013764
1017.239749	0.011957
1017.409775	0.011144
1017.579784	0.011071
1017.749774	0.012763
1017.919746	0.012813
1018.089700	0.012845
1018.259635	0.011857
1018.429553	0.012863
1018.599452	0.012691
1018.769333	0.012682
1018.939195	0.014081
1019.109040	0.013520
1019.278866	0.012750
1019.448674	0.010556
1019.618464	0.010076
1019.788235	0.011700
1019.957989	0.013287
1020.127724	0.014674
1020.297441	0.013496
1020.467139	0.012821
1020.636820	0.012347
1020.806482	0.012841
1020.976126	0.013315
1021.145752	0.014764
1021.315359	0.015504
1021.484948	0.014045
1021.654519	0.011780
1021.824072	0.013238
1021.993607	0.013748
1022.163123	0.012649
1022.332621	0.010722
1022.502101	0.011475
1022.671563	0.011102
1022.841007	0.008683
1023.010432	0.009406
1023.179839	0.008628
1023.349228	0.008958
1023.518598	0.009313
1023.687951	0.010834
1023.857285	0.012573
1024.026601	0.012409
1024.195899	0.012026
1024.365178	0.013841
1024.534439	0.012699
1024.703682	0.014297
1024.872907	0.012706
1025.042114	0.011615
1025.211302	0.011706
1025.380472	0.012809
1025.549624	0.013250
1025.718758	0.013096
1025.887873	0.013601
1026.056970	0.014315
1026.226049	0.013867
1026.395110	0.014492
1026.564153	0.014132
1026.733177	0.014416
1026.902183	0.014085
1027.071171	0.014419
1027.240141	0.014526
1027.409092	0.013437
1027.578026	0.013770
1027.746940	0.013326
1027.915837	0.013788
1028.084716	0.015150
1028.253576	0.013647
1028.422418	0.013957
1028.591242	0.012741
1028.760048	0.013895
1028.928835	0.014919
1029.097604	0.013482
1029.266355	0.012327
1029.435088	0.011145
1029.603803	0.011074
1029.772499	0.011551
1029.941177	0.010662
1030.109837	0.012363
1030.278478	0.011850
1030.447102	0.008819
1030.615707	0.009816
1030.784294	0.010499
1030.952863	0.011213
1031.121413	0.010388
1031.289945	0.010489
1031.458460	0.010547
1031.626955	0.010404
1031.795433	0.009773
1031.963892	0.011449
1032.132334	0.011278
1032.300756	0.011391
1032.469161	0.010827
1032.637548	0.010506
1032.805916	0.011043
1032.974266	0.011385
1033.142598	0.009245
1033.310911	0.010281
1033.479207	0.010580
1033.647484	0.010877
1033.815743	0.011787
1033.983983	0.011014
1034.152206	0.011000
1034.320410	0.010880
1034.488596	0.010820
1034.656764	0.010602
1034.824914	0.009352
1034.993045	0.010156
1035.161158	0.009559
1035.329253	0.009980
1035.497330	0.011425
1035.665388	0.013230
1035.833428	0.012374
1036.001450	0.012919
1036.169454	0.014700
1036.337440	0.015059
1036.505407	0.014461
1036.673356	0.014680
1036.841287	0.014208
1037.009200	0.012844
1037.177094	0.011741
1037.344970	0.011991
1037.512828	0.010586
1037.680668	0.010794
1037.848489	0.011456
1038.016293	0.011904
1038.184078	0.012098
1038.351845	0.012076
1038.519593	0.013358
1038.687324	0.013404
1038.855036	0.013855
1039.022730	0.014260
1039.190406	0.012535
1039.358063	0.010884
1039.525702	0.010347
1039.693323	0.010471
1039.860926	0.009874
1040.028511	0.010426
1040.196077	0.011494
1040.363625	0.012452
1040.531155	0.011125
1040.698667	0.011576
1040.866161	0.012481
1041.033636	0.013219
1041.201093	0.012215
1041.368532	0.012362
1041.535952	0.013476
1041.703355	0.011920
1041.870739	0.010751
1042.038105	0.012359
1042.205452	0.010411
1042.372782	0.010440
1042.540093	0.009352
1042.707386	0.009914
1042.874661	0.009647
1043.041918	0.007200
1043.209156	0.008126
1043.376376	0.008869
1043.543578	0.008459
1043.710762	0.010792
1043.877927	0.009019
1044.045074	0.008700
1044.212203	0.009383
1044.379314	0.009612
1044.546407	0.010042
1044.713481	0.009370
1044.880537	0.007682
1045.047575	0.009066
1045.214595	0.008411
1045.381596	0.009151
1045.548579	0.008276
1045.715544	0.008352
1045.882491	0.009200
1046.049420	0.009395
1046.216330	0.009831
1046.383222	0.010834
1046.550096	0.009929
1046.716951	0.010411
1046.883789	0.011427
1047.050608	0.013215
1047.217409	0.012061
1047.384192	0.011294
1047.550956	0.011523
1047.717703	0.012080
1047.884431	0.010593
1048.051140	0.010163
1048.217832	0.008101
1048.384505	0.007860
1048.551161	0.006953
1048.717798	0.008416
1048.884416	0.008552
1049.051017	0.009034
1049.217599	0.008543
1049.384163	0.010578
1049.550709	0.010042
1049.717237	0.011383
1049.883746	0.011120
1050.050237	0.012596
1050.216710	0.011488
1050.383165	0.010756
1050.549601	0.011328
1050.716019	0.010523
1050.882420	0.010778
1051.048801	0.010578
1051.215165	0.011201
1051.381510	0.011268
1051.547837	0.009480
1051.714146	0.009834
1051.880437	0.009273
1052.046709	0.007994
1052.212964	0.008573
1052.379200	0.008501
1052.545417	0.009311
1052.711617	0.009799
1052.877798	0.011697
1053.043961	0.011569
1053.210106	0.011869
1053.376233	0.011941
1053.542341	0.011740
1053.708432	0.011916
1053.874504	0.011495
1054.040557	0.011199
1054.206593	0.010293
1054.372610	0.007974
1054.538609	0.009516
1054.704590	0.009407
1054.870553	0.011081
1055.036497	0.010802
1055.202424	0.011068
1055.368331	0.010851
1055.534221	0.010726
1055.700093	0.011379
1055.865946	0.013629
1056.031781	0.014285
1056.197598	0.014497
1056.363397	0.013195
1056.529177	0.013577
1056.694939	0.011043
1056.860683	0.011479
1057.026409	0.010864
1057.192116	0.011031
1057.357806	0.009104
1057.523477	0.008459
1057.689130	0.006619
1057.854764	0.007139
1058.020381	0.005749
1058.185979	0.009240
1058.351559	0.008208
1058.517120	0.008441
1058.682664	0.009052
1058.848189	0.011438
1059.013696	0.011019
1059.179185	0.012382
1059.344656	0.011894
1059.510108	0.014558
1059.675542	0.012933
1059.840958	0.013473
1060.006356	0.014692
1060.171735	0.014192
1060.337096	0.012823
1060.502439	0.014628
1060.667764	0.013100
1060.833071	0.013259
1060.998359	0.012967
1061.163629	0.011181
1061.328881	0.011944
1061.494115	0.010829
1061.659330	0.009992
1061.824527	0.007530
1061.989706	0.006960
1062.154867	0.008861
1062.320010	0.008782
1062.485134	0.007875
1062.650240	0.010320
1062.815328	0.010192
1062.980398	0.009792
1063.145449	0.009489
1063.310482	0.011376
1063.475497	0.009497
1063.640494	0.006662
1063.805473	0.007834
1063.970433	0.006482
1064.135375	0.006139
1064.300299	0.004600
1064.465204	0.005780
1064.630092	0.005296
1064.794961	0.006512
1064.959812	0.003994
1065.124645	0.006488
1065.289459	0.005281
1065.454256	0.005560
1065.619034	0.003903
1065.783793	0.005116
1065.948535	0.004598
1066.113258	0.006089
1066.277964	0.004795
1066.442651	0.006911
1066.607319	0.007099
1066.771970	0.005939
1066.936602	0.006674
1067.101216	0.009933
1067.265812	0.009372
1067.430389	0.010114
1067.594949	0.010380
1067.759490	0.011186
1067.924013	0.011581
1068.088518	0.010104
1068.253004	0.010311
1068.417472	0.010175
1068.581922	0.007841
1068.746354	0.007350
1068.910768	0.008230
1069.075163	0.005735
1069.239540	0.004167
1069.403899	0.004712
1069.568240	0.005727
1069.732562	0.005759
1069.896866	0.007346
1070.061152	0.006885
1070.225420	0.006245
1070.389670	0.005140
1070.553901	0.008153
1070.718114	0.009784
1070.882309	0.008215
1071.046486	0.008820
1071.210644	0.009727
1071.374784	0.007258
1071.538906	0.006941
1071.703010	0.007750
1071.867096	0.007331
1072.031163	0.007698
1072.195212	0.006291
1072.359243	0.007127
1072.523256	0.005527
1072.687250	0.005774
1072.851226	0.006956
1073.015184	0.007786
1073.179124	0.009422
1073.343045	0.010311
1073.506949	0.007984
1073.670834	0.007106
1073.834701	0.006877
1073.998549	0.006918
1074.162380	0.006677
1074.326192	0.006800
1074.489986	0.005562
1074.653761	0.003423
1074.817519	0.000810
1074.981258	0.002342
1075.144979	0.002860
1075.308682	0.001873
1075.472367	0.003108
1075.636033	0.001541
1075.799681	-0.000486
1075.963311	0.000357
1076.126923	0.000274
1076.290516	0.001115
1076.454092	-0.000463
1076.617649	-0.000638
1076.781187	0.000214
1076.944708	-0.001575
1077.108210	0.000576
1077.271695	0.001620
1077.435160	0.001643
1077.598608	0.002505
1077.762038	0.002155
1077.925449	0.001856
1078.088842	0.001055
1078.252217	0.001014
1078.415573	0.000444
1078.578912	-0.000987
1078.742232	0.000184
1078.905534	-0.000183
1079.068817	-0.000668
1079.232083	-0.000094
1079.395330	0.001600
1079.558559	0.004554
1079.721770	0.006627
1079.884962	0.008637
1080.048136	0.009093
1080.211293	0.007149
1080.374430	0.006627
1080.537550	0.006240
1080.700651	0.007478
1080.863735	0.007484
1081.026800	0.003613
1081.189846	0.001120
1081.352875	0.001606
1081.515885	0.000601
1081.678877	0.001957
1081.841851	0.002366
1082.004807	0.001406
1082.167744	0.001389
1082.330663	0.001406
1082.493564	0.003371
1082.656447	0.005693
1082.819312	0.004472
1082.982158	0.006693
1083.144986	0.006407
1083.307796	0.006831
1083.470587	0.006820
1083.633361	0.007038
1083.796116	0.004919
1083.958853	0.003677
1084.121571	0.002843
1084.284272	0.003247
1084.446954	0.001716
1084.609618	0.002473
1084.772264	-0.000744
1084.934892	0.001344
1085.097501	0.000767
1085.260092	0.002251
1085.422665	0.002733
1085.585220	0.003943
1085.747756	0.005010
1085.910274	0.006472
1086.072774	0.007150
1086.235256	0.009974
1086.397720	0.008477
1086.560165	0.008766
1086.722592	0.008850
1086.885001	0.011285
1087.047392	0.010707
1087.209764	0.010909
1087.372119	0.011152
1087.534455	0.009902
1087.696772	0.010168
1087.859072	0.010634
1088.021353	0.009832
1088.183616	0.009898
1088.345861	0.007487
1088.508088	0.006569
1088.670296	0.006641
1088.832486	0.005255
1088.994658	0.005641
1089.156812	0.006335
1089.318948	0.008625
1089.481065	0.007006
1089.643164	0.005547
1089.805245	0.007551
1089.967308	0.006925
1090.129352	0.005751
1090.291378	0.006650
1090.453386	0.007044
1090.615376	0.004853
1090.777347	0.003486
1090.939301	0.005140
1091.101236	0.007980
1091.263153	0.006517
1091.425051	0.005398
1091.586932	0.004749
1091.748794	0.005644
1091.910638	0.005680
1092.072463	0.007006
1092.234271	0.006621
1092.396060	0.004153
1092.557831	0.000780
1092.719584	0.001404
1092.881319	0.002997
1093.043035	0.004973
1093.204733	0.004292
1093.366413	0.005822
1093.528075	0.005625
1093.689718	0.005909
1093.851343	0.008781
1094.012950	0.008691
1094.174539	0.008973
1094.336110	0.007479
1094.497662	0.004873
1094.659196	0.006120
1094.820712	0.001871
1094.982210	0.001812
1095.143689	0.002300
1095.305151	0.001528
1095.466594	0.002266
1095.628018	0.000006
1095.789425	0.001398
1095.950813	0.002597
1096.112183	0.000089
1096.273535	0.002418
1096.434869	0.003320
1096.596184	0.003792
1096.757482	0.004540
1096.918761	0.004090
1097.080021	0.005025
1097.241264	0.005658
1097.402488	0.003824
1097.563694	0.003909
1097.724882	0.002874
1097.886052	0.005227
1098.047203	0.004000
1098.208336	0.005766
1098.369451	0.006266
1098.530548	0.004991
1098.691627	0.002862
1098.852687	0.004331
1099.013729	0.005238
1099.174753	0.007915
1099.335758	0.004129
1099.496746	0.002916
1099.657715	0.003056
1099.818666	0.006911
1099.979599	0.010413
1100.140513	0.016225
1100.301409	0.016971
1100.462287	0.019070
1100.623147	0.016661
1100.783989	0.020999
1100.944812	0.022110
1101.105617	0.019786
1101.266404	0.017829
1101.427173	0.015716
1101.587923	0.010851
1101.748656	0.012137
1101.909370	0.009675
1102.070066	0.010681
1102.230743	0.006355
1102.391403	0.004540
1102.552044	0.004360
1102.712667	0.003609
1102.873271	0.006353
1103.033858	0.003912
1103.194426	0.000942
1103.354976	0.002264
1103.515508	0.000166
1103.676021	0.002233
1103.836517	0.003234
1103.996994	0.002113
1104.157453	0.001317
1104.317893	0.000610
1104.478316	0.002483
1104.638720	0.004015
1104.799106	0.001900
1104.959474	0.003299
1105.119823	-0.000322
1105.280155	-0.003873
1105.440468	-0.005032
1105.600763	-0.002593
1105.761039	-0.002279
1105.921298	-0.002008
1106.081538	-0.005689
1106.241760	-0.005345
1106.401964	-0.007190
1106.562149	-0.004654
1106.722316	0.001595
1106.882465	0.003521
1107.042596	0.000051
1107.202709	-0.002919
1107.362803	-0.001685
1107.522879	0.002072
1107.682937	0.000705
1107.842977	0.004302
1108.002999	0.002921
1108.163002	0.001699
1108.322987	0.003077
1108.482954	0.003756
1108.642902	0.006919
1108.802833	0.006983
1108.962745	0.011915
1109.122639	0.015307
1109.282515	0.010636
1109.442372	0.009674
1109.602211	0.008819
1109.762032	0.005296
1109.921835	0.005736
1110.081620	0.007550
1110.241386	0.004196
1110.401134	-0.000807
1110.560864	-0.001960
1110.720576	-0.001013
1110.880269	0.002260
1111.039945	0.000355
1111.199602	0.002855
1111.359240	0.001160
1111.518861	-0.003283
1111.678463	0.000722
1111.838047	0.001047
1111.997613	0.000002
1112.157161	0.001800
1112.316690	0.000431
1112.476202	-0.000583
1112.635695	-0.000060
1112.795169	0.001161
1112.954626	0.001230
1113.114064	0.000569
1113.273484	0.000932
1113.432886	-0.001178
1113.592270	-0.002137
1113.751635	-0.001191
1113.910983	0.002116
1114.070312	0.002064
1114.229622	0.005911
1114.388915	0.008027
1114.548189	0.005842
1114.707445	0.003113
1114.866683	0.002566
1115.025903	0.005813
1115.185104	0.001291
1115.344287	0.002169
1115.503452	0.001041
1115.662599	0.000563
1115.821727	-0.002437
1115.980838	-0.001091
1116.139930	0.001598
1116.299004	0.001999
1116.458059	0.001347
1116.617097	0.008309
1116.776116	0.005275
1116.935117	0.002146
1117.094099	-0.000538
1117.253064	0.004902
1117.412010	0.003036
1117.570938	0.001622
1117.729848	0.001794
1117.888740	0.000987
1118.047613	0.000642
1118.206468	0.001183
1118.365305	0.004521
1118.524124	0.004178
1118.682924	0.001972
1118.841707	0.000644
1119.000471	-0.000698
1119.159216	0.000840
1119.317944	-0.001056
1119.476653	-0.007219
1119.635344	-0.004351
1119.794017	-0.003865
1119.952672	-0.003759
1120.111308	-0.006355
1120.269927	-0.002021
1120.428527	-0.000740
1120.587108	0.000044
1120.745672	-0.000257
1120.904217	0.002660
1121.062744	-0.002839
1121.221253	-0.002786
1121.379744	-0.002012
1121.538216	-0.002079
1121.696671	-0.000200
1121.855107	0.002707
1122.013524	0.002552
1122.171924	0.002851
1122.330305	0.000255
1122.488668	0.004409
1122.647013	0.006370
1122.805340	0.005588
1122.963648	0.009128
1123.121938	0.007792
1123.280210	0.005648
1123.438464	0.004896
1123.596700	0.007095
1123.754917	0.008588
1123.913116	0.006233
1124.071297	0.005552
1124.229459	0.005953
1124.387604	0.002608
1124.545730	-0.001463
1124.703838	-0.002579
1124.861928	-0.004597
1125.019999	-0.006441
1125.178052	-0.003502
1125.336088	-0.001950
1125.494104	-0.003552
1125.652103	-0.006706
1125.810083	-0.004728
1125.968045	-0.000005
1126.125989	0.000804
1126.283915	0.004404
1126.441823	0.005078
1126.599712	0.008319
1126.757583	0.006017
1126.915436	0.008716
1127.073270	0.010432
1127.231087	0.004369
1127.388885	0.004201
1127.546665	0.006646
1127.704426	0.002199
1127.862170	0.000304
1128.019895	-0.003926
1128.177602	0.001107
1128.335291	-0.001816
1128.492961	-0.002612
1128.650614	0.001683
1128.808248	0.001344
1128.965864	-0.003210
1129.123461	-0.000134
1129.281041	0.003802
1129.438602	0.004129
1129.596145	-0.001050
1129.753670	-0.000398
1129.911176	0.002591
1130.068665	0.002668
1130.226135	0.001996
1130.383587	-0.000434
1130.541020	-0.003898
1130.698436	-0.006799
1130.855833	-0.005949
1131.013212	-0.000933
1131.170573	0.000365
1131.327915	-0.002475
1131.485239	-0.001790
1131.642545	-0.005165
1131.799833	-0.000187
1131.957103	0.002133
1132.114354	0.003200
1132.271588	0.002829
1132.428803	0.000981
1132.585999	-0.004122
1132.743178	-0.003636
1132.900338	0.002715
1133.057480	0.009196
1133.214604	0.007786
1133.371710	0.010277
1133.528797	0.008489
1133.685866	0.005085
1133.842917	0.001634
1133.999950	0.008314
1134.156964	0.009233
1134.313960	0.000707
1134.470938	-0.001815
1134.627898	-0.002579
1134.784840	-0.001011
1134.941763	0.000363
1135.098668	0.002237
1135.255555	0.009370
1135.412424	0.005600
1135.569274	0.009629
1135.726107	0.012396
1135.882921	0.010778
1136.039716	0.012640
1136.196494	0.013586
1136.353253	0.014411
1136.509995	0.012307
1136.666717	0.009771
1136.823422	0.010984
1136.980109	0.003128
1137.136777	-0.000571
1137.293427	0.002506
1137.450059	0.001705
1137.606672	0.000316
1137.763267	-0.000042
1137.919844	0.000805
1138.076403	0.001645
1138.232944	0.002398
1138.389466	0.007001
1138.545971	0.011537
1138.702457	0.009277
1138.858924	0.013161
1139.015374	0.010703
1139.171805	0.003300
1139.328218	0.003795
1139.484613	-0.002331
1139.640990	-0.003432
1139.797348	-0.005790
1139.953688	-0.011478
1140.110010	-0.014208
1140.266314	-0.017618
1140.422600	-0.016214
1140.578867	-0.013197
1140.735116	-0.008989
1140.891347	-0.005701
1141.047559	-0.005847
1141.203754	-0.004935
1141.359930	-0.001119
1141.516088	-0.001887
1141.672228	0.000200
1141.828349	-0.000675
1141.984452	0.002006
1142.140537	-0.000870
1142.296604	-0.007755
1142.452653	-0.008165
1142.608683	-0.007122
1142.764695	-0.006444
1142.920689	-0.001478
1143.076665	-0.000886
1143.232622	0.003209
1143.388562	0.005046
1143.544483	0.007623
1143.700385	0.020150
1143.856270	0.018434
1144.012136	0.010381
1144.167985	0.007868
1144.323814	0.004540
1144.479626	0.005347
1144.635420	-0.000715
1144.791195	-0.007532
1144.946952	-0.003119
1145.102691	-0.005256
1145.258411	-0.003302
1145.414113	0.006582
1145.569798	0.007398
1145.725463	0.010887
1145.881111	0.008855
1146.036741	0.006648
1146.192352	0.011415
1146.347945	0.000374
1146.503519	-0.007045
1146.659076	-0.006148
1146.814614	-0.008098
1146.970134	-0.004256
1147.125636	-0.005849
1147.281120	-0.005619
1147.436585	-0.003956
1147.592032	-0.000854
1147.747461	0.002154
1147.902872	0.009523
1148.058265	0.007174
1148.213639	0.005068
1148.368995	-0.002915
1148.524333	-0.000184
1148.679653	-0.000364
1148.834954	0.003824
1148.990237	0.000640
1149.145502	0.002871
1149.300749	0.004396
1149.455977	0.011265
1149.611188	0.015373
1149.766380	0.022496
1149.921553	0.016845
1150.076709	0.019103
1150.231846	0.014428
1150.386966	0.019015
1150.542066	0.016335
1150.697149	0.015282
1150.852214	0.017148
1151.007260	0.013949
1151.162288	0.006594
1151.317298	0.013109
1151.472289	0.012966
1151.627263	0.019112
1151.782218	0.018777
1151.937155	0.022483
1152.092073	0.014725
1152.246974	0.009790
1152.401856	0.013745
1152.556720	0.023822
1152.711566	0.017464
1152.866393	0.017294
1153.021203	0.018320
1153.175994	0.014796
1153.330767	0.018049
1153.485521	0.021471
1153.640258	0.013785
1153.794976	0.007826
1153.949676	0.006048
1154.104358	0.005506
1154.259021	-0.000622
1154.413667	0.000998
1154.568294	-0.002905
1154.722903	-0.006189
1154.877493	-0.008408
1155.032066	-0.007675
1155.186620	-0.007217
1155.341156	-0.016291
1155.495674	-0.013772
1155.650173	-0.013655
1155.804654	-0.010446
1155.959118	-0.000176
1156.113562	-0.004611
1156.267989	0.000619
1156.422397	0.008150
1156.576788	0.007663
1156.731160	0.020604
1156.885513	0.014927
1157.039849	0.010451
1157.194166	0.000473
1157.348465	-0.004713
1157.502746	-0.002243
1157.657009	-0.000210
1157.811253	0.001260
1157.965479	0.001837
1158.119687	-0.009255
1158.273877	-0.003260
1158.428048	0.002838
1158.582201	-0.003008
1158.736337	-0.001084
1158.890453	0.001789
1159.044552	0.002737
1159.198632	-0.011610
1159.352694	-0.013089
1159.506738	-0.007428
1159.660764	-0.006685
1159.814771	-0.005889
1159.968761	0.003305
1160.122732	-0.000511
1160.276685	-0.010745
1160.430619	-0.015840
1160.584535	-0.004134
1160.738434	-0.000448
1160.892313	0.004472
1161.046175	-0.002073
1161.200019	-0.005818
1161.353844	-0.000086
1161.507651	-0.006688
1161.661440	0.000210
1161.815210	-0.003493
1161.968962	-0.008380
1162.122697	-0.009105
1162.276412	-0.014758
1162.430110	-0.017266
1162.583789	-0.003894
1162.737451	-0.010905
1162.891094	0.008372
1163.044718	0.009132
1163.198325	0.015315
1163.351913	0.021207
1163.505483	0.022247
1163.659035	0.018350
1163.812569	0.028004
1163.966084	0.018031
1164.119581	0.019107
1164.273060	0.004974
1164.426521	-0.001371
1164.579964	-0.011055
1164.733388	-0.010003
1164.886794	0.002003
1165.040182	0.013396
1165.193551	0.009481
1165.346903	0.004572
1165.500236	0.002156
1165.653551	0.001465
1165.806848	0.003111
1165.960126	0.010669
1166.113386	0.015999
1166.266628	0.007025
1166.419852	0.004586
1166.573058	0.007382
1166.726245	0.009343
1166.879414	0.016616
1167.032565	0.016065
1167.185698	0.017774
1167.338812	0.021855
1167.491909	0.009624
1167.644987	0.007201
1167.798046	0.001356
1167.951088	-0.001522
1168.104111	0.009230
1168.257117	-0.009673
1168.410103	-0.009496
1168.563072	-0.007557
1168.716023	-0.012339
1168.868955	-0.013855
1169.021869	-0.023112
1169.174765	-0.020840
1169.327642	-0.013059
1169.480501	-0.012340
1169.633343	0.001642
1169.786165	-0.000104
1169.938970	0.000344
1170.091757	-0.003508
1170.244525	-0.002947
1170.397275	-0.000265
1170.550007	-0.006921
1170.702720	-0.010081
1170.855415	-0.020164
1171.008092	-0.013485
1171.160751	0.001203
1171.313392	0.010468
1171.466014	-0.000873
1171.618619	0.087871
1171.771205	0.087871
1171.923772	0.087871
