sample name	sample
index	1294
start time	 04-29-2021  03:22:56 PM
880	0.039060
Peak Time (s)	100.538
Peak Height 	0.03906
calc peak height	100,103
Baseline Time (s)	10.037
Baseline Value 	-0.004461
subtract baseline	10,4
Abs	-0.011616
Peak Time (s)	100.038
Peak Height 	-0.01162
calc peak height	100,103
Baseline Time (s)	11.535
Baseline Value 	0.003099
subtract baseline	10,3
PK_550	0.002565
Peak Time (s)	100.038
Peak Height 	0.002565
calc peak height	100,103
Baseline Time (s)	8.537
Baseline Value 	9.3694E-4
subtract baseline	10,2
PK_880	-0.012329
Peak Time (s)	100.038
Peak Height 	-0.01233
calc peak height	100,103
Baseline Time (s)	8.537
Baseline Value 	0.002277
subtract baseline	10,1


Time (s)	A880-A510	A880-A775	A880-A975	A880	I510	I775	I975	I880	
0.034500	-0.001203	-0.001120	-0.002128	0.001272	6319.068823	41133.725362	3864.507972	20993.736588
0.535000	-0.002983	-0.000552	-0.003250	0.003482	6288.699127	40989.946381	3857.675569	20902.405334
1.035000	-0.005689	-0.000614	-0.004055	0.006640	6244.555689	40709.577173	3849.614291	20772.648695
1.538000	0.000233	-0.000427	0.000262	0.001374	6329.293902	41185.582979	3869.232084	20989.516398
2.038500	-0.000557	-0.000818	0.000049	0.000308	6331.416835	41245.003603	3871.000627	21033.765692
2.536000	-0.001314	-0.000650	-0.000438	0.000414	6324.793385	41250.400071	3869.771908	21029.362971
3.036500	-0.003248	-0.000356	0.001144	0.003566	6286.054194	40999.757315	3866.525357	20898.925453
3.536500	0.000393	0.000025	0.002490	0.000663	6335.975555	41287.869798	3875.335622	21018.996558
4.037000	0.000050	-0.000404	0.001761	-0.000121	6339.376141	41319.161392	3875.451557	21051.585456
4.537000	-0.001491	-0.000541	0.004130	-0.001054	6334.704028	41389.387586	3882.360975	21090.421562
5.037500	0.000574	-0.000318	-0.005805	-0.000758	6348.316947	41382.881674	3861.122643	21078.062155
5.538000	0.000847	-0.000737	-0.000618	-0.000256	6346.552966	41301.764545	3870.785816	21057.195763
6.035500	-0.001756	-0.000583	0.002934	-0.000567	6328.920967	41342.740346	3878.832755	21070.127274
6.535500	-0.002969	-0.001432	0.002726	-0.001471	6326.559638	41347.548126	3880.290623	21107.798840
7.037000	-0.002033	-0.000288	0.003136	-0.000503	6326.309878	41363.098506	3879.121860	21067.475366
7.535500	0.000135	-0.000340	0.003759	-0.000006	6339.144267	41314.660280	3879.385041	21046.799265
8.036000	0.001360	-0.000881	-0.003349	-0.000251	6350.478467	41288.656956	3865.132694	21056.999697
8.536500	0.000000	0.000000	-0.000074	0.000162	6336.813522	41329.859076	3871.048791	21039.821524
9.033500	0.000075	-0.000149	-0.001296	-0.000651	6343.642462	41388.376178	3870.199412	21073.612990
9.537000	-0.000718	0.000218	0.003151	0.000191	6331.074780	41346.510478	3877.700949	21038.618811
10.037500	0.000181	0.000271	0.000000	0.000000	6339.451390	41368.081372	3871.537748	21046.546711
10.545500	0.000877	0.000640	-0.004578	0.000447	6341.366857	41361.159735	3861.169223	21027.967767
11.041000	-0.000149	-0.000382	0.002777	-0.000434	6340.249831	41348.734310	3878.226055	21064.600531
11.535000	-0.001866	-0.000047	0.000000	-0.000374	6326.604649	41373.024981	3872.314020	21062.104079
12.038500	0.001037	0.000563	-0.001498	-0.000447	6349.492571	41433.344110	3869.359656	21065.139366
12.536000	-0.001248	-0.000338	-0.000340	-0.000773	6334.404663	41382.478144	3872.435584	21078.697637
13.036500	-0.000470	0.000956	-0.001638	-0.000336	6337.025139	41458.229695	3868.838612	21060.515192
13.536500	-0.002555	-0.001073	-0.004785	-0.000401	6321.525263	41284.885615	3862.483977	21063.204852
14.037000	-0.000054	-0.000527	-0.004876	0.001430	6326.658949	41171.839258	3858.544847	20987.187104
14.534500	-0.001896	0.000006	0.000104	0.001017	6315.730590	41255.105384	3869.643803	21004.327676
15.040000	-0.000753	0.000018	0.001860	-0.000239	6334.113103	41366.851536	3875.905277	21056.499547
15.535500	-0.000218	-0.000518	-0.000442	-0.000104	6337.181961	41307.658569	3870.836683	21050.884367
16.038000	0.002565	0.000405	0.000705	0.000007	6357.788646	41379.264070	3872.985478	21046.246202
16.536000	-0.000296	-0.000715	-0.000467	-0.001305	6345.826662	41396.165156	3873.276925	21100.862908
17.038500	0.002466	0.000783	0.004505	-0.000598	6361.703129	41466.123556	3882.189594	21071.404707
17.539500	-0.002178	0.000234	0.000988	0.000353	6318.647369	41333.660575	3872.855204	21031.879877
18.036500	-0.001519	-0.000613	-0.002380	-0.000008	6326.457906	41290.767866	3866.628364	21046.870921
18.537000	-0.002217	-0.000784	0.001155	0.000035	6320.774551	41271.967560	3873.864602	21045.078171
19.037000	-0.000203	0.000142	-0.001804	0.000433	6333.171527	41318.520500	3866.907038	21028.564151
19.540000	-0.000415	-0.000510	-0.000712	0.000198	6333.347865	41281.693752	3869.649518	21038.312290
20.035000	-0.000134	-0.000277	0.005969	0.000500	6333.190252	41275.690706	3882.958878	21025.788850
20.535000	-0.002731	0.000385	0.000691	0.000571	6312.756498	41327.794932	3871.786659	21022.844138
21.036000	-0.001179	0.000469	0.002682	0.001019	6321.196252	41295.695818	3874.995650	21004.244923
21.535500	0.001534	-0.000593	-0.000867	0.000525	6345.831603	41245.668445	3868.654390	21024.748902
22.036000	-0.001746	-0.000771	-0.001769	0.000790	6318.608583	41206.724561	3866.243757	21013.760840
22.536500	0.000420	-0.000320	-0.003201	0.000889	6334.451848	41237.600449	3863.087595	21009.613414
23.037000	-0.001008	-0.000910	0.001227	0.000198	6328.794531	41246.511487	3873.676249	21038.332713
23.537000	-0.002467	-0.000531	0.001863	0.000508	6315.249599	41252.586787	3874.353491	21025.430530
24.034500	-0.001118	-0.000085	0.002045	0.001002	6321.792513	41248.375514	3873.703068	21004.938733
24.538000	0.000266	0.000034	-0.002793	0.000976	6332.600859	41261.115095	3863.749430	21006.012218
25.035000	-0.002237	-0.001713	-0.001776	-0.000411	6324.041783	41229.476642	3868.709612	21063.645139
25.535500	0.000059	-0.000183	0.004611	0.000837	6332.079550	41254.220045	3879.402702	21011.781746
26.035500	-0.000509	-0.000053	-0.004341	0.000761	6328.296691	41272.394821	3861.011149	21014.924058
26.536000	-0.001026	-0.000191	-0.000926	0.000615	6325.459460	41273.127779	3868.346040	21021.004889
27.036500	-0.001934	-0.002029	0.002828	-0.000215	6324.859938	41184.482233	3877.873827	21055.492601
27.536500	-0.000682	-0.000053	0.005110	-0.002075	6348.784449	41522.901180	3886.571170	21132.989171
28.037000	0.002116	0.000211	-0.000910	-0.000632	6359.264278	41418.567758	3870.961483	21072.849120
28.534500	0.000483	-0.000330	0.005659	-0.001013	6349.585014	41404.412066	3885.489870	21088.685520
29.042500	-0.002143	-0.000947	-0.002530	-0.001005	6329.314703	41349.216320	3868.378884	21088.371476
29.535000	0.000334	-0.000194	-0.000840	-0.000956	6347.991987	41411.424250	3871.777726	21086.327768
30.035000	0.001245	-0.000416	-0.001042	-0.000918	6354.739403	41388.485675	3871.281177	21084.760656
30.536000	-0.003795	-0.000214	0.003129	-0.001128	6317.606876	41424.848486	3880.415113	21093.489935
31.035500	-0.001099	-0.000607	0.004272	0.001170	6320.651178	41187.746734	3877.996751	20997.979552
31.536500	-0.000190	-0.001171	-0.000324	-0.001013	6344.393224	41330.235892	3872.969021	21088.710366
32.035500	0.001816	0.000640	0.002526	-0.000421	6355.309824	41437.853663	3877.674664	21064.064071
32.537000	0.000193	0.000555	-0.000956	-0.000527	6343.605851	41439.703024	3870.648709	21068.473108
33.036000	-0.000243	-0.000416	0.000949	-0.000311	6338.582592	41334.947651	3874.157323	21059.496149
33.534500	-0.000378	-0.000427	0.003037	-0.000217	6336.821477	41325.669080	3878.316359	21055.578418
34.040000	-0.000652	-0.000211	-0.000427	-0.001189	6342.189458	41430.474698	3873.119212	21096.034695
34.534500	-0.002114	-0.000875	0.000681	0.000504	6317.984851	41222.733606	3871.904626	21025.624732
35.035000	-0.001554	0.000200	-0.001383	0.001573	6314.096307	41223.253446	3865.423985	20981.294396
35.536000	-0.001298	-0.000374	0.004251	0.000762	6322.252209	41244.061243	3878.805626	21014.891270
36.039000	-0.000618	0.000014	-0.001799	0.000966	6325.891092	41260.218788	3865.816476	21006.429621
36.536500	-0.003065	-0.001043	-0.001504	0.000119	6313.658103	41241.754006	3868.176622	21041.605515
37.036500	-0.000512	-0.000939	0.000963	-0.000135	6335.155721	41273.237240	3873.818780	21052.143752
37.537000	-0.000640	-0.001070	-0.003249	0.000005	6333.099786	41249.428140	3864.811210	21046.352028
38.037000	-0.000453	0.000067	-0.003000	0.000955	6327.246959	41265.947301	3863.368059	21006.906699
38.537500	-0.000218	0.000251	0.001684	0.001157	6327.501709	41264.319885	3872.630702	20998.521785
39.034500	-0.001060	-0.000920	-0.001457	0.000316	6327.491976	41235.237584	3867.865122	21033.412367
39.535500	-0.001275	-0.000588	0.004034	0.000644	6323.331735	41235.641719	3878.601487	21019.814144
40.034500	-0.003983	-0.000038	0.004265	0.000852	6301.074512	41265.679782	3878.646794	21011.162387
40.536000	-0.000709	-0.000336	-0.001769	0.000696	6327.268057	41253.158794	3866.436172	21017.620273
41.036000	0.000669	0.000542	0.000732	0.001406	6332.394381	41268.047939	3870.139457	20988.203887
41.536500	-0.001123	-0.000483	0.000598	0.000328	6326.921061	41272.675469	3872.099520	21032.933060
42.037000	-0.000779	-0.000436	-0.000578	0.000442	6328.676445	41266.760570	3869.422692	21028.179932
42.537000	-0.002152	-0.000718	-0.002821	0.000094	6320.824799	41272.634398	3865.507678	21042.647662
43.037500	-0.002455	-0.000024	-0.001493	0.000906	6312.302731	41262.151241	3866.571490	21008.907964
43.535000	-0.000900	-0.000956	-0.009018	0.000486	6327.411242	41217.137863	3852.028385	21026.346366
44.037500	0.000728	-0.000462	-0.001015	-0.001151	6352.543049	41404.919913	3871.819951	21094.447282
44.535000	0.000117	-0.000350	-0.001167	-0.001264	6348.695712	41424.770244	3871.739115	21099.152376
45.036000	-0.002452	-0.000870	0.000788	-0.001408	6330.035869	41391.643444	3876.106042	21105.170967
45.536000	-0.002590	-0.000858	0.001339	0.000821	6311.926584	41196.363995	3872.612593	21012.463794
46.040000	0.002755	0.000514	0.006866	-0.000845	6365.866236	41464.224922	3887.683369	21081.718365
46.536500	-0.000747	-0.000371	0.006492	-0.000771	6338.245577	41379.424747	3886.737972	21078.632724
47.039500	0.001322	0.000325	0.001942	-0.000307	6350.611277	41399.869259	3876.216262	21059.298609
47.537000	-0.000268	-0.000552	-0.005154	0.001787	6322.287388	41138.378892	3857.248288	20972.418567
48.039000	-0.003714	-0.000961	-0.004914	0.000487	6305.900285	41216.590483	3860.397392	21026.296584
48.535000	-0.001409	-0.000067	0.005515	-0.000382	6330.174212	41371.959574	3883.860242	21062.449614
49.038500	-0.000372	-0.000475	0.005566	-0.000841	6341.669187	41376.481396	3884.932987	21081.544289
49.535000	-0.001036	-0.000497	0.000943	0.001352	6319.744730	41181.360427	3870.688834	20990.443600
50.039000	0.002777	0.000133	0.003340	-0.003451	6386.301473	41661.496170	3885.740365	21190.545021
50.535500	0.000427	-0.000539	0.006542	0.000990	6333.730830	41209.533822	3883.131911	21005.443367
51.039500	-0.001528	-0.005525	0.001867	-0.005548	6369.117213	41346.170027	3887.057442	21278.617313
51.536500	-0.004800	-0.021137	-0.001305	0.245519	4874.668213	23768.542206	3480.809052	13251.431817
52.039500	-0.031563	-0.033933	-0.012673	-0.116718	7061.686207	49388.386176	4115.516889	26612.407088
52.540000	-0.035829	-0.038243	-0.018053	-0.176561	7616.527559	55710.962103	4268.529571	30101.619258
53.039500	-0.034804	-0.038837	-0.008973	-0.191774	7792.487559	57514.057033	4343.218190	31067.923990
53.535000	-0.035474	-0.032138	-0.004889	-0.167536	7525.230523	55357.946450	4280.963938	29544.136935
54.037000	-0.019366	-0.034749	-0.002147	-0.203723	8104.608755	59563.418063	4403.875951	31851.078374
54.536000	-0.011871	-0.022993	0.002893	-0.166358	7765.159596	56326.575534	4301.045005	29472.215393
55.039000	-0.019775	-0.020333	-0.005975	-0.127551	7278.987395	52070.825912	4162.692189	27208.924860
55.536500	-0.013040	-0.012864	-0.009027	-0.131292	7383.509048	53352.918338	4164.584326	27418.381717
56.039500	-0.006073	-0.009147	-0.006877	-0.136159	7504.677200	54357.386583	4184.038485	27693.655975
56.536500	-0.009308	-0.008763	-0.008033	-0.120357	7311.368608	52567.398767	4137.556212	26811.132530
57.039500	-0.009542	-0.011632	-0.008917	-0.113354	7240.081797	51454.169468	4116.547787	26430.153499
57.537500	-0.011462	-0.010792	-0.009346	-0.105397	7144.682722	50667.249258	4094.627033	26004.684734
58.039000	-0.012255	-0.012207	-0.010428	-0.097533	7062.838560	49660.434188	4071.705435	25591.830344
58.535500	-0.014732	-0.010768	-0.014087	-0.085644	6930.553655	48551.984635	4032.970305	24981.597462
59.039500	-0.008731	-0.007303	-0.007172	-0.054507	6709.391098	45742.374565	3975.322062	23460.461292
59.535500	-0.015642	-0.011642	-0.006395	-0.064273	6733.861671	46279.365184	4000.019191	23925.844191
60.036000	-0.015481	-0.009376	-0.007924	-0.059123	6691.187344	45993.161865	3984.303105	23679.120685
60.536500	-0.014686	-0.013131	-0.004645	-0.084142	6917.400631	48148.679474	4052.578630	24905.705665
61.039500	-0.019392	-0.014220	-0.006138	-0.044159	6534.101966	44078.079357	3953.997937	22978.595023
61.537000	-0.020931	-0.014844	-0.008341	-0.029133	6401.743837	42625.401593	3915.734791	22299.005240
62.045500	-0.024046	-0.016355	0.001164	-0.018243	6293.716506	41511.056441	3912.724980	21820.972023
62.533500	-0.035270	-0.021857	-0.018110	-0.008275	6136.735231	40164.686466	3851.356841	21393.790948
63.038500	-0.031517	-0.022189	-0.007484	0.019529	5967.620327	37835.691989	3817.186389	20252.817636
63.535000	-0.034462	-0.023473	-0.006211	0.044519	5782.586169	35792.849560	3772.175893	19287.783477
64.039000	-0.040826	-0.027911	-0.004764	0.085524	5494.795869	32538.697691	3702.361646	17819.865654
64.535500	-0.028151	-0.008724	-0.015156	0.132520	5305.042215	30708.882373	3611.741546	16299.379652
65.039000	-0.020579	-0.002666	-0.013465	0.125369	5384.607856	31563.419011	3624.935728	16520.254211
65.536500	-0.018682	0.000282	-0.016916	0.126430	5389.210995	31687.637848	3618.168686	16487.259038
66.036500	-0.019816	0.004005	-0.015338	0.130670	5359.795574	31653.561950	3614.209949	16356.171426
66.537500	-0.020750	0.004494	-0.022099	0.137418	5318.381064	31244.106140	3594.488254	16150.186324
67.037000	-0.017927	0.006073	-0.018054	0.134650	5348.452135	31527.905890	3604.358715	16234.308394
67.535000	-0.015487	0.007192	-0.016064	0.135873	5355.049991	31521.009393	3605.479245	16197.059610
68.039000	-0.012937	0.006650	-0.009260	0.132181	5389.180016	31728.399377	3621.018236	16309.783214
68.535000	-0.018011	0.006374	-0.020326	0.127782	5385.468255	32002.090351	3611.105102	16445.341834
69.039000	-0.016287	0.006766	-0.026030	0.122416	5424.767491	32388.596784	3610.604559	16612.534533
69.536000	-0.018498	0.006876	-0.018987	0.116491	5445.615140	32799.335202	3630.014238	16799.604184
70.039000	-0.017826	0.007696	-0.020820	0.108350	5495.797131	33419.831066	3639.666894	17060.810702
70.536500	-0.017497	0.006825	-0.012577	0.099333	5550.143810	33995.064453	3666.806433	17355.913451
71.039000	-0.018310	0.007710	-0.021451	0.091579	5591.265723	34617.039343	3665.011519	17614.598879
71.540000	-0.019687	0.006023	-0.021402	0.082653	5636.748772	35147.826909	3679.519318	17918.201121
72.034500	-0.020113	0.006571	-0.024059	0.076346	5672.732899	35658.714557	3685.505734	18136.498163
72.535000	-0.022104	0.005735	-0.029053	0.073405	5678.589579	35817.203897	3682.132127	18239.390455
73.039500	-0.020877	0.005739	-0.019163	0.063224	5749.947933	36594.993213	3715.803397	18600.966188
73.535500	-0.019171	0.004352	-0.021773	0.057317	5798.616543	36946.040303	3721.483872	18814.669767
74.038500	-0.019160	0.004780	-0.020369	0.052233	5831.675492	37379.233967	3732.791167	19000.970889
74.536500	-0.022415	0.003479	-0.025144	0.051298	5816.572365	37350.228735	3726.077177	19035.438354
75.038500	-0.023866	0.002750	-0.028598	0.043169	5860.261097	37939.920600	3734.258142	19338.525979
75.536500	-0.018608	0.003012	-0.025455	0.041141	5908.689039	38124.462319	3743.410187	19415.022791
76.039500	-0.021719	0.002650	-0.023867	0.039054	5901.834209	38264.078843	3749.979478	19494.102925
76.537000	-0.019145	0.003833	-0.022536	0.038903	5920.110543	38372.374531	3752.643154	19499.832653
77.039000	-0.020960	0.002611	-0.020118	0.036698	5922.743223	38452.492226	3761.017808	19583.858253
77.535000	-0.021929	0.003547	-0.028741	0.036330	5918.697215	38558.980650	3746.128258	19597.921157
78.038500	-0.023077	0.002417	-0.017830	0.034842	5920.982652	38588.245490	3768.597925	19654.891492
78.536000	-0.025834	0.001722	-0.026310	0.039421	5872.010822	38159.158307	3744.950698	19480.161939
79.039000	-0.024098	0.002687	-0.026058	0.033804	5921.099651	38695.555606	3755.490896	19694.778941
79.536000	-0.022605	0.001915	-0.025903	0.033202	5935.232840	38681.558356	3756.861319	19717.939556
80.036000	-0.022462	0.002478	-0.024109	0.034449	5927.776265	38625.494940	3757.852092	19670.003005
80.540000	-0.027826	0.000358	-0.030330	0.038195	5866.948729	38148.030011	3739.982185	19526.780655
81.037000	-0.021135	0.001936	-0.025752	0.033666	5942.050663	38645.227919	3756.294142	19700.083994
81.540500	-0.022148	0.001892	-0.022032	0.033592	5935.684828	38647.638208	3763.189806	19702.917739
82.035000	-0.020032	0.002235	-0.024244	0.034144	5946.284819	38630.537188	3758.160735	19681.700550
82.535000	-0.023520	0.002370	-0.021319	0.040208	5882.139654	38147.915844	3752.486577	19450.328089
83.035000	-0.021544	0.002422	-0.019080	0.034515	5933.532992	38615.493446	3766.904521	19667.469794
83.536000	-0.021793	0.003320	-0.029388	0.035484	5925.305249	38609.580489	3746.483637	19630.278650
84.036500	-0.019742	0.002285	-0.023066	0.034947	5942.806662	38568.867886	3758.839783	19650.862190
84.536000	-0.023215	0.001747	-0.029651	0.040860	5879.834997	38044.978996	3736.470335	19425.631806
85.037000	-0.019923	0.003193	-0.021365	0.036136	5933.533881	38545.928158	3759.770911	19605.354773
85.539500	-0.018294	0.002648	-0.023124	0.036896	5939.407162	38439.332525	3755.204270	19576.282746
86.037000	-0.018383	0.003701	-0.025342	0.037462	5934.979276	38479.156950	3750.189021	19554.714004
86.535000	-0.021907	0.002210	-0.024333	0.042127	5880.107385	37980.237839	3743.651283	19377.783454
87.035000	-0.016869	0.003540	-0.022917	0.037427	5945.467406	38468.751834	3754.618916	19556.022605
87.535000	-0.018722	0.002213	-0.022002	0.036447	5939.553412	38440.454933	3758.049241	19593.440434
88.035500	-0.020760	0.002482	-0.023218	0.036316	5926.666847	38473.114298	3756.083102	19598.463421
88.536000	-0.020943	0.002278	-0.023710	0.042089	5886.764532	37988.800919	3744.828687	19379.210599
89.036000	-0.015565	0.003778	-0.019804	0.037285	5955.305370	38499.812000	3760.519452	19561.450472
89.536500	-0.019333	0.001990	-0.017243	0.036611	5934.307617	38408.994862	3766.429076	19587.181952
90.037000	-0.018001	0.002430	-0.021336	0.036641	5943.128904	38442.369461	3758.906349	19586.040271
90.537500	-0.022654	0.002299	-0.026468	0.041348	5880.318359	38050.182598	3741.240580	19407.182212
91.035000	-0.019238	0.003162	-0.021979	0.036351	5936.712475	38525.825285	3758.266307	19597.130006
91.535000	-0.019428	0.002131	-0.017988	0.035699	5939.838646	38494.794984	3766.734724	19622.056952
92.035000	-0.019338	0.002571	-0.019261	0.036127	5937.550788	38495.824593	3763.622423	19605.689270
92.535500	-0.021494	0.001290	-0.024229	0.040680	5892.483560	38022.668496	3746.418861	19432.458512
93.035500	-0.017321	0.002423	-0.021355	0.036417	5949.258911	38460.073305	3759.277960	19594.581878
93.536500	-0.019000	0.002114	-0.014185	0.037043	5933.645050	38383.930986	3771.257625	19570.703784
94.036500	-0.017432	0.000963	-0.022358	0.035792	5952.764194	38392.069881	3758.592078	19618.514176
94.536500	-0.020227	0.001133	-0.019897	0.041400	5896.132226	37952.104415	3752.900172	19405.227543
95.039500	-0.017031	0.001428	-0.020469	0.036314	5951.940555	38387.443432	3761.077161	19598.552400
95.540000	-0.015650	0.001161	-0.010737	0.036887	5957.435615	38319.107906	3777.931420	19576.632136
96.035000	-0.013863	0.001601	-0.020019	0.037074	5968.366395	38339.661020	3760.513960	19569.513435
96.535000	-0.019764	0.000865	-0.022352	0.041623	5897.730244	37912.656292	3748.089216	19396.790771
97.035500	-0.016885	0.001869	-0.017704	0.037138	5947.325262	38356.234986	3764.620408	19567.068630
97.535500	-0.016753	0.001030	-0.017013	0.035850	5956.982885	38392.758197	3768.246386	19616.273982
98.035500	-0.015420	0.001373	-0.018967	0.035648	5967.467062	38437.211306	3765.035071	19624.029639
98.536000	-0.018792	0.000106	-0.016779	0.039924	5915.620303	37988.180663	3761.223064	19461.085136
99.036500	-0.014408	0.002551	-0.017552	0.036038	5971.721081	38501.498743	3766.912628	19609.094547
99.537000	-0.019822	0.002103	-0.014884	0.035259	5940.152192	38528.520068	3773.262237	19638.927221
100.037500	-0.012329	0.002565	-0.011616	0.035434	5990.148408	38551.916830	3778.999208	19632.195535
100.537500	-0.021729	0.000310	-0.016416	0.039060	5901.729117	38074.308583	3763.460286	19493.887185
101.038000	-0.015277	0.002025	-0.013653	0.033571	5982.693166	38660.341809	3778.677190	19703.750943
101.535000	-0.014335	0.001763	-0.017297	0.033185	5991.827455	38670.433190	3772.633900	19718.574648
102.036000	-0.012423	0.001314	-0.017906	0.032075	6012.740521	38724.821966	3773.561568	19761.406694
102.535500	-0.017182	0.002366	-0.018732	0.037860	5940.409759	38337.940220	3761.424345	19539.521638
103.036000	-0.012324	0.002152	-0.011306	0.031773	6015.521673	38818.513569	3786.427862	19773.036616
103.536500	-0.012274	0.002843	-0.013990	0.031412	6018.381583	38905.275789	3782.073863	19786.994327
104.036500	-0.016386	0.001328	-0.017946	0.029703	6001.707317	38921.300801	3777.884771	19853.202606
104.539500	-0.012634	0.003148	-0.007508	0.030411	6022.841931	39013.410160	3796.184282	19825.762963
105.037500	-0.011079	0.003520	-0.011541	0.030012	6036.489089	39077.297014	3789.302441	19841.239807
105.534500	-0.013880	0.002876	-0.018612	0.028518	6027.347290	39147.821727	3778.849999	19899.259987
106.041000	-0.012235	0.003275	-0.009261	0.028324	6040.205593	39197.228845	3796.819453	19906.823305
106.535000	-0.012559	0.002407	-0.012554	0.027380	6044.554179	39203.590890	3792.360037	19943.629512
107.035500	-0.012679	0.003786	-0.009975	0.027794	6040.807881	39283.961237	3796.468206	19927.461355
107.535500	-0.012966	0.003396	-0.006301	0.026737	6046.210696	39339.721848	3805.517175	19968.722952
108.036000	-0.010310	0.004012	-0.014937	0.027475	6059.705725	39329.516026	3787.683107	19939.933319
108.536500	-0.013965	0.003582	-0.013318	0.026451	6041.215057	39379.217927	3792.672811	19979.927564
