sample name	sample
index	75
start time	 02-11-2021  04:00:47 PM
880	-0.030343
Peak Time (s)	91.537
Peak Height 	-0.03034
calc peak height	90,93
Baseline Time (s)	10.537
Baseline Value 	-0.00337
subtract baseline	10,4
Abs	0.008761
Peak Time (s)	92.537
Peak Height 	0.008761
calc peak height	90,93
Baseline Time (s)	11.04
Baseline Value 	0.003105
subtract baseline	10,3
PK_550	-0.003147
Peak Time (s)	92.537
Peak Height 	-0.003147
calc peak height	90,93
Baseline Time (s)	9.539
Baseline Value 	-2.8931E-4
subtract baseline	10,2
PK_880	-0.003727
Peak Time (s)	92.037
Peak Height 	-0.003727
calc peak height	90,93
Baseline Time (s)	11.537
Baseline Value 	0.001086
subtract baseline	10,1


Time (s)	A880-A510	A880-A775	A880-A975	A880	I510	I775	I975	I880	
0.038000	-0.002408	-0.001179	-0.003918	0.007208	4639.126215	20645.400403	3320.233759	11130.708905
0.536500	-0.000767	-0.000275	-0.001943	0.003876	4658.727685	20818.930922	3325.115721	11193.864958
1.036500	-0.004067	-0.001068	-0.000829	0.002518	4651.047487	20842.241661	3327.411625	11219.752857
1.536500	-0.003201	-0.000272	0.009546	0.001127	4659.979201	20932.639851	3338.514937	11246.347412
2.037000	-0.004834	-0.000395	-0.003681	0.006283	4633.248833	20715.206422	3321.296881	11148.187794
2.538000	0.001086	0.000246	0.002263	0.000928	4677.870248	20962.345356	3331.792977	11250.148218
3.035000	0.002050	0.001451	0.004233	-0.000426	4687.186459	21068.851614	3334.933750	11276.133940
3.535000	0.000094	-0.000774	0.008876	-0.000338	4678.967709	20972.526349	3339.275734	11274.436912
4.035500	-0.000915	0.001851	0.004699	0.004093	4657.283327	20897.736457	3331.108523	11189.747220
4.536000	-0.001949	0.000214	0.004282	0.000302	4668.239503	20987.043897	3334.290317	11262.163443
5.036500	0.000856	0.000565	0.006595	0.000963	4676.810634	20974.152740	3335.857578	11249.485631
5.536500	0.003332	0.000715	-0.008919	0.000416	4688.961013	21003.074201	3321.874506	11259.960728
6.039500	-0.001189	0.000862	0.004260	0.000323	4671.190077	21013.111584	3334.249588	11261.755640
6.537000	0.001435	0.000132	0.001869	-0.000044	4683.173208	20997.978540	3332.337311	11268.789303
7.037500	-0.000045	0.000413	0.005721	0.000859	4673.618453	20972.170390	3335.126010	11251.481902
7.535000	-0.002376	0.000072	0.008314	-0.000573	4670.027793	21017.498840	3338.962357	11278.964828
8.035000	0.001325	0.001686	0.000681	0.000884	4679.006692	21024.032512	3330.348863	11251.003259
8.535500	0.000744	0.000007	0.007529	0.000303	4679.008619	20978.386005	3337.375713	11262.143288
9.036000	-0.000294	0.000276	-0.003099	-0.000369	4677.537532	21017.498438	3327.985635	11275.033892
9.539000	0.002200	0.000000	0.014522	0.000028	4685.959993	20989.493592	3344.366413	11267.409023
10.038500	0.000632	-0.000846	0.000189	-0.001067	4684.058756	20999.853957	3331.719199	11288.466065
10.536500	-0.002277	0.000251	-0.005140	0.000000	4668.137574	21001.095439	3325.744953	11267.951256
11.039500	-0.001857	-0.000229	0.000000	-0.000367	4671.276937	20996.409553	3330.883350	11274.998186
11.537000	0.000000	-0.000403	-0.008211	0.000164	4676.581083	20967.114793	3322.757159	11264.808554
12.034500	-0.000300	-0.000782	0.002242	-0.000957	4679.871537	20997.936810	3333.550933	11286.343667
12.535000	0.001901	0.000022	0.005984	-0.000133	4685.406124	20997.137513	3336.318822	11270.507991
13.038000	0.000405	0.000827	0.001204	0.000337	4677.513420	21011.069870	3331.354061	11261.492944
13.535500	0.000853	0.001601	0.010507	0.001076	4676.343576	21012.480048	3339.483848	11247.315314
14.038500	-0.002167	-0.000328	0.003902	0.002487	4658.686873	20874.062837	3331.868563	11220.347461
14.536000	0.002396	0.001375	-0.000479	0.002914	4675.161529	20926.801363	3327.368350	11212.191639
15.047500	0.005241	0.000839	0.006218	0.000589	4695.978594	21001.057774	3335.854497	11256.653785
15.536000	0.000327	-0.000024	0.009260	-0.000647	4681.146671	21016.592865	3339.940358	11280.391041
16.036500	-0.000408	-0.000621	0.004456	-0.000569	4677.881266	20988.498589	3335.280263	11278.876751
16.537500	0.002787	0.000178	0.000246	-0.000044	4688.619798	20999.902370	3330.811827	11268.805548
17.037500	0.001497	0.001685	-0.012054	-0.002524	4693.423387	21166.440755	3321.695242	11316.545850
17.535000	0.001853	0.000943	0.001547	0.000760	4681.620844	20998.259701	3331.277493	11253.365792
18.041000	0.001018	0.000547	0.004324	0.000827	4678.002761	20979.054582	3333.833360	11252.093050
18.536000	0.000436	-0.000478	-0.000923	0.000285	4677.838824	20958.979249	3329.406994	11262.472401
19.038500	0.002138	0.000491	0.009068	0.001730	4678.872252	20939.223089	3337.481336	11234.800542
19.536000	0.002905	-0.001655	0.000464	-0.000378	4690.446527	20937.683545	3331.329789	11275.219188
20.039000	-0.000375	0.000193	-0.004263	0.000574	4673.436976	20974.836040	3326.026330	11256.941717
20.537000	0.001962	-0.000648	0.005685	0.000232	4684.185488	20954.138327	3335.687403	11263.506093
21.036500	0.001536	0.001216	-0.003390	0.001419	4677.704087	20982.248679	3326.052099	11240.753045
21.534500	0.000321	0.001133	0.006246	0.001879	4671.006228	20959.686279	3334.656281	11231.956174
22.035000	0.001069	0.001203	0.001537	0.001501	4675.505856	20978.280919	3330.572899	11239.177601
22.535000	0.004817	-0.000081	0.006638	0.001238	4691.638061	20935.922901	3335.636915	11244.213160
23.041000	-0.000022	-0.000487	0.007571	0.000072	4676.859104	20967.430927	3337.634694	11266.562345
23.538500	-0.001286	-0.000041	0.002647	0.000493	4670.122657	20968.512484	3332.565118	11258.499954
24.036000	-0.000290	-0.000836	0.006529	0.000498	4674.082942	20935.291164	3336.236092	11258.391813
24.536500	0.000441	-0.000042	0.003240	0.001237	4674.049097	20937.604462	3332.422364	11244.237555
25.036500	0.001239	0.000676	0.001804	0.001134	4677.656013	20971.618195	3331.167876	11246.204344
25.537000	0.005146	0.001031	-0.007116	0.002112	4689.441362	20945.819987	3321.973003	11227.510201
26.039500	0.000852	-0.001890	-0.000103	-0.000621	4683.149245	20937.994314	3331.024899	11279.878197
26.537500	0.002556	0.001236	0.003717	0.001639	4680.915093	20973.898185	3332.492613	11236.538661
27.040500	0.001126	0.000400	-0.001938	-0.002345	4691.200945	21105.106025	3330.921065	11313.094427
27.535000	0.002215	0.000105	0.006940	-0.001994	4694.187982	21078.130148	3339.007130	11306.324873
28.035500	-0.001551	-0.000915	0.006201	-0.001250	4676.030722	21004.592723	3337.589456	11291.978429
28.536000	0.000608	0.000625	0.002580	-0.000436	4681.428595	21034.853866	3333.378882	11276.334818
29.039000	0.002142	0.001411	0.006905	0.000071	4685.556919	21046.442438	3337.001020	11266.586770
29.564500	0.001722	0.001116	0.002450	0.000622	4681.649698	21011.209086	3332.257525	11256.021367
30.039500	-0.001746	0.000539	0.004609	0.000683	4667.531282	20984.689236	3334.239295	11254.850510
30.537000	-0.002084	0.001277	-0.000589	0.002220	4660.076782	20951.508108	3327.912081	11225.444954
31.037000	-0.002255	-0.001103	0.004453	0.000008	4668.190984	20944.546351	3334.730214	11267.788101
31.537500	-0.000996	0.000482	0.001407	-0.000251	4674.256168	21021.180971	3332.097867	11272.777483
32.040000	0.000694	0.000995	0.002335	0.001685	4673.269728	20962.013164	3331.149320	11235.671103
32.535500	0.002067	-0.000968	0.003500	-0.001529	4691.705949	21013.981231	3335.284016	11297.357147
33.038500	-0.000274	0.000308	-0.005012	-0.001780	4683.281808	21077.638231	3327.517937	11302.186682
33.535500	-0.002161	-0.000679	-0.007090	0.000151	4667.997254	20956.197234	3323.801880	11265.051033
34.036000	-0.000240	-0.001133	-0.009125	0.000598	4673.880763	20918.846746	3321.518370	11256.473240
34.536500	-0.000828	-0.000518	0.003660	0.000398	4672.334673	20952.669975	3333.611113	11260.322659
35.037000	-0.002358	0.000797	-0.004151	0.001456	4662.020511	20963.311061	3325.312200	11240.044525
35.537000	0.001342	-0.000544	-0.006929	0.000100	4682.219328	20963.919726	3323.997825	11266.029796
36.040000	-0.000026	0.000673	0.005724	0.001188	4672.381019	20969.286751	3334.816541	11245.175562
36.534500	0.000983	-0.000781	-0.008264	0.000665	4678.511422	20930.657958	3322.247615	11255.189613
37.041000	0.000883	0.000052	0.000873	0.000799	4677.572266	20959.636328	3330.607912	11252.616663
37.535500	-0.002229	0.000301	0.001033	0.000478	4666.423693	20983.314873	3331.059756	11258.780125
38.038000	0.000271	-0.000612	0.005247	0.000175	4677.620587	20957.982965	3335.325415	11264.594020
38.536000	-0.000390	-0.000373	0.000839	0.000543	4673.503776	20952.633445	3330.816853	11257.534122
39.039000	-0.000875	-0.000646	0.009757	0.000332	4672.408588	20950.056107	3339.478064	11261.579669
39.536000	0.001276	0.000402	0.004350	0.001148	4677.749840	20959.690051	3333.553412	11245.935606
40.037000	-0.003785	-0.001262	-0.005835	-0.000150	4662.727299	20944.493012	3325.240298	11270.822364
40.534500	-0.001278	0.000498	-0.001348	0.000864	4668.674396	20975.488065	3328.469566	11251.386997
41.037500	0.000555	0.000125	0.004525	0.001043	4675.282431	20952.573698	3333.818624	11247.956363
41.535000	0.000881	0.000744	0.001181	0.001370	4675.275366	20964.634099	3330.361480	11241.684103
42.035500	-0.001086	-0.000196	-0.002003	0.000451	4671.089432	20963.786003	3328.243722	11259.299468
42.538500	-0.000459	-0.000163	-0.002384	0.000930	4671.679517	20945.300696	3327.441749	11250.113475
43.036000	0.001494	-0.000354	0.002087	0.000700	4680.420712	20946.906066	3331.841520	11254.513759
43.536000	0.000170	-0.000013	0.000005	-0.004230	4694.961669	21166.789189	3334.531189	11349.559790
44.039000	0.002978	-0.000067	-0.002809	-0.001075	4693.556098	21032.610515	3328.915626	11288.617100
44.536500	0.001659	-0.000035	0.008408	-0.000554	4686.129365	21012.258416	3339.034035	11278.595197
45.040000	0.003175	0.000738	0.007129	-0.000143	4690.584624	21027.316770	3337.418609	11270.690188
45.537500	0.001203	0.001347	-0.005302	0.000368	4680.588553	21031.432571	3325.254568	11260.893740
46.034500	0.001182	-0.000826	0.001742	-0.000088	4682.333906	20960.005654	3332.259625	11269.641579
46.537000	-0.000438	-0.000471	-0.000780	-0.000488	4677.439505	20991.379903	3330.264859	11277.326816
47.035500	-0.001144	0.000196	-0.003531	0.001614	4666.217166	20931.789228	3325.740598	11237.014715
47.535500	0.000195	-0.000513	0.001843	0.001531	4671.891529	20905.909941	3330.832259	11238.610071
48.039000	-0.001920	-0.000301	-0.002004	-0.000062	4669.807974	20980.756615	3328.721937	11269.150242
48.536500	0.000549	0.000968	0.001691	-0.000406	4681.068507	21047.849760	3332.510946	11275.742260
49.039500	0.004112	0.000604	0.010791	-0.001116	4698.316948	21062.319243	3341.865098	11289.413544
49.537000	0.004606	0.001160	0.012157	-0.003184	4708.735856	21172.146106	3345.188750	11329.310174
50.040000	-0.004054	-0.002231	0.001839	-0.000894	4664.618654	20935.164033	3333.111259	11285.131598
50.537500	-0.022452	-0.022814	0.016269	0.194372	3993.229779	13887.056386	3193.470302	8259.547421
51.040500	-0.041018	-0.022488	-0.007709	0.091804	4218.657571	16813.835866	3247.102711	9679.258420
51.535500	-0.009813	-0.015769	0.010881	-0.115494	5156.721500	25650.222960	3468.152749	13808.085839
52.038500	-0.015766	-0.017670	-0.001060	-0.162508	5376.839959	28136.234601	3513.995720	15051.754087
52.535500	-0.014626	-0.017340	-0.012115	-0.111703	5113.174768	25371.553002	3435.549490	13713.534575
53.036500	-0.018742	-0.017117	-0.004931	-0.114645	5107.300400	25535.637756	3447.638772	13786.844943
53.536000	-0.018064	-0.010676	-0.001015	-0.137992	5230.750678	27139.857991	3481.621163	14386.442430
54.039500	-0.021216	-0.009590	-0.005013	-0.142649	5238.717791	27462.046975	3482.470009	14509.969641
54.537000	-0.023597	-0.008370	0.009952	-0.138266	5203.141136	27284.081866	3496.266983	14393.688763
55.040000	-0.022535	-0.007684	-0.004101	-0.118326	5106.740849	26228.354323	3453.114885	13879.244572
55.537500	-0.027168	-0.011894	-0.004271	-0.082154	4912.146995	24160.504836	3410.568058	13004.251329
56.035500	-0.026264	-0.011357	-0.004462	-0.067547	4850.797063	23484.014460	3394.238371	12671.054141
56.538000	-0.019620	-0.008674	-0.001429	-0.054360	4822.171239	22993.025758	3383.349181	12379.705333
57.038500	-0.017606	-0.007239	0.008528	-0.051944	4820.427763	22947.779724	3391.411130	12327.284904
57.536000	-0.026610	-0.006169	-0.011441	-0.038371	4725.013520	22380.027129	3356.603562	12038.152798
58.039500	-0.022213	-0.008847	-0.011907	-0.032926	4720.702040	22019.761345	3350.743444	11924.670410
58.536500	-0.015510	-0.006640	-0.009543	-0.036233	4762.292938	22263.567552	3356.363137	11993.407142
59.039500	-0.026158	-0.010576	0.002239	-0.034998	4713.023966	22034.810378	3367.014828	11967.670820
59.537000	-0.020882	-0.009004	-0.002694	-0.028342	4707.388834	21812.605224	3355.325784	11830.223796
60.040500	-0.021369	-0.012558	-0.005550	-0.023764	4686.859276	21462.513457	3347.989688	11736.899731
60.535000	-0.021089	-0.011650	-0.007925	-0.036799	4741.345287	22066.811841	3358.547840	12005.233252
61.035500	-0.022399	-0.012266	-0.007449	-0.042008	4757.616379	22270.185745	3364.285500	12114.735189
61.536000	-0.020607	-0.007445	0.007099	-0.032384	4725.079085	22057.598128	3369.316895	11913.455181
62.038500	-0.014824	-0.007499	-0.007647	-0.030357	4740.609842	21966.173789	3352.411613	11871.613567
62.536000	-0.013441	-0.007871	-0.001990	-0.027458	4734.325185	21823.420042	3355.145986	11812.123593
63.058000	-0.010584	-0.004778	0.006040	-0.025411	4737.679525	21868.975801	3361.139167	11770.355286
63.537000	-0.013353	-0.007693	-0.003845	-0.027392	4734.417134	21828.317288	3353.240026	11810.780371
64.040000	-0.007885	-0.007847	-0.008062	-0.028631	4762.394917	21875.537176	3350.300912	11836.151576
64.537000	-0.009403	-0.006767	0.000024	-0.030190	4762.564092	21990.998144	3359.893991	11868.181910
65.040000	-0.009106	-0.005843	0.001372	-0.033558	4778.035015	22180.182297	3364.662808	11937.755995
65.535000	-0.009520	-0.006019	-0.018111	-0.035952	4786.450756	22278.707773	3347.625669	11987.550896
66.038500	-0.006952	-0.005622	-0.000689	-0.039262	4811.653415	22444.469859	3368.382170	12056.847697
66.547000	-0.003537	-0.005414	-0.007290	-0.042062	4838.674650	22580.053181	3364.502548	12115.877801
67.251000	-0.004712	-0.006840	-0.002348	-0.048084	4860.021621	22789.000434	3375.787310	12244.140726
67.558500	-0.009263	-0.007449	-0.006342	-0.049314	4845.373300	22817.404728	3372.916122	12270.560571
68.039500	-0.008495	-0.007808	0.000558	-0.049880	4851.241641	22826.874278	3380.715561	12282.735284
68.537000	-0.004673	-0.005831	0.007267	-0.050582	4871.290256	22949.952194	3388.591325	12297.872910
69.037500	-0.007239	-0.006008	-0.007701	-0.052840	4869.916603	23046.026603	3375.164911	12346.691272
69.537500	-0.009636	-0.006382	-0.009406	-0.051528	4853.481276	22968.178626	3372.036550	12318.305837
70.043000	-0.009410	-0.006983	-0.005947	-0.053309	4862.354738	23022.643940	3377.485087	12356.871548
70.535500	-0.009417	-0.005428	-0.003180	-0.054357	4866.979567	23143.373256	3381.495585	12379.658675
71.041500	-0.009298	-0.006798	-0.006640	-0.055877	4874.279665	23150.387655	3379.452276	12412.791196
71.535500	-0.008054	-0.007224	0.001990	-0.056292	4881.691279	23149.834618	3389.055202	12421.840530
72.039000	-0.009587	-0.005810	0.007954	-0.054729	4867.878652	23142.932994	3393.802226	12387.754848
72.536000	-0.008713	-0.006254	-0.003583	-0.054570	4871.058135	23114.846354	3381.293478	12384.279000
73.037000	-0.009688	-0.007516	0.001611	-0.055446	4870.613114	23096.920145	3387.742479	12403.365640
73.537000	-0.008617	-0.007009	-0.003430	-0.052513	4862.341200	22984.667410	3379.290140	12339.610293
74.040000	-0.005313	-0.006090	-0.007875	-0.052641	4877.619627	23033.025820	3374.777309	12342.377950
74.534500	-0.006353	-0.005785	-0.004364	-0.052786	4873.624707	23053.854308	3378.595616	12345.527243
75.040500	-0.001911	-0.006774	-0.002851	-0.052829	4893.726783	23010.104549	3380.230356	12346.454207
75.538000	-0.008895	-0.005845	-0.006735	-0.047309	4838.190843	22799.050085	3370.438923	12227.529151
76.038000	-0.004085	-0.005091	0.000700	-0.049331	4868.340769	22926.416271	3380.287230	12270.925840
76.536000	-0.006991	-0.004194	-0.001018	-0.048422	4851.444808	22925.832838	3377.529120	12251.387991
77.036000	-0.004215	-0.005449	0.007448	-0.048565	4864.358942	22874.739105	3386.627888	12254.461542
77.536000	-0.005841	-0.004423	0.004033	-0.046622	4848.579612	22832.679605	3380.944263	12212.834523
78.040000	-0.003079	-0.003072	0.009483	-0.045136	4854.207284	22826.502260	3385.141617	12181.121868
78.537500	-0.005270	-0.003661	0.001786	-0.045095	4844.380190	22797.699801	3376.983047	12180.265415
79.039500	-0.004431	-0.003314	0.009521	-0.044449	4845.226458	22783.992866	3384.451671	12166.506083
79.535000	-0.006164	-0.003242	0.006276	-0.039946	4818.018706	22582.569636	3376.293928	12071.225486
80.041500	-0.005435	-0.003332	0.000161	-0.043068	4834.777806	22720.222303	3373.182161	12137.194409
80.535000	-0.006876	-0.003523	0.012730	-0.042552	4826.244175	22688.055898	3385.848689	12126.262896
81.038500	-0.004740	-0.003738	-0.013615	-0.041481	4830.880467	22629.623886	3357.538734	12103.607793
81.536500	-0.009582	-0.004828	-0.010367	-0.037192	4791.475448	22387.255287	3356.499350	12013.455338
82.036500	-0.008318	-0.004034	-0.003525	-0.040320	4810.324723	22563.668548	3366.563208	12079.112234
82.536500	-0.007918	-0.004550	-0.012257	-0.040954	4814.790407	22568.976063	3358.370228	12092.466588
83.039500	-0.007842	-0.006275	-0.005667	-0.040871	4814.757353	22487.437769	3364.941103	12090.715958
83.537000	-0.010968	-0.007467	-0.017845	-0.037419	4786.530749	22279.547610	3349.322241	12018.195505
84.035000	-0.008311	-0.005906	-0.000848	-0.039798	4808.105246	22455.788275	3368.769325	12068.116534
84.535500	-0.009141	-0.006192	-0.000119	-0.039859	4804.791915	22445.692041	3369.580386	12069.396403
85.041000	-0.006553	-0.005636	-0.003078	-0.038235	4808.944201	22397.761460	3364.893765	12035.290687
85.535500	-0.010860	-0.007225	-0.004927	-0.035774	4779.998161	22217.178766	3360.531349	11983.849715
86.039000	-0.008034	-0.005931	0.002150	-0.036574	4795.451198	22310.345402	3368.536870	12000.532671
86.536000	-0.007720	-0.006119	-0.001290	-0.038404	4804.647988	22383.684815	3366.889134	12038.830424
87.036500	-0.008732	-0.006232	-0.001060	-0.038856	4802.241698	22398.939532	3367.587118	12048.329194
87.537000	-0.009187	-0.005501	-0.003797	-0.033130	4775.879917	22176.381549	3359.009083	11928.895234
88.037000	-0.003108	-0.005121	-0.010506	-0.036375	4815.789298	22337.603118	3355.546224	11996.384612
88.536500	-0.004019	-0.004715	0.001693	-0.036495	4812.371962	22361.098739	3367.988250	11998.883110
89.039500	-0.007087	-0.004447	-0.007210	-0.035858	4796.439564	22344.635041	3358.321617	11985.589667
89.538000	-0.009657	-0.004476	-0.003234	-0.031017	4764.978683	22128.276449	3357.456470	11885.221651
90.038500	-0.005768	-0.004173	0.002406	-0.034491	4796.234816	22295.858543	3366.667644	11957.131018
90.536000	-0.006137	-0.003436	-0.001548	-0.034973	4796.714127	22350.224082	3363.135361	11967.150392
91.039000	-0.003966	-0.003320	-0.005266	-0.034664	4804.707871	22341.607462	3359.073549	11960.727578
91.536500	-0.008228	-0.005427	-0.003473	-0.030343	4768.155400	22056.569232	3356.543830	11871.327591
92.037000	-0.003727	-0.004281	0.006389	-0.033863	4802.291353	22263.063752	3370.106835	11944.085560
92.537000	-0.004542	-0.003147	0.008761	-0.033442	4796.991506	22294.818277	3372.120088	11935.350447
93.037000	-0.004946	-0.003701	-0.002848	-0.033888	4797.171402	22289.988341	3360.724659	11944.601535
93.534500	-0.004016	-0.004558	0.000065	-0.034372	4803.236191	22273.375099	3364.161526	11954.652797
94.040500	-0.005971	-0.003641	-0.000152	-0.031669	4783.325573	22194.057030	3361.206403	11898.662730
94.535000	-0.004051	-0.002667	0.007263	-0.032155	4793.588104	22258.921144	3369.249950	11908.717451
95.035500	-0.002947	-0.003701	-0.006304	-0.033175	4802.686522	22258.288949	3356.544433	11929.821778
95.535500	-0.009089	-0.005097	-0.008471	-0.027828	4753.977199	21960.671412	3349.110666	11819.706135
96.038500	-0.000583	-0.004649	-0.003706	-0.032815	4811.318277	22200.185340	3358.784960	11922.375469
