sample name	sample
index	1134
start time	 04-22-2021  02:27:23 PM
880	0.203535
Peak Time (s)	102.036
Peak Height 	0.2035
calc peak height	100,103
Baseline Time (s)	9.037
Baseline Value 	-0.00334
subtract baseline	10,4
Abs	0.133727
Peak Time (s)	101.035
Peak Height 	0.1337
calc peak height	100,103
Baseline Time (s)	11.034
Baseline Value 	0.002451
subtract baseline	10,3
PK_550	0.079346
Peak Time (s)	102.036
Peak Height 	0.07935
calc peak height	100,103
Baseline Time (s)	9.037
Baseline Value 	5.8019E-4
subtract baseline	10,2
PK_880	0.129347
Peak Time (s)	101.035
Peak Height 	0.1293
calc peak height	100,103
Baseline Time (s)	11.034
Baseline Value 	-1.7395E-4
subtract baseline	10,1


Time (s)	A880-A510	A880-A775	A880-A975	A880	I510	I775	I975	I880	
0.034500	-0.005394	-0.001157	-0.006773	0.007104	6194.811507	42648.453327	3896.643601	22488.325488
0.535000	-0.003360	-0.000424	-0.001043	0.005216	6224.161758	42888.256728	3913.860986	22573.362011
1.035000	-0.001876	0.000085	-0.005119	0.004942	6237.412759	42960.189331	3905.231929	22585.758720
1.535000	-0.002416	-0.001134	-0.002041	0.001450	6259.773838	43169.745506	3920.195188	22744.184242
2.036000	-0.000675	-0.000444	-0.003323	0.006793	6232.510699	42742.022450	3905.108042	22502.314093
2.536000	0.000576	0.000488	-0.003624	0.001746	6280.328940	43292.375635	3915.890386	22730.682131
3.036500	0.002798	0.000611	0.001140	-0.000255	6312.786736	43489.811111	3931.470483	22821.977978
3.536000	-0.000944	-0.000135	0.001561	0.001814	6268.205489	43228.422496	3927.652692	22727.594291
4.036500	-0.001785	-0.000165	-0.000767	0.005237	6235.870968	42910.113544	3914.445514	22572.442326
4.536500	0.000935	0.000625	0.000236	0.001661	6283.729082	43312.957808	3924.945896	22734.557328
5.034500	0.001182	0.000130	0.004280	0.001116	6289.801726	43317.607567	3935.584814	22759.391173
5.534500	-0.000263	0.000013	-0.001105	0.001212	6277.991871	43297.868637	3922.889969	22754.984779
6.035000	-0.000569	0.000802	-0.001551	0.002067	6269.136493	43291.697682	3919.902020	22716.074764
6.541000	-0.001225	-0.000345	-0.001215	0.000368	6277.095206	43342.919077	3924.582703	22793.511416
7.038500	0.003107	-0.000793	-0.001111	0.000234	6311.398605	43313.790486	3925.129894	22799.612700
7.535500	0.001594	0.000883	0.000117	0.001411	6290.694833	43360.114763	3925.248979	22745.921819
8.036500	-0.000881	-0.000363	0.000333	-0.000312	6284.928768	43404.393188	3929.730033	22824.569907
8.536000	0.000161	-0.000346	0.002525	0.000261	6288.526988	43352.857417	3933.489968	22798.402348
9.037500	-0.000034	0.000000	-0.002423	0.000000	6289.035105	43409.184287	3922.647135	22810.315810
9.537000	0.003946	0.000895	0.004161	0.000810	6313.435864	43417.150732	3936.020134	22773.348854
10.034500	-0.000022	0.000360	-0.004362	0.004971	6251.219555	42982.762443	3906.877721	22584.428192
10.538000	0.001949	0.000100	0.001273	-0.000010	6304.343770	43419.397873	3931.209247	22810.751376
11.034500	0.000000	-0.000019	0.000000	-0.000362	6292.070216	43441.070520	3929.075703	22826.869063
11.535500	-0.000202	-0.000095	-0.002852	-0.000350	6290.428225	43432.855654	3922.465839	22826.308507
12.036000	0.001939	-0.000089	-0.008431	-0.000185	6305.626611	43418.107208	3909.343266	22818.789342
12.536000	-0.000310	-0.000300	0.000891	-0.000325	6289.401617	43411.491615	3931.054099	22825.159036
13.036500	0.001334	-0.000033	0.001025	-0.000174	6300.877125	43422.301288	3931.016005	22818.276169
13.537000	0.000984	0.000766	-0.003633	0.000246	6294.956806	43457.581369	3919.305012	22799.087704
14.037000	-0.001602	-0.000316	-0.002487	0.003914	6247.258628	43017.859783	3913.540397	22632.268723
14.534000	0.000739	-0.000586	-0.001181	0.002122	6278.703748	43158.214595	3920.627718	22713.596963
15.035000	0.002479	0.000333	0.003823	0.000764	6302.470399	43369.107888	3935.339209	22775.411541
15.534500	0.001232	-0.000471	0.000549	-0.000264	6300.781865	43389.896459	3930.120424	22822.375341
16.036000	-0.001138	0.000212	-0.005314	0.006501	6231.219310	42828.709944	3901.273193	22515.429007
16.539500	0.002475	0.001044	-0.002199	0.001517	6296.649441	43365.192296	3919.677226	22741.104796
17.036500	0.002163	0.000212	0.001971	-0.002522	6325.422157	43664.171324	3938.684636	22925.907628
17.536500	-0.000066	-0.000674	-0.003897	0.001230	6279.368193	43232.554282	3916.445995	22754.185599
18.036500	-0.001495	-0.000313	-0.001322	0.003342	6252.406544	43070.864070	3917.507017	22658.185560
18.536500	0.001014	0.000416	-0.002539	0.002203	6280.183432	43243.351375	3917.326995	22709.871692
19.037000	-0.001311	-0.000367	-0.001765	0.001371	6268.785001	43247.875706	3921.008573	22747.747984
19.535000	0.000623	-0.000149	-0.003483	0.001668	6281.288551	43240.588129	3916.392425	22734.243254
20.035000	-0.002292	-0.000420	0.001803	0.002800	6250.461531	43110.860415	3925.934035	22682.746634
20.535000	0.000265	0.000199	0.002200	0.001545	6279.492949	43284.281381	3929.754907	22739.834703
21.038000	-0.001318	-0.000558	0.003887	0.001318	6269.142373	43235.183714	3934.199295	22750.186620
21.536000	-0.002091	0.000041	0.003308	0.001692	6260.406761	43256.028334	3931.983332	22733.148261
22.035500	-0.000217	0.000115	0.001451	0.002731	6266.760687	43166.710474	3925.281960	22685.917130
22.536500	0.000897	0.000459	-0.004132	0.002299	6278.562637	43238.503220	3913.471576	22705.542576
23.036500	-0.000335	0.000563	-0.002479	0.002094	6270.710350	43267.055793	3917.713255	22714.830692
23.539500	-0.000384	0.000231	-0.003542	0.002006	6271.008480	43244.449906	3915.482798	22718.833460
24.034000	-0.002259	-0.000275	-0.000241	0.002630	6252.002185	43139.936289	3921.617820	22690.471099
24.535000	-0.000769	-0.000534	-0.000422	0.001502	6271.922240	43220.384859	3923.797720	22741.793946
25.035500	0.002373	-0.000034	0.002553	0.001880	6293.077754	43231.642869	3929.796598	22724.604791
25.535500	0.000400	0.000130	-0.002018	0.001833	6278.319993	43251.163168	3919.368583	22726.708088
26.035500	0.000608	-0.000000	-0.000827	0.001288	6284.079239	43289.567271	3923.355791	22751.534867
26.535500	-0.000036	0.000010	-0.003251	0.001881	6274.620485	43235.598122	3916.435787	22724.552359
27.036500	0.000671	-0.001144	-0.002390	-0.002030	6310.066949	43491.640824	3927.404831	22903.283900
27.536500	-0.000368	0.000161	-0.002203	-0.000222	6288.171445	43444.761001	3923.665260	22820.455538
28.037000	0.002049	0.000440	0.002407	0.003321	6279.546854	43142.228182	3926.125556	22659.116076
28.537000	0.003117	-0.001002	-0.005750	-0.000627	6318.126258	43374.342545	3916.454033	22838.970830
29.037500	0.001556	-0.000380	0.001318	-0.000179	6302.624010	43390.479526	3931.707000	22818.505413
29.535500	0.001189	0.000500	0.001787	0.000298	6296.128083	43427.965623	3931.688443	22796.691542
30.035500	-0.001407	-0.000075	-0.002823	0.002759	6257.488104	43146.493398	3915.406541	22684.614280
30.539500	0.000022	0.000812	0.001388	0.002681	6268.965243	43235.788406	3925.252663	22688.188371
31.036000	-0.002308	-0.000311	0.003408	0.001158	6262.811075	43272.781470	3933.456383	22757.446036
31.536000	0.001248	0.001263	0.001945	0.000738	6293.202807	43457.972009	3931.033735	22776.611307
32.036500	-0.004095	-0.000079	-0.001700	0.005632	6215.522146	42881.738310	3911.419626	22554.613176
32.537000	0.000252	-0.000217	-0.003656	-0.000537	6295.348121	43438.877432	3921.046891	22834.854383
33.037000	-0.000510	0.000430	0.002010	-0.001868	6299.727291	43623.420158	3937.248852	22895.880904
33.534500	-0.001039	0.000499	0.003302	0.001334	6271.139314	43331.633363	3932.799954	22749.425278
34.035000	-0.000825	0.000207	0.001132	0.003046	6259.735448	43146.168017	3923.821079	22671.620201
34.535000	-0.000839	0.000474	-0.000722	0.002347	6264.950806	43235.413312	3921.162671	22703.359534
35.035500	0.001361	-0.000232	-0.000369	0.001518	6288.090168	43246.775307	3923.880811	22741.059344
35.535500	-0.001931	-0.000395	0.000168	0.001078	6266.295655	43272.521714	3926.136142	22761.124327
36.036000	0.000271	0.000693	-0.002364	0.003102	6267.648804	43185.883696	3915.671685	22669.069995
36.536500	0.000400	0.000508	0.004527	0.001694	6279.377679	43299.090454	3934.813207	22733.039639
37.036000	-0.000632	-0.000141	-0.003640	0.001509	6272.909816	43256.072994	3916.396333	22741.479543
37.537000	0.001533	-0.000131	-0.000100	0.001461	6289.846342	43261.444798	3924.633190	22743.663005
38.037000	-0.000831	0.000010	0.001299	0.002729	6262.098358	43157.205200	3924.935602	22685.991131
38.537000	-0.000156	0.000203	0.000381	0.002029	6272.574382	43239.753693	3924.431307	22717.785631
39.034000	0.000317	0.000686	0.001500	0.001859	6277.483903	43300.253456	3927.407465	22725.542524
39.535000	0.001071	0.000382	-0.000516	0.001843	6283.374477	43273.557824	3922.793349	22726.247463
40.038000	-0.000655	0.000047	0.001348	0.002774	6263.092703	43156.424689	3924.944691	22683.940235
40.536000	-0.000099	0.000174	-0.001144	0.001804	6274.732099	43257.925687	3921.442153	22728.048179
41.036000	-0.002044	-0.001335	-0.001826	0.000831	6267.316681	43208.302448	3922.110237	22772.387779
41.536500	0.002294	0.000543	-0.005863	0.002076	6290.961590	43266.888892	3910.039667	22715.667776
42.037000	-0.000090	-0.000104	-0.000748	0.002317	6270.884514	43184.741402	3921.174015	22704.728893
42.537000	0.000045	-0.000784	-0.001215	0.001180	6280.596833	43227.026508	3922.713408	22756.469862
43.037500	0.000262	-0.000632	-0.002755	0.000734	6285.673798	43282.436727	3920.198493	22776.816399
43.534500	0.004055	0.000273	-0.004247	-0.002643	6341.058202	43681.204448	3924.533936	22931.472697
44.035000	-0.002709	-0.000744	-0.007023	0.005411	6227.597424	42841.012340	3899.882200	22564.569111
44.541000	-0.000485	-0.000312	0.002554	-0.000160	6286.795963	43395.014128	3934.534912	22817.615927
45.036000	-0.000641	-0.000961	-0.001291	-0.000433	6287.693665	43360.114854	3926.254332	22830.092045
45.536000	0.000256	0.000166	0.001829	0.000298	6288.973295	43396.904853	3931.787388	22796.712026
46.036500	-0.003342	-0.000316	-0.005818	0.004831	6227.191583	42933.460410	3903.900135	22590.741397
46.536500	-0.000978	-0.000207	-0.000690	0.000034	6281.540781	43386.799189	3926.563422	22808.762354
47.037000	0.000525	-0.000674	0.002841	0.001988	6278.092565	43162.437916	3930.213516	22719.664679
47.540000	0.003177	-0.000004	-0.000260	0.001748	6300.268314	43246.687013	3923.603273	22730.599561
48.034500	-0.001506	-0.000664	-0.000578	0.005121	6238.856721	42874.980608	3915.140037	22577.677289
48.535000	0.000570	-0.000410	-0.000362	0.000344	6291.029674	43339.168885	3926.606853	22794.605842
49.035500	-0.000156	0.000481	0.004120	-0.000718	6293.608499	43520.786498	3939.493890	22843.167587
49.535500	0.003279	0.000197	0.004335	-0.001902	6329.270779	43604.857451	3942.771099	22897.448230
50.035500	-0.000779	-0.000274	-0.007397	0.026146	6089.061016	41026.154411	3853.560703	21650.707065
50.536000	0.018835	-0.023353	0.026455	0.710903	3635.321228	10478.355196	3131.325065	6824.976469
51.036500	0.009093	-0.015808	-0.008318	0.093915	5698.343177	34394.960843	3717.510108	18950.755161
51.537000	0.006814	-0.049615	-0.018613	-0.214686	8505.372666	62079.618481	4501.537189	35500.715553
52.037000	-0.002132	-0.084215	-0.015802	-0.269552	9123.998898	64900.408228	4725.657888	39882.260370
52.534500	0.004526	-0.083349	-0.006461	-0.268727	9207.362617	64906.200756	4761.341430	39812.169622
53.034500	0.000250	-0.052706	-0.007877	-0.224886	8551.995272	63054.126465	4579.465886	36273.900637
53.538000	0.001665	-0.032761	-0.001316	-0.187036	8101.881063	60629.905583	4464.362263	33493.708841
54.038000	-0.006330	-0.027388	-0.015020	-0.172720	7844.323053	59455.977007	4368.092259	32503.694798
54.535500	-0.002761	-0.036550	-0.007418	-0.200154	8205.864707	61880.545683	4489.457598	34429.977737
55.036000	0.002063	-0.031910	0.001481	-0.187969	8117.671213	60866.982414	4477.654185	33559.340081
55.536000	0.004405	-0.021012	0.003290	-0.148835	7698.603743	57226.512181	4349.668998	30922.932299
56.036500	0.005858	-0.010576	0.003160	-0.110696	7314.639151	53877.589862	4229.380088	28572.263255
56.536500	0.008394	-0.006697	0.000730	-0.085563	7093.778083	51449.147453	4149.079144	27132.306885
57.037000	0.011693	-0.000665	0.001161	-0.052038	6815.755489	48479.198828	4059.161451	25336.764398
57.535000	0.015546	0.001139	0.011296	-0.032118	6675.657773	46622.441983	4033.861083	24333.731096
58.035500	0.017915	0.004236	0.014243	-0.033104	6704.490422	47034.274538	4043.961831	24382.327286
58.535000	0.024597	0.009058	0.022551	0.000561	6478.832386	44206.913821	3980.419283	22784.690905
59.035000	0.029654	0.013446	0.024977	0.019143	6370.884899	42882.971058	3941.824651	21954.470599
59.535500	0.037398	0.014647	0.036866	0.024428	6390.269960	42510.073671	3957.428709	21724.781218
60.036000	0.040507	0.022213	0.035384	0.053694	6189.677771	40586.041489	3886.760659	20502.137188
60.536500	0.043062	0.024215	0.039654	0.075789	6047.523528	38888.206209	3848.028249	19632.161395
61.036000	0.048176	0.027032	0.042518	0.087721	5999.406168	38143.492534	3828.924803	19180.420093
61.537000	0.047945	0.028134	0.041921	0.091643	5970.457756	37916.217189	3819.552698	19034.601239
62.034500	0.049979	0.030262	0.048543	0.087572	6013.097003	38417.682400	3841.886978	19185.969940
62.537500	0.051989	0.032333	0.052093	0.088920	6017.758295	38476.703668	3846.555646	19135.691072
63.040000	0.052909	0.032962	0.055410	0.085977	6045.092583	38769.412149	3859.955911	19245.653726
63.540500	0.053185	0.032717	0.057154	0.087458	6036.546156	38627.714323	3860.525119	19190.244608
64.036000	0.054879	0.033640	0.051784	0.097263	5979.590316	37907.110794	3828.350345	18827.982038
64.536000	0.057934	0.036582	0.063766	0.095690	6011.954136	38271.514791	3857.035217	18885.531725
65.036500	0.057578	0.035928	0.060818	0.101344	5969.991093	37763.425692	3838.727804	18679.588560
65.537000	0.061772	0.038803	0.068511	0.105909	5967.415579	37628.513638	3845.341954	18515.251679
66.039500	0.062453	0.039426	0.063273	0.107358	5962.103034	37562.815346	3831.259249	18463.456421
66.537000	0.060686	0.041121	0.064489	0.113022	5911.143749	37248.633181	3822.008328	18262.608763
67.037500	0.066088	0.042879	0.070837	0.116245	5925.993114	37133.396209	3828.497075	18149.479907
67.535000	0.064186	0.042474	0.067078	0.116606	5910.577380	37073.314112	3819.952401	18136.874652
68.036000	0.065206	0.044174	0.065710	0.126094	5853.570007	36468.344440	3797.824427	17808.975354
68.535500	0.068370	0.044241	0.070966	0.120881	5909.955624	36877.328237	3819.155318	17988.243232
69.036000	0.072985	0.045315	0.074317	0.122935	5927.418152	36801.070908	3821.835140	17917.366748
69.536000	0.072770	0.047227	0.076498	0.126109	5904.333980	36703.028816	3819.782450	17808.459775
70.036500	0.074438	0.047463	0.080358	0.132991	5869.177297	36191.736172	3813.566282	17575.067160
70.536500	0.078735	0.049822	0.079534	0.130849	5912.659848	36537.209949	3816.273457	17647.331776
71.037000	0.080959	0.050272	0.086518	0.132233	5918.372206	36465.169075	3827.856500	17600.582029
71.537000	0.082327	0.050447	0.092508	0.134005	5915.624404	36342.462499	3836.683824	17540.986442
72.034500	0.082584	0.050910	0.087325	0.134840	5911.690651	36313.984469	3824.117600	17512.999034
72.534500	0.084313	0.052883	0.090513	0.135617	5918.174374	36405.780495	3829.132625	17486.999626
73.038500	0.089651	0.053716	0.091235	0.136141	5951.165534	36429.515474	3829.545325	17469.484306
73.535500	0.087747	0.053867	0.095107	0.136685	5934.339239	36399.352056	3836.513580	17451.323911
74.036000	0.090057	0.056464	0.091826	0.138172	5939.983216	36484.618238	3826.543175	17401.773506
74.536000	0.094026	0.057135	0.097717	0.137721	5970.482114	36571.200885	3839.827299	17416.779857
75.036500	0.093875	0.057602	0.093453	0.138700	5962.654877	36531.709312	3828.832624	17384.238274
75.537000	0.097157	0.059356	0.098983	0.141594	5965.345118	36443.954232	3834.344955	17288.479874
76.037500	0.095993	0.058683	0.100651	0.140993	5961.439626	36438.300040	3839.114511	17308.291968
76.534500	0.099988	0.060952	0.105342	0.143559	5971.342414	36415.462834	3843.605567	17223.788176
77.038000	0.099776	0.061614	0.104196	0.144968	5960.114245	36358.142702	3838.208413	17177.594258
77.537500	0.097587	0.061608	0.100738	0.147251	5929.369292	36182.945875	3826.198245	17103.083429
78.035500	0.099785	0.063345	0.102633	0.148458	5936.150404	36223.413884	3827.628090	17063.820838
78.535500	0.101728	0.063957	0.100774	0.149755	5940.588222	36171.123677	3821.082692	17021.785358
79.036000	0.102847	0.064808	0.103566	0.150616	5942.363418	36170.418441	3825.082828	16993.947182
79.536500	0.101531	0.066968	0.105284	0.155520	5899.932971	35961.678410	3818.493104	16836.405006
80.039500	0.105422	0.067028	0.112489	0.154135	5935.881869	36071.452978	3836.370895	16880.720059
80.537000	0.106000	0.066849	0.110737	0.155121	5933.085598	35982.915922	3830.633856	16849.148365
81.037000	0.107364	0.068032	0.107773	0.157472	5926.336206	35894.421109	3819.600328	16774.188855
81.537000	0.107625	0.068341	0.111510	0.161433	5901.155781	35619.264237	3819.139171	16648.796673
82.035000	0.105103	0.069302	0.113934	0.166164	5852.420371	35337.614966	3814.394316	16500.528086
82.535000	0.109036	0.069373	0.110471	0.161115	5912.896020	35720.690985	3817.652969	16658.815749
83.035500	0.112229	0.070130	0.117098	0.162310	5926.518671	35687.701277	3828.906247	16621.178385
83.536000	0.111152	0.069923	0.112823	0.166945	5887.741041	35325.742433	3810.522509	16476.205642
84.036000	0.109759	0.070129	0.113258	0.169856	5858.851474	35125.176013	3805.479236	16385.928626
84.536500	0.114276	0.071835	0.117760	0.165920	5915.853758	35544.777020	3822.780985	16508.122750
85.036000	0.115385	0.071256	0.120369	0.166872	5916.922216	35430.391256	3826.218007	16478.461661
85.537000	0.115380	0.071299	0.120667	0.168536	5905.576553	35309.725167	3823.384534	16426.782900
86.037000	0.113410	0.070849	0.112172	0.174973	5849.076061	34801.923051	3792.972365	16228.695980
86.535000	0.117787	0.071106	0.118829	0.170369	5909.476066	35159.490078	3815.809959	16370.072375
87.040500	0.117275	0.070821	0.119326	0.171288	5899.762957	35070.516569	3814.943986	16341.733025
87.535500	0.117787	0.071614	0.121680	0.176998	5864.773127	34709.838044	3808.081528	16166.988970
88.035500	0.115752	0.071945	0.117385	0.180366	5828.845375	34489.165530	3792.613234	16065.000003
88.535500	0.121567	0.073243	0.129470	0.175999	5896.931556	34902.156125	3826.166538	16197.410681
89.036500	0.121120	0.073549	0.118246	0.177069	5886.679401	34846.054422	3800.970226	16164.817239
89.535500	0.116500	0.073227	0.122178	0.182362	5820.605182	34437.454746	3798.226473	16004.907450
90.039500	0.117961	0.073899	0.123261	0.185036	5812.623098	34293.051829	3795.027999	15924.868252
90.537000	0.123486	0.075855	0.132123	0.180909	5876.766287	34733.934348	3821.486750	16048.622301
91.040000	0.122566	0.073844	0.123562	0.180559	5872.934662	34612.981642	3804.669982	16059.177775
91.535000	0.119912	0.075448	0.116264	0.187208	5811.167328	34248.217235	3776.822699	15860.197672
92.038000	0.124813	0.074863	0.128184	0.182815	5872.871320	34523.090017	3809.480869	15991.302522
92.536000	0.124114	0.075489	0.129611	0.183158	5865.891586	34543.666532	3811.696230	15981.037360
93.035500	0.127791	0.077365	0.124719	0.185483	5874.949291	34511.090077	3797.058380	15911.509415
93.536000	0.123278	0.076441	0.120413	0.191292	5806.451439	34026.832399	3776.949220	15739.471807
94.039500	0.121523	0.076673	0.131493	0.190501	5800.142968	34099.924233	3800.597497	15762.767089
94.536500	0.128426	0.077641	0.128518	0.187440	5866.086206	34389.457185	3800.770977	15853.298889
95.037000	0.124969	0.077868	0.132343	0.188533	5835.783656	34327.009348	3806.306977	15820.900849
95.534500	0.125708	0.078905	0.130494	0.189708	5832.902402	34317.108416	3800.183144	15786.178180
96.037500	0.122108	0.078043	0.124043	0.194589	5777.315127	33906.124873	3777.604600	15642.858726
96.534500	0.127997	0.078853	0.127513	0.191296	5837.545957	34199.223573	3791.008325	15739.375550
97.035500	0.125248	0.077832	0.131716	0.190790	5822.711563	34162.242247	3800.465037	15754.263235
97.535500	0.126769	0.078082	0.129471	0.191381	5828.853873	34137.813897	3794.757898	15736.864090
98.039000	0.127605	0.077939	0.128941	0.192243	5828.686577	34065.934304	3791.970024	15711.549404
98.536000	0.129650	0.079086	0.130716	0.193196	5835.907474	34079.726657	3793.614369	15683.586544
99.039500	0.126702	0.079364	0.127571	0.193866	5812.041610	34051.779399	3786.007191	15663.996567
99.537000	0.125414	0.078636	0.126153	0.200208	5762.342636	33550.880298	3770.732829	15479.863716
100.037000	0.124421	0.078256	0.124096	0.200013	5757.194770	33537.867760	3767.107454	15485.477635
100.535000	0.128505	0.079129	0.128007	0.195711	5811.762502	33903.561103	3783.211366	15610.146343
101.035500	0.129347	0.077886	0.133727	0.196318	5813.303305	33772.290880	3793.391159	15592.471511
101.535500	0.125567	0.078832	0.127691	0.202350	5749.524849	33414.463455	3769.553995	15418.270323
102.036000	0.126981	0.079346	0.130767	0.203535	5751.004978	33367.596175	3773.246383	15384.349300
102.535500	0.126052	0.079096	0.133061	0.198795	5775.612314	33682.822048	3787.119080	15520.649045
103.054000	0.128072	0.078773	0.130378	0.199217	5785.999848	33630.234256	3780.968962	15508.455985
103.536000	0.125416	0.079339	0.130250	0.206301	5723.294247	33174.540962	3766.848989	15305.492995
104.036500	0.131837	0.079941	0.137369	0.201479	5795.804708	33553.284802	3790.355269	15443.287508
104.540000	0.128997	0.079213	0.135125	0.201841	5774.959579	33476.748821	3785.169553	15432.875461
105.037500	0.129164	0.079550	0.128206	0.202491	5771.824514	33454.799115	3770.282998	15414.220659
105.534500	0.126059	0.078008	0.134791	0.208670	5712.325769	32918.844477	3771.076777	15238.351832
106.037500	0.130103	0.079864	0.133824	0.204595	5764.292245	33329.721709	3777.163118	15354.063103
