sample name	sample
index	709
start time	 03-25-2021  11:01:28 AM


Wavelength (nm)	Absorbance
494.344910	-0.105513
494.563924	-0.105513
494.782919	-0.105513
495.001897	0.030499
495.220856	-0.041531
495.439797	-0.034553
495.658719	-0.025031
495.877624	-0.012521
496.096510	-0.020419
496.315378	-0.014679
496.534227	-0.018553
496.753059	-0.014069
496.971872	-0.016005
497.190667	0.013678
497.409444	0.023669
497.628203	0.027116
497.846943	0.031368
498.065665	0.032435
498.284369	0.031543
498.503055	0.032534
498.721723	0.033808
498.940372	0.034716
499.159003	0.036184
499.377616	0.036360
499.596210	0.036378
499.814787	0.035498
500.033345	0.035948
500.251885	0.036708
500.470406	0.037187
500.688910	0.037238
500.907395	0.038243
501.125862	0.037189
501.344311	0.037565
501.562742	0.037535
501.781154	0.036897
501.999548	0.037354
502.217924	0.037275
502.436282	0.036314
502.654621	0.036408
502.872942	0.034835
503.091245	0.035320
503.309530	0.035849
503.527797	0.035748
503.746045	0.036490
503.964275	0.035662
504.182487	0.036306
504.400681	0.036686
504.618856	0.036521
504.837013	0.036946
505.055152	0.036457
505.273273	0.035931
505.491376	0.037017
505.709460	0.036947
505.927526	0.037369
506.145574	0.036809
506.363604	0.036649
506.581615	0.037161
506.799608	0.036886
507.017583	0.036845
507.235540	0.037060
507.453478	0.036200
507.671399	0.036263
507.889301	0.035712
508.107185	0.035174
508.325050	0.035220
508.542898	0.035122
508.760727	0.035567
508.978538	0.035883
509.196330	0.036188
509.414105	0.037193
509.631861	0.037216
509.849599	0.037574
510.067319	0.038216
510.285021	0.038421
510.502704	0.037733
510.720369	0.036862
510.938016	0.036767
511.155645	0.036214
511.373255	0.035399
511.590848	0.035705
511.808422	0.035981
512.025977	0.035784
512.243515	0.035887
512.461034	0.035816
512.678536	0.036042
512.896018	0.036344
513.113483	0.036889
513.330930	0.037426
513.548358	0.037572
513.765768	0.037045
513.983160	0.037299
514.200533	0.037891
514.417889	0.038070
514.635226	0.038900
514.852545	0.039131
515.069845	0.038920
515.287128	0.038579
515.504392	0.038136
515.721638	0.038965
515.938866	0.039298
516.156075	0.038335
516.373267	0.038520
516.590440	0.038520
516.807594	0.038511
517.024731	0.038563
517.241850	0.038295
517.458950	0.038283
517.676032	0.037548
517.893095	0.037080
518.110141	0.038024
518.327168	0.037881
518.544177	0.037697
518.761168	0.037802
518.978141	0.037396
519.195095	0.037617
519.412031	0.037679
519.628949	0.037894
519.845849	0.037997
520.062731	0.037700
520.279594	0.038452
520.496439	0.038313
520.713266	0.038097
520.930074	0.038370
521.146865	0.038503
521.363637	0.038018
521.580391	0.037654
521.797127	0.037602
522.013844	0.037686
522.230543	0.036528
522.447224	0.037019
522.663887	0.037154
522.880532	0.037864
523.097158	0.037900
523.313766	0.039173
523.530356	0.039745
523.746928	0.040066
523.963481	0.040196
524.180017	0.040896
524.396534	0.040818
524.613032	0.041042
524.829513	0.040023
525.045975	0.040561
525.262420	0.039751
525.478845	0.039540
525.695253	0.039385
525.911643	0.038967
526.128014	0.039228
526.344367	0.039331
526.560702	0.039232
526.777018	0.039409
526.993316	0.038952
527.209597	0.038957
527.425858	0.038777
527.642102	0.038898
527.858328	0.039157
528.074535	0.038843
528.290724	0.038793
528.506894	0.038184
528.723047	0.038886
528.939181	0.038799
529.155297	0.039364
529.371395	0.039842
529.587475	0.039565
529.803536	0.039506
530.019579	0.039585
530.235604	0.039635
530.451611	0.040033
530.667600	0.040070
530.883570	0.039899
531.099522	0.039947
531.315456	0.040011
531.531372	0.040036
531.747269	0.039822
531.963148	0.040343
532.179009	0.040264
532.394852	0.040841
532.610676	0.040496
532.826482	0.041250
533.042271	0.040812
533.258040	0.041395
533.473792	0.041537
533.689525	0.042027
533.905240	0.041747
534.120937	0.041865
534.336616	0.041213
534.552277	0.041486
534.767919	0.040940
534.983543	0.040714
535.199149	0.040240
535.414736	0.039961
535.630306	0.039955
535.845857	0.039781
536.061390	0.039628
536.276904	0.040148
536.492401	0.039659
536.707879	0.040111
536.923339	0.040293
537.138781	0.040458
537.354204	0.040944
537.569610	0.040937
537.784997	0.040838
538.000366	0.041100
538.215716	0.040624
538.431049	0.041310
538.646363	0.041101
538.861659	0.041186
539.076937	0.040609
539.292196	0.040681
539.507438	0.040312
539.722661	0.040633
539.937866	0.040384
540.153052	0.040573
540.368221	0.040407
540.583371	0.040374
540.798503	0.040811
541.013617	0.041366
541.228712	0.041430
541.443789	0.041422
541.658848	0.041659
541.873889	0.041944
542.088912	0.042164
542.303916	0.041998
542.518902	0.042395
542.733870	0.042396
542.948820	0.042353
543.163752	0.042488
543.378665	0.042793
543.593560	0.043048
543.808437	0.043178
544.023295	0.043102
544.238136	0.043294
544.452958	0.043188
544.667762	0.043449
544.882548	0.043488
545.097315	0.043242
545.312064	0.043496
545.526795	0.043314
545.741508	0.043647
545.956203	0.043959
546.170879	0.043779
546.385537	0.043516
546.600177	0.043410
546.814799	0.043620
547.029402	0.043825
547.243988	0.043591
547.458555	0.044070
547.673103	0.043132
547.887634	0.042725
548.102146	0.042936
548.316640	0.043201
548.531116	0.043053
548.745574	0.042814
548.960013	0.042718
549.174435	0.042938
549.388838	0.042380
549.603222	0.042832
549.817589	0.043393
550.031937	0.043435
550.246267	0.043294
550.460579	0.043668
550.674873	0.043706
550.889148	0.043969
551.103405	0.043959
551.317644	0.043855
551.531865	0.044040
551.746068	0.044111
551.960252	0.044197
552.174418	0.044438
552.388566	0.044410
552.602696	0.044627
552.816807	0.044482
553.030900	0.044831
553.244975	0.044921
553.459032	0.044750
553.673070	0.044300
553.887091	0.044457
554.101093	0.044480
554.315077	0.043882
554.529042	0.044055
554.742990	0.044338
554.956919	0.044130
555.170830	0.044128
555.384722	0.044409
555.598597	0.044595
555.812453	0.044486
556.026291	0.044557
556.240111	0.044999
556.453913	0.044919
556.667696	0.044961
556.881461	0.045021
557.095208	0.045377
557.308937	0.044975
557.522647	0.044955
557.736339	0.044917
557.950013	0.045101
558.163669	0.044976
558.377307	0.045038
558.590926	0.045109
558.804527	0.045157
559.018110	0.045256
559.231675	0.045940
559.445221	0.046096
559.658749	0.046087
559.872259	0.046032
560.085751	0.046152
560.299225	0.046207
560.512680	0.046320
560.726117	0.046254
560.939536	0.045834
561.152937	0.045572
561.366319	0.045349
561.579683	0.045635
561.793029	0.045354
562.006357	0.045400
562.219667	0.045513
562.432958	0.045381
562.646231	0.045413
562.859486	0.045624
563.072723	0.045715
563.285941	0.045754
563.499141	0.045737
563.712323	0.046223
563.925487	0.046441
564.138632	0.046583
564.351760	0.046877
564.564869	0.046903
564.777960	0.046819
564.991032	0.046724
565.204087	0.046716
565.417123	0.046622
565.630141	0.046403
565.843140	0.046184
566.056122	0.046028
566.269085	0.045678
566.482030	0.045920
566.694957	0.045995
566.907866	0.045981
567.120756	0.046018
567.333628	0.046281
567.546482	0.046299
567.759318	0.046494
567.972135	0.046622
568.184935	0.046939
568.397716	0.046966
568.610478	0.047243
568.823223	0.047416
569.035949	0.047933
569.248657	0.047953
569.461347	0.048170
569.674019	0.048292
569.886672	0.047835
570.099308	0.047965
570.311925	0.047706
570.524523	0.047744
570.737104	0.047907
570.949666	0.047639
571.162210	0.047709
571.374736	0.047414
571.587244	0.047446
571.799733	0.047937
572.012205	0.047695
572.224658	0.047807
572.437092	0.047734
572.649509	0.047428
572.861907	0.047761
573.074287	0.047967
573.286649	0.047993
573.498993	0.048030
573.711318	0.047730
573.923625	0.047707
574.135914	0.047764
574.348185	0.048136
574.560438	0.048297
574.772672	0.048241
574.984888	0.047873
575.197086	0.048171
575.409266	0.047960
575.621427	0.048102
575.833570	0.048108
576.045695	0.048405
576.257802	0.048476
576.469890	0.048699
576.681961	0.048702
576.894013	0.048969
577.106046	0.048972
577.318062	0.049079
577.530059	0.049099
577.742039	0.049173
577.954000	0.049022
578.165942	0.048784
578.377867	0.048757
578.589773	0.048578
578.801661	0.048183
579.013531	0.048180
579.225382	0.048203
579.437216	0.048374
579.649031	0.048324
579.860828	0.048529
580.072606	0.048475
580.284367	0.048302
580.496109	0.048297
580.707833	0.048314
580.919539	0.048127
581.131227	0.048059
581.342896	0.048218
581.554547	0.048328
581.766180	0.048046
581.977795	0.047993
582.189391	0.048448
582.400969	0.048545
582.612529	0.048707
582.824071	0.049063
583.035595	0.049336
583.247100	0.049019
583.458587	0.049249
583.670056	0.049301
583.881506	0.049271
584.092939	0.049235
584.304353	0.049358
584.515749	0.049579
584.727127	0.049323
584.938486	0.049328
585.149828	0.049288
585.361151	0.049077
585.572456	0.049308
585.783742	0.049746
585.995011	0.049708
586.206261	0.049603
586.417493	0.049641
586.628706	0.049837
586.839902	0.049848
587.051079	0.050061
587.262238	0.050179
587.473379	0.049915
587.684502	0.049596
587.895606	0.049340
588.106692	0.049476
588.317760	0.049314
588.528810	0.049385
588.739841	0.049382
588.950855	0.049629
589.161850	0.049595
589.372827	0.049567
589.583785	0.049510
589.794726	0.049693
590.005648	0.049936
590.216552	0.050119
590.427437	0.050147
590.638305	0.050232
590.849154	0.050130
591.059985	0.049992
591.270798	0.050419
591.481592	0.050670
591.692369	0.050899
591.903127	0.051143
592.113867	0.051104
592.324588	0.051407
592.535292	0.051119
592.745977	0.051061
592.956644	0.051551
593.167293	0.051442
593.377923	0.051395
593.588536	0.051271
593.799130	0.050852
594.009706	0.051085
594.220263	0.050923
594.430803	0.051288
594.641324	0.051575
594.851827	0.051279
595.062312	0.051136
595.272778	0.051244
595.483227	0.051161
595.693657	0.051095
595.904069	0.050985
596.114462	0.050863
596.324838	0.050785
596.535195	0.050796
596.745534	0.050711
596.955855	0.050882
597.166157	0.050761
597.376441	0.051217
597.586707	0.051429
597.796955	0.051535
598.007185	0.051542
598.217396	0.051753
598.427589	0.051461
598.637764	0.051623
598.847921	0.051816
599.058060	0.051836
599.268180	0.051644
599.478282	0.051581
599.688366	0.051452
599.898431	0.051622
600.108479	0.051333
600.318508	0.051655
600.528519	0.051928
600.738511	0.051977
600.948486	0.052479
601.158442	0.052544
601.368380	0.052526
601.578300	0.052736
601.788202	0.052698
601.998085	0.052886
602.207950	0.052960
602.417797	0.052860
602.627626	0.052646
602.837436	0.052350
603.047228	0.052459
603.257002	0.052653
603.466758	0.052785
603.676496	0.052924
603.886215	0.052972
604.095916	0.052699
604.305599	0.052628
604.515264	0.052749
604.724910	0.052906
604.934538	0.052861
605.144148	0.052905
605.353740	0.052762
605.563314	0.052859
605.772869	0.052885
605.982406	0.053012
606.191925	0.052930
606.401425	0.053039
606.610908	0.053173
606.820372	0.053047
607.029818	0.052925
607.239246	0.053189
607.448655	0.053039
607.658047	0.053165
607.867420	0.053384
608.076775	0.053873
608.286111	0.053951
608.495430	0.053905
608.704730	0.053985
608.914012	0.054168
609.123275	0.053953
609.332521	0.054071
609.541748	0.054063
609.750957	0.053896
609.960148	0.053728
610.169321	0.053609
610.378475	0.053396
610.587611	0.053574
610.796729	0.053524
611.005829	0.053648
611.214910	0.053784
611.423974	0.053962
611.633019	0.054051
611.842045	0.053854
612.051054	0.053948
612.260044	0.054045
612.469017	0.054040
612.677970	0.054269
612.886906	0.054003
613.095824	0.053853
613.304723	0.053670
613.513604	0.053650
613.722467	0.053931
613.931311	0.053914
614.140138	0.053998
614.348946	0.053848
614.557736	0.053887
614.766507	0.054207
614.975261	0.054164
615.183996	0.054305
615.392713	0.054274
615.601412	0.054121
615.810092	0.054358
616.018754	0.054391
616.227399	0.054521
616.436024	0.054346
616.644632	0.054351
616.853222	0.054705
617.061793	0.054649
617.270346	0.054694
617.478880	0.054774
617.687397	0.054480
617.895895	0.054610
618.104375	0.054626
618.312837	0.054642
618.521281	0.054444
618.729706	0.054264
618.938113	0.054467
619.146502	0.054531
619.354873	0.054466
619.563226	0.054755
619.771560	0.054662
619.979876	0.054785
620.188174	0.054958
620.396453	0.055401
620.604715	0.055299
620.812958	0.055186
621.021183	0.055445
621.229390	0.055460
621.437578	0.055471
621.645748	0.055420
621.853900	0.055214
622.062034	0.055232
622.270150	0.055201
622.478247	0.055336
622.686326	0.055310
622.894387	0.055247
623.102430	0.055531
623.310454	0.055521
623.518461	0.055776
623.726449	0.055967
623.934418	0.056022
624.142370	0.055749
624.350303	0.055939
624.558218	0.056002
624.766115	0.056155
624.973994	0.055974
625.181855	0.055986
625.389697	0.055774
625.597521	0.055787
625.805327	0.055463
626.013114	0.055388
626.220883	0.055201
626.428634	0.055093
626.636367	0.054869
626.844082	0.054948
627.051778	0.054855
627.259457	0.054991
627.467117	0.054750
627.674758	0.054909
627.882382	0.055009
628.089987	0.055011
628.297574	0.055219
628.505143	0.055241
628.712694	0.055309
628.920226	0.055266
629.127740	0.055134
629.335236	0.055509
629.542714	0.055581
629.750174	0.055793
629.957615	0.055928
630.165038	0.055840
630.372443	0.055752
630.579829	0.055758
630.787198	0.055837
630.994548	0.055927
631.201880	0.055598
631.409194	0.055565
631.616489	0.055431
631.823766	0.055386
632.031025	0.055527
632.238266	0.055684
632.445489	0.055808
632.652693	0.056111
632.859879	0.055947
633.067047	0.056107
633.274197	0.056135
633.481329	0.056303
633.688442	0.056339
633.895537	0.056136
634.102614	0.056142
634.309672	0.056224
634.516713	0.056244
634.723735	0.056433
634.930739	0.056582
635.137724	0.056782
635.344692	0.056789
635.551641	0.057019
635.758572	0.057282
635.965485	0.057344
636.172379	0.057259
636.379256	0.057059
636.586114	0.057236
636.792954	0.057180
636.999775	0.057344
637.206579	0.057597
637.413364	0.057413
637.620131	0.057424
637.826880	0.057543
638.033610	0.057698
638.240323	0.057985
638.447017	0.058116
638.653692	0.058205
638.860350	0.058038
639.066990	0.057891
639.273611	0.057937
639.480214	0.057813
639.686798	0.057686
639.893365	0.057470
640.099913	0.057303
640.306443	0.056941
640.512955	0.057142
640.719449	0.057195
640.925924	0.057215
641.132381	0.057252
641.338820	0.057369
641.545241	0.057367
641.751644	0.057467
641.958028	0.057361
642.164394	0.057579
642.370742	0.057513
642.577071	0.057470
642.783383	0.057239
642.989676	0.057296
643.195951	0.057225
643.402207	0.057308
643.608446	0.057292
643.814666	0.057364
644.020868	0.057251
644.227052	0.057324
644.433218	0.057314
644.639365	0.057538
644.845494	0.057425
645.051605	0.057321
645.257698	0.057375
645.463772	0.057416
645.669828	0.057377
645.875866	0.057497
646.081886	0.057351
646.287888	0.057373
646.493871	0.057283
646.699836	0.057459
646.905783	0.057660
647.111712	0.057677
647.317622	0.057591
647.523514	0.057646
647.729388	0.057704
647.935244	0.057776
648.141082	0.057828
648.346901	0.057949
648.552702	0.058046
648.758485	0.058080
648.964250	0.058085
649.169996	0.058270
649.375724	0.058411
649.581434	0.058458
649.787126	0.058476
649.992800	0.058497
650.198455	0.058511
650.404092	0.058428
650.609711	0.058578
650.815311	0.058631
651.020894	0.058537
651.226458	0.058451
651.432004	0.058489
651.637532	0.058360
651.843041	0.058323
652.048532	0.058468
652.254006	0.058519
652.459460	0.058412
652.664897	0.058255
652.870315	0.058379
653.075716	0.058446
653.281097	0.058298
653.486461	0.058554
653.691807	0.058633
653.897134	0.058655
654.102443	0.058738
654.307734	0.058922
654.513006	0.059271
654.718261	0.059376
654.923497	0.059432
655.128715	0.059677
655.333915	0.059741
655.539096	0.059865
655.744259	0.059844
655.949404	0.059706
656.154531	0.059728
656.359640	0.059575
656.564730	0.059542
656.769802	0.059617
656.974856	0.059636
657.179892	0.059396
657.384909	0.059147
657.589908	0.059259
657.794889	0.059503
657.999852	0.059425
658.204797	0.059415
658.409723	0.059518
658.614631	0.059640
658.819521	0.059451
659.024393	0.059547
659.229246	0.059901
659.434081	0.059696
659.638898	0.059626
659.843697	0.059696
660.048478	0.059801
660.253240	0.059587
660.457984	0.059643
660.662710	0.059660
660.867417	0.059731
661.072107	0.059687
661.276778	0.059851
661.481431	0.059995
661.686066	0.059966
661.890682	0.059971
662.095281	0.060053
662.299861	0.060006
662.504422	0.060029
662.708966	0.060059
662.913491	0.059992
663.117999	0.059957
663.322488	0.059793
663.526958	0.059888
663.731411	0.059883
663.935845	0.059996
664.140261	0.059999
664.344659	0.060090
664.549038	0.060050
664.753400	0.060022
664.957743	0.060040
665.162068	0.060136
665.366375	0.060100
665.570663	0.060186
665.774933	0.060202
665.979185	0.060244
666.183419	0.060431
666.387635	0.060625
666.591832	0.060803
666.796011	0.060895
667.000172	0.060807
667.204315	0.060760
667.408439	0.060846
667.612545	0.060806
667.816634	0.060788
668.020703	0.060775
668.224755	0.060792
668.428788	0.060785
668.632803	0.060891
668.836800	0.061165
669.040779	0.061348
669.244739	0.061407
669.448681	0.061503
669.652605	0.061597
669.856511	0.061702
670.060399	0.061701
670.264268	0.061739
670.468119	0.061730
670.671952	0.061534
670.875767	0.061447
671.079563	0.061469
671.283341	0.061577
671.487101	0.061523
671.690843	0.061441
671.894567	0.061465
672.098272	0.061541
672.301959	0.061567
672.505628	0.061666
672.709278	0.061848
672.912911	0.061684
673.116525	0.061614
673.320121	0.061739
673.523699	0.061777
673.727258	0.061830
673.930799	0.061739
674.134322	0.061885
674.337827	0.062047
674.541314	0.062094
674.744782	0.062278
674.948232	0.062366
675.151664	0.062192
675.355078	0.062146
675.558474	0.062353
675.761851	0.062438
675.965210	0.062452
676.168551	0.062368
676.371873	0.062417
676.575178	0.062477
676.778464	0.062564
676.981732	0.062799
677.184981	0.063134
677.388213	0.063007
677.591426	0.063051
677.794621	0.062843
677.997798	0.063222
678.200956	0.063270
678.404097	0.063403
678.607219	0.063418
678.810323	0.063399
679.013408	0.063256
679.216476	0.063380
679.419525	0.063608
679.622556	0.063765
679.825569	0.063548
680.028563	0.063448
680.231540	0.063368
680.434498	0.063492
680.637438	0.063581
680.840359	0.063726
681.043263	0.063730
681.246148	0.063535
681.449015	0.063617
681.651864	0.063547
681.854694	0.063742
682.057506	0.063771
682.260301	0.063577
682.463076	0.063503
682.665834	0.063368
682.868573	0.063417
683.071295	0.063439
683.273998	0.063417
683.476682	0.063447
683.679349	0.063452
683.881997	0.063506
684.084627	0.063489
684.287239	0.063468
684.489833	0.063592
684.692408	0.063606
684.894965	0.063752
685.097504	0.063825
685.300025	0.063808
685.502527	0.063782
685.705012	0.063725
685.907478	0.063952
686.109925	0.064148
686.312355	0.064076
686.514766	0.064138
686.717159	0.064317
686.919534	0.064430
687.121891	0.064644
687.324230	0.064726
687.526550	0.064894
687.728852	0.064742
687.931136	0.064832
688.133401	0.064942
688.335649	0.064912
688.537878	0.064822
688.740089	0.064697
688.942281	0.064626
689.144456	0.064572
689.346612	0.064549
689.548750	0.064594
689.750870	0.064565
689.952971	0.064615
690.155055	0.064578
690.357120	0.064647
690.559167	0.064728
690.761195	0.064767
690.963206	0.064843
691.165198	0.064936
691.367172	0.064950
691.569128	0.064889
691.771065	0.064868
691.972984	0.064934
692.174885	0.064883
692.376768	0.065027
692.578633	0.064989
692.780479	0.064898
692.982308	0.064802
693.184118	0.065097
693.385909	0.065175
693.587683	0.065318
693.789438	0.065354
693.991175	0.065474
694.192894	0.065308
694.394595	0.065439
694.596277	0.065597
694.797941	0.065835
694.999587	0.065708
695.201215	0.065541
695.402824	0.065339
695.604416	0.065521
695.805989	0.065492
696.007543	0.065523
696.209080	0.065530
696.410598	0.065385
696.612099	0.065309
696.813580	0.065221
697.015044	0.065451
697.216490	0.065622
697.417917	0.065343
697.619326	0.065333
697.820717	0.065570
698.022089	0.065682
698.223444	0.065883
698.424780	0.065942
698.626098	0.066181
698.827397	0.066265
699.028679	0.066221
699.229942	0.066432
699.431187	0.066413
699.632414	0.066236
699.833622	0.066232
700.034813	0.066250
700.235985	0.066374
700.437139	0.066420
700.638274	0.066281
700.839392	0.066609
701.040491	0.066692
701.241572	0.066842
701.442635	0.066948
701.643679	0.066935
701.844706	0.067005
702.045714	0.066856
702.246704	0.066948
702.447675	0.067140
702.648629	0.067032
702.849564	0.067018
703.050481	0.066888
703.251380	0.066671
703.452260	0.066605
703.653122	0.066474
703.853966	0.066440
704.054792	0.066514
704.255600	0.066484
704.456389	0.066384
704.657160	0.066347
704.857913	0.066425
705.058648	0.066634
705.259365	0.066707
705.460063	0.066791
705.660743	0.066841
705.861405	0.066746
706.062048	0.066774
706.262674	0.066781
706.463281	0.066548
706.663870	0.066487
706.864441	0.066477
707.064993	0.066463
707.265527	0.066495
707.466043	0.066342
707.666541	0.066363
707.867021	0.066263
708.067482	0.066340
708.267925	0.066720
708.468350	0.066926
708.668757	0.067025
708.869145	0.067147
709.069516	0.066963
709.269868	0.067095
709.470201	0.066930
709.670517	0.066888
709.870814	0.066957
710.071093	0.066938
710.271354	0.066915
710.471597	0.066827
710.671821	0.066707
710.872028	0.066771
711.072216	0.066769
711.272385	0.066930
711.472537	0.067099
711.672670	0.066850
711.872785	0.066709
712.072882	0.066541
712.272961	0.066484
712.473021	0.066392
712.673063	0.066478
712.873087	0.066583
713.073093	0.066562
713.273081	0.066491
713.473050	0.066659
713.673001	0.066671
713.872934	0.066880
714.072849	0.067160
714.272745	0.067347
714.472623	0.067425
714.672483	0.067360
714.872325	0.067414
715.072148	0.067326
715.271954	0.067372
715.471741	0.067497
715.671509	0.067309
715.871260	0.067121
716.070992	0.066937
716.270707	0.066847
716.470403	0.066802
716.670080	0.066619
716.869740	0.066704
717.069381	0.066572
717.269004	0.066401
717.468609	0.066425
717.668195	0.066318
717.867764	0.066347
718.067314	0.066250
718.266846	0.066106
718.466360	0.066136
718.665855	0.066023
718.865332	0.065942
719.064791	0.065882
719.264232	0.065867
719.463655	0.065943
719.663059	0.065910
719.862445	0.065910
720.061813	0.066116
720.261163	0.066196
720.460494	0.066153
720.659807	0.066080
720.859102	0.066126
721.058379	0.066161
721.257638	0.066187
721.456878	0.066185
721.656100	0.066204
721.855304	0.066106
722.054490	0.066023
722.253657	0.066133
722.452806	0.066198
722.651937	0.066214
722.851050	0.066213
723.050145	0.066134
723.249221	0.066055
723.448279	0.066165
723.647319	0.066237
723.846340	0.066096
724.045344	0.066070
724.244329	0.066159
724.443296	0.066174
724.642245	0.066011
724.841175	0.066007
725.040088	0.066143
725.238982	0.065940
725.437857	0.065677
725.636715	0.065922
725.835554	0.065900
726.034376	0.065795
726.233179	0.065710
726.431963	0.065872
726.630730	0.065834
726.829478	0.065646
727.028208	0.065634
727.226920	0.065734
727.425614	0.065416
727.624289	0.065316
727.822946	0.065347
728.021585	0.065295
728.220206	0.065282
728.418808	0.065024
728.617392	0.065035
728.815958	0.065094
729.014506	0.065029
729.213036	0.065009
729.411547	0.064950
729.610040	0.064938
729.808515	0.064999
730.006972	0.064772
730.205410	0.064822
730.403831	0.064853
730.602233	0.064886
730.800616	0.065002
730.998982	0.064928
731.197329	0.064954
731.395658	0.064990
731.593969	0.064909
731.792262	0.064855
731.990536	0.064943
732.188793	0.065130
732.387031	0.065015
732.585250	0.064831
732.783452	0.064804
732.981635	0.064775
733.179800	0.064609
733.377947	0.064659
733.576076	0.064609
733.774186	0.064535
733.972278	0.064239
734.170352	0.064296
734.368408	0.064443
734.566446	0.064546
734.764465	0.064564
734.962466	0.064499
735.160449	0.064319
735.358413	0.064436
735.556360	0.064372
735.754288	0.064369
735.952198	0.064225
736.150090	0.064134
736.347963	0.064200
736.545818	0.064048
736.743655	0.063981
736.941474	0.063854
737.139275	0.063727
737.337057	0.063454
737.534821	0.063148
737.732567	0.062997
737.930295	0.062766
738.128005	0.062495
738.325696	0.062358
738.523369	0.062343
738.721024	0.062415
738.918660	0.062423
739.116279	0.062702
739.313879	0.063049
739.511461	0.063188
739.709024	0.063122
739.906570	0.063250
740.104097	0.063356
740.301606	0.063211
740.499097	0.063284
740.696569	0.063205
740.894024	0.063131
741.091460	0.062950
741.288878	0.062719
741.486277	0.062591
741.683659	0.062641
741.881022	0.062619
742.078367	0.062861
742.275694	0.062803
742.473002	0.062740
742.670293	0.062689
742.867565	0.062635
743.064819	0.062899
743.262054	0.063170
743.459272	0.062869
743.656471	0.062920
743.853652	0.062862
744.050815	0.062602
744.247959	0.062605
744.445085	0.062709
744.642194	0.062847
744.839283	0.062718
745.036355	0.062600
745.233408	0.062819
745.430444	0.062690
745.627461	0.062568
745.824459	0.062822
746.021440	0.062754
746.218402	0.062792
746.415346	0.062545
746.612272	0.062480
746.809180	0.062431
747.006069	0.062248
747.202940	0.062171
747.399793	0.062043
747.596628	0.061952
747.793444	0.061815
747.990243	0.061614
748.187023	0.061639
748.383784	0.061465
748.580528	0.061529
748.777253	0.061469
748.973960	0.061468
749.170649	0.061571
749.367320	0.061524
749.563973	0.061662
749.760607	0.061560
749.957223	0.061696
750.153821	0.061749
750.350400	0.061875
750.546962	0.061943
750.743505	0.062146
750.940030	0.062084
751.136536	0.062258
751.333025	0.062349
751.529495	0.062607
751.725947	0.062517
751.922381	0.062543
752.118796	0.062398
752.315194	0.062347
752.511573	0.062328
752.707934	0.062493
752.904276	0.062124
753.100601	0.062225
753.296907	0.061953
753.493195	0.061955
753.689465	0.062003
753.885716	0.061951
754.081949	0.061961
754.278164	0.061929
754.474361	0.061868
754.670540	0.062053
754.866700	0.061958
755.062843	0.062085
755.258967	0.062158
755.455072	0.062020
755.651160	0.062025
755.847229	0.062005
756.043280	0.061885
756.239313	0.061864
756.435328	0.061960
756.631324	0.062001
756.827302	0.061831
757.023262	0.061545
757.219204	0.061641
757.415127	0.061621
757.611033	0.061641
757.806920	0.061534
758.002788	0.061472
758.198639	0.061328
758.394471	0.061179
758.590286	0.061248
758.786081	0.061502
758.981859	0.061613
759.177619	0.061468
759.373360	0.061309
759.569083	0.061434
759.764788	0.061527
759.960474	0.061616
760.156143	0.061557
760.351793	0.061765
760.547425	0.061679
760.743038	0.061652
760.938634	0.061804
761.134211	0.062073
761.329770	0.061987
761.525311	0.061894
761.720833	0.061742
761.916338	0.061638
762.111824	0.061463
762.307292	0.061501
762.502741	0.061350
762.698173	0.061221
762.893586	0.061188
763.088981	0.061266
763.284358	0.061251
763.479716	0.061397
763.675057	0.061594
763.870379	0.061758
764.065683	0.061759
764.260968	0.061826
764.456236	0.061985
764.651485	0.061773
764.846716	0.061655
765.041929	0.061467
765.237123	0.061215
765.432299	0.061087
765.627457	0.060934
765.822597	0.060759
766.017719	0.060835
766.212822	0.060823
766.407907	0.060889
766.602974	0.060848
766.798023	0.061095
766.993054	0.061271
767.188066	0.061381
767.383060	0.061215
767.578036	0.061361
767.772993	0.061362
767.967933	0.061294
768.162854	0.061366
768.357757	0.061459
768.552642	0.061299
768.747508	0.061037
768.942356	0.060846
769.137186	0.061119
769.331998	0.061254
769.526792	0.061195
769.721567	0.061270
769.916324	0.061188
770.111063	0.061241
770.305784	0.061252
770.500486	0.061584
770.695171	0.061704
770.889837	0.061651
771.084484	0.061363
771.279114	0.061292
771.473725	0.061234
771.668318	0.061094
771.862893	0.061055
772.057450	0.061135
772.251988	0.060943
772.446509	0.061073
772.641011	0.061047
772.835494	0.061202
773.029960	0.061248
773.224407	0.061278
773.418836	0.061445
773.613247	0.061534
773.807640	0.061534
774.002014	0.061724
774.196370	0.061759
774.390708	0.061831
774.585028	0.061925
774.779330	0.061891
774.973613	0.061773
775.167878	0.061570
775.362125	0.061422
775.556354	0.061418
775.750564	0.061350
775.944756	0.061380
776.138930	0.061284
776.333086	0.061148
776.527223	0.061082
776.721343	0.061166
776.915444	0.061133
777.109526	0.061197
777.303591	0.061170
777.497637	0.061235
777.691666	0.060974
777.885676	0.061015
778.079667	0.061027
778.273641	0.061041
778.467596	0.061005
778.661533	0.061308
778.855452	0.061281
779.049352	0.061349
779.243235	0.061128
779.437099	0.061318
779.630945	0.061307
779.824773	0.061319
780.018582	0.061367
780.212373	0.061518
780.406146	0.061560
780.599901	0.061604
780.793638	0.061577
780.987356	0.061720
781.181056	0.061454
781.374738	0.061471
781.568402	0.061557
781.762047	0.061573
781.955674	0.061645
782.149283	0.061724
782.342874	0.061666
782.536447	0.061605
782.730001	0.061591
782.923537	0.061799
783.117055	0.061748
783.310555	0.061552
783.504036	0.061622
783.697499	0.061488
783.890944	0.061348
784.084371	0.061452
784.277780	0.061662
784.471170	0.061670
784.664542	0.061583
784.857896	0.061774
785.051231	0.062005
785.244549	0.062088
785.437848	0.062142
785.631129	0.061956
785.824392	0.061949
786.017636	0.061884
786.210863	0.061915
786.404071	0.061934
786.597260	0.061879
786.790432	0.061856
786.983585	0.061723
787.176721	0.061764
787.369838	0.062161
787.562936	0.062156
787.756017	0.062131
787.949079	0.062144
788.142123	0.062186
788.335149	0.061995
788.528156	0.061965
788.721146	0.062173
788.914117	0.062279
789.107070	0.062176
789.300005	0.062294
789.492921	0.062222
789.685819	0.062301
789.878699	0.062437
790.071561	0.062586
790.264405	0.062696
790.457230	0.062600
790.650037	0.062343
790.842826	0.062389
791.035597	0.062398
791.228349	0.062385
791.421084	0.062379
791.613800	0.062401
791.806497	0.062456
791.999177	0.062391
792.191838	0.062182
792.384481	0.062368
792.577106	0.062487
792.769713	0.062564
792.962301	0.062656
793.154871	0.062617
793.347423	0.062639
793.539957	0.062717
793.732473	0.062551
793.924970	0.062749
794.117449	0.062652
794.309910	0.062477
794.502353	0.062442
794.694777	0.062566
794.887183	0.062741
795.079571	0.062521
795.271941	0.062589
795.464293	0.062962
795.656626	0.062908
795.848941	0.063116
796.041238	0.063216
796.233516	0.063266
796.425777	0.063222
796.618019	0.063104
796.810243	0.063531
797.002449	0.063392
797.194636	0.063314
797.386805	0.063551
797.578956	0.063525
797.771089	0.063537
797.963204	0.063415
798.155300	0.063550
798.347378	0.063694
798.539438	0.063454
798.731480	0.063628
798.923503	0.063566
799.115509	0.063383
799.307496	0.063318
799.499465	0.063346
799.691415	0.063437
799.883348	0.063276
800.075262	0.063225
800.267158	0.063164
800.459035	0.063137
800.650895	0.063264
800.842736	0.063321
801.034559	0.063305
801.226364	0.063482
801.418150	0.063546
801.609919	0.063717
801.801669	0.063897
801.993401	0.064163
802.185114	0.064264
802.376810	0.064268
802.568487	0.064346
802.760146	0.064604
802.951787	0.064603
803.143409	0.064703
803.335014	0.064866
803.526600	0.064780
803.718168	0.064727
803.909717	0.064783
804.101249	0.064711
804.292762	0.064889
804.484257	0.064930
804.675734	0.064947
804.867192	0.065033
805.058632	0.065044
805.250054	0.065032
805.441458	0.065144
805.632844	0.065136
805.824211	0.065506
806.015561	0.065414
806.206891	0.065209
806.398204	0.065088
806.589499	0.065073
806.780775	0.064955
806.972033	0.065145
807.163273	0.064949
807.354495	0.065118
807.545698	0.065116
807.736883	0.065282
807.928050	0.065606
808.119199	0.065719
808.310329	0.065657
808.501441	0.065719
808.692535	0.065689
808.883611	0.065830
809.074669	0.065612
809.265708	0.065519
809.456729	0.065504
809.647732	0.065380
809.838717	0.065436
810.029683	0.065572
810.220632	0.065692
810.411562	0.065728
810.602474	0.065984
810.793367	0.066204
810.984242	0.066258
811.175100	0.066230
811.365938	0.066211
811.556759	0.066318
811.747562	0.066364
811.938346	0.066190
812.129112	0.066138
812.319860	0.065929
812.510589	0.065796
812.701300	0.065685
812.891994	0.065664
813.082668	0.065776
813.273325	0.065700
813.463964	0.065552
813.654584	0.065756
813.845186	0.065769
814.035769	0.065669
814.226335	0.065594
814.416882	0.065666
814.607411	0.065799
814.797922	0.065765
814.988415	0.065798
815.178889	0.066145
815.369345	0.066190
815.559783	0.066494
815.750203	0.066983
815.940605	0.067279
816.130988	0.067342
816.321353	0.067568
816.511700	0.067758
816.702028	0.068013
816.892339	0.067913
817.082631	0.067976
817.272905	0.067917
817.463161	0.067667
817.653398	0.067775
817.843617	0.068075
818.033819	0.068028
818.224001	0.067950
818.414166	0.067914
818.604312	0.067888
818.794440	0.067818
818.984550	0.067660
819.174642	0.068033
819.364716	0.067809
819.554771	0.067560
819.744808	0.067671
819.934827	0.067820
820.124827	0.067650
820.314810	0.067535
820.504774	0.067692
820.694720	0.067792
820.884647	0.067531
821.074557	0.068032
821.264448	0.068064
821.454321	0.067783
821.644176	0.067594
821.834012	0.067622
822.023831	0.067727
822.213631	0.067776
822.403413	0.067849
822.593176	0.067985
822.782922	0.067791
822.972649	0.068026
823.162358	0.068208
823.352049	0.068397
823.541721	0.068654
823.731376	0.068944
823.921012	0.068976
824.110629	0.069001
824.300229	0.068794
824.489811	0.068554
824.679374	0.068384
824.868919	0.068219
825.058445	0.068141
825.247954	0.068052
825.437444	0.067896
825.626916	0.068109
825.816370	0.068383
826.005806	0.068659
826.195223	0.068838
826.384622	0.068921
826.574003	0.068977
826.763366	0.069117
826.952711	0.069175
827.142037	0.069231
827.331345	0.069035
827.520635	0.068772
827.709906	0.068717
827.899160	0.068745
828.088395	0.068914
828.277612	0.069359
828.466810	0.069631
828.655991	0.069519
828.845153	0.069675
829.034297	0.069839
829.223423	0.070156
829.412531	0.070136
829.601620	0.070237
829.790691	0.070155
829.979744	0.070140
830.168779	0.070046
830.357795	0.070254
830.546793	0.070341
830.735773	0.070145
830.924735	0.069848
831.113679	0.069986
831.302604	0.070008
831.491511	0.070313
831.680400	0.070334
831.869271	0.070402
832.058123	0.070493
832.246957	0.070548
832.435773	0.070760
832.624571	0.070826
832.813351	0.070946
833.002112	0.071240
833.190855	0.071240
833.379580	0.071417
833.568287	0.071397
833.756975	0.071522
833.945645	0.071632
834.134297	0.071583
834.322931	0.071791
834.511547	0.071951
834.700144	0.071966
834.888723	0.071855
835.077284	0.071653
835.265826	0.071660
835.454351	0.071783
835.642857	0.071434
835.831345	0.071713
836.019815	0.071987
836.208266	0.071924
836.396699	0.071901
836.585114	0.072219
836.773511	0.072528
836.961890	0.072635
837.150250	0.072615
837.338592	0.072927
837.526916	0.073048
837.715222	0.072943
837.903510	0.073121
838.091779	0.073095
838.280030	0.072896
838.468263	0.072769
838.656477	0.072762
838.844674	0.072950
839.032852	0.072999
839.221012	0.073049
839.409153	0.073453
839.597277	0.073562
839.785382	0.073703
839.973469	0.073934
840.161538	0.074039
840.349589	0.074383
840.537621	0.074332
840.725635	0.074352
840.913631	0.074336
841.101609	0.073996
841.289568	0.073968
841.477509	0.074312
841.665432	0.074377
841.853337	0.074472
842.041224	0.074426
842.229092	0.074457
842.416942	0.074632
842.604774	0.074780
842.792588	0.075216
842.980383	0.075273
843.168160	0.075171
843.355919	0.075340
843.543660	0.075525
843.731382	0.075843
843.919087	0.075886
844.106773	0.076080
844.294441	0.076192
844.482090	0.076401
844.669722	0.076738
844.857335	0.076551
845.044930	0.076797
845.232507	0.076999
845.420065	0.076789
845.607605	0.077203
845.795127	0.077284
845.982631	0.077308
846.170117	0.076926
846.357584	0.076825
846.545033	0.077189
846.732464	0.076960
846.919877	0.076804
847.107272	0.076910
847.294648	0.076798
847.482006	0.076852
847.669346	0.076809
847.856667	0.077152
848.043971	0.077140
848.231256	0.077016
848.418523	0.077106
848.605771	0.077404
848.793002	0.077487
848.980214	0.077653
849.167408	0.077739
849.354584	0.077905
849.541742	0.077714
849.728881	0.077929
849.916002	0.078162
850.103105	0.078287
850.290190	0.078159
850.477256	0.078214
850.664304	0.077877
850.851334	0.078055
851.038346	0.078184
851.225340	0.078340
851.412315	0.078640
851.599272	0.078502
851.786211	0.078515
851.973132	0.078328
852.160034	0.078567
852.346918	0.078822
852.533784	0.078872
852.720632	0.078924
852.907462	0.079309
853.094273	0.079131
853.281066	0.079703
853.467841	0.080072
853.654598	0.080536
853.841336	0.080549
854.028056	0.080966
854.214758	0.080971
854.401442	0.080876
854.588107	0.081002
854.774755	0.081166
854.961384	0.081164
855.147995	0.080997
855.334587	0.080946
855.521162	0.080986
855.707718	0.080900
855.894256	0.081251
856.080775	0.081597
856.267277	0.081396
856.453760	0.081537
856.640225	0.081650
856.826672	0.081824
857.013101	0.082009
857.199511	0.082185
857.385903	0.082305
857.572277	0.082205
857.758633	0.082364
857.944970	0.082821
858.131290	0.082795
858.317591	0.082879
858.503873	0.082931
858.690138	0.083308
858.876384	0.083050
859.062612	0.083174
859.248822	0.083218
859.435014	0.083443
859.621188	0.083194
859.807343	0.083381
859.993480	0.083298
860.179599	0.083427
860.365699	0.083256
860.551781	0.083547
860.737846	0.083434
860.923891	0.083751
861.109919	0.083599
861.295929	0.083761
861.481920	0.083708
861.667893	0.083910
861.853848	0.083955
862.039784	0.084177
862.225702	0.084459
862.411603	0.084604
862.597484	0.084307
862.783348	0.084459
862.969193	0.084725
863.155021	0.085346
863.340830	0.085491
863.526620	0.085755
863.712393	0.085734
863.898147	0.085844
864.083883	0.086139
864.269601	0.086487
864.455301	0.086524
864.640982	0.086390
864.826645	0.086319
865.012290	0.086438
865.197917	0.086271
865.383526	0.086464
865.569116	0.086263
865.754688	0.086158
865.940242	0.086230
866.125777	0.086349
866.311295	0.086121
866.496794	0.085819
866.682275	0.085532
866.867737	0.085612
867.053182	0.085371
867.238608	0.085707
867.424016	0.085930
867.609406	0.086052
867.794778	0.086126
867.980131	0.086206
868.165466	0.086250
868.350783	0.086714
868.536082	0.086919
868.721362	0.087369
868.906625	0.087343
869.091869	0.087555
869.277094	0.087480
869.462302	0.087349
869.647491	0.087721
869.832662	0.087767
870.017815	0.087577
870.202950	0.087613
870.388066	0.087453
870.573165	0.087533
870.758245	0.087184
870.943306	0.087222
871.128350	0.087489
871.313375	0.087662
871.498382	0.087854
871.683371	0.087990
871.868342	0.088047
872.053294	0.088201
872.238229	0.088441
872.423144	0.088581
872.608042	0.088779
872.792922	0.088814
872.977783	0.088356
873.162626	0.088408
873.347451	0.088365
873.532258	0.088552
873.717046	0.088632
873.901816	0.088627
874.086568	0.089091
874.271302	0.088992
874.456017	0.089105
874.640715	0.089654
874.825394	0.089865
875.010055	0.089947
875.194697	0.089809
875.379322	0.089779
875.563928	0.089696
875.748516	0.089364
875.933085	0.089325
876.117637	0.089219
876.302170	0.089161
876.486685	0.089083
876.671182	0.089187
876.855661	0.089262
877.040121	0.089174
877.224563	0.089235
877.408987	0.089117
877.593393	0.089087
877.777780	0.089260
877.962150	0.089327
878.146501	0.089167
878.330833	0.089157
878.515148	0.089295
878.699444	0.089462
878.883722	0.089411
879.067982	0.089663
879.252224	0.089667
879.436447	0.089663
879.620653	0.089675
879.804840	0.089751
879.989008	0.089565
880.173159	0.089422
880.357291	0.089346
880.541405	0.089776
880.725501	0.089860
880.909579	0.090024
881.093638	0.089921
881.277680	0.089950
881.461703	0.090183
881.645707	0.090225
881.829694	0.090336
882.013662	0.090402
882.197612	0.090245
882.381544	0.090460
882.565458	0.090816
882.749353	0.090902
882.933230	0.090868
883.117089	0.090968
883.300930	0.091426
883.484753	0.091550
883.668557	0.091660
883.852343	0.091798
884.036111	0.091255
884.219861	0.090840
884.403592	0.090945
884.587305	0.091109
884.771000	0.090872
884.954677	0.090580
885.138335	0.090500
885.321976	0.090479
885.505598	0.090513
885.689201	0.090885
885.872787	0.091099
886.056354	0.090981
886.239904	0.090841
886.423434	0.090754
886.606947	0.091066
886.790442	0.091156
886.973918	0.091244
887.157376	0.090795
887.340816	0.090777
887.524237	0.090650
887.707641	0.090911
887.891026	0.091089
888.074393	0.091295
888.257741	0.091098
888.441072	0.091173
888.624384	0.091167
888.807678	0.091340
888.990954	0.091269
889.174211	0.090988
889.357451	0.090546
889.540672	0.090056
889.723875	0.089935
889.907059	0.089772
890.090226	0.089684
890.273374	0.089582
890.456504	0.089634
890.639616	0.089979
890.822709	0.090188
891.005785	0.090506
891.188842	0.091003
891.371881	0.090780
891.554901	0.090709
891.737904	0.090664
891.920888	0.090628
892.103854	0.090715
892.286802	0.090551
892.469731	0.090913
892.652643	0.090789
892.835536	0.090581
893.018410	0.090625
893.201267	0.090651
893.384106	0.090692
893.566926	0.090515
893.749728	0.090344
893.932511	0.089903
894.115277	0.089694
894.298024	0.089804
894.480753	0.090093
894.663464	0.090169
894.846157	0.090227
895.028831	0.089987
895.211487	0.090385
895.394125	0.090382
895.576745	0.090757
895.759346	0.090675
895.941930	0.090970
896.124495	0.090710
896.307041	0.090758
896.489570	0.090581
896.672080	0.090677
896.854573	0.090403
897.037046	0.090243
897.219502	0.090217
897.401940	0.090291
897.584359	0.090194
897.766760	0.090265
897.949143	0.090303
898.131507	0.090498
898.313854	0.090307
898.496182	0.090240
898.678492	0.090173
898.860783	0.090063
899.043057	0.090157
899.225312	0.089965
899.407549	0.089572
899.589768	0.089472
899.771968	0.089475
899.954151	0.089531
900.136315	0.089455
900.318461	0.089392
900.500588	0.089197
900.682698	0.089188
900.864789	0.088955
901.046862	0.089179
901.228917	0.089173
901.410953	0.088955
901.592971	0.089195
901.774972	0.089163
901.956953	0.089316
902.138917	0.089208
902.320862	0.088978
902.502790	0.088918
902.684699	0.088783
902.866589	0.088691
903.048462	0.088619
903.230316	0.088323
903.412152	0.088425
903.593970	0.088447
903.775770	0.088400
903.957551	0.088439
904.139314	0.088519
904.321059	0.088125
904.502786	0.087986
904.684494	0.088264
904.866185	0.088065
905.047857	0.087719
905.229510	0.087212
905.411146	0.087310
905.592763	0.086917
905.774363	0.086921
905.955943	0.087742
906.137506	0.087787
906.319051	0.087262
906.500577	0.086967
906.682085	0.086886
906.863575	0.086907
907.045046	0.086523
907.226500	0.086351
907.407935	0.086012
907.589352	0.085474
907.770750	0.085153
907.952131	0.084835
908.133493	0.084895
908.314837	0.084805
908.496163	0.084794
908.677470	0.084887
908.858760	0.084843
909.040031	0.084601
909.221284	0.084390
909.402518	0.084266
909.583735	0.084567
909.764933	0.084454
909.946113	0.084271
910.127275	0.084008
910.308418	0.083983
910.489544	0.083814
910.670651	0.084051
910.851740	0.083661
911.032810	0.083799
911.213863	0.083634
911.394897	0.083669
911.575913	0.083820
911.756911	0.083823
911.937890	0.083493
912.118851	0.083638
912.299794	0.083021
912.480719	0.083037
912.661626	0.082772
912.842514	0.082611
913.023384	0.082650
913.204236	0.082304
913.385070	0.082182
913.565886	0.081903
913.746683	0.081973
913.927462	0.081932
914.108223	0.081450
914.288965	0.081213
914.469690	0.081049
914.650396	0.080371
914.831084	0.080035
915.011754	0.079782
915.192405	0.080343
915.373038	0.079837
915.553653	0.079980
915.734250	0.079978
915.914829	0.079841
916.095389	0.079653
916.275931	0.079820
916.456455	0.079917
916.636961	0.079885
916.817448	0.079153
916.997917	0.078925
917.178368	0.078602
917.358801	0.078759
917.539216	0.078868
917.719612	0.078580
917.899990	0.078177
918.080350	0.077887
918.260692	0.077562
918.441015	0.077629
918.621320	0.077808
918.801607	0.077404
918.981876	0.076925
919.162127	0.076590
919.342359	0.076387
919.522573	0.076152
919.702769	0.075837
919.882947	0.075677
920.063106	0.075277
920.243247	0.075097
920.423370	0.074916
920.603475	0.075257
920.783562	0.074946
920.963630	0.074937
921.143680	0.074810
921.323712	0.074854
921.503725	0.075103
921.683721	0.074883
921.863698	0.074379
922.043657	0.074108
922.223598	0.073672
922.403520	0.073479
922.583424	0.073474
922.763311	0.073346
922.943178	0.073145
923.123028	0.072839
923.302859	0.072447
923.482673	0.072033
923.662467	0.071640
923.842244	0.071244
924.022003	0.071128
924.201743	0.070489
924.381465	0.070481
924.561169	0.070032
924.740854	0.069629
924.920522	0.069987
925.100171	0.069694
925.279802	0.069713
925.459414	0.069677
925.639009	0.069295
925.818585	0.068982
925.998143	0.068093
926.177683	0.067764
926.357205	0.067447
926.536708	0.066842
926.716193	0.066838
926.895660	0.066664
927.075109	0.066242
927.254539	0.066145
927.433951	0.065869
927.613345	0.066452
927.792721	0.066220
927.972079	0.065979
928.151418	0.065319
928.330739	0.065013
928.510042	0.064504
928.689327	0.064288
928.868593	0.064076
929.047841	0.064383
929.227071	0.063984
929.406283	0.063654
929.585476	0.063418
929.764652	0.063271
929.943809	0.062773
930.122948	0.062602
930.302068	0.062252
930.481171	0.061815
930.660255	0.061270
930.839321	0.060900
931.018369	0.060385
931.197398	0.059830
931.376409	0.059781
931.555402	0.059844
931.734377	0.059735
931.913334	0.059718
932.092272	0.059346
932.271192	0.058963
932.450094	0.058444
932.628978	0.058642
932.807844	0.058485
932.986691	0.058230
933.165520	0.057971
933.344331	0.057468
933.523123	0.056466
933.701898	0.056051
933.880654	0.055630
934.059392	0.055078
934.238111	0.054848
934.416813	0.054738
934.595496	0.054457
934.774161	0.053536
934.952808	0.053619
935.131437	0.053544
935.310047	0.053450
935.488639	0.053304
935.667213	0.053064
935.845769	0.052371
936.024306	0.051743
936.202825	0.051405
936.381326	0.051935
936.559809	0.050786
936.738274	0.050529
936.916720	0.050248
937.095148	0.049648
937.273558	0.049491
937.451950	0.049638
937.630323	0.049585
937.808678	0.049576
937.987015	0.048896
938.165334	0.048765
938.343635	0.048702
938.521917	0.048348
938.700181	0.047980
938.878427	0.047345
939.056655	0.046178
939.234864	0.045183
939.413055	0.044667
939.591228	0.044335
939.769383	0.045033
939.947519	0.044578
940.125638	0.043920
940.303738	0.043812
940.481820	0.043515
940.659883	0.043849
940.837929	0.044461
941.015956	0.043587
941.193965	0.042906
941.371955	0.041788
941.549928	0.041487
941.727882	0.042026
941.905818	0.042393
942.083736	0.042662
942.261636	0.042565
942.439517	0.042334
942.617380	0.042741
942.795225	0.042809
942.973052	0.042562
943.150860	0.041773
943.328651	0.041525
943.506423	0.040629
943.684176	0.040119
943.861912	0.039980
944.039629	0.038809
944.217328	0.037958
944.395009	0.036707
944.572672	0.036765
944.750317	0.036567
944.927943	0.035280
945.105551	0.035433
945.283141	0.034213
945.460712	0.033405
945.638265	0.033557
945.815801	0.032992
945.993317	0.033265
946.170816	0.032793
946.348297	0.032171
946.525759	0.032593
946.703203	0.031979
946.880629	0.032472
947.058036	0.032087
947.235425	0.031535
947.412797	0.031659
947.590149	0.031849
947.767484	0.032464
947.944800	0.033726
948.122099	0.032617
948.299379	0.032639
948.476640	0.032281
948.653884	0.033412
948.831109	0.033425
949.008316	0.033921
949.185505	0.033447
949.362676	0.032215
949.539828	0.031163
949.716962	0.031900
949.894078	0.030341
950.071176	0.030048
950.248256	0.028763
950.425317	0.029317
950.602360	0.029185
950.779385	0.028733
950.956391	0.028828
951.133380	0.029355
951.310350	0.029017
951.487302	0.029343
951.664235	0.029167
951.841151	0.029234
952.018048	0.027093
952.194927	0.025835
952.371788	0.026050
952.548631	0.024780
952.725455	0.024909
952.902261	0.024561
953.079049	0.024445
953.255819	0.024975
953.432570	0.024054
953.609303	0.025359
953.786018	0.025806
953.962715	0.026435
954.139394	0.027179
954.316054	0.025570
954.492696	0.025624
954.669320	0.027893
954.845926	0.027509
955.022513	0.027045
955.199083	0.027786
955.375634	0.027318
955.552166	0.026270
955.728681	0.026782
955.905177	0.026632
956.081655	0.027919
956.258115	0.027040
956.434557	0.026834
956.610980	0.028377
956.787385	0.026967
956.963772	0.026577
957.140141	0.027474
957.316492	0.027363
957.492824	0.028597
957.669138	0.024707
957.845434	0.023725
958.021712	0.022665
958.197971	0.021245
958.374212	0.022091
958.550435	0.023148
958.726640	0.022856
958.902826	0.023437
959.078995	0.022260
959.255145	0.023699
959.431277	0.023339
959.607390	0.025298
959.783486	0.026614
959.959563	0.026987
960.135622	0.026158
960.311662	0.026530
960.487685	0.026809
960.663689	0.028419
960.839675	0.029867
961.015643	0.029672
961.191593	0.028687
961.367524	0.027412
961.543437	0.025576
961.719332	0.026519
961.895209	0.026047
962.071067	0.024151
962.246907	0.023383
962.422730	0.021636
962.598533	0.022684
962.774319	0.021248
962.950086	0.023211
963.125835	0.023198
963.301566	0.022618
963.477279	0.022827
963.652973	0.023201
963.828650	0.026032
964.004308	0.026796
964.179947	0.026013
964.355569	0.028178
964.531172	0.028040
964.706757	0.028428
964.882324	0.029117
965.057873	0.030100
965.233403	0.029799
965.408916	0.025309
965.584410	0.027174
965.759885	0.026951
965.935343	0.027867
966.110782	0.027380
966.286203	0.027562
966.461606	0.026909
966.636991	0.027183
966.812357	0.029244
966.987705	0.032208
967.163035	0.030553
967.338347	0.031054
967.513641	0.029888
967.688916	0.030384
967.864173	0.030890
968.039412	0.030528
968.214632	0.028946
968.389835	0.026492
968.565019	0.026651
968.740185	0.027541
968.915333	0.028124
969.090462	0.027992
969.265573	0.027889
969.440667	0.028300
969.615741	0.028536
969.790798	0.030023
969.965836	0.032174
970.140856	0.031366
970.315858	0.031104
970.490842	0.031180
970.665808	0.032056
970.840755	0.032087
971.015684	0.031924
971.190595	0.033705
971.365487	0.032117
971.540362	0.032263
971.715218	0.032006
971.890056	0.031372
972.064875	0.030660
972.239677	0.030218
972.414460	0.031159
972.589225	0.031249
972.763972	0.030145
972.938700	0.030386
973.113411	0.029118
973.288103	0.028378
973.462777	0.029841
973.637432	0.030202
973.812070	0.030651
973.986689	0.031443
974.161290	0.032810
974.335873	0.032057
974.510437	0.032531
974.684984	0.032094
974.859512	0.033404
975.034022	0.033480
975.208513	0.035439
975.382987	0.035467
975.557442	0.033938
975.731879	0.032790
975.906298	0.033086
976.080698	0.031914
976.255080	0.032821
976.429445	0.033007
976.603790	0.032238
976.778118	0.030786
976.952427	0.031097
977.126719	0.031031
977.300992	0.031839
977.475246	0.031912
977.649483	0.031479
977.823701	0.032418
977.997901	0.031843
978.172083	0.032916
978.346247	0.032493
978.520392	0.032915
978.694519	0.034185
978.868628	0.033735
979.042719	0.033745
979.216791	0.035989
979.390845	0.036229
979.564882	0.035984
979.738899	0.036045
979.912899	0.036321
980.086880	0.036608
980.260843	0.036323
980.434788	0.035010
980.608715	0.034560
980.782623	0.033566
980.956514	0.032312
981.130386	0.033282
981.304240	0.032609
981.478075	0.032387
981.651892	0.029704
981.825692	0.026836
981.999472	0.026987
982.173235	0.026683
982.346980	0.026888
982.520706	0.027427
982.694414	0.027113
982.868104	0.026487
983.041775	0.027697
983.215428	0.029725
983.389064	0.031658
983.562680	0.033463
983.736279	0.035731
983.909860	0.035642
984.083422	0.035242
984.256966	0.035049
984.430491	0.034976
984.603999	0.032864
984.777488	0.032722
984.950959	0.031625
985.124412	0.030443
985.297847	0.029493
985.471263	0.031078
985.644661	0.032735
985.818041	0.030774
985.991403	0.032060
986.164747	0.033257
986.338072	0.031981
986.511379	0.032993
986.684668	0.032964
986.857938	0.033348
987.031191	0.030754
987.204425	0.029632
987.377641	0.031403
987.550839	0.030348
987.724018	0.030288
987.897179	0.031180
988.070322	0.032227
988.243447	0.034427
988.416554	0.034296
988.589642	0.034423
988.762712	0.035222
988.935764	0.034977
989.108798	0.034737
989.281813	0.034456
989.454811	0.034039
989.627790	0.034217
989.800751	0.031428
989.973693	0.032092
990.146617	0.033311
990.319524	0.031780
990.492412	0.032577
990.665281	0.034875
990.838133	0.036120
991.010966	0.036149
991.183781	0.033095
991.356578	0.035098
991.529356	0.033681
991.702117	0.032793
991.874859	0.032635
992.047583	0.032776
992.220288	0.030594
992.392976	0.028074
992.565645	0.028507
992.738296	0.029174
992.910929	0.027875
993.083543	0.028702
993.256139	0.028820
993.428718	0.029774
993.601277	0.028642
993.773819	0.028758
993.946342	0.029394
994.118848	0.029117
994.291335	0.030304
994.463803	0.029871
994.636254	0.029211
994.808686	0.029545
994.981100	0.028572
995.153496	0.029575
995.325874	0.030457
995.498233	0.032895
995.670574	0.032111
995.842897	0.033570
996.015202	0.033781
996.187488	0.033705
996.359757	0.034250
996.532007	0.036011
996.704239	0.035820
996.876452	0.034672
997.048648	0.033271
997.220825	0.036257
997.392984	0.036253
997.565124	0.037016
997.737247	0.036954
997.909351	0.037386
998.081437	0.036515
998.253505	0.035801
998.425554	0.037583
998.597586	0.039399
998.769599	0.037771
998.941594	0.035890
999.113571	0.035805
999.285529	0.036618
999.457469	0.035443
999.629391	0.034303
999.801295	0.035704
999.973181	0.035133
1000.145048	0.034512
1000.316897	0.035132
1000.488728	0.036236
1000.660541	0.036901
1000.832335	0.036892
1001.004111	0.036798
1001.175869	0.037373
1001.347609	0.036207
1001.519331	0.034756
1001.691034	0.034349
1001.862719	0.034256
1002.034386	0.033899
1002.206035	0.032028
1002.377665	0.032428
1002.549277	0.031582
1002.720871	0.033291
1002.892447	0.033208
1003.064004	0.034044
1003.235544	0.033741
1003.407065	0.033072
1003.578568	0.033063
1003.750052	0.033837
1003.921519	0.033553
1004.092967	0.033366
1004.264397	0.031942
1004.435809	0.031181
1004.607202	0.031952
1004.778577	0.032093
1004.949934	0.032023
1005.121273	0.031786
1005.292594	0.031954
1005.463896	0.031739
1005.635180	0.033776
1005.806446	0.034111
1005.977694	0.035361
1006.148923	0.034468
1006.320135	0.033769
1006.491328	0.033133
1006.662503	0.035118
1006.833659	0.033435
1007.004798	0.033957
1007.175918	0.033011
1007.347020	0.033524
1007.518103	0.033579
1007.689169	0.033387
1007.860216	0.033225
1008.031245	0.033704
1008.202256	0.031013
1008.373248	0.032633
1008.544223	0.033091
1008.715179	0.034667
1008.886117	0.033840
1009.057036	0.035397
1009.227938	0.035242
1009.398821	0.035326
1009.569686	0.036145
1009.740533	0.037672
1009.911361	0.037032
1010.082172	0.036387
1010.252964	0.035559
1010.423738	0.035516
1010.594493	0.035271
1010.765231	0.035710
1010.935950	0.037313
1011.106651	0.037164
1011.277334	0.037071
1011.447998	0.038588
1011.618645	0.037902
1011.789273	0.037665
1011.959882	0.038110
1012.130474	0.036886
1012.301048	0.037818
1012.471603	0.036214
1012.642140	0.034971
1012.812658	0.034526
1012.983159	0.033783
1013.153641	0.033498
1013.324105	0.033654
1013.494551	0.032863
1013.664979	0.032405
1013.835388	0.031745
1014.005779	0.031986
1014.176152	0.032750
1014.346507	0.031711
1014.516843	0.031262
1014.687162	0.033220
1014.857462	0.033940
1015.027744	0.033850
1015.198007	0.033634
1015.368252	0.032732
1015.538480	0.031943
1015.708689	0.030475
1015.878879	0.030505
1016.049052	0.031904
1016.219206	0.030719
1016.389342	0.028938
1016.559460	0.029179
1016.729559	0.031157
1016.899641	0.031885
1017.069704	0.031796
1017.239749	0.033074
1017.409775	0.033477
1017.579784	0.030933
1017.749774	0.029770
1017.919746	0.032309
1018.089700	0.032741
1018.259635	0.032254
1018.429553	0.032675
1018.599452	0.033675
1018.769333	0.033811
1018.939195	0.034846
1019.109040	0.037774
1019.278866	0.038526
1019.448674	0.037295
1019.618464	0.036239
1019.788235	0.033186
1019.957989	0.033042
1020.127724	0.032580
1020.297441	0.032831
1020.467139	0.032309
1020.636820	0.031574
1020.806482	0.030377
1020.976126	0.030306
1021.145752	0.032260
1021.315359	0.034817
1021.484948	0.033224
1021.654519	0.033696
1021.824072	0.033670
1021.993607	0.032313
1022.163123	0.031400
1022.332621	0.032486
1022.502101	0.033440
1022.671563	0.032047
1022.841007	0.031323
1023.010432	0.032246
1023.179839	0.031130
1023.349228	0.030231
1023.518598	0.032298
1023.687951	0.031727
1023.857285	0.032301
1024.026601	0.030929
1024.195899	0.032354
1024.365178	0.032255
1024.534439	0.032483
1024.703682	0.032387
1024.872907	0.032759
1025.042114	0.032307
1025.211302	0.032249
1025.380472	0.032310
1025.549624	0.032301
1025.718758	0.031232
1025.887873	0.031923
1026.056970	0.032690
1026.226049	0.033759
1026.395110	0.033463
1026.564153	0.032657
1026.733177	0.034576
1026.902183	0.034273
1027.071171	0.035114
1027.240141	0.035409
1027.409092	0.032859
1027.578026	0.031311
1027.746940	0.032830
1027.915837	0.033764
1028.084716	0.033861
1028.253576	0.033557
1028.422418	0.032257
1028.591242	0.032575
1028.760048	0.031906
1028.928835	0.033179
1029.097604	0.034117
1029.266355	0.033474
1029.435088	0.032872
1029.603803	0.032465
1029.772499	0.032000
1029.941177	0.032375
1030.109837	0.031982
1030.278478	0.032292
1030.447102	0.032946
1030.615707	0.034036
1030.784294	0.033337
1030.952863	0.031836
1031.121413	0.031775
1031.289945	0.031291
1031.458460	0.033378
1031.626955	0.034141
1031.795433	0.034276
1031.963892	0.035354
1032.132334	0.034189
1032.300756	0.034351
1032.469161	0.036238
1032.637548	0.036152
1032.805916	0.036166
1032.974266	0.034252
1033.142598	0.032654
1033.310911	0.032700
1033.479207	0.030562
1033.647484	0.030139
1033.815743	0.029588
1033.983983	0.029761
1034.152206	0.031886
1034.320410	0.031595
1034.488596	0.031125
1034.656764	0.030426
1034.824914	0.029337
1034.993045	0.031605
1035.161158	0.032126
1035.329253	0.031651
1035.497330	0.031730
1035.665388	0.030213
1035.833428	0.031177
1036.001450	0.032723
1036.169454	0.033290
1036.337440	0.035450
1036.505407	0.033483
1036.673356	0.034531
1036.841287	0.034652
1037.009200	0.035072
1037.177094	0.035398
1037.344970	0.033818
1037.512828	0.032853
1037.680668	0.033041
1037.848489	0.032770
1038.016293	0.033760
1038.184078	0.031468
1038.351845	0.032548
1038.519593	0.032591
1038.687324	0.031677
1038.855036	0.033288
1039.022730	0.034510
1039.190406	0.034790
1039.358063	0.033181
1039.525702	0.033969
1039.693323	0.036129
1039.860926	0.035490
1040.028511	0.033982
1040.196077	0.034190
1040.363625	0.032756
1040.531155	0.032833
1040.698667	0.033303
1040.866161	0.033214
1041.033636	0.032271
1041.201093	0.031559
1041.368532	0.029186
1041.535952	0.028624
1041.703355	0.030135
1041.870739	0.031482
1042.038105	0.030599
1042.205452	0.029234
1042.372782	0.029262
1042.540093	0.028477
1042.707386	0.027867
1042.874661	0.031819
1043.041918	0.032688
1043.209156	0.031916
1043.376376	0.030706
1043.543578	0.030652
1043.710762	0.031598
1043.877927	0.031813
1044.045074	0.032120
1044.212203	0.031483
1044.379314	0.031205
1044.546407	0.032647
1044.713481	0.032200
1044.880537	0.032915
1045.047575	0.033581
1045.214595	0.033396
1045.381596	0.032797
1045.548579	0.033474
1045.715544	0.034197
1045.882491	0.033303
1046.049420	0.032320
1046.216330	0.033034
1046.383222	0.033539
1046.550096	0.033207
1046.716951	0.034015
1046.883789	0.035386
1047.050608	0.035119
1047.217409	0.036087
1047.384192	0.036724
1047.550956	0.036098
1047.717703	0.035592
1047.884431	0.036482
1048.051140	0.035801
1048.217832	0.036018
1048.384505	0.036931
1048.551161	0.037303
1048.717798	0.036424
1048.884416	0.036201
1049.051017	0.039013
1049.217599	0.039220
1049.384163	0.038971
1049.550709	0.040119
1049.717237	0.040250
1049.883746	0.039176
1050.050237	0.040508
1050.216710	0.040542
1050.383165	0.039839
1050.549601	0.038857
1050.716019	0.038932
1050.882420	0.037860
1051.048801	0.036620
1051.215165	0.034979
1051.381510	0.034482
1051.547837	0.032916
1051.714146	0.035016
1051.880437	0.034398
1052.046709	0.031883
1052.212964	0.030161
1052.379200	0.030082
1052.545417	0.030073
1052.711617	0.031000
1052.877798	0.032002
1053.043961	0.031227
1053.210106	0.029070
1053.376233	0.030193
1053.542341	0.030082
1053.708432	0.031290
1053.874504	0.031367
1054.040557	0.031995
1054.206593	0.032481
1054.372610	0.032199
1054.538609	0.033930
1054.704590	0.034546
1054.870553	0.032745
1055.036497	0.035216
1055.202424	0.035665
1055.368331	0.035950
1055.534221	0.036903
1055.700093	0.036262
1055.865946	0.035801
1056.031781	0.033553
1056.197598	0.035403
1056.363397	0.036625
1056.529177	0.035211
1056.694939	0.034962
1056.860683	0.034363
1057.026409	0.033651
1057.192116	0.033946
1057.357806	0.035591
1057.523477	0.036596
1057.689130	0.034359
1057.854764	0.034652
1058.020381	0.035349
1058.185979	0.035742
1058.351559	0.036551
1058.517120	0.037648
1058.682664	0.038601
1058.848189	0.036594
1059.013696	0.035191
1059.179185	0.035208
1059.344656	0.035703
1059.510108	0.034404
1059.675542	0.036234
1059.840958	0.035658
1060.006356	0.035059
1060.171735	0.034961
1060.337096	0.036259
1060.502439	0.039025
1060.667764	0.037622
1060.833071	0.036318
1060.998359	0.036809
1061.163629	0.034175
1061.328881	0.034656
1061.494115	0.033343
1061.659330	0.032068
1061.824527	0.032064
1061.989706	0.030981
1062.154867	0.030944
1062.320010	0.029975
1062.485134	0.030442
1062.650240	0.029566
1062.815328	0.030693
1062.980398	0.031996
1063.145449	0.032093
1063.310482	0.031999
1063.475497	0.032353
1063.640494	0.034860
1063.805473	0.037021
1063.970433	0.037627
1064.135375	0.039718
1064.300299	0.038157
1064.465204	0.035765
1064.630092	0.036057
1064.794961	0.034673
1064.959812	0.035388
1065.124645	0.033571
1065.289459	0.032402
1065.454256	0.030535
1065.619034	0.029754
1065.783793	0.029165
1065.948535	0.030810
1066.113258	0.031085
1066.277964	0.031266
1066.442651	0.030720
1066.607319	0.031924
1066.771970	0.031808
1066.936602	0.033485
1067.101216	0.033407
1067.265812	0.032907
1067.430389	0.032047
1067.594949	0.032197
1067.759490	0.032113
1067.924013	0.030451
1068.088518	0.030540
1068.253004	0.031586
1068.417472	0.031253
1068.581922	0.030682
1068.746354	0.031020
1068.910768	0.030762
1069.075163	0.029284
1069.239540	0.032062
1069.403899	0.034474
1069.568240	0.034789
1069.732562	0.032402
1069.896866	0.033306
1070.061152	0.034545
1070.225420	0.036526
1070.389670	0.037995
1070.553901	0.038423
1070.718114	0.036846
1070.882309	0.035277
1071.046486	0.034314
1071.210644	0.035280
1071.374784	0.032076
1071.538906	0.032957
1071.703010	0.032246
1071.867096	0.031555
1072.031163	0.032572
1072.195212	0.029482
1072.359243	0.027961
1072.523256	0.026941
1072.687250	0.026459
1072.851226	0.029052
1073.015184	0.027775
1073.179124	0.028160
1073.343045	0.027921
1073.506949	0.027002
1073.670834	0.030786
1073.834701	0.031477
1073.998549	0.030871
1074.162380	0.032102
1074.326192	0.030813
1074.489986	0.031686
1074.653761	0.031420
1074.817519	0.030392
1074.981258	0.031119
1075.144979	0.029725
1075.308682	0.029619
1075.472367	0.031316
1075.636033	0.032777
1075.799681	0.034613
1075.963311	0.032722
1076.126923	0.029768
1076.290516	0.029890
1076.454092	0.030049
1076.617649	0.030490
1076.781187	0.031363
1076.944708	0.031599
1077.108210	0.031845
1077.271695	0.030854
1077.435160	0.032489
1077.598608	0.035874
1077.762038	0.037811
1077.925449	0.037049
1078.088842	0.036492
1078.252217	0.036805
1078.415573	0.036299
1078.578912	0.033326
1078.742232	0.033436
1078.905534	0.031152
1079.068817	0.031512
1079.232083	0.031442
1079.395330	0.030708
1079.558559	0.031589
1079.721770	0.031852
1079.884962	0.031559
1080.048136	0.033600
1080.211293	0.033554
1080.374430	0.035214
1080.537550	0.034329
1080.700651	0.033550
1080.863735	0.034062
1081.026800	0.033811
1081.189846	0.033249
1081.352875	0.033071
1081.515885	0.032171
1081.678877	0.032074
1081.841851	0.032399
1082.004807	0.033060
1082.167744	0.033176
1082.330663	0.034073
1082.493564	0.032519
1082.656447	0.034116
1082.819312	0.033505
1082.982158	0.033178
1083.144986	0.035080
1083.307796	0.033623
1083.470587	0.033209
1083.633361	0.033522
1083.796116	0.030947
1083.958853	0.031438
1084.121571	0.028964
1084.284272	0.030278
1084.446954	0.030799
1084.609618	0.029677
1084.772264	0.030100
1084.934892	0.029944
1085.097501	0.028211
1085.260092	0.030610
1085.422665	0.028394
1085.585220	0.029189
1085.747756	0.029335
1085.910274	0.030625
1086.072774	0.029534
1086.235256	0.029320
1086.397720	0.032293
1086.560165	0.032536
1086.722592	0.030629
1086.885001	0.033458
1087.047392	0.033770
1087.209764	0.032875
1087.372119	0.033331
1087.534455	0.032849
1087.696772	0.034087
1087.859072	0.029816
1088.021353	0.032810
1088.183616	0.035297
1088.345861	0.034327
1088.508088	0.034840
1088.670296	0.035059
1088.832486	0.032310
1088.994658	0.033711
1089.156812	0.033937
1089.318948	0.034416
1089.481065	0.032761
1089.643164	0.031529
1089.805245	0.034349
1089.967308	0.034378
1090.129352	0.034375
1090.291378	0.037126
1090.453386	0.035464
1090.615376	0.036501
1090.777347	0.037309
1090.939301	0.036262
1091.101236	0.035731
1091.263153	0.035514
1091.425051	0.032999
1091.586932	0.034541
1091.748794	0.031534
1091.910638	0.030692
1092.072463	0.026000
1092.234271	0.026164
1092.396060	0.027543
1092.557831	0.026583
1092.719584	0.024953
1092.881319	0.026287
1093.043035	0.026281
1093.204733	0.027329
1093.366413	0.028999
1093.528075	0.030984
1093.689718	0.029080
1093.851343	0.029548
1094.012950	0.031642
1094.174539	0.030415
1094.336110	0.030323
1094.497662	0.031030
1094.659196	0.028764
1094.820712	0.030699
1094.982210	0.031358
1095.143689	0.031464
1095.305151	0.029684
1095.466594	0.028190
1095.628018	0.028952
1095.789425	0.030482
1095.950813	0.028060
1096.112183	0.029460
1096.273535	0.025395
1096.434869	0.026938
1096.596184	0.025463
1096.757482	0.024718
1096.918761	0.024428
1097.080021	0.025138
1097.241264	0.025389
1097.402488	0.026473
1097.563694	0.027073
1097.724882	0.027381
1097.886052	0.024449
1098.047203	0.024927
1098.208336	0.030504
1098.369451	0.033063
1098.530548	0.032964
1098.691627	0.036633
1098.852687	0.036498
1099.013729	0.035126
1099.174753	0.038697
1099.335758	0.040647
1099.496746	0.042278
1099.657715	0.037276
1099.818666	0.034590
1099.979599	0.031619
1100.140513	0.028973
1100.301409	0.028915
1100.462287	0.034714
1100.623147	0.030410
1100.783989	0.029870
1100.944812	0.028193
1101.105617	0.028153
1101.266404	0.029219
1101.427173	0.029658
1101.587923	0.028268
1101.748656	0.028862
1101.909370	0.027989
1102.070066	0.030561
1102.230743	0.030994
1102.391403	0.032797
1102.552044	0.033758
1102.712667	0.035655
1102.873271	0.036967
1103.033858	0.035207
1103.194426	0.035305
1103.354976	0.030890
1103.515508	0.031615
1103.676021	0.035068
1103.836517	0.034099
1103.996994	0.031710
1104.157453	0.030702
1104.317893	0.032506
1104.478316	0.034054
1104.638720	0.032599
1104.799106	0.035242
1104.959474	0.035706
1105.119823	0.032216
1105.280155	0.031579
1105.440468	0.034171
1105.600763	0.034023
1105.761039	0.037838
1105.921298	0.035989
1106.081538	0.037390
1106.241760	0.031305
1106.401964	0.028224
1106.562149	0.030285
1106.722316	0.033704
1106.882465	0.032815
1107.042596	0.032740
1107.202709	0.024671
1107.362803	0.022734
1107.522879	0.023588
1107.682937	0.027405
1107.842977	0.031261
1108.002999	0.028374
1108.163002	0.029163
1108.322987	0.031670
1108.482954	0.029762
1108.642902	0.034749
1108.802833	0.039624
1108.962745	0.037395
1109.122639	0.039673
1109.282515	0.038753
1109.442372	0.038852
1109.602211	0.039552
1109.762032	0.039718
1109.921835	0.041452
1110.081620	0.040113
1110.241386	0.038748
1110.401134	0.038069
1110.560864	0.037011
1110.720576	0.036913
1110.880269	0.037190
1111.039945	0.034637
1111.199602	0.033802
1111.359240	0.031773
1111.518861	0.032046
1111.678463	0.032467
1111.838047	0.034061
1111.997613	0.032686
1112.157161	0.032063
1112.316690	0.033009
1112.476202	0.031363
1112.635695	0.030666
1112.795169	0.031883
1112.954626	0.030552
1113.114064	0.030418
1113.273484	0.029173
1113.432886	0.028474
1113.592270	0.027092
1113.751635	0.027366
1113.910983	0.026511
1114.070312	0.026444
1114.229622	0.024788
1114.388915	0.027616
1114.548189	0.027424
1114.707445	0.028437
1114.866683	0.029699
1115.025903	0.031787
1115.185104	0.030996
1115.344287	0.033956
1115.503452	0.037061
1115.662599	0.039349
1115.821727	0.035874
1115.980838	0.032322
1116.139930	0.034878
1116.299004	0.037386
1116.458059	0.038694
1116.617097	0.038466
1116.776116	0.040708
1116.935117	0.037843
1117.094099	0.037481
1117.253064	0.040273
1117.412010	0.043844
1117.570938	0.041351
1117.729848	0.036518
1117.888740	0.032639
1118.047613	0.028817
1118.206468	0.026972
1118.365305	0.027406
1118.524124	0.031018
1118.682924	0.029350
1118.841707	0.030198
1119.000471	0.030250
1119.159216	0.030618
1119.317944	0.031544
1119.476653	0.034811
1119.635344	0.036922
1119.794017	0.035272
1119.952672	0.030476
1120.111308	0.033029
1120.269927	0.033691
1120.428527	0.031717
1120.587108	0.032935
1120.745672	0.031069
1120.904217	0.030775
1121.062744	0.027170
1121.221253	0.025703
1121.379744	0.024750
1121.538216	0.022061
1121.696671	0.021047
1121.855107	0.022396
1122.013524	0.022480
1122.171924	0.025121
1122.330305	0.021509
1122.488668	0.022988
1122.647013	0.026615
1122.805340	0.029073
1122.963648	0.030045
1123.121938	0.031120
1123.280210	0.035434
1123.438464	0.037394
1123.596700	0.036320
1123.754917	0.040754
1123.913116	0.038334
1124.071297	0.037308
1124.229459	0.035944
1124.387604	0.031755
1124.545730	0.026257
1124.703838	0.022622
1124.861928	0.023719
1125.019999	0.027577
1125.178052	0.025117
1125.336088	0.023179
1125.494104	0.023197
1125.652103	0.027390
1125.810083	0.029781
1125.968045	0.030515
1126.125989	0.030585
1126.283915	0.029052
1126.441823	0.027051
1126.599712	0.031844
1126.757583	0.035357
1126.915436	0.029515
1127.073270	0.028866
1127.231087	0.031133
1127.388885	0.035726
1127.546665	0.034264
1127.704426	0.033509
1127.862170	0.033503
1128.019895	0.029709
1128.177602	0.027366
1128.335291	0.031537
1128.492961	0.027300
1128.650614	0.027384
1128.808248	0.023274
1128.965864	0.020993
1129.123461	0.021928
1129.281041	0.020614
1129.438602	0.022772
1129.596145	0.022272
1129.753670	0.022037
1129.911176	0.022469
1130.068665	0.019854
1130.226135	0.018956
1130.383587	0.019996
1130.541020	0.017431
1130.698436	0.019523
1130.855833	0.019359
1131.013212	0.017182
1131.170573	0.018249
1131.327915	0.015770
1131.485239	0.020052
1131.642545	0.025874
1131.799833	0.027967
1131.957103	0.028958
1132.114354	0.029403
1132.271588	0.026584
1132.428803	0.031341
1132.585999	0.028330
1132.743178	0.033349
1132.900338	0.026347
1133.057480	0.023511
1133.214604	0.020279
1133.371710	0.022709
1133.528797	0.024528
1133.685866	0.030260
1133.842917	0.028891
1133.999950	0.028612
1134.156964	0.028555
1134.313960	0.032747
1134.470938	0.035382
1134.627898	0.037628
1134.784840	0.037416
1134.941763	0.031853
1135.098668	0.028764
1135.255555	0.029532
1135.412424	0.028757
1135.569274	0.024510
1135.726107	0.020348
1135.882921	0.019623
1136.039716	0.022513
1136.196494	0.018495
1136.353253	0.016959
1136.509995	0.016815
1136.666717	0.015899
1136.823422	0.016096
1136.980109	0.022225
1137.136777	0.025141
1137.293427	0.022957
1137.450059	0.018968
1137.606672	0.015669
1137.763267	0.015138
1137.919844	0.015493
1138.076403	0.017264
1138.232944	0.020435
1138.389466	0.018779
1138.545971	0.020209
1138.702457	0.020007
1138.858924	0.023337
1139.015374	0.024922
1139.171805	0.028910
1139.328218	0.028609
1139.484613	0.028782
1139.640990	0.030090
1139.797348	0.026587
1139.953688	0.024514
1140.110010	0.022220
1140.266314	0.019669
1140.422600	0.021476
1140.578867	0.020572
1140.735116	0.020587
1140.891347	0.014140
1141.047559	0.011128
1141.203754	0.013883
1141.359930	0.014705
1141.516088	0.017392
1141.672228	0.019380
1141.828349	0.018258
1141.984452	0.017147
1142.140537	0.014953
1142.296604	0.018503
1142.452653	0.021033
1142.608683	0.020017
1142.764695	0.024469
1142.920689	0.022855
1143.076665	0.018643
1143.232622	0.027572
1143.388562	0.028863
1143.544483	0.028815
1143.700385	0.033072
1143.856270	0.034438
1144.012136	0.037471
1144.167985	0.035733
1144.323814	0.037053
1144.479626	0.038081
1144.635420	0.031924
1144.791195	0.031250
1144.946952	0.033284
1145.102691	0.025322
1145.258411	0.022803
1145.414113	0.016994
1145.569798	0.013199
1145.725463	0.012854
1145.881111	0.017201
1146.036741	0.019955
1146.192352	0.021232
1146.347945	0.018318
1146.503519	0.023864
1146.659076	0.024231
1146.814614	0.029563
1146.970134	0.030670
1147.125636	0.031710
1147.281120	0.029335
1147.436585	0.027534
1147.592032	0.024295
1147.747461	0.025969
1147.902872	0.025595
1148.058265	0.022918
1148.213639	0.019266
1148.368995	0.018682
1148.524333	0.017646
1148.679653	0.012966
1148.834954	0.010174
1148.990237	0.010824
1149.145502	0.009861
1149.300749	0.007082
1149.455977	0.012005
1149.611188	0.013181
1149.766380	0.017020
1149.921553	0.018114
1150.076709	0.024400
1150.231846	0.033247
1150.386966	0.036356
1150.542066	0.032941
1150.697149	0.037715
1150.852214	0.038995
1151.007260	0.041437
1151.162288	0.039953
1151.317298	0.035127
1151.472289	0.032589
1151.627263	0.022633
1151.782218	0.018368
1151.937155	0.021455
1152.092073	0.020320
1152.246974	0.016527
1152.401856	0.010199
1152.556720	0.011149
1152.711566	0.015212
1152.866393	0.013422
1153.021203	0.010403
1153.175994	0.011966
1153.330767	0.015660
1153.485521	0.020512
1153.640258	0.022721
1153.794976	0.025334
1153.949676	0.024733
1154.104358	0.020997
1154.259021	0.019023
1154.413667	0.030719
1154.568294	0.029156
1154.722903	0.022477
1154.877493	0.018493
1155.032066	0.010153
1155.186620	0.010969
1155.341156	0.012686
1155.495674	0.017510
1155.650173	0.021831
1155.804654	0.019386
1155.959118	0.022547
1156.113562	0.028849
1156.267989	0.023807
1156.422397	0.028975
1156.576788	0.026331
1156.731160	0.021705
1156.885513	0.021783
1157.039849	0.020829
1157.194166	0.020342
1157.348465	0.017918
1157.502746	0.011060
1157.657009	0.016156
1157.811253	0.019900
1157.965479	0.021320
1158.119687	0.022927
1158.273877	0.019077
1158.428048	0.013423
1158.582201	0.012606
1158.736337	0.015663
1158.890453	0.021428
1159.044552	0.017289
1159.198632	0.015958
1159.352694	0.017636
1159.506738	0.016828
1159.660764	0.015137
1159.814771	0.019718
1159.968761	0.020055
1160.122732	0.020573
1160.276685	0.016966
1160.430619	0.017631
1160.584535	0.013635
1160.738434	0.016923
1160.892313	0.016960
1161.046175	0.021401
1161.200019	0.024917
1161.353844	0.024727
1161.507651	0.020848
1161.661440	0.026230
1161.815210	0.030594
1161.968962	0.029717
1162.122697	0.024839
1162.276412	0.027731
1162.430110	0.029470
1162.583789	0.030486
1162.737451	0.036102
1162.891094	0.037825
1163.044718	0.038837
1163.198325	0.040797
1163.351913	0.051504
1163.505483	0.054979
1163.659035	0.049007
1163.812569	0.040241
1163.966084	0.028842
1164.119581	0.025041
1164.273060	0.026382
1164.426521	0.012090
1164.579964	0.006612
1164.733388	0.003092
1164.886794	-0.007070
1165.040182	-0.013070
1165.193551	-0.008342
1165.346903	-0.000186
1165.500236	-0.001031
1165.653551	-0.002948
1165.806848	0.005431
1165.960126	0.002226
1166.113386	0.002976
1166.266628	0.007503
1166.419852	0.019727
1166.573058	0.020501
1166.726245	0.016531
1166.879414	0.010449
1167.032565	0.006555
1167.185698	0.014449
1167.338812	0.014710
1167.491909	0.010814
1167.644987	0.018854
1167.798046	0.012988
1167.951088	0.015797
1168.104111	0.012740
1168.257117	0.014542
1168.410103	0.021356
1168.563072	0.013707
1168.716023	0.020555
1168.868955	0.027072
1169.021869	0.018880
1169.174765	0.019972
1169.327642	0.018902
1169.480501	0.023147
1169.633343	0.016432
1169.786165	0.014126
1169.938970	0.023456
1170.091757	0.026828
1170.244525	0.023201
1170.397275	0.030040
1170.550007	0.027570
1170.702720	0.026052
1170.855415	0.035077
1171.008092	0.039897
1171.160751	0.037506
1171.313392	0.027846
1171.466014	0.072542
1171.618619	-0.005425
1171.771205	-0.005425
1171.923772	-0.005425
