sample name	sample
index	1474
start time	 05-18-2021  12:16:11 PM


Wavelength (nm)	Absorbance
494.344910	-0.037451
494.563924	-0.037451
494.782919	-0.037451
495.001897	0.057829
495.220856	-0.040374
495.439797	-0.011914
495.658719	-0.000122
495.877624	-0.031832
496.096510	-0.014525
496.315378	-0.058433
496.534227	-0.076127
496.753059	-0.049426
496.971872	-0.054936
497.190667	0.001460
497.409444	0.002909
497.628203	0.008746
497.846943	0.012766
498.065665	0.011526
498.284369	0.012024
498.503055	0.011676
498.721723	0.010870
498.940372	0.010584
499.159003	0.010284
499.377616	0.009898
499.596210	0.008467
499.814787	0.007437
500.033345	0.007978
500.251885	0.007237
500.470406	0.008212
500.688910	0.008781
500.907395	0.009185
501.125862	0.009858
501.344311	0.010270
501.562742	0.010819
501.781154	0.010674
501.999548	0.010451
502.217924	0.010431
502.436282	0.009635
502.654621	0.009750
502.872942	0.009302
503.091245	0.008438
503.309530	0.008302
503.527797	0.008408
503.746045	0.007565
503.964275	0.007248
504.182487	0.008413
504.400681	0.008375
504.618856	0.008166
504.837013	0.009119
505.055152	0.008939
505.273273	0.009687
505.491376	0.009202
505.709460	0.009490
505.927526	0.008235
506.145574	0.006656
506.363604	0.006881
506.581615	0.007030
506.799608	0.006310
507.017583	0.006066
507.235540	0.005029
507.453478	0.004130
507.671399	0.003814
507.889301	0.004910
508.107185	0.005276
508.325050	0.004843
508.542898	0.004103
508.760727	0.003395
508.978538	0.004183
509.196330	0.004765
509.414105	0.005338
509.631861	0.005786
509.849599	0.004983
510.067319	0.005000
510.285021	0.004529
510.502704	0.004444
510.720369	0.004899
510.938016	0.004384
511.155645	0.003135
511.373255	0.002907
511.590848	0.003151
511.808422	0.003324
512.025977	0.003441
512.243515	0.003702
512.461034	0.003111
512.678536	0.003480
512.896018	0.003867
513.113483	0.004173
513.330930	0.004206
513.548358	0.004589
513.765768	0.004904
513.983160	0.004946
514.200533	0.004303
514.417889	0.004401
514.635226	0.003437
514.852545	0.002983
515.069845	0.003058
515.287128	0.002725
515.504392	0.001535
515.721638	0.001372
515.938866	0.000896
516.156075	0.001370
516.373267	0.001253
516.590440	0.001199
516.807594	0.001100
517.024731	0.001918
517.241850	0.002535
517.458950	0.002983
517.676032	0.003204
517.893095	0.003957
518.110141	0.004106
518.327168	0.004171
518.544177	0.004699
518.761168	0.004739
518.978141	0.003979
519.195095	0.003761
519.412031	0.003429
519.628949	0.002737
519.845849	0.002186
520.062731	0.002422
520.279594	0.002327
520.496439	0.002770
520.713266	0.002815
520.930074	0.003200
521.146865	0.002336
521.363637	0.002801
521.580391	0.003267
521.797127	0.003707
522.013844	0.003517
522.230543	0.003736
522.447224	0.003258
522.663887	0.002647
522.880532	0.002069
523.097158	0.002352
523.313766	0.001799
523.530356	0.001450
523.746928	0.001017
523.963481	0.000362
524.180017	0.000951
524.396534	0.000690
524.613032	0.001196
524.829513	0.001093
525.045975	0.001436
525.262420	0.001577
525.478845	0.001657
525.695253	0.001622
525.911643	0.001903
526.128014	0.001761
526.344367	0.001839
526.560702	0.001661
526.777018	0.001565
526.993316	0.001563
527.209597	0.001341
527.425858	0.001858
527.642102	0.002371
527.858328	0.002566
528.074535	0.002368
528.290724	0.002310
528.506894	0.002350
528.723047	0.002748
528.939181	0.002974
529.155297	0.003169
529.371395	0.002781
529.587475	0.002096
529.803536	0.001905
530.019579	0.002507
530.235604	0.002949
530.451611	0.002846
530.667600	0.002829
530.883570	0.002611
531.099522	0.002392
531.315456	0.002554
531.531372	0.003095
531.747269	0.003034
531.963148	0.002746
532.179009	0.002633
532.394852	0.003140
532.610676	0.003106
532.826482	0.002839
533.042271	0.003313
533.258040	0.003019
533.473792	0.002939
533.689525	0.002711
533.905240	0.002482
534.120937	0.002176
534.336616	0.001640
534.552277	0.001322
534.767919	0.001405
534.983543	0.001396
535.199149	0.001569
535.414736	0.001657
535.630306	0.001888
535.845857	0.001730
536.061390	0.001482
536.276904	0.001605
536.492401	0.001824
536.707879	0.001776
536.923339	0.001430
537.138781	0.001234
537.354204	0.000946
537.569610	0.001147
537.784997	0.001128
538.000366	0.001196
538.215716	0.001003
538.431049	0.000769
538.646363	0.000696
538.861659	0.000955
539.076937	0.000914
539.292196	0.000739
539.507438	0.000608
539.722661	0.000472
539.937866	0.000668
540.153052	0.000342
540.368221	0.000490
540.583371	0.000693
540.798503	0.000343
541.013617	0.000071
541.228712	0.000199
541.443789	0.000194
541.658848	0.000289
541.873889	0.000109
542.088912	0.000547
542.303916	0.000717
542.518902	0.000907
542.733870	0.000845
542.948820	0.001195
543.163752	0.001423
543.378665	0.001554
543.593560	0.001502
543.808437	0.001543
544.023295	0.001573
544.238136	0.001447
544.452958	0.000985
544.667762	0.001088
544.882548	0.000835
545.097315	0.000638
545.312064	0.000530
545.526795	0.000368
545.741508	0.000340
545.956203	0.000358
546.170879	0.000355
546.385537	0.000336
546.600177	0.000611
546.814799	0.000992
547.029402	0.001041
547.243988	0.001109
547.458555	0.001264
547.673103	0.001358
547.887634	0.001162
548.102146	0.001084
548.316640	0.001094
548.531116	0.001036
548.745574	0.000792
548.960013	0.000383
549.174435	0.000001
549.388838	-0.000100
549.603222	-0.000051
549.817589	0.000035
550.031937	-0.000136
550.246267	0.000040
550.460579	-0.000368
550.674873	-0.000431
550.889148	-0.000130
551.103405	-0.000200
551.317644	0.000090
551.531865	0.000092
551.746068	-0.000056
551.960252	-0.000002
552.174418	0.000185
552.388566	0.000269
552.602696	0.000492
552.816807	0.000451
553.030900	0.000630
553.244975	0.000109
553.459032	0.000193
553.673070	0.000097
553.887091	0.000268
554.101093	0.000258
554.315077	0.000400
554.529042	0.000200
554.742990	0.000053
554.956919	0.000285
555.170830	0.000247
555.384722	0.000021
555.598597	0.000679
555.812453	0.000700
556.026291	0.000233
556.240111	0.000078
556.453913	0.000115
556.667696	0.000238
556.881461	0.000069
557.095208	0.000350
557.308937	0.000263
557.522647	-0.000356
557.736339	-0.000162
557.950013	0.000339
558.163669	-0.000007
558.377307	-0.000218
558.590926	-0.000005
558.804527	0.000026
559.018110	-0.000152
559.231675	-0.000057
559.445221	0.000043
559.658749	-0.000215
559.872259	-0.000661
560.085751	-0.000344
560.299225	-0.000240
560.512680	-0.000699
560.726117	-0.000655
560.939536	-0.000679
561.152937	-0.000963
561.366319	-0.000886
561.579683	-0.001055
561.793029	-0.000965
562.006357	-0.000988
562.219667	-0.000780
562.432958	-0.000685
562.646231	-0.000627
562.859486	-0.000364
563.072723	-0.000262
563.285941	-0.000012
563.499141	0.000059
563.712323	-0.000061
563.925487	0.000111
564.138632	-0.000183
564.351760	-0.000367
564.564869	-0.000695
564.777960	-0.000570
564.991032	-0.000741
565.204087	-0.001060
565.417123	-0.001209
565.630141	-0.001050
565.843140	-0.000997
566.056122	-0.001113
566.269085	-0.000833
566.482030	-0.000766
566.694957	-0.001213
566.907866	-0.000809
567.120756	-0.000777
567.333628	-0.000395
567.546482	-0.000400
567.759318	-0.000558
567.972135	-0.000316
568.184935	-0.000243
568.397716	-0.000275
568.610478	-0.000407
568.823223	-0.000703
569.035949	-0.000636
569.248657	-0.000739
569.461347	-0.000692
569.674019	-0.000538
569.886672	-0.000513
570.099308	-0.000654
570.311925	-0.000787
570.524523	-0.000364
570.737104	-0.000102
570.949666	-0.000349
571.162210	-0.000542
571.374736	-0.000424
571.587244	-0.000216
571.799733	-0.000380
572.012205	-0.000178
572.224658	0.000057
572.437092	-0.000200
572.649509	-0.000154
572.861907	0.000078
573.074287	0.000075
573.286649	-0.000158
573.498993	-0.000585
573.711318	-0.000513
573.923625	-0.000513
574.135914	-0.000644
574.348185	-0.000089
574.560438	-0.000492
574.772672	-0.000678
574.984888	-0.000530
575.197086	-0.000383
575.409266	-0.000096
575.621427	0.000460
575.833570	0.000065
576.045695	0.000383
576.257802	0.000172
576.469890	0.000568
576.681961	0.000589
576.894013	0.000389
577.106046	0.000197
577.318062	-0.000159
577.530059	-0.000879
577.742039	-0.000720
577.954000	-0.000960
578.165942	-0.000900
578.377867	-0.001113
578.589773	-0.001180
578.801661	-0.001467
579.013531	-0.001359
579.225382	-0.000949
579.437216	-0.000917
579.649031	-0.000955
579.860828	-0.000970
580.072606	-0.001213
580.284367	-0.001220
580.496109	-0.001160
580.707833	-0.000446
580.919539	-0.000421
581.131227	-0.000697
581.342896	-0.000369
581.554547	-0.000255
581.766180	-0.000434
581.977795	-0.000665
582.189391	-0.000631
582.400969	-0.000785
582.612529	-0.000889
582.824071	-0.000737
583.035595	-0.000872
583.247100	-0.001049
583.458587	-0.001135
583.670056	-0.001119
583.881506	-0.000684
584.092939	-0.000842
584.304353	-0.000662
584.515749	-0.000885
584.727127	-0.001236
584.938486	-0.000800
585.149828	-0.000833
585.361151	-0.000792
585.572456	-0.000725
585.783742	-0.001295
585.995011	-0.001218
586.206261	-0.001230
586.417493	-0.001202
586.628706	-0.000851
586.839902	-0.001354
587.051079	-0.001268
587.262238	-0.001043
587.473379	-0.000840
587.684502	-0.000718
587.895606	-0.000595
588.106692	-0.000685
588.317760	-0.000620
588.528810	-0.000802
588.739841	-0.000729
588.950855	-0.000903
589.161850	-0.001069
589.372827	-0.001173
589.583785	-0.000870
589.794726	-0.000758
590.005648	-0.000440
590.216552	-0.000628
590.427437	-0.000612
590.638305	-0.000371
590.849154	-0.000433
591.059985	-0.000313
591.270798	-0.000453
591.481592	-0.000579
591.692369	-0.000692
591.903127	-0.000835
592.113867	-0.000685
592.324588	-0.000752
592.535292	-0.000874
592.745977	-0.000660
592.956644	-0.001057
593.167293	-0.000911
593.377923	-0.000725
593.588536	-0.000443
593.799130	-0.000479
594.009706	-0.000690
594.220263	-0.000581
594.430803	-0.000651
594.641324	-0.000699
594.851827	-0.000493
595.062312	-0.000500
595.272778	-0.000700
595.483227	-0.000905
595.693657	-0.000770
595.904069	-0.000743
596.114462	-0.000763
596.324838	-0.000487
596.535195	-0.000599
596.745534	-0.000751
596.955855	-0.000738
597.166157	-0.000479
597.376441	-0.000545
597.586707	-0.000748
597.796955	-0.000656
598.007185	-0.000529
598.217396	-0.000954
598.427589	-0.000798
598.637764	-0.000706
598.847921	-0.000546
599.058060	-0.000667
599.268180	-0.000657
599.478282	-0.000332
599.688366	-0.000131
599.898431	-0.000399
600.108479	-0.000065
600.318508	-0.000123
600.528519	-0.000016
600.738511	-0.000214
600.948486	-0.000255
601.158442	-0.000195
601.368380	-0.000573
601.578300	-0.000697
601.788202	-0.000660
601.998085	-0.000743
602.207950	-0.000792
602.417797	-0.000992
602.627626	-0.000865
602.837436	-0.001012
603.047228	-0.001175
603.257002	-0.001290
603.466758	-0.000925
603.676496	-0.000608
603.886215	-0.000463
604.095916	-0.000136
604.305599	0.000173
604.515264	0.000302
604.724910	0.000296
604.934538	0.000308
605.144148	0.000495
605.353740	-0.000179
605.563314	-0.000349
605.772869	-0.000477
605.982406	-0.000853
606.191925	-0.000993
606.401425	-0.001148
606.610908	-0.000942
606.820372	-0.000926
607.029818	-0.000900
607.239246	-0.000665
607.448655	-0.000922
607.658047	-0.001029
607.867420	-0.000993
608.076775	-0.001067
608.286111	-0.001065
608.495430	-0.000983
608.704730	-0.000954
608.914012	-0.000992
609.123275	-0.000878
609.332521	-0.000633
609.541748	-0.000659
609.750957	-0.000524
609.960148	-0.000758
610.169321	-0.000756
610.378475	-0.001107
610.587611	-0.001414
610.796729	-0.001724
611.005829	-0.002039
611.214910	-0.002038
611.423974	-0.002093
611.633019	-0.002216
611.842045	-0.001893
612.051054	-0.002054
612.260044	-0.001835
612.469017	-0.001412
612.677970	-0.000959
612.886906	-0.000746
613.095824	-0.000926
613.304723	-0.000556
613.513604	-0.000669
613.722467	-0.000600
613.931311	-0.000532
614.140138	-0.000450
614.348946	-0.000534
614.557736	-0.000485
614.766507	-0.000413
614.975261	-0.000212
615.183996	-0.000319
615.392713	0.000033
615.601412	0.000010
615.810092	0.000171
616.018754	0.000168
616.227399	0.000071
616.436024	0.000045
616.644632	-0.000006
616.853222	-0.000252
617.061793	-0.000326
617.270346	-0.000341
617.478880	-0.000294
617.687397	-0.000417
617.895895	-0.000473
618.104375	-0.000353
618.312837	-0.000452
618.521281	-0.000402
618.729706	-0.000098
618.938113	-0.000072
619.146502	-0.000175
619.354873	-0.000288
619.563226	-0.000210
619.771560	-0.000348
619.979876	-0.000542
620.188174	-0.000457
620.396453	-0.000391
620.604715	-0.000620
620.812958	-0.000752
621.021183	-0.000891
621.229390	-0.000976
621.437578	-0.001053
621.645748	-0.001055
621.853900	-0.000731
622.062034	-0.000868
622.270150	-0.000973
622.478247	-0.000615
622.686326	-0.000566
622.894387	-0.000284
623.102430	-0.000237
623.310454	-0.000088
623.518461	0.000017
623.726449	0.000084
623.934418	0.000224
624.142370	0.000584
624.350303	0.000561
624.558218	0.000706
624.766115	0.000661
624.973994	0.000625
625.181855	0.000703
625.389697	0.000720
625.597521	0.000634
625.805327	0.000653
626.013114	0.000456
626.220883	0.000416
626.428634	0.000592
626.636367	0.000794
626.844082	0.000945
627.051778	0.000910
627.259457	0.001209
627.467117	0.001353
627.674758	0.001346
627.882382	0.001417
628.089987	0.001525
628.297574	0.001473
628.505143	0.001111
628.712694	0.001201
628.920226	0.001333
629.127740	0.001202
629.335236	0.000989
629.542714	0.001216
629.750174	0.001175
629.957615	0.001112
630.165038	0.001167
630.372443	0.001292
630.579829	0.001381
630.787198	0.001267
630.994548	0.001205
631.201880	0.001593
631.409194	0.001532
631.616489	0.001617
631.823766	0.001509
632.031025	0.001374
632.238266	0.001347
632.445489	0.001391
632.652693	0.001374
632.859879	0.001598
633.067047	0.001255
633.274197	0.001164
633.481329	0.001191
633.688442	0.001199
633.895537	0.001307
634.102614	0.001496
634.309672	0.001418
634.516713	0.001652
634.723735	0.001531
634.930739	0.001525
635.137724	0.001611
635.344692	0.001628
635.551641	0.001668
635.758572	0.001536
635.965485	0.001591
636.172379	0.001487
636.379256	0.001484
636.586114	0.001458
636.792954	0.001711
636.999775	0.001607
637.206579	0.001813
637.413364	0.002069
637.620131	0.002287
637.826880	0.002347
638.033610	0.002620
638.240323	0.002563
638.447017	0.002632
638.653692	0.002625
638.860350	0.002884
639.066990	0.002779
639.273611	0.002688
639.480214	0.002634
639.686798	0.002626
639.893365	0.002583
640.099913	0.002833
640.306443	0.002918
640.512955	0.003050
640.719449	0.002896
640.925924	0.002884
641.132381	0.002826
641.338820	0.002917
641.545241	0.002784
641.751644	0.002695
641.958028	0.002321
642.164394	0.002263
642.370742	0.002096
642.577071	0.002187
642.783383	0.002146
642.989676	0.002068
643.195951	0.002025
643.402207	0.002046
643.608446	0.001936
643.814666	0.002135
644.020868	0.002160
644.227052	0.002074
644.433218	0.002017
644.639365	0.001957
644.845494	0.002120
645.051605	0.002029
645.257698	0.002100
645.463772	0.002179
645.669828	0.002038
645.875866	0.001834
646.081886	0.001800
646.287888	0.001819
646.493871	0.001729
646.699836	0.001521
646.905783	0.001517
647.111712	0.001555
647.317622	0.001580
647.523514	0.001505
647.729388	0.001717
647.935244	0.001772
648.141082	0.001733
648.346901	0.001873
648.552702	0.001902
648.758485	0.002056
648.964250	0.002112
649.169996	0.002216
649.375724	0.002519
649.581434	0.002565
649.787126	0.002512
649.992800	0.002627
650.198455	0.002801
650.404092	0.002872
650.609711	0.002878
650.815311	0.003026
651.020894	0.003241
651.226458	0.003202
651.432004	0.003246
651.637532	0.003591
651.843041	0.003592
652.048532	0.003609
652.254006	0.003771
652.459460	0.003909
652.664897	0.003750
652.870315	0.003621
653.075716	0.003769
653.281097	0.003849
653.486461	0.003922
653.691807	0.004176
653.897134	0.004287
654.102443	0.004459
654.307734	0.004547
654.513006	0.004661
654.718261	0.004834
654.923497	0.004842
655.128715	0.004854
655.333915	0.004707
655.539096	0.004769
655.744259	0.004656
655.949404	0.004517
656.154531	0.004582
656.359640	0.004547
656.564730	0.004553
656.769802	0.004603
656.974856	0.004694
657.179892	0.004683
657.384909	0.004586
657.589908	0.004705
657.794889	0.004946
657.999852	0.004906
658.204797	0.005026
658.409723	0.005106
658.614631	0.004910
658.819521	0.004799
659.024393	0.004890
659.229246	0.004822
659.434081	0.004806
659.638898	0.004743
659.843697	0.004748
660.048478	0.004831
660.253240	0.004752
660.457984	0.004823
660.662710	0.005021
660.867417	0.005041
661.072107	0.005035
661.276778	0.005050
661.481431	0.004984
661.686066	0.004967
661.890682	0.004801
662.095281	0.004771
662.299861	0.004852
662.504422	0.004604
662.708966	0.004582
662.913491	0.004641
663.117999	0.004514
663.322488	0.004479
663.526958	0.004594
663.731411	0.004645
663.935845	0.004598
664.140261	0.004624
664.344659	0.004681
664.549038	0.004801
664.753400	0.004831
664.957743	0.004871
665.162068	0.004970
665.366375	0.004730
665.570663	0.004718
665.774933	0.004755
665.979185	0.004763
666.183419	0.004854
666.387635	0.004690
666.591832	0.004607
666.796011	0.004560
667.000172	0.004431
667.204315	0.004587
667.408439	0.004663
667.612545	0.004721
667.816634	0.004765
668.020703	0.004918
668.224755	0.005068
668.428788	0.005143
668.632803	0.005362
668.836800	0.005405
669.040779	0.005348
669.244739	0.005293
669.448681	0.005474
669.652605	0.005361
669.856511	0.005202
670.060399	0.005054
670.264268	0.005163
670.468119	0.005185
670.671952	0.005270
670.875767	0.005256
671.079563	0.005372
671.283341	0.005330
671.487101	0.005478
671.690843	0.005574
671.894567	0.005741
672.098272	0.005668
672.301959	0.005723
672.505628	0.005760
672.709278	0.005812
672.912911	0.005887
673.116525	0.005677
673.320121	0.005748
673.523699	0.005723
673.727258	0.005780
673.930799	0.005716
674.134322	0.005604
674.337827	0.005681
674.541314	0.005704
674.744782	0.005521
674.948232	0.005665
675.151664	0.005638
675.355078	0.005620
675.558474	0.005510
675.761851	0.005674
675.965210	0.005567
676.168551	0.005584
676.371873	0.005392
676.575178	0.005469
676.778464	0.005455
676.981732	0.005470
677.184981	0.005548
677.388213	0.005634
677.591426	0.005654
677.794621	0.005780
677.997798	0.005814
678.200956	0.006115
678.404097	0.006244
678.607219	0.006277
678.810323	0.006267
679.013408	0.006292
679.216476	0.006411
679.419525	0.006463
679.622556	0.006627
679.825569	0.006671
680.028563	0.006797
680.231540	0.006929
680.434498	0.007118
680.637438	0.007069
680.840359	0.007258
681.043263	0.007224
681.246148	0.007289
681.449015	0.007292
681.651864	0.007297
681.854694	0.007234
682.057506	0.007157
682.260301	0.007103
682.463076	0.007259
682.665834	0.007129
682.868573	0.007153
683.071295	0.007144
683.273998	0.007125
683.476682	0.007152
683.679349	0.007299
683.881997	0.007388
684.084627	0.007440
684.287239	0.007270
684.489833	0.007345
684.692408	0.007492
684.894965	0.007531
685.097504	0.007555
685.300025	0.007615
685.502527	0.007630
685.705012	0.007800
685.907478	0.007622
686.109925	0.007885
686.312355	0.007983
686.514766	0.008031
686.717159	0.008045
686.919534	0.008164
687.121891	0.008188
687.324230	0.008054
687.526550	0.007811
687.728852	0.007952
687.931136	0.008014
688.133401	0.008032
688.335649	0.007988
688.537878	0.008001
688.740089	0.007937
688.942281	0.007984
689.144456	0.008070
689.346612	0.008226
689.548750	0.008377
689.750870	0.008277
689.952971	0.008441
690.155055	0.008601
690.357120	0.008649
690.559167	0.008712
690.761195	0.008839
690.963206	0.008998
691.165198	0.009014
691.367172	0.008929
691.569128	0.009058
691.771065	0.009000
691.972984	0.009084
692.174885	0.009250
692.376768	0.009340
692.578633	0.009172
692.780479	0.009191
692.982308	0.009181
693.184118	0.009258
693.385909	0.009171
693.587683	0.009247
693.789438	0.009086
693.991175	0.008890
694.192894	0.008806
694.394595	0.008723
694.596277	0.008697
694.797941	0.008670
694.999587	0.008617
695.201215	0.008586
695.402824	0.008398
695.604416	0.008190
695.805989	0.008193
696.007543	0.008095
696.209080	0.008186
696.410598	0.008125
696.612099	0.008224
696.813580	0.008244
697.015044	0.008311
697.216490	0.008227
697.417917	0.008351
697.619326	0.008353
697.820717	0.008566
698.022089	0.008621
698.223444	0.008663
698.424780	0.008483
698.626098	0.008437
698.827397	0.008477
699.028679	0.008610
699.229942	0.008720
699.431187	0.009010
699.632414	0.008932
699.833622	0.008907
700.034813	0.008824
700.235985	0.008946
700.437139	0.009028
700.638274	0.009058
700.839392	0.009095
701.040491	0.009142
701.241572	0.008968
701.442635	0.009031
701.643679	0.008979
701.844706	0.009019
702.045714	0.009058
702.246704	0.009060
702.447675	0.009066
702.648629	0.009102
702.849564	0.008953
703.050481	0.009066
703.251380	0.009027
703.452260	0.009158
703.653122	0.009144
703.853966	0.009064
704.054792	0.009029
704.255600	0.008953
704.456389	0.008757
704.657160	0.008796
704.857913	0.008582
705.058648	0.008590
705.259365	0.008665
705.460063	0.008546
705.660743	0.008650
705.861405	0.008715
706.062048	0.008808
706.262674	0.008898
706.463281	0.008799
706.663870	0.008732
706.864441	0.008604
707.064993	0.008394
707.265527	0.008408
707.466043	0.008344
707.666541	0.008460
707.867021	0.008378
708.067482	0.008227
708.267925	0.008439
708.468350	0.008505
708.668757	0.008397
708.869145	0.008410
709.069516	0.008356
709.269868	0.008217
709.470201	0.007963
709.670517	0.008043
709.870814	0.008332
710.071093	0.008256
710.271354	0.008290
710.471597	0.008333
710.671821	0.008412
710.872028	0.008644
711.072216	0.008707
711.272385	0.008904
711.472537	0.008727
711.672670	0.008571
711.872785	0.008468
712.072882	0.008468
712.272961	0.008386
712.473021	0.008319
712.673063	0.008287
712.873087	0.008333
713.073093	0.008221
713.273081	0.008243
713.473050	0.008155
713.673001	0.008094
713.872934	0.008141
714.072849	0.008254
714.272745	0.008215
714.472623	0.008081
714.672483	0.007918
714.872325	0.007864
715.072148	0.007830
715.271954	0.007832
715.471741	0.007862
715.671509	0.007593
715.871260	0.007562
716.070992	0.007469
716.270707	0.007375
716.470403	0.007357
716.670080	0.007170
716.869740	0.006991
717.069381	0.006969
717.269004	0.006858
717.468609	0.006950
717.668195	0.006906
717.867764	0.007000
718.067314	0.006843
718.266846	0.006809
718.466360	0.006920
718.665855	0.006977
718.865332	0.006776
719.064791	0.006688
719.264232	0.006497
719.463655	0.006428
719.663059	0.006267
719.862445	0.006273
720.061813	0.006140
720.261163	0.005950
720.460494	0.005827
720.659807	0.005773
720.859102	0.005830
721.058379	0.006062
721.257638	0.005951
721.456878	0.005783
721.656100	0.005743
721.855304	0.005609
722.054490	0.005542
722.253657	0.005580
722.452806	0.005571
722.651937	0.005552
722.851050	0.005324
723.050145	0.005535
723.249221	0.005593
723.448279	0.005803
723.647319	0.005943
723.846340	0.006023
724.045344	0.005984
724.244329	0.006171
724.443296	0.006318
724.642245	0.006383
724.841175	0.006472
725.040088	0.006553
725.238982	0.006311
725.437857	0.006401
725.636715	0.006285
725.835554	0.006482
726.034376	0.006588
726.233179	0.006597
726.431963	0.006739
726.630730	0.006538
726.829478	0.006598
727.028208	0.006821
727.226920	0.006803
727.425614	0.007020
727.624289	0.006890
727.822946	0.006822
728.021585	0.006686
728.220206	0.006617
728.418808	0.006668
728.617392	0.006516
728.815958	0.006465
729.014506	0.006306
729.213036	0.006122
729.411547	0.006202
729.610040	0.006099
729.808515	0.006019
730.006972	0.005899
730.205410	0.005923
730.403831	0.006027
730.602233	0.005952
730.800616	0.006088
730.998982	0.006279
731.197329	0.005924
731.395658	0.005739
731.593969	0.005733
731.792262	0.005571
731.990536	0.005326
732.188793	0.005069
732.387031	0.005148
732.585250	0.004961
732.783452	0.004803
732.981635	0.004994
733.179800	0.004963
733.377947	0.004754
733.576076	0.004692
733.774186	0.004682
733.972278	0.004604
734.170352	0.004348
734.368408	0.004339
734.566446	0.004223
734.764465	0.004018
734.962466	0.004090
735.160449	0.004007
735.358413	0.003844
735.556360	0.003853
735.754288	0.003738
735.952198	0.003572
736.150090	0.003500
736.347963	0.003442
736.545818	0.003622
736.743655	0.003636
736.941474	0.003644
737.139275	0.003645
737.337057	0.003551
737.534821	0.003746
737.732567	0.003819
737.930295	0.003813
738.128005	0.003827
738.325696	0.003612
738.523369	0.003284
738.721024	0.003393
738.918660	0.003506
739.116279	0.003386
739.313879	0.003146
739.511461	0.003104
739.709024	0.003121
739.906570	0.002885
740.104097	0.002914
740.301606	0.003092
740.499097	0.003013
740.696569	0.003020
740.894024	0.003108
741.091460	0.003268
741.288878	0.003286
741.486277	0.003215
741.683659	0.003355
741.881022	0.003128
742.078367	0.002981
742.275694	0.002984
742.473002	0.003014
742.670293	0.002960
742.867565	0.002987
743.064819	0.002935
743.262054	0.002827
743.459272	0.002950
743.656471	0.003229
743.853652	0.003385
744.050815	0.003473
744.247959	0.003347
744.445085	0.003361
744.642194	0.003591
744.839283	0.003669
745.036355	0.003820
745.233408	0.003727
745.430444	0.003700
745.627461	0.003623
745.824459	0.003648
746.021440	0.003744
746.218402	0.003713
746.415346	0.003523
746.612272	0.003502
746.809180	0.003535
747.006069	0.003528
747.202940	0.003391
747.399793	0.003315
747.596628	0.003227
747.793444	0.003200
747.990243	0.003363
748.187023	0.003264
748.383784	0.003180
748.580528	0.002973
748.777253	0.002957
748.973960	0.003195
749.170649	0.003292
749.367320	0.003292
749.563973	0.003354
749.760607	0.003258
749.957223	0.003451
750.153821	0.003580
750.350400	0.003853
750.546962	0.003936
750.743505	0.003856
750.940030	0.003821
751.136536	0.003797
751.333025	0.003579
751.529495	0.003444
751.725947	0.003251
751.922381	0.003379
752.118796	0.003072
752.315194	0.003071
752.511573	0.003188
752.707934	0.003421
752.904276	0.003432
753.100601	0.003746
753.296907	0.003845
753.493195	0.003899
753.689465	0.003750
753.885716	0.003949
754.081949	0.004024
754.278164	0.004025
754.474361	0.003778
754.670540	0.003714
754.866700	0.003613
755.062843	0.003665
755.258967	0.003644
755.455072	0.003614
755.651160	0.003758
755.847229	0.003773
756.043280	0.003577
756.239313	0.003727
756.435328	0.003599
756.631324	0.003417
756.827302	0.003374
757.023262	0.003392
757.219204	0.003360
757.415127	0.003214
757.611033	0.003117
757.806920	0.003169
758.002788	0.003057
758.198639	0.003316
758.394471	0.003220
758.590286	0.003142
758.786081	0.003063
758.981859	0.002921
759.177619	0.002879
759.373360	0.002814
759.569083	0.002727
759.764788	0.002639
759.960474	0.002396
760.156143	0.002417
760.351793	0.002284
760.547425	0.002458
760.743038	0.002499
760.938634	0.002606
761.134211	0.002490
761.329770	0.002384
761.525311	0.002495
761.720833	0.002644
761.916338	0.002791
762.111824	0.003085
762.307292	0.002806
762.502741	0.002779
762.698173	0.002699
762.893586	0.002660
763.088981	0.002889
763.284358	0.002934
763.479716	0.002870
763.675057	0.002844
763.870379	0.002779
764.065683	0.002804
764.260968	0.002867
764.456236	0.002839
764.651485	0.002980
764.846716	0.002803
765.041929	0.002662
765.237123	0.002607
765.432299	0.002712
765.627457	0.002506
765.822597	0.002507
766.017719	0.002557
766.212822	0.002577
766.407907	0.002681
766.602974	0.002770
766.798023	0.002722
766.993054	0.002659
767.188066	0.002585
767.383060	0.002682
767.578036	0.002740
767.772993	0.002649
767.967933	0.002480
768.162854	0.002291
768.357757	0.002177
768.552642	0.002185
768.747508	0.002219
768.942356	0.002162
769.137186	0.002154
769.331998	0.002068
769.526792	0.002065
769.721567	0.002197
769.916324	0.002136
770.111063	0.001860
770.305784	0.001902
770.500486	0.001736
770.695171	0.001740
770.889837	0.001604
771.084484	0.001595
771.279114	0.001743
771.473725	0.001678
771.668318	0.001844
771.862893	0.001954
772.057450	0.002015
772.251988	0.002278
772.446509	0.002196
772.641011	0.002290
772.835494	0.002362
773.029960	0.002246
773.224407	0.002151
773.418836	0.002171
773.613247	0.002190
773.807640	0.002058
774.002014	0.001858
774.196370	0.001768
774.390708	0.001724
774.585028	0.001573
774.779330	0.001443
774.973613	0.001504
775.167878	0.001379
775.362125	0.001441
775.556354	0.001293
775.750564	0.001366
775.944756	0.001325
776.138930	0.001404
776.333086	0.001342
776.527223	0.001347
776.721343	0.001460
776.915444	0.001560
777.109526	0.001470
777.303591	0.001679
777.497637	0.001761
777.691666	0.002090
777.885676	0.002000
778.079667	0.002342
778.273641	0.002455
778.467596	0.002322
778.661533	0.002126
778.855452	0.002215
779.049352	0.002342
779.243235	0.002332
779.437099	0.002396
779.630945	0.002499
779.824773	0.002540
780.018582	0.002708
780.212373	0.002697
780.406146	0.002739
780.599901	0.002872
780.793638	0.002836
780.987356	0.002816
781.181056	0.002574
781.374738	0.002606
781.568402	0.002515
781.762047	0.002355
781.955674	0.002605
782.149283	0.002721
782.342874	0.002831
782.536447	0.002847
782.730001	0.002960
782.923537	0.003050
783.117055	0.002960
783.310555	0.002966
783.504036	0.002958
783.697499	0.002793
783.890944	0.002847
784.084371	0.002729
784.277780	0.002709
784.471170	0.002519
784.664542	0.002565
784.857896	0.002577
785.051231	0.002434
785.244549	0.002554
785.437848	0.002479
785.631129	0.002371
785.824392	0.002300
786.017636	0.002209
786.210863	0.002445
786.404071	0.002229
786.597260	0.002383
786.790432	0.002551
786.983585	0.002461
787.176721	0.002583
787.369838	0.002494
787.562936	0.002689
787.756017	0.002850
787.949079	0.002783
788.142123	0.003045
788.335149	0.002932
788.528156	0.002999
788.721146	0.003182
788.914117	0.003304
789.107070	0.003464
789.300005	0.003393
789.492921	0.003361
789.685819	0.003372
789.878699	0.003390
790.071561	0.003542
790.264405	0.003700
790.457230	0.003690
790.650037	0.003544
790.842826	0.003605
791.035597	0.003672
791.228349	0.003780
791.421084	0.003781
791.613800	0.003824
791.806497	0.003805
791.999177	0.003522
792.191838	0.003345
792.384481	0.003577
792.577106	0.003723
792.769713	0.003862
792.962301	0.003759
793.154871	0.003811
793.347423	0.003795
793.539957	0.003930
793.732473	0.004113
793.924970	0.004301
794.117449	0.004357
794.309910	0.004547
794.502353	0.004578
794.694777	0.004803
794.887183	0.005092
795.079571	0.005215
795.271941	0.005225
795.464293	0.005326
795.656626	0.005418
795.848941	0.005403
796.041238	0.005280
796.233516	0.005432
796.425777	0.005476
796.618019	0.005484
796.810243	0.005645
797.002449	0.005586
797.194636	0.005582
797.386805	0.005661
797.578956	0.005743
797.771089	0.005673
797.963204	0.005553
798.155300	0.005606
798.347378	0.005486
798.539438	0.005373
798.731480	0.005527
798.923503	0.005663
799.115509	0.005494
799.307496	0.005392
799.499465	0.005377
799.691415	0.005237
799.883348	0.005190
800.075262	0.005249
800.267158	0.005214
800.459035	0.005154
800.650895	0.004999
800.842736	0.005290
801.034559	0.005462
801.226364	0.005566
801.418150	0.005721
801.609919	0.005624
801.801669	0.005555
801.993401	0.005502
802.185114	0.005221
802.376810	0.005281
802.568487	0.005159
802.760146	0.005066
802.951787	0.005159
803.143409	0.005191
803.335014	0.005194
803.526600	0.005329
803.718168	0.005433
803.909717	0.005704
804.101249	0.005740
804.292762	0.005730
804.484257	0.005776
804.675734	0.005606
804.867192	0.005760
805.058632	0.005782
805.250054	0.005672
805.441458	0.005701
805.632844	0.005685
805.824211	0.005483
806.015561	0.005514
806.206891	0.005456
806.398204	0.005621
806.589499	0.005409
806.780775	0.005430
806.972033	0.005475
807.163273	0.005436
807.354495	0.005505
807.545698	0.005786
807.736883	0.005687
807.928050	0.005756
808.119199	0.005759
808.310329	0.005957
808.501441	0.006170
808.692535	0.006332
808.883611	0.006346
809.074669	0.006378
809.265708	0.006381
809.456729	0.006604
809.647732	0.006666
809.838717	0.006676
810.029683	0.006568
810.220632	0.006553
810.411562	0.006648
810.602474	0.006859
810.793367	0.006937
810.984242	0.006916
811.175100	0.006791
811.365938	0.006831
811.556759	0.007018
811.747562	0.007275
811.938346	0.007189
812.129112	0.006990
812.319860	0.006836
812.510589	0.006924
812.701300	0.007079
812.891994	0.007068
813.082668	0.006946
813.273325	0.007003
813.463964	0.006891
813.654584	0.006986
813.845186	0.006982
814.035769	0.007100
814.226335	0.006964
814.416882	0.006741
814.607411	0.006822
814.797922	0.006823
814.988415	0.006626
815.178889	0.006429
815.369345	0.006371
815.559783	0.006512
815.750203	0.006706
815.940605	0.006867
816.130988	0.006978
816.321353	0.006975
816.511700	0.007158
816.702028	0.007277
816.892339	0.007376
817.082631	0.007244
817.272905	0.007287
817.463161	0.007151
817.653398	0.007084
817.843617	0.007116
818.033819	0.007248
818.224001	0.007303
818.414166	0.007227
818.604312	0.007192
818.794440	0.007328
818.984550	0.007186
819.174642	0.007197
819.364716	0.007335
819.554771	0.007444
819.744808	0.007243
819.934827	0.007141
820.124827	0.007202
820.314810	0.007430
820.504774	0.007672
820.694720	0.007555
820.884647	0.007477
821.074557	0.007138
821.264448	0.006969
821.454321	0.007238
821.644176	0.007199
821.834012	0.007166
822.023831	0.006888
822.213631	0.006834
822.403413	0.007081
822.593176	0.007073
822.782922	0.007375
822.972649	0.007359
823.162358	0.007211
823.352049	0.007225
823.541721	0.007161
823.731376	0.007309
823.921012	0.007223
824.110629	0.007277
824.300229	0.007225
824.489811	0.007499
824.679374	0.007615
824.868919	0.007618
825.058445	0.007702
825.247954	0.007945
825.437444	0.008199
825.626916	0.008271
825.816370	0.008402
826.005806	0.008685
826.195223	0.008584
826.384622	0.008703
826.574003	0.009140
826.763366	0.009373
826.952711	0.009151
827.142037	0.008996
827.331345	0.008983
827.520635	0.008941
827.709906	0.008857
827.899160	0.008710
828.088395	0.008911
828.277612	0.008713
828.466810	0.008778
828.655991	0.008950
828.845153	0.009028
829.034297	0.008990
829.223423	0.009075
829.412531	0.009256
829.601620	0.009361
829.790691	0.009292
829.979744	0.009382
830.168779	0.009405
830.357795	0.009494
830.546793	0.009695
830.735773	0.010093
830.924735	0.010130
831.113679	0.010043
831.302604	0.010258
831.491511	0.010244
831.680400	0.010208
831.869271	0.010207
832.058123	0.010319
832.246957	0.010435
832.435773	0.010305
832.624571	0.010286
832.813351	0.010401
833.002112	0.010492
833.190855	0.010656
833.379580	0.010638
833.568287	0.010756
833.756975	0.010682
833.945645	0.010631
834.134297	0.010870
834.322931	0.011007
834.511547	0.011107
834.700144	0.011058
834.888723	0.011021
835.077284	0.011264
835.265826	0.011493
835.454351	0.011503
835.642857	0.011832
835.831345	0.011783
836.019815	0.012054
836.208266	0.012309
836.396699	0.012474
836.585114	0.012833
836.773511	0.013084
836.961890	0.013231
837.150250	0.013610
837.338592	0.013531
837.526916	0.013650
837.715222	0.013745
837.903510	0.013809
838.091779	0.013793
838.280030	0.013637
838.468263	0.013758
838.656477	0.013559
838.844674	0.013675
839.032852	0.013582
839.221012	0.013730
839.409153	0.013751
839.597277	0.014007
839.785382	0.014325
839.973469	0.014694
840.161538	0.014804
840.349589	0.015086
840.537621	0.015336
840.725635	0.015718
840.913631	0.015647
841.101609	0.015526
841.289568	0.015354
841.477509	0.015339
841.665432	0.015362
841.853337	0.015369
842.041224	0.015398
842.229092	0.015190
842.416942	0.014983
842.604774	0.015170
842.792588	0.015450
842.980383	0.015636
843.168160	0.015663
843.355919	0.015256
843.543660	0.015351
843.731382	0.015301
843.919087	0.015423
844.106773	0.015577
844.294441	0.015580
844.482090	0.015482
844.669722	0.015526
844.857335	0.015551
845.044930	0.016151
845.232507	0.016215
845.420065	0.016316
845.607605	0.016182
845.795127	0.016232
845.982631	0.016327
846.170117	0.016455
846.357584	0.016393
846.545033	0.016503
846.732464	0.016532
846.919877	0.016628
847.107272	0.016726
847.294648	0.016859
847.482006	0.016946
847.669346	0.017065
847.856667	0.017205
848.043971	0.017261
848.231256	0.017273
848.418523	0.017128
848.605771	0.017011
848.793002	0.017042
848.980214	0.017272
849.167408	0.017238
849.354584	0.017246
849.541742	0.017074
849.728881	0.017209
849.916002	0.017299
850.103105	0.017485
850.290190	0.017553
850.477256	0.017593
850.664304	0.017939
850.851334	0.018037
851.038346	0.018140
851.225340	0.018586
851.412315	0.018790
851.599272	0.019074
851.786211	0.018933
851.973132	0.019210
852.160034	0.019392
852.346918	0.018993
852.533784	0.019032
852.720632	0.018938
852.907462	0.018750
853.094273	0.018785
853.281066	0.018494
853.467841	0.018705
853.654598	0.018646
853.841336	0.018611
854.028056	0.018928
854.214758	0.019042
854.401442	0.019165
854.588107	0.019247
854.774755	0.019128
854.961384	0.019160
855.147995	0.019211
855.334587	0.019336
855.521162	0.019268
855.707718	0.019084
855.894256	0.019067
856.080775	0.019143
856.267277	0.019465
856.453760	0.019577
856.640225	0.019616
856.826672	0.019616
857.013101	0.019524
857.199511	0.019551
857.385903	0.019478
857.572277	0.019572
857.758633	0.019556
857.944970	0.019111
858.131290	0.019189
858.317591	0.019308
858.503873	0.019316
858.690138	0.019570
858.876384	0.019868
859.062612	0.020180
859.248822	0.020142
859.435014	0.020181
859.621188	0.020462
859.807343	0.020440
859.993480	0.020799
860.179599	0.020966
860.365699	0.020769
860.551781	0.020840
860.737846	0.020707
860.923891	0.021037
861.109919	0.021390
861.295929	0.021491
861.481920	0.021629
861.667893	0.021426
861.853848	0.021498
862.039784	0.021468
862.225702	0.021279
862.411603	0.021712
862.597484	0.021797
862.783348	0.021759
862.969193	0.021960
863.155021	0.021881
863.340830	0.021990
863.526620	0.021942
863.712393	0.022141
863.898147	0.022332
864.083883	0.022217
864.269601	0.022184
864.455301	0.022169
864.640982	0.022047
864.826645	0.022327
865.012290	0.022213
865.197917	0.022305
865.383526	0.022260
865.569116	0.022208
865.754688	0.022248
865.940242	0.022196
866.125777	0.022211
866.311295	0.022365
866.496794	0.022446
866.682275	0.022794
866.867737	0.022982
867.053182	0.022992
867.238608	0.022776
867.424016	0.022894
867.609406	0.023178
867.794778	0.023439
867.980131	0.023458
868.165466	0.023459
868.350783	0.023331
868.536082	0.023130
868.721362	0.023386
868.906625	0.023827
869.091869	0.023923
869.277094	0.023990
869.462302	0.023874
869.647491	0.023946
869.832662	0.023990
870.017815	0.024185
870.202950	0.024296
870.388066	0.024359
870.573165	0.024389
870.758245	0.024692
870.943306	0.024784
871.128350	0.024886
871.313375	0.024895
871.498382	0.024908
871.683371	0.024807
871.868342	0.024989
872.053294	0.024927
872.238229	0.024898
872.423144	0.024607
872.608042	0.024510
872.792922	0.024356
872.977783	0.024383
873.162626	0.024288
873.347451	0.024302
873.532258	0.024204
873.717046	0.024188
873.901816	0.024348
874.086568	0.024373
874.271302	0.024426
874.456017	0.024705
874.640715	0.024660
874.825394	0.024827
875.010055	0.024978
875.194697	0.025228
875.379322	0.025493
875.563928	0.025472
875.748516	0.025614
875.933085	0.025688
876.117637	0.025569
876.302170	0.025696
876.486685	0.025774
876.671182	0.025755
876.855661	0.025770
877.040121	0.025615
877.224563	0.025727
877.408987	0.025775
877.593393	0.025658
877.777780	0.025750
877.962150	0.025683
878.146501	0.025560
878.330833	0.025725
878.515148	0.025958
878.699444	0.026044
878.883722	0.026137
879.067982	0.026041
879.252224	0.026035
879.436447	0.026094
879.620653	0.026513
879.804840	0.026574
879.989008	0.026550
880.173159	0.026514
880.357291	0.026786
880.541405	0.027206
880.725501	0.027703
880.909579	0.028098
881.093638	0.028291
881.277680	0.028238
881.461703	0.028447
881.645707	0.028490
881.829694	0.028411
882.013662	0.028617
882.197612	0.028137
882.381544	0.027953
882.565458	0.027765
882.749353	0.027809
882.933230	0.027897
883.117089	0.027947
883.300930	0.028261
883.484753	0.028477
883.668557	0.028281
883.852343	0.028191
884.036111	0.028082
884.219861	0.027981
884.403592	0.027990
884.587305	0.027932
884.771000	0.027856
884.954677	0.027382
885.138335	0.026998
885.321976	0.026774
885.505598	0.027046
885.689201	0.027178
885.872787	0.027510
886.056354	0.027135
886.239904	0.027035
886.423434	0.026873
886.606947	0.026938
886.790442	0.027030
886.973918	0.027056
887.157376	0.027099
887.340816	0.026735
887.524237	0.026494
887.707641	0.026842
887.891026	0.026873
888.074393	0.027328
888.257741	0.027266
888.441072	0.027362
888.624384	0.027825
888.807678	0.027945
888.990954	0.028137
889.174211	0.028148
889.357451	0.027955
889.540672	0.027978
889.723875	0.027799
889.907059	0.027981
890.090226	0.028044
890.273374	0.027586
890.456504	0.027128
890.639616	0.026811
890.822709	0.026551
891.005785	0.026489
891.188842	0.026419
891.371881	0.026270
891.554901	0.026295
891.737904	0.026381
891.920888	0.026394
892.103854	0.026557
892.286802	0.026926
892.469731	0.027121
892.652643	0.027195
892.835536	0.027411
893.018410	0.027429
893.201267	0.027405
893.384106	0.027134
893.566926	0.027546
893.749728	0.027655
893.932511	0.027600
894.115277	0.027818
894.298024	0.027885
894.480753	0.027535
894.663464	0.027388
894.846157	0.027377
895.028831	0.027408
895.211487	0.027032
895.394125	0.027014
895.576745	0.027021
895.759346	0.026675
895.941930	0.026919
896.124495	0.026967
896.307041	0.027230
896.489570	0.027330
896.672080	0.027366
896.854573	0.027437
897.037046	0.027398
897.219502	0.027049
897.401940	0.027091
897.584359	0.026649
897.766760	0.026721
897.949143	0.026701
898.131507	0.026593
898.313854	0.026668
898.496182	0.026665
898.678492	0.026695
898.860783	0.026928
899.043057	0.027207
899.225312	0.027198
899.407549	0.027132
899.589768	0.026970
899.771968	0.026499
899.954151	0.026343
900.136315	0.026266
900.318461	0.026073
900.500588	0.025636
900.682698	0.025247
900.864789	0.025184
901.046862	0.025072
901.228917	0.024953
901.410953	0.025107
901.592971	0.025109
901.774972	0.025174
901.956953	0.025204
902.138917	0.025568
902.320862	0.025680
902.502790	0.025963
902.684699	0.026020
902.866589	0.025922
903.048462	0.025823
903.230316	0.025609
903.412152	0.025327
903.593970	0.025208
903.775770	0.025073
903.957551	0.025021
904.139314	0.024994
904.321059	0.024846
904.502786	0.024866
904.684494	0.025195
904.866185	0.025237
905.047857	0.025346
905.229510	0.025383
905.411146	0.025550
905.592763	0.025475
905.774363	0.025439
905.955943	0.025265
906.137506	0.025173
906.319051	0.025082
906.500577	0.025417
906.682085	0.025219
906.863575	0.024845
907.045046	0.024304
907.226500	0.024404
907.407935	0.024327
907.589352	0.024344
907.770750	0.024391
907.952131	0.024385
908.133493	0.023767
908.314837	0.023683
908.496163	0.023713
908.677470	0.023719
908.858760	0.023220
909.040031	0.023152
909.221284	0.023223
909.402518	0.022647
909.583735	0.022244
909.764933	0.022061
909.946113	0.022019
910.127275	0.021919
910.308418	0.021816
910.489544	0.021900
910.670651	0.021541
910.851740	0.020978
911.032810	0.021204
911.213863	0.021288
911.394897	0.021364
911.575913	0.021107
911.756911	0.021217
911.937890	0.021274
912.118851	0.021299
912.299794	0.020764
912.480719	0.020617
912.661626	0.020523
912.842514	0.020254
913.023384	0.019980
913.204236	0.019576
913.385070	0.019346
913.565886	0.018800
913.746683	0.018585
913.927462	0.018845
914.108223	0.018718
914.288965	0.018692
914.469690	0.018891
914.650396	0.019171
914.831084	0.018992
915.011754	0.018782
915.192405	0.019077
915.373038	0.019052
915.553653	0.019221
915.734250	0.019107
915.914829	0.018938
916.095389	0.018767
916.275931	0.018100
916.456455	0.018705
916.636961	0.018452
916.817448	0.018473
916.997917	0.018347
917.178368	0.017792
917.358801	0.018051
917.539216	0.017844
917.719612	0.018079
917.899990	0.018258
918.080350	0.017821
918.260692	0.017529
918.441015	0.017031
918.621320	0.016514
918.801607	0.016300
918.981876	0.016097
919.162127	0.015858
919.342359	0.014828
919.522573	0.014697
919.702769	0.014595
919.882947	0.014415
920.063106	0.014506
920.243247	0.014628
920.423370	0.014599
920.603475	0.014381
920.783562	0.014147
920.963630	0.014297
921.143680	0.013988
921.323712	0.013442
921.503725	0.013488
921.683721	0.013277
921.863698	0.013079
922.043657	0.012714
922.223598	0.012144
922.403520	0.012027
922.583424	0.011147
922.763311	0.011402
922.943178	0.011221
923.123028	0.011371
923.302859	0.010950
923.482673	0.010409
923.662467	0.010367
923.842244	0.010156
924.022003	0.010096
924.201743	0.010303
924.381465	0.009458
924.561169	0.008903
924.740854	0.008963
924.920522	0.008674
925.100171	0.008700
925.279802	0.008502
925.459414	0.009053
925.639009	0.009082
925.818585	0.008990
925.998143	0.008818
926.177683	0.009472
926.357205	0.008719
926.536708	0.008732
926.716193	0.008652
926.895660	0.008754
927.075109	0.008186
927.254539	0.007778
927.433951	0.007995
927.613345	0.008006
927.792721	0.007420
927.972079	0.007106
928.151418	0.006674
928.330739	0.006517
928.510042	0.005800
928.689327	0.005487
928.868593	0.004954
929.047841	0.004224
929.227071	0.003620
929.406283	0.003060
929.585476	0.002994
929.764652	0.003044
929.943809	0.002806
930.122948	0.002083
930.302068	0.001707
930.481171	0.001555
930.660255	0.001698
930.839321	0.001282
931.018369	0.001177
931.197398	0.000610
931.376409	0.000130
931.555402	-0.000007
931.734377	0.000170
931.913334	0.000050
932.092272	0.000104
932.271192	-0.000155
932.450094	0.000008
932.628978	-0.000017
932.807844	0.000309
932.986691	0.000128
933.165520	-0.000529
933.344331	-0.000585
933.523123	-0.000755
933.701898	-0.002064
933.880654	-0.002724
934.059392	-0.002807
934.238111	-0.003159
934.416813	-0.003831
934.595496	-0.003558
934.774161	-0.003522
934.952808	-0.003391
935.131437	-0.003412
935.310047	-0.002812
935.488639	-0.002954
935.667213	-0.003464
935.845769	-0.003596
936.024306	-0.003486
936.202825	-0.003818
936.381326	-0.004067
936.559809	-0.005037
936.738274	-0.005171
936.916720	-0.005123
937.095148	-0.005500
937.273558	-0.005434
937.451950	-0.005139
937.630323	-0.004998
937.808678	-0.005028
937.987015	-0.005175
938.165334	-0.004531
938.343635	-0.005276
938.521917	-0.006111
938.700181	-0.006399
938.878427	-0.005925
939.056655	-0.006810
939.234864	-0.007747
939.413055	-0.008602
939.591228	-0.008338
939.769383	-0.009237
939.947519	-0.009068
940.125638	-0.009446
940.303738	-0.009614
940.481820	-0.010608
940.659883	-0.009757
940.837929	-0.009388
941.015956	-0.009641
941.193965	-0.009899
941.371955	-0.009896
941.549928	-0.010269
941.727882	-0.009767
941.905818	-0.009579
942.083736	-0.009880
942.261636	-0.010954
942.439517	-0.011499
942.617380	-0.011650
942.795225	-0.012755
942.973052	-0.013160
943.150860	-0.013213
943.328651	-0.012939
943.506423	-0.012417
943.684176	-0.011698
943.861912	-0.011916
944.039629	-0.011534
944.217328	-0.011306
944.395009	-0.011219
944.572672	-0.010767
944.750317	-0.010812
944.927943	-0.010666
945.105551	-0.011213
945.283141	-0.011261
945.460712	-0.010850
945.638265	-0.011490
945.815801	-0.012189
945.993317	-0.011873
946.170816	-0.011794
946.348297	-0.012374
946.525759	-0.012634
946.703203	-0.012093
946.880629	-0.012614
947.058036	-0.012979
947.235425	-0.013479
947.412797	-0.013443
947.590149	-0.013759
947.767484	-0.013878
947.944800	-0.012842
948.122099	-0.013120
948.299379	-0.014027
948.476640	-0.013710
948.653884	-0.013168
948.831109	-0.012439
949.008316	-0.011553
949.185505	-0.012275
949.362676	-0.012351
949.539828	-0.012827
949.716962	-0.013090
949.894078	-0.012245
950.071176	-0.013071
950.248256	-0.013401
950.425317	-0.014415
950.602360	-0.014018
950.779385	-0.014461
950.956391	-0.015497
951.133380	-0.016073
951.310350	-0.015810
951.487302	-0.015908
951.664235	-0.014527
951.841151	-0.014500
952.018048	-0.013909
952.194927	-0.015047
952.371788	-0.013857
952.548631	-0.012617
952.725455	-0.011375
952.902261	-0.012499
953.079049	-0.012780
953.255819	-0.012515
953.432570	-0.012809
953.609303	-0.012312
953.786018	-0.012422
953.962715	-0.013448
954.139394	-0.013578
954.316054	-0.014142
954.492696	-0.013046
954.669320	-0.013035
954.845926	-0.012835
955.022513	-0.011768
955.199083	-0.011560
955.375634	-0.010087
955.552166	-0.008447
955.728681	-0.007762
955.905177	-0.008245
956.081655	-0.007254
956.258115	-0.007285
956.434557	-0.007247
956.610980	-0.008241
956.787385	-0.008990
956.963772	-0.009764
957.140141	-0.009290
957.316492	-0.009194
957.492824	-0.007724
957.669138	-0.007581
957.845434	-0.008862
958.021712	-0.009181
958.197971	-0.007927
958.374212	-0.006595
958.550435	-0.005077
958.726640	-0.003642
958.902826	-0.002438
959.078995	-0.003093
959.255145	-0.003927
959.431277	-0.001498
959.607390	-0.001026
959.783486	-0.000456
959.959563	-0.000247
960.135622	0.001010
960.311662	-0.001366
960.487685	-0.002081
960.663689	-0.001000
960.839675	-0.001191
961.015643	-0.000939
961.191593	-0.000778
961.367524	0.000536
961.543437	0.002145
961.719332	0.000110
961.895209	0.002254
962.071067	0.003908
962.246907	0.003757
962.422730	0.005179
962.598533	0.005037
962.774319	0.003885
962.950086	0.001489
963.125835	0.000351
963.301566	0.001165
963.477279	0.001881
963.652973	0.000454
963.828650	-0.000360
964.004308	0.000294
964.179947	0.001334
964.355569	0.003118
964.531172	0.004533
964.706757	0.005950
964.882324	0.005072
965.057873	0.004546
965.233403	0.006588
965.408916	0.008229
965.584410	0.007583
965.759885	0.009090
965.935343	0.008147
966.110782	0.008164
966.286203	0.008241
966.461606	0.010385
966.636991	0.009164
966.812357	0.009319
966.987705	0.009727
967.163035	0.009926
967.338347	0.006956
967.513641	0.007206
967.688916	0.007841
967.864173	0.006772
968.039412	0.006747
968.214632	0.007759
968.389835	0.006009
968.565019	0.006344
968.740185	0.007710
968.915333	0.010366
969.090462	0.010187
969.265573	0.007334
969.440667	0.007396
969.615741	0.006452
969.790798	0.006420
969.965836	0.007427
970.140856	0.003803
970.315858	0.002393
970.490842	0.003435
970.665808	0.004674
970.840755	0.005457
971.015684	0.005415
971.190595	0.004972
971.365487	0.005992
971.540362	0.005843
971.715218	0.010463
971.890056	0.011861
972.064875	0.007533
972.239677	0.007926
972.414460	0.009153
972.589225	0.007919
972.763972	0.010065
972.938700	0.010145
973.113411	0.010572
973.288103	0.009025
973.462777	0.006978
973.637432	0.007882
973.812070	0.005711
973.986689	0.006771
974.161290	0.009112
974.335873	0.007954
974.510437	0.005534
974.684984	0.004786
974.859512	0.004649
975.034022	0.006625
975.208513	0.009006
975.382987	0.010808
975.557442	0.009369
975.731879	0.008170
975.906298	0.007771
976.080698	0.008636
976.255080	0.008036
976.429445	0.007885
976.603790	0.007259
976.778118	0.005722
976.952427	0.004828
977.126719	0.004681
977.300992	0.004287
977.475246	0.003781
977.649483	0.004149
977.823701	0.004014
977.997901	0.005237
978.172083	0.005206
978.346247	0.003985
978.520392	0.006107
978.694519	0.008126
978.868628	0.008109
979.042719	0.007546
979.216791	0.008167
979.390845	0.010720
979.564882	0.009853
979.738899	0.009251
979.912899	0.009968
980.086880	0.008464
980.260843	0.007835
980.434788	0.009684
980.608715	0.009453
980.782623	0.008294
980.956514	0.007039
981.130386	0.008630
981.304240	0.009967
981.478075	0.008225
981.651892	0.007063
981.825692	0.006551
981.999472	0.005446
982.173235	0.006441
982.346980	0.006588
982.520706	0.005492
982.694414	0.002932
982.868104	0.000461
983.041775	0.000976
983.215428	0.000337
983.389064	0.001303
983.562680	0.001493
983.736279	0.000013
983.909860	0.000917
984.083422	-0.000288
984.256966	-0.000372
984.430491	0.002133
984.603999	0.005000
984.777488	0.004621
984.950959	0.003410
985.124412	0.003661
985.297847	0.006496
985.471263	0.005514
985.644661	0.005558
985.818041	0.006814
985.991403	0.005972
986.164747	0.004604
986.338072	0.005180
986.511379	0.004600
986.684668	0.004640
986.857938	0.002994
987.031191	0.002738
987.204425	0.003164
987.377641	0.001427
987.550839	0.002408
987.724018	0.002237
987.897179	0.001227
988.070322	0.000665
988.243447	-0.000495
988.416554	-0.000571
988.589642	0.000989
988.762712	0.000847
988.935764	0.001812
989.108798	0.000492
989.281813	0.000595
989.454811	0.001830
989.627790	0.004510
989.800751	0.005829
989.973693	0.006199
990.146617	0.005019
990.319524	0.005328
990.492412	0.005461
990.665281	0.005981
990.838133	0.004567
991.010966	0.005125
991.183781	0.002565
991.356578	0.001369
991.529356	0.001728
991.702117	0.001149
991.874859	0.003774
992.047583	0.004007
992.220288	0.003326
992.392976	0.004663
992.565645	0.003329
992.738296	0.003817
992.910929	0.004634
993.083543	0.004611
993.256139	0.005660
993.428718	0.004189
993.601277	0.005222
993.773819	0.005710
993.946342	0.005363
994.118848	0.006767
994.291335	0.008083
994.463803	0.006339
994.636254	0.006682
994.808686	0.006975
994.981100	0.006915
995.153496	0.005621
995.325874	0.004155
995.498233	0.003567
995.670574	0.003351
995.842897	0.001302
996.015202	0.002004
996.187488	-0.000869
996.359757	-0.000723
996.532007	-0.002004
996.704239	-0.001969
996.876452	-0.001767
997.048648	0.000330
997.220825	0.001128
997.392984	0.001349
997.565124	0.002449
997.737247	0.003867
997.909351	0.003596
998.081437	0.005880
998.253505	0.005774
998.425554	0.007317
998.597586	0.006359
998.769599	0.005782
998.941594	0.008556
999.113571	0.007379
999.285529	0.007475
999.457469	0.006300
999.629391	0.005788
999.801295	0.005739
999.973181	0.003056
1000.145048	0.002650
1000.316897	0.002003
1000.488728	-0.001152
1000.660541	-0.000645
1000.832335	-0.000632
1001.004111	-0.000483
1001.175869	-0.001483
1001.347609	-0.002259
1001.519331	-0.000877
1001.691034	-0.001708
1001.862719	-0.001614
1002.034386	0.000347
1002.206035	0.000699
1002.377665	0.001299
1002.549277	0.002020
1002.720871	0.002983
1002.892447	0.004492
1003.064004	0.004337
1003.235544	0.004802
1003.407065	0.005312
1003.578568	0.004371
1003.750052	0.002977
1003.921519	0.002135
1004.092967	0.002985
1004.264397	0.001417
1004.435809	0.000711
1004.607202	0.001805
1004.778577	0.001963
1004.949934	0.000259
1005.121273	0.000061
1005.292594	0.000280
1005.463896	0.000146
1005.635180	-0.001510
1005.806446	0.000806
1005.977694	0.000713
1006.148923	0.001757
1006.320135	0.003080
1006.491328	0.004565
1006.662503	0.005352
1006.833659	0.005804
1007.004798	0.005965
1007.175918	0.005031
1007.347020	0.003564
1007.518103	0.002343
1007.689169	0.000524
1007.860216	-0.002618
1008.031245	-0.003375
1008.202256	-0.004368
1008.373248	-0.003979
1008.544223	-0.003252
1008.715179	-0.002175
1008.886117	-0.001977
1009.057036	-0.001499
1009.227938	-0.000232
1009.398821	0.001820
1009.569686	0.002896
1009.740533	0.004423
1009.911361	0.003697
1010.082172	0.003870
1010.252964	0.004396
1010.423738	0.004808
1010.594493	0.005082
1010.765231	0.002821
1010.935950	0.004731
1011.106651	0.004013
1011.277334	0.003072
1011.447998	0.002923
1011.618645	0.001883
1011.789273	0.001662
1011.959882	0.000525
1012.130474	0.000404
1012.301048	0.000638
1012.471603	-0.002253
1012.642140	-0.002580
1012.812658	-0.002751
1012.983159	-0.003249
1013.153641	-0.003348
1013.324105	-0.002909
1013.494551	-0.002078
1013.664979	-0.000635
1013.835388	-0.000670
1014.005779	-0.000284
1014.176152	-0.000042
1014.346507	0.000007
1014.516843	-0.000758
1014.687162	-0.000045
1014.857462	-0.000177
1015.027744	-0.000252
1015.198007	-0.001389
1015.368252	-0.000433
1015.538480	0.000027
1015.708689	-0.000944
1015.878879	-0.001177
1016.049052	-0.000509
1016.219206	-0.001015
1016.389342	-0.001640
1016.559460	-0.002894
1016.729559	-0.003719
1016.899641	-0.005376
1017.069704	-0.005983
1017.239749	-0.004988
1017.409775	-0.004803
1017.579784	-0.001756
1017.749774	-0.001762
1017.919746	-0.001018
1018.089700	-0.001359
1018.259635	-0.001077
1018.429553	0.000584
1018.599452	0.001936
1018.769333	0.002063
1018.939195	0.001822
1019.109040	-0.000434
1019.278866	-0.000488
1019.448674	-0.002007
1019.618464	-0.002008
1019.788235	-0.002868
1019.957989	-0.003499
1020.127724	-0.004178
1020.297441	-0.003343
1020.467139	-0.004118
1020.636820	-0.004205
1020.806482	-0.003314
1020.976126	-0.003331
1021.145752	-0.002808
1021.315359	-0.000499
1021.484948	0.000960
1021.654519	0.000636
1021.824072	-0.000481
1021.993607	0.000408
1022.163123	0.001984
1022.332621	0.002499
1022.502101	0.003811
1022.671563	0.004085
1022.841007	0.002080
1023.010432	-0.000144
1023.179839	-0.001590
1023.349228	-0.002024
1023.518598	-0.002379
1023.687951	-0.005002
1023.857285	-0.006435
1024.026601	-0.007436
1024.195899	-0.008491
1024.365178	-0.007616
1024.534439	-0.007527
1024.703682	-0.007985
1024.872907	-0.008218
1025.042114	-0.008707
1025.211302	-0.007163
1025.380472	-0.006485
1025.549624	-0.006338
1025.718758	-0.005313
1025.887873	-0.005219
1026.056970	-0.003342
1026.226049	-0.000955
1026.395110	-0.000308
1026.564153	0.000062
1026.733177	-0.000762
1026.902183	-0.000772
1027.071171	0.000112
1027.240141	-0.000495
1027.409092	-0.001893
1027.578026	-0.003361
1027.746940	-0.005060
1027.915837	-0.005445
1028.084716	-0.006338
1028.253576	-0.006158
1028.422418	-0.007043
1028.591242	-0.006965
1028.760048	-0.006191
1028.928835	-0.004685
1029.097604	-0.004037
1029.266355	-0.003270
1029.435088	-0.002207
1029.603803	-0.000031
1029.772499	0.000421
1029.941177	0.000364
1030.109837	0.000583
1030.278478	0.000646
1030.447102	0.000182
1030.615707	-0.000480
1030.784294	-0.000397
1030.952863	-0.002270
1031.121413	-0.004341
1031.289945	-0.003977
1031.458460	-0.003152
1031.626955	-0.003790
1031.795433	-0.003644
1031.963892	-0.001582
1032.132334	-0.000830
1032.300756	-0.000736
1032.469161	-0.000593
1032.637548	-0.000058
1032.805916	0.000448
1032.974266	-0.000437
1033.142598	-0.000274
1033.310911	0.000403
1033.479207	-0.001375
1033.647484	-0.001592
1033.815743	-0.001476
1033.983983	0.000892
1034.152206	0.002772
1034.320410	0.000775
1034.488596	0.000556
1034.656764	0.000117
1034.824914	-0.000854
1034.993045	-0.000086
1035.161158	-0.000850
1035.329253	0.000169
1035.497330	-0.000885
1035.665388	-0.002589
1035.833428	-0.002172
1036.001450	-0.000338
1036.169454	-0.001949
1036.337440	-0.002105
1036.505407	-0.003255
1036.673356	-0.003156
1036.841287	-0.004532
1037.009200	-0.004950
1037.177094	-0.004796
1037.344970	-0.001988
1037.512828	-0.003172
1037.680668	-0.001701
1037.848489	-0.002943
1038.016293	-0.003057
1038.184078	-0.003228
1038.351845	-0.002731
1038.519593	-0.002728
1038.687324	-0.002614
1038.855036	-0.005432
1039.022730	-0.004529
1039.190406	-0.002941
1039.358063	-0.000898
1039.525702	-0.000621
1039.693323	0.000517
1039.860926	0.000492
1040.028511	0.000182
1040.196077	0.001204
1040.363625	0.003892
1040.531155	0.001673
1040.698667	0.000497
1040.866161	-0.001249
1041.033636	-0.001590
1041.201093	-0.001154
1041.368532	-0.001516
1041.535952	-0.002080
1041.703355	-0.002148
1041.870739	-0.003561
1042.038105	-0.001771
1042.205452	-0.003113
1042.372782	-0.001421
1042.540093	-0.001142
1042.707386	-0.001920
1042.874661	-0.001053
1043.041918	-0.000204
1043.209156	-0.002210
1043.376376	-0.003174
1043.543578	-0.003385
1043.710762	-0.002758
1043.877927	-0.003159
1044.045074	-0.003442
1044.212203	-0.004396
1044.379314	-0.004709
1044.546407	-0.005860
1044.713481	-0.004520
1044.880537	-0.004835
1045.047575	-0.005206
1045.214595	-0.005264
1045.381596	-0.007084
1045.548579	-0.006351
1045.715544	-0.005247
1045.882491	-0.007433
1046.049420	-0.006483
1046.216330	-0.007598
1046.383222	-0.006921
1046.550096	-0.007417
1046.716951	-0.006595
1046.883789	-0.006366
1047.050608	-0.006898
1047.217409	-0.007003
1047.384192	-0.005991
1047.550956	-0.005628
1047.717703	-0.005414
1047.884431	-0.007718
1048.051140	-0.008038
1048.217832	-0.007101
1048.384505	-0.006893
1048.551161	-0.006639
1048.717798	-0.006890
1048.884416	-0.006537
1049.051017	-0.007387
1049.217599	-0.006719
1049.384163	-0.006125
1049.550709	-0.005518
1049.717237	-0.006578
1049.883746	-0.007594
1050.050237	-0.009079
1050.216710	-0.009097
1050.383165	-0.007684
1050.549601	-0.006403
1050.716019	-0.005569
1050.882420	-0.004670
1051.048801	-0.004533
1051.215165	-0.003345
1051.381510	-0.002513
1051.547837	-0.000890
1051.714146	-0.001636
1051.880437	-0.003658
1052.046709	-0.005407
1052.212964	-0.006552
1052.379200	-0.005061
1052.545417	-0.004927
1052.711617	-0.006132
1052.877798	-0.005627
1053.043961	-0.004082
1053.210106	-0.003780
1053.376233	-0.003132
1053.542341	-0.001168
1053.708432	-0.001498
1053.874504	-0.003114
1054.040557	-0.003138
1054.206593	-0.004087
1054.372610	-0.003029
1054.538609	-0.006207
1054.704590	-0.006279
1054.870553	-0.007073
1055.036497	-0.008800
1055.202424	-0.007044
1055.368331	-0.006076
1055.534221	-0.005594
1055.700093	-0.004344
1055.865946	-0.005072
1056.031781	-0.004482
1056.197598	-0.004018
1056.363397	-0.002127
1056.529177	-0.001092
1056.694939	-0.001286
1056.860683	-0.001106
1057.026409	-0.001508
1057.192116	-0.004009
1057.357806	-0.002859
1057.523477	-0.003503
1057.689130	-0.002599
1057.854764	-0.004480
1058.020381	-0.006125
1058.185979	-0.007387
1058.351559	-0.008655
1058.517120	-0.008266
1058.682664	-0.007331
1058.848189	-0.009321
1059.013696	-0.007831
1059.179185	-0.009233
1059.344656	-0.008068
1059.510108	-0.008486
1059.675542	-0.009310
1059.840958	-0.010243
1060.006356	-0.010656
1060.171735	-0.012193
1060.337096	-0.011566
1060.502439	-0.012558
1060.667764	-0.011739
1060.833071	-0.012069
1060.998359	-0.010434
1061.163629	-0.009357
1061.328881	-0.009679
1061.494115	-0.009902
1061.659330	-0.007836
1061.824527	-0.008881
1061.989706	-0.009310
1062.154867	-0.010012
1062.320010	-0.010670
1062.485134	-0.010200
1062.650240	-0.011883
1062.815328	-0.011697
1062.980398	-0.010740
1063.145449	-0.010464
1063.310482	-0.010266
1063.475497	-0.009838
1063.640494	-0.009596
1063.805473	-0.010210
1063.970433	-0.011855
1064.135375	-0.010988
1064.300299	-0.010320
1064.465204	-0.013245
1064.630092	-0.014002
1064.794961	-0.013688
1064.959812	-0.011891
1065.124645	-0.013253
1065.289459	-0.012783
1065.454256	-0.011454
1065.619034	-0.010889
1065.783793	-0.007800
1065.948535	-0.006481
1066.113258	-0.007090
1066.277964	-0.003992
1066.442651	-0.005919
1066.607319	-0.005154
1066.771970	-0.005933
1066.936602	-0.005535
1067.101216	-0.005967
1067.265812	-0.008372
1067.430389	-0.009451
1067.594949	-0.007953
1067.759490	-0.010938
1067.924013	-0.011078
1068.088518	-0.010002
1068.253004	-0.010182
1068.417472	-0.010075
1068.581922	-0.009535
1068.746354	-0.010672
1068.910768	-0.009732
1069.075163	-0.010853
1069.239540	-0.010877
1069.403899	-0.011195
1069.568240	-0.013429
1069.732562	-0.011503
1069.896866	-0.012458
1070.061152	-0.010465
1070.225420	-0.010718
1070.389670	-0.012013
1070.553901	-0.011335
1070.718114	-0.010620
1070.882309	-0.011026
1071.046486	-0.008786
1071.210644	-0.009334
1071.374784	-0.008334
1071.538906	-0.011526
1071.703010	-0.011093
1071.867096	-0.010180
1072.031163	-0.010754
1072.195212	-0.012646
1072.359243	-0.011109
1072.523256	-0.012548
1072.687250	-0.012658
1072.851226	-0.014738
1073.015184	-0.014057
1073.179124	-0.014940
1073.343045	-0.015580
1073.506949	-0.016125
1073.670834	-0.014537
1073.834701	-0.017134
1073.998549	-0.016239
1074.162380	-0.018059
1074.326192	-0.017250
1074.489986	-0.016417
1074.653761	-0.016087
1074.817519	-0.015104
1074.981258	-0.015211
1075.144979	-0.017531
1075.308682	-0.016649
1075.472367	-0.016983
1075.636033	-0.015319
1075.799681	-0.017078
1075.963311	-0.018156
1076.126923	-0.015844
1076.290516	-0.015540
1076.454092	-0.016128
1076.617649	-0.014944
1076.781187	-0.013932
1076.944708	-0.013927
1077.108210	-0.016086
1077.271695	-0.015468
1077.435160	-0.015396
1077.598608	-0.015604
1077.762038	-0.016540
1077.925449	-0.016366
1078.088842	-0.016411
1078.252217	-0.016823
1078.415573	-0.016686
1078.578912	-0.014375
1078.742232	-0.011987
1078.905534	-0.012661
1079.068817	-0.013851
1079.232083	-0.011706
1079.395330	-0.011261
1079.558559	-0.010451
1079.721770	-0.009023
1079.884962	-0.009030
1080.048136	-0.009529
1080.211293	-0.011660
1080.374430	-0.012923
1080.537550	-0.012531
1080.700651	-0.013190
1080.863735	-0.012608
1081.026800	-0.011323
1081.189846	-0.011780
1081.352875	-0.014022
1081.515885	-0.013717
1081.678877	-0.014034
1081.841851	-0.013541
1082.004807	-0.015569
1082.167744	-0.015294
1082.330663	-0.015925
1082.493564	-0.017429
1082.656447	-0.017989
1082.819312	-0.019140
1082.982158	-0.019653
1083.144986	-0.018332
1083.307796	-0.019541
1083.470587	-0.016474
1083.633361	-0.019578
1083.796116	-0.021521
1083.958853	-0.021034
1084.121571	-0.021593
1084.284272	-0.020336
1084.446954	-0.020611
1084.609618	-0.020305
1084.772264	-0.016358
1084.934892	-0.018036
1085.097501	-0.015858
1085.260092	-0.013710
1085.422665	-0.015023
1085.585220	-0.014887
1085.747756	-0.013465
1085.910274	-0.013072
1086.072774	-0.015615
1086.235256	-0.017266
1086.397720	-0.019061
1086.560165	-0.019242
1086.722592	-0.022850
1086.885001	-0.021531
1087.047392	-0.022222
1087.209764	-0.021899
1087.372119	-0.022626
1087.534455	-0.022526
1087.696772	-0.023333
1087.859072	-0.022882
1088.021353	-0.022355
1088.183616	-0.019971
1088.345861	-0.020342
1088.508088	-0.019217
1088.670296	-0.021309
1088.832486	-0.019895
1088.994658	-0.019195
1089.156812	-0.018579
1089.318948	-0.014726
1089.481065	-0.015402
1089.643164	-0.014139
1089.805245	-0.015704
1089.967308	-0.016493
1090.129352	-0.013236
1090.291378	-0.018450
1090.453386	-0.019942
1090.615376	-0.018718
1090.777347	-0.020542
1090.939301	-0.019745
1091.101236	-0.020190
1091.263153	-0.020812
1091.425051	-0.018812
1091.586932	-0.021782
1091.748794	-0.017154
1091.910638	-0.015388
1092.072463	-0.019373
1092.234271	-0.019416
1092.396060	-0.020916
1092.557831	-0.020344
1092.719584	-0.021181
1092.881319	-0.022229
1093.043035	-0.023057
1093.204733	-0.023849
1093.366413	-0.023928
1093.528075	-0.021782
1093.689718	-0.022934
1093.851343	-0.022372
1094.012950	-0.023464
1094.174539	-0.021272
1094.336110	-0.022269
1094.497662	-0.021268
1094.659196	-0.020952
1094.820712	-0.020308
1094.982210	-0.020801
1095.143689	-0.024629
1095.305151	-0.027578
1095.466594	-0.026199
1095.628018	-0.024629
1095.789425	-0.025415
1095.950813	-0.027062
1096.112183	-0.027697
1096.273535	-0.029111
1096.434869	-0.028537
1096.596184	-0.024971
1096.757482	-0.023300
1096.918761	-0.024054
1097.080021	-0.027006
1097.241264	-0.023692
1097.402488	-0.022624
1097.563694	-0.021963
1097.724882	-0.020897
1097.886052	-0.019981
1098.047203	-0.023393
1098.208336	-0.024371
1098.369451	-0.025354
1098.530548	-0.023066
1098.691627	-0.027646
1098.852687	-0.025676
1099.013729	-0.027331
1099.174753	-0.027145
1099.335758	-0.027575
1099.496746	-0.023564
1099.657715	-0.022466
1099.818666	-0.022453
1099.979599	-0.022343
1100.140513	-0.021594
1100.301409	-0.024292
1100.462287	-0.025944
1100.623147	-0.028999
1100.783989	-0.028921
1100.944812	-0.028000
1101.105617	-0.028514
1101.266404	-0.030649
1101.427173	-0.031311
1101.587923	-0.029293
1101.748656	-0.028212
1101.909370	-0.024511
1102.070066	-0.025284
1102.230743	-0.027443
1102.391403	-0.028551
1102.552044	-0.025545
1102.712667	-0.022308
1102.873271	-0.024213
1103.033858	-0.027284
1103.194426	-0.031068
1103.354976	-0.031343
1103.515508	-0.028148
1103.676021	-0.027621
1103.836517	-0.024142
1103.996994	-0.026897
1104.157453	-0.027442
1104.317893	-0.025272
1104.478316	-0.025462
1104.638720	-0.019767
1104.799106	-0.019747
1104.959474	-0.021676
1105.119823	-0.021826
1105.280155	-0.024102
1105.440468	-0.023645
1105.600763	-0.023894
1105.761039	-0.026871
1105.921298	-0.025737
1106.081538	-0.027341
1106.241760	-0.029481
1106.401964	-0.027685
1106.562149	-0.022431
1106.722316	-0.025259
1106.882465	-0.025261
1107.042596	-0.024845
1107.202709	-0.024932
1107.362803	-0.025290
1107.522879	-0.022995
1107.682937	-0.019804
1107.842977	-0.019951
1108.002999	-0.021754
1108.163002	-0.020695
1108.322987	-0.019399
1108.482954	-0.020629
1108.642902	-0.020152
1108.802833	-0.015845
1108.962745	-0.022562
1109.122639	-0.024270
1109.282515	-0.023599
1109.442372	-0.027889
1109.602211	-0.023980
1109.762032	-0.024047
1109.921835	-0.020777
1110.081620	-0.018850
1110.241386	-0.023951
1110.401134	-0.018730
1110.560864	-0.021607
1110.720576	-0.023793
1110.880269	-0.027125
1111.039945	-0.034539
1111.199602	-0.037660
1111.359240	-0.040670
1111.518861	-0.038719
1111.678463	-0.035509
1111.838047	-0.035393
1111.997613	-0.034728
1112.157161	-0.034717
1112.316690	-0.027280
1112.476202	-0.022317
1112.635695	-0.022960
1112.795169	-0.019416
1112.954626	-0.019902
1113.114064	-0.020968
1113.273484	-0.020739
1113.432886	-0.018271
1113.592270	-0.015959
1113.751635	-0.019270
1113.910983	-0.021621
1114.070312	-0.015437
1114.229622	-0.018900
1114.388915	-0.024118
1114.548189	-0.026418
1114.707445	-0.028755
1114.866683	-0.029651
1115.025903	-0.029243
1115.185104	-0.030933
1115.344287	-0.030848
1115.503452	-0.035174
1115.662599	-0.035064
1115.821727	-0.030750
1115.980838	-0.027646
1116.139930	-0.029297
1116.299004	-0.031148
1116.458059	-0.030221
1116.617097	-0.027552
1116.776116	-0.025416
1116.935117	-0.027515
1117.094099	-0.026219
1117.253064	-0.028282
1117.412010	-0.031877
1117.570938	-0.027935
1117.729848	-0.028810
1117.888740	-0.030051
1118.047613	-0.032474
1118.206468	-0.034141
1118.365305	-0.030127
1118.524124	-0.030619
1118.682924	-0.031583
1118.841707	-0.028300
1119.000471	-0.035293
1119.159216	-0.033209
1119.317944	-0.040242
1119.476653	-0.037971
1119.635344	-0.039226
1119.794017	-0.037204
1119.952672	-0.036855
1120.111308	-0.039021
1120.269927	-0.040276
1120.428527	-0.032272
1120.587108	-0.031235
1120.745672	-0.025361
1120.904217	-0.023990
1121.062744	-0.024870
1121.221253	-0.029490
1121.379744	-0.028438
1121.538216	-0.024528
1121.696671	-0.021802
1121.855107	-0.023840
1122.013524	-0.022047
1122.171924	-0.021001
1122.330305	-0.023713
1122.488668	-0.024270
1122.647013	-0.019448
1122.805340	-0.018837
1122.963648	-0.012442
1123.121938	-0.013166
1123.280210	-0.012642
1123.438464	-0.016281
1123.596700	-0.018106
1123.754917	-0.017088
1123.913116	-0.013067
1124.071297	-0.014332
1124.229459	-0.016812
1124.387604	-0.026228
1124.545730	-0.026076
1124.703838	-0.022925
1124.861928	-0.019762
1125.019999	-0.019397
1125.178052	-0.021259
1125.336088	-0.021610
1125.494104	-0.026653
1125.652103	-0.023006
1125.810083	-0.023979
1125.968045	-0.022805
1126.125989	-0.027649
1126.283915	-0.028936
1126.441823	-0.030104
1126.599712	-0.029698
1126.757583	-0.033960
1126.915436	-0.028911
1127.073270	-0.033225
1127.231087	-0.033580
1127.388885	-0.039870
1127.546665	-0.036861
1127.704426	-0.040324
1127.862170	-0.041224
1128.019895	-0.038889
1128.177602	-0.036434
1128.335291	-0.033262
1128.492961	-0.036132
1128.650614	-0.029478
1128.808248	-0.025038
1128.965864	-0.025891
1129.123461	-0.023010
1129.281041	-0.017583
1129.438602	-0.018167
1129.596145	-0.014665
1129.753670	-0.020724
1129.911176	-0.019062
1130.068665	-0.023855
1130.226135	-0.025515
1130.383587	-0.027222
1130.541020	-0.023846
1130.698436	-0.024773
1130.855833	-0.030832
1131.013212	-0.033321
1131.170573	-0.033586
1131.327915	-0.036808
1131.485239	-0.034569
1131.642545	-0.034276
1131.799833	-0.035244
1131.957103	-0.040051
1132.114354	-0.044032
1132.271588	-0.043034
1132.428803	-0.038829
1132.585999	-0.037793
1132.743178	-0.030627
1132.900338	-0.033247
1133.057480	-0.035839
1133.214604	-0.031789
1133.371710	-0.032290
1133.528797	-0.033681
1133.685866	-0.029074
1133.842917	-0.035668
1133.999950	-0.037890
1134.156964	-0.042132
1134.313960	-0.039211
1134.470938	-0.038970
1134.627898	-0.042011
1134.784840	-0.037812
1134.941763	-0.034720
1135.098668	-0.039350
1135.255555	-0.035361
1135.412424	-0.035105
1135.569274	-0.032594
1135.726107	-0.033044
1135.882921	-0.034737
1136.039716	-0.035226
1136.196494	-0.039986
1136.353253	-0.041996
1136.509995	-0.040307
1136.666717	-0.043225
1136.823422	-0.047150
1136.980109	-0.042448
1137.136777	-0.042579
1137.293427	-0.037941
1137.450059	-0.035920
1137.606672	-0.033528
1137.763267	-0.031743
1137.919844	-0.033166
1138.076403	-0.027886
1138.232944	-0.023541
1138.389466	-0.022225
1138.545971	-0.024994
1138.702457	-0.025487
1138.858924	-0.027913
1139.015374	-0.028369
1139.171805	-0.022041
1139.328218	-0.020535
1139.484613	-0.023560
1139.640990	-0.019833
1139.797348	-0.027785
1139.953688	-0.028449
1140.110010	-0.025342
1140.266314	-0.023925
1140.422600	-0.021588
1140.578867	-0.022362
1140.735116	-0.017477
1140.891347	-0.016576
1141.047559	-0.019095
1141.203754	-0.013461
1141.359930	-0.011992
1141.516088	-0.014767
1141.672228	-0.017366
1141.828349	-0.020081
1141.984452	-0.030208
1142.140537	-0.031201
1142.296604	-0.035109
1142.452653	-0.037073
1142.608683	-0.040224
1142.764695	-0.041454
1142.920689	-0.041747
1143.076665	-0.034453
1143.232622	-0.034153
1143.388562	-0.030247
1143.544483	-0.030161
1143.700385	-0.030613
1143.856270	-0.031422
1144.012136	-0.032087
1144.167985	-0.033107
1144.323814	-0.034085
1144.479626	-0.036459
1144.635420	-0.032547
1144.791195	-0.031163
1144.946952	-0.038412
1145.102691	-0.038113
1145.258411	-0.033307
1145.414113	-0.034884
1145.569798	-0.032614
1145.725463	-0.038377
1145.881111	-0.041865
1146.036741	-0.050444
1146.192352	-0.050924
1146.347945	-0.044227
1146.503519	-0.041907
1146.659076	-0.040436
1146.814614	-0.043518
1146.970134	-0.046335
1147.125636	-0.038834
1147.281120	-0.036161
1147.436585	-0.020983
1147.592032	-0.019058
1147.747461	-0.023478
1147.902872	-0.026341
1148.058265	-0.033770
1148.213639	-0.031182
1148.368995	-0.026497
1148.524333	-0.030784
1148.679653	-0.037877
1148.834954	-0.051603
1148.990237	-0.053107
1149.145502	-0.055640
1149.300749	-0.054311
1149.455977	-0.049948
1149.611188	-0.045737
1149.766380	-0.044767
1149.921553	-0.041453
1150.076709	-0.029840
1150.231846	-0.033523
1150.386966	-0.032633
1150.542066	-0.028981
1150.697149	-0.026633
1150.852214	-0.026580
1151.007260	-0.029255
1151.162288	-0.026004
1151.317298	-0.016489
1151.472289	-0.022191
1151.627263	-0.010288
1151.782218	-0.009615
1151.937155	-0.004444
1152.092073	-0.002084
1152.246974	-0.008380
1152.401856	-0.007989
1152.556720	-0.008021
1152.711566	-0.017030
1152.866393	-0.028304
1153.021203	-0.032150
1153.175994	-0.028202
1153.330767	-0.031765
1153.485521	-0.034635
1153.640258	-0.027846
1153.794976	-0.026133
1153.949676	-0.035229
1154.104358	-0.029747
1154.259021	-0.016046
1154.413667	-0.010520
1154.568294	-0.017376
1154.722903	-0.029429
1154.877493	-0.030794
1155.032066	-0.032848
1155.186620	-0.038609
1155.341156	-0.042959
1155.495674	-0.040517
1155.650173	-0.039865
1155.804654	-0.039011
1155.959118	-0.040049
1156.113562	-0.029151
1156.267989	-0.023718
1156.422397	-0.020344
1156.576788	-0.020252
1156.731160	-0.014977
1156.885513	-0.023250
1157.039849	-0.025546
1157.194166	-0.016490
1157.348465	-0.015284
1157.502746	-0.010478
1157.657009	-0.025275
1157.811253	-0.028430
1157.965479	-0.024247
1158.119687	-0.016400
1158.273877	-0.020018
1158.428048	-0.013848
1158.582201	-0.026597
1158.736337	-0.026902
1158.890453	-0.028688
1159.044552	-0.014189
1159.198632	-0.016054
1159.352694	-0.014413
1159.506738	-0.025018
1159.660764	-0.026021
1159.814771	-0.027899
1159.968761	-0.028467
1160.122732	-0.025272
1160.276685	-0.028363
1160.430619	-0.045330
1160.584535	-0.048735
1160.738434	-0.056264
1160.892313	-0.054233
1161.046175	-0.043966
1161.200019	-0.051280
1161.353844	-0.045373
1161.507651	-0.036864
1161.661440	-0.032194
1161.815210	-0.023917
1161.968962	-0.014804
1162.122697	-0.012904
1162.276412	-0.008711
1162.430110	-0.015752
1162.583789	-0.009938
1162.737451	-0.019861
1162.891094	-0.040879
1163.044718	-0.043843
1163.198325	-0.033905
1163.351913	-0.042613
1163.505483	-0.046833
1163.659035	-0.045471
1163.812569	-0.034133
1163.966084	-0.042302
1164.119581	-0.044157
1164.273060	-0.038627
1164.426521	-0.035441
1164.579964	-0.031821
1164.733388	-0.026538
1164.886794	-0.013931
1165.040182	-0.013917
1165.193551	-0.019391
1165.346903	-0.004870
1165.500236	-0.000642
1165.653551	-0.004577
1165.806848	0.000476
1165.960126	-0.008640
1166.113386	-0.004499
1166.266628	-0.013861
1166.419852	-0.022229
1166.573058	-0.027376
1166.726245	-0.036100
1166.879414	-0.030952
1167.032565	-0.023491
1167.185698	-0.033391
1167.338812	-0.033923
1167.491909	-0.038211
1167.644987	-0.026134
1167.798046	-0.012541
1167.951088	-0.029713
1168.104111	-0.034994
1168.257117	-0.031092
1168.410103	-0.029532
1168.563072	-0.020903
1168.716023	-0.031685
1168.868955	-0.030256
1169.021869	-0.024513
1169.174765	-0.031760
1169.327642	-0.018966
1169.480501	-0.011613
1169.633343	-0.017464
1169.786165	-0.020379
1169.938970	-0.020766
1170.091757	-0.004426
1170.244525	-0.019002
1170.397275	-0.026423
1170.550007	-0.025454
1170.702720	-0.024611
1170.855415	-0.033626
1171.008092	-0.038795
1171.160751	-0.037425
1171.313392	-0.044536
1171.466014	-0.090968
1171.618619	-0.038830
1171.771205	-0.038830
1171.923772	-0.038830
