sample name	sample
index	1020
start time	 04-19-2021  12:03:38 PM


Wavelength (nm)	Absorbance
494.344910	-0.115473
494.563924	-0.115473
494.782919	-0.115473
495.001897	-0.118498
495.220856	-0.058124
495.439797	-0.040603
495.658719	-0.035407
495.877624	-0.034426
496.096510	-0.016051
496.315378	-0.021148
496.534227	-0.015327
496.753059	-0.005444
496.971872	-0.019510
497.190667	0.009736
497.409444	0.021930
497.628203	0.027002
497.846943	0.033274
498.065665	0.033533
498.284369	0.034206
498.503055	0.034262
498.721723	0.032703
498.940372	0.033860
499.159003	0.033277
499.377616	0.033605
499.596210	0.033250
499.814787	0.031133
500.033345	0.030560
500.251885	0.029756
500.470406	0.029419
500.688910	0.029672
500.907395	0.029866
501.125862	0.030745
501.344311	0.029945
501.562742	0.029982
501.781154	0.030457
501.999548	0.030757
502.217924	0.030882
502.436282	0.030838
502.654621	0.032100
502.872942	0.030971
503.091245	0.030952
503.309530	0.031493
503.527797	0.031748
503.746045	0.031303
503.964275	0.031087
504.182487	0.031342
504.400681	0.031761
504.618856	0.031204
504.837013	0.032008
505.055152	0.031866
505.273273	0.031393
505.491376	0.031504
505.709460	0.031908
505.927526	0.031270
506.145574	0.031421
506.363604	0.031449
506.581615	0.030563
506.799608	0.029720
507.017583	0.028822
507.235540	0.029011
507.453478	0.028563
507.671399	0.028600
507.889301	0.029613
508.107185	0.029915
508.325050	0.030030
508.542898	0.030413
508.760727	0.030792
508.978538	0.031361
509.196330	0.031159
509.414105	0.031411
509.631861	0.031863
509.849599	0.031019
510.067319	0.029723
510.285021	0.029248
510.502704	0.029219
510.720369	0.029554
510.938016	0.029726
511.155645	0.029083
511.373255	0.028813
511.590848	0.028618
511.808422	0.028847
512.025977	0.029291
512.243515	0.028943
512.461034	0.029743
512.678536	0.029666
512.896018	0.029051
513.113483	0.029729
513.330930	0.029678
513.548358	0.029879
513.765768	0.029728
513.983160	0.030883
514.200533	0.030482
514.417889	0.029523
514.635226	0.028823
514.852545	0.029211
515.069845	0.029002
515.287128	0.029238
515.504392	0.028730
515.721638	0.028817
515.938866	0.028238
516.156075	0.028799
516.373267	0.030234
516.590440	0.030589
516.807594	0.030674
517.024731	0.030484
517.241850	0.030368
517.458950	0.030502
517.676032	0.030505
517.893095	0.029677
518.110141	0.029503
518.327168	0.028113
518.544177	0.027724
518.761168	0.027781
518.978141	0.028384
519.195095	0.028357
519.412031	0.028015
519.628949	0.027672
519.845849	0.027249
520.062731	0.027555
520.279594	0.027858
520.496439	0.028415
520.713266	0.027796
520.930074	0.027092
521.146865	0.027005
521.363637	0.026520
521.580391	0.026861
521.797127	0.027784
522.013844	0.027376
522.230543	0.027788
522.447224	0.027905
522.663887	0.029092
522.880532	0.030011
523.097158	0.029811
523.313766	0.030810
523.530356	0.030779
523.746928	0.030814
523.963481	0.030822
524.180017	0.030480
524.396534	0.029838
524.613032	0.029364
524.829513	0.029118
525.045975	0.029465
525.262420	0.028968
525.478845	0.029525
525.695253	0.029358
525.911643	0.029459
526.128014	0.029845
526.344367	0.030673
526.560702	0.030757
526.777018	0.030858
526.993316	0.031015
527.209597	0.031244
527.425858	0.030599
527.642102	0.030962
527.858328	0.031124
528.074535	0.031372
528.290724	0.030518
528.506894	0.030229
528.723047	0.029695
528.939181	0.029368
529.155297	0.029790
529.371395	0.030460
529.587475	0.030539
529.803536	0.030628
530.019579	0.030449
530.235604	0.030546
530.451611	0.030248
530.667600	0.030500
530.883570	0.030821
531.099522	0.030807
531.315456	0.030470
531.531372	0.031049
531.747269	0.031322
531.963148	0.030702
532.179009	0.030779
532.394852	0.031620
532.610676	0.031710
532.826482	0.031680
533.042271	0.031228
533.258040	0.031342
533.473792	0.030366
533.689525	0.030085
533.905240	0.030262
534.120937	0.029902
534.336616	0.029981
534.552277	0.029710
534.767919	0.029656
534.983543	0.029923
535.199149	0.030175
535.414736	0.030504
535.630306	0.030271
535.845857	0.030323
536.061390	0.031089
536.276904	0.030408
536.492401	0.030661
536.707879	0.030630
536.923339	0.030527
537.138781	0.030526
537.354204	0.030381
537.569610	0.030382
537.784997	0.030345
538.000366	0.030034
538.215716	0.030285
538.431049	0.030406
538.646363	0.030208
538.861659	0.030113
539.076937	0.029264
539.292196	0.029231
539.507438	0.029157
539.722661	0.029042
539.937866	0.029204
540.153052	0.029116
540.368221	0.028911
540.583371	0.028905
540.798503	0.029100
541.013617	0.029609
541.228712	0.029846
541.443789	0.029582
541.658848	0.029947
541.873889	0.029946
542.088912	0.030032
542.303916	0.029587
542.518902	0.029339
542.733870	0.029261
542.948820	0.029274
543.163752	0.029114
543.378665	0.029515
543.593560	0.028812
543.808437	0.028571
544.023295	0.028742
544.238136	0.028877
544.452958	0.029057
544.667762	0.029281
544.882548	0.028819
545.097315	0.028585
545.312064	0.028490
545.526795	0.029318
545.741508	0.029667
545.956203	0.029548
546.170879	0.029924
546.385537	0.029954
546.600177	0.029813
546.814799	0.030072
547.029402	0.030641
547.243988	0.031274
547.458555	0.030605
547.673103	0.030640
547.887634	0.030722
548.102146	0.030638
548.316640	0.030681
548.531116	0.030485
548.745574	0.030572
548.960013	0.030451
549.174435	0.030143
549.388838	0.030491
549.603222	0.030434
549.817589	0.030428
550.031937	0.030511
550.246267	0.030781
550.460579	0.030706
550.674873	0.031001
550.889148	0.030884
551.103405	0.030656
551.317644	0.030521
551.531865	0.030348
551.746068	0.030386
551.960252	0.030673
552.174418	0.030653
552.388566	0.030931
552.602696	0.030521
552.816807	0.030421
553.030900	0.030311
553.244975	0.030335
553.459032	0.030099
553.673070	0.029640
553.887091	0.029008
554.101093	0.028615
554.315077	0.028439
554.529042	0.028328
554.742990	0.028224
554.956919	0.028495
555.170830	0.028227
555.384722	0.028181
555.598597	0.028080
555.812453	0.028575
556.026291	0.028870
556.240111	0.028651
556.453913	0.028611
556.667696	0.029021
556.881461	0.028801
557.095208	0.029035
557.308937	0.028995
557.522647	0.029170
557.736339	0.028796
557.950013	0.028611
558.163669	0.028520
558.377307	0.028566
558.590926	0.028062
558.804527	0.028301
559.018110	0.028244
559.231675	0.028422
559.445221	0.028445
559.658749	0.028332
559.872259	0.028051
560.085751	0.028076
560.299225	0.028146
560.512680	0.028245
560.726117	0.027742
560.939536	0.027768
561.152937	0.027856
561.366319	0.027791
561.579683	0.027843
561.793029	0.027703
562.006357	0.027788
562.219667	0.027993
562.432958	0.028047
562.646231	0.028411
562.859486	0.028005
563.072723	0.027804
563.285941	0.027768
563.499141	0.027596
563.712323	0.027956
563.925487	0.027659
564.138632	0.027319
564.351760	0.026704
564.564869	0.026476
564.777960	0.026795
564.991032	0.026658
565.204087	0.026814
565.417123	0.026968
565.630141	0.026898
565.843140	0.027368
566.056122	0.027380
566.269085	0.027729
566.482030	0.027714
566.694957	0.027488
566.907866	0.027580
567.120756	0.027429
567.333628	0.027063
567.546482	0.026840
567.759318	0.026456
567.972135	0.026407
568.184935	0.026259
568.397716	0.026349
568.610478	0.026258
568.823223	0.026177
569.035949	0.026137
569.248657	0.026327
569.461347	0.026357
569.674019	0.026255
569.886672	0.026220
570.099308	0.026448
570.311925	0.026361
570.524523	0.026495
570.737104	0.026728
570.949666	0.026532
571.162210	0.026451
571.374736	0.026355
571.587244	0.026641
571.799733	0.026373
572.012205	0.026093
572.224658	0.026022
572.437092	0.025855
572.649509	0.025634
572.861907	0.025652
573.074287	0.025469
573.286649	0.025557
573.498993	0.025529
573.711318	0.025877
573.923625	0.026242
574.135914	0.026260
574.348185	0.026359
574.560438	0.026218
574.772672	0.025986
574.984888	0.026224
575.197086	0.026211
575.409266	0.025997
575.621427	0.026152
575.833570	0.025911
576.045695	0.025881
576.257802	0.025498
576.469890	0.025463
576.681961	0.025626
576.894013	0.025363
577.106046	0.025459
577.318062	0.025664
577.530059	0.025131
577.742039	0.025034
577.954000	0.025123
578.165942	0.025519
578.377867	0.025859
578.589773	0.026090
578.801661	0.026291
579.013531	0.026543
579.225382	0.026465
579.437216	0.027053
579.649031	0.027233
579.860828	0.027216
580.072606	0.027354
580.284367	0.027150
580.496109	0.026842
580.707833	0.026847
580.919539	0.026542
581.131227	0.026374
581.342896	0.025963
581.554547	0.025590
581.766180	0.025280
581.977795	0.024990
582.189391	0.024785
582.400969	0.024650
582.612529	0.024796
582.824071	0.024785
583.035595	0.024727
583.247100	0.024918
583.458587	0.025058
583.670056	0.025261
583.881506	0.025595
584.092939	0.025805
584.304353	0.026001
584.515749	0.025985
584.727127	0.025926
584.938486	0.025864
585.149828	0.025654
585.361151	0.025607
585.572456	0.025656
585.783742	0.025318
585.995011	0.025324
586.206261	0.025318
586.417493	0.025061
586.628706	0.024980
586.839902	0.025367
587.051079	0.025276
587.262238	0.025475
587.473379	0.025335
587.684502	0.025498
587.895606	0.025320
588.106692	0.025425
588.317760	0.025621
588.528810	0.025839
588.739841	0.025540
588.950855	0.025415
589.161850	0.025343
589.372827	0.025563
589.583785	0.025450
589.794726	0.025618
590.005648	0.025382
590.216552	0.025090
590.427437	0.024860
590.638305	0.024944
590.849154	0.025212
591.059985	0.025302
591.270798	0.024931
591.481592	0.025141
591.692369	0.025094
591.903127	0.025382
592.113867	0.025734
592.324588	0.025773
592.535292	0.025588
592.745977	0.025401
592.956644	0.025494
593.167293	0.025832
593.377923	0.025705
593.588536	0.025909
593.799130	0.025814
594.009706	0.025889
594.220263	0.026049
594.430803	0.026447
594.641324	0.026638
594.851827	0.026753
595.062312	0.026604
595.272778	0.026744
595.483227	0.026814
595.693657	0.026870
595.904069	0.026908
596.114462	0.027007
596.324838	0.026955
596.535195	0.026921
596.745534	0.026881
596.955855	0.026708
597.166157	0.026582
597.376441	0.026586
597.586707	0.026691
597.796955	0.026376
598.007185	0.026620
598.217396	0.026438
598.427589	0.026555
598.637764	0.026921
598.847921	0.027504
599.058060	0.027734
599.268180	0.027729
599.478282	0.027694
599.688366	0.027842
599.898431	0.027355
600.108479	0.027594
600.318508	0.027481
600.528519	0.026987
600.738511	0.026756
600.948486	0.026741
601.158442	0.026461
601.368380	0.026436
601.578300	0.026390
601.788202	0.026620
601.998085	0.026575
602.207950	0.026622
602.417797	0.026803
602.627626	0.026797
602.837436	0.026841
603.047228	0.026713
603.257002	0.026768
603.466758	0.026772
603.676496	0.027037
603.886215	0.026984
604.095916	0.026799
604.305599	0.026678
604.515264	0.026553
604.724910	0.026486
604.934538	0.026620
605.144148	0.026288
605.353740	0.026451
605.563314	0.026356
605.772869	0.026297
605.982406	0.026583
606.191925	0.026703
606.401425	0.026828
606.610908	0.026804
606.820372	0.026889
607.029818	0.027145
607.239246	0.027013
607.448655	0.026768
607.658047	0.026886
607.867420	0.027032
608.076775	0.026775
608.286111	0.026735
608.495430	0.026590
608.704730	0.026502
608.914012	0.026380
609.123275	0.026459
609.332521	0.026699
609.541748	0.026622
609.750957	0.026493
609.960148	0.026758
610.169321	0.026779
610.378475	0.026866
610.587611	0.026570
610.796729	0.026543
611.005829	0.026390
611.214910	0.026033
611.423974	0.026053
611.633019	0.026039
611.842045	0.025565
612.051054	0.025511
612.260044	0.025348
612.469017	0.025750
612.677970	0.025792
612.886906	0.025993
613.095824	0.026018
613.304723	0.026023
613.513604	0.025857
613.722467	0.025989
613.931311	0.025955
614.140138	0.026109
614.348946	0.026040
614.557736	0.026147
614.766507	0.026215
614.975261	0.026315
615.183996	0.026583
615.392713	0.026888
615.601412	0.027238
615.810092	0.027162
616.018754	0.027028
616.227399	0.026928
616.436024	0.026944
616.644632	0.026803
616.853222	0.026746
617.061793	0.026494
617.270346	0.026144
617.478880	0.025837
617.687397	0.026032
617.895895	0.026406
618.104375	0.026464
618.312837	0.026359
618.521281	0.026411
618.729706	0.026585
618.938113	0.026711
619.146502	0.026913
619.354873	0.027116
619.563226	0.027069
619.771560	0.026908
619.979876	0.026784
620.188174	0.027066
620.396453	0.027138
620.604715	0.026937
620.812958	0.027029
621.021183	0.027125
621.229390	0.027130
621.437578	0.027118
621.645748	0.026984
621.853900	0.027306
622.062034	0.027300
622.270150	0.027285
622.478247	0.027420
622.686326	0.027497
622.894387	0.027466
623.102430	0.027591
623.310454	0.027771
623.518461	0.028059
623.726449	0.027979
623.934418	0.027762
624.142370	0.027666
624.350303	0.027579
624.558218	0.027331
624.766115	0.027248
624.973994	0.027072
625.181855	0.026923
625.389697	0.026624
625.597521	0.026642
625.805327	0.026500
626.013114	0.026482
626.220883	0.026671
626.428634	0.026593
626.636367	0.026355
626.844082	0.026255
627.051778	0.026350
627.259457	0.026384
627.467117	0.026243
627.674758	0.026507
627.882382	0.026650
628.089987	0.026715
628.297574	0.026861
628.505143	0.027386
628.712694	0.027501
628.920226	0.027541
629.127740	0.027728
629.335236	0.027983
629.542714	0.028188
629.750174	0.028249
629.957615	0.028289
630.165038	0.028350
630.372443	0.028376
630.579829	0.028475
630.787198	0.028508
630.994548	0.028455
631.201880	0.028415
631.409194	0.028309
631.616489	0.028187
631.823766	0.028165
632.031025	0.028105
632.238266	0.027946
632.445489	0.027785
632.652693	0.027648
632.859879	0.027690
633.067047	0.027755
633.274197	0.027499
633.481329	0.027713
633.688442	0.027657
633.895537	0.027642
634.102614	0.027547
634.309672	0.027757
634.516713	0.027548
634.723735	0.027675
634.930739	0.027835
635.137724	0.028313
635.344692	0.028300
635.551641	0.028477
635.758572	0.028620
635.965485	0.028904
636.172379	0.028950
636.379256	0.029319
636.586114	0.029363
636.792954	0.029273
636.999775	0.028940
637.206579	0.028873
637.413364	0.028891
637.620131	0.028636
637.826880	0.028413
638.033610	0.028603
638.240323	0.028489
638.447017	0.028342
638.653692	0.028406
638.860350	0.028540
639.066990	0.028634
639.273611	0.028591
639.480214	0.028850
639.686798	0.028918
639.893365	0.028706
640.099913	0.028930
640.306443	0.029013
640.512955	0.029100
640.719449	0.029212
640.925924	0.029085
641.132381	0.029070
641.338820	0.029144
641.545241	0.029231
641.751644	0.029260
641.958028	0.028939
642.164394	0.029105
642.370742	0.028824
642.577071	0.028730
642.783383	0.029023
642.989676	0.029221
643.195951	0.029234
643.402207	0.029275
643.608446	0.029202
643.814666	0.029523
644.020868	0.029216
644.227052	0.029394
644.433218	0.029505
644.639365	0.029328
644.845494	0.029196
645.051605	0.029357
645.257698	0.029283
645.463772	0.029540
645.669828	0.029619
645.875866	0.029759
646.081886	0.029811
646.287888	0.029927
646.493871	0.029949
646.699836	0.030070
646.905783	0.029799
647.111712	0.029953
647.317622	0.029966
647.523514	0.029859
647.729388	0.029983
647.935244	0.030118
648.141082	0.030175
648.346901	0.030171
648.552702	0.030138
648.758485	0.030430
648.964250	0.030293
649.169996	0.030327
649.375724	0.030408
649.581434	0.030511
649.787126	0.030449
649.992800	0.030483
650.198455	0.030677
650.404092	0.030702
650.609711	0.030689
650.815311	0.030821
651.020894	0.030850
651.226458	0.030948
651.432004	0.030889
651.637532	0.030904
651.843041	0.030802
652.048532	0.030847
652.254006	0.030733
652.459460	0.030614
652.664897	0.030687
652.870315	0.030717
653.075716	0.030687
653.281097	0.030877
653.486461	0.031003
653.691807	0.030885
653.897134	0.030624
654.102443	0.030821
654.307734	0.030918
654.513006	0.030912
654.718261	0.030889
654.923497	0.031027
655.128715	0.030967
655.333915	0.030898
655.539096	0.031126
655.744259	0.031563
655.949404	0.031536
656.154531	0.031756
656.359640	0.031879
656.564730	0.031979
656.769802	0.031995
656.974856	0.032053
657.179892	0.032310
657.384909	0.032338
657.589908	0.032292
657.794889	0.032714
657.999852	0.032618
658.204797	0.032607
658.409723	0.032762
658.614631	0.032771
658.819521	0.032938
659.024393	0.032844
659.229246	0.032922
659.434081	0.032905
659.638898	0.032771
659.843697	0.032900
660.048478	0.033047
660.253240	0.033060
660.457984	0.033088
660.662710	0.032916
660.867417	0.033118
661.072107	0.033084
661.276778	0.033037
661.481431	0.032893
661.686066	0.032730
661.890682	0.032763
662.095281	0.032766
662.299861	0.032567
662.504422	0.032704
662.708966	0.032500
662.913491	0.032561
663.117999	0.032562
663.322488	0.032484
663.526958	0.032550
663.731411	0.032296
663.935845	0.032135
664.140261	0.032251
664.344659	0.032303
664.549038	0.032210
664.753400	0.032313
664.957743	0.032325
665.162068	0.032511
665.366375	0.032503
665.570663	0.032606
665.774933	0.032623
665.979185	0.032826
666.183419	0.032750
666.387635	0.032869
666.591832	0.032891
666.796011	0.032992
667.000172	0.033039
667.204315	0.033154
667.408439	0.033499
667.612545	0.033625
667.816634	0.033608
668.020703	0.033668
668.224755	0.033839
668.428788	0.033668
668.632803	0.033676
668.836800	0.033656
669.040779	0.033869
669.244739	0.033625
669.448681	0.033699
669.652605	0.033757
669.856511	0.033902
670.060399	0.033835
670.264268	0.033959
670.468119	0.033937
670.671952	0.034023
670.875767	0.033729
671.079563	0.033764
671.283341	0.033565
671.487101	0.033460
671.690843	0.033298
671.894567	0.033375
672.098272	0.033435
672.301959	0.033649
672.505628	0.033668
672.709278	0.033736
672.912911	0.033822
673.116525	0.033906
673.320121	0.033876
673.523699	0.033841
673.727258	0.033794
673.930799	0.033788
674.134322	0.033696
674.337827	0.033519
674.541314	0.033514
674.744782	0.033422
674.948232	0.033503
675.151664	0.033494
675.355078	0.033547
675.558474	0.033559
675.761851	0.033654
675.965210	0.033533
676.168551	0.033646
676.371873	0.033733
676.575178	0.033690
676.778464	0.033679
676.981732	0.033671
677.184981	0.033440
677.388213	0.033418
677.591426	0.033216
677.794621	0.033291
677.997798	0.033106
678.200956	0.033162
678.404097	0.033258
678.607219	0.033202
678.810323	0.033350
679.013408	0.033617
679.216476	0.033563
679.419525	0.033676
679.622556	0.033729
679.825569	0.033895
680.028563	0.033658
680.231540	0.033603
680.434498	0.033679
680.637438	0.033626
680.840359	0.033575
681.043263	0.033585
681.246148	0.033631
681.449015	0.033649
681.651864	0.033647
681.854694	0.033931
682.057506	0.034025
682.260301	0.034204
682.463076	0.034208
682.665834	0.034316
682.868573	0.034403
683.071295	0.034488
683.273998	0.034569
683.476682	0.034740
683.679349	0.034815
683.881997	0.034769
684.084627	0.034645
684.287239	0.034752
684.489833	0.034882
684.692408	0.035022
684.894965	0.034931
685.097504	0.034920
685.300025	0.035034
685.502527	0.034952
685.705012	0.035083
685.907478	0.035230
686.109925	0.035410
686.312355	0.035393
686.514766	0.035509
686.717159	0.035605
686.919534	0.035605
687.121891	0.035477
687.324230	0.035298
687.526550	0.035284
687.728852	0.035253
687.931136	0.035017
688.133401	0.034929
688.335649	0.034655
688.537878	0.034552
688.740089	0.034516
688.942281	0.034382
689.144456	0.034409
689.346612	0.034210
689.548750	0.034006
689.750870	0.033957
689.952971	0.033788
690.155055	0.033687
690.357120	0.033580
690.559167	0.033519
690.761195	0.033619
690.963206	0.033536
691.165198	0.033496
691.367172	0.033640
691.569128	0.033712
691.771065	0.033789
691.972984	0.033669
692.174885	0.033662
692.376768	0.033720
692.578633	0.033678
692.780479	0.033769
692.982308	0.033796
693.184118	0.033809
693.385909	0.033841
693.587683	0.033863
693.789438	0.034191
693.991175	0.034257
694.192894	0.034260
694.394595	0.034259
694.596277	0.034374
694.797941	0.034478
694.999587	0.034369
695.201215	0.034268
695.402824	0.034325
695.604416	0.034275
695.805989	0.034379
696.007543	0.034287
696.209080	0.034380
696.410598	0.034282
696.612099	0.034418
696.813580	0.034484
697.015044	0.034526
697.216490	0.034428
697.417917	0.034451
697.619326	0.034378
697.820717	0.034436
698.022089	0.034356
698.223444	0.034398
698.424780	0.034391
698.626098	0.034412
698.827397	0.034544
699.028679	0.034789
699.229942	0.034831
699.431187	0.034964
699.632414	0.034948
699.833622	0.035023
700.034813	0.035150
700.235985	0.035313
700.437139	0.035387
700.638274	0.035233
700.839392	0.035136
701.040491	0.035206
701.241572	0.035231
701.442635	0.035269
701.643679	0.035256
701.844706	0.035237
702.045714	0.035177
702.246704	0.035157
702.447675	0.035398
702.648629	0.035567
702.849564	0.035594
703.050481	0.035577
703.251380	0.035628
703.452260	0.035682
703.653122	0.035742
703.853966	0.035599
704.054792	0.035581
704.255600	0.035545
704.456389	0.035498
704.657160	0.035378
704.857913	0.035228
705.058648	0.035254
705.259365	0.035238
705.460063	0.035260
705.660743	0.035398
705.861405	0.035537
706.062048	0.035633
706.262674	0.035574
706.463281	0.035590
706.663870	0.035768
706.864441	0.035830
707.064993	0.035783
707.265527	0.035805
707.466043	0.035820
707.666541	0.035797
707.867021	0.035779
708.067482	0.035744
708.267925	0.035760
708.468350	0.035854
708.668757	0.035868
708.869145	0.035862
709.069516	0.035768
709.269868	0.035717
709.470201	0.035536
709.670517	0.035423
709.870814	0.035491
710.071093	0.035554
710.271354	0.035426
710.471597	0.035418
710.671821	0.035476
710.872028	0.035505
711.072216	0.035438
711.272385	0.035656
711.472537	0.035596
711.672670	0.035357
711.872785	0.035347
712.072882	0.035394
712.272961	0.035288
712.473021	0.035400
712.673063	0.035360
712.873087	0.035371
713.073093	0.035241
713.273081	0.035238
713.473050	0.035363
713.673001	0.035318
713.872934	0.035300
714.072849	0.035220
714.272745	0.035122
714.472623	0.035090
714.672483	0.034959
714.872325	0.034855
715.072148	0.034791
715.271954	0.034915
715.471741	0.034961
715.671509	0.034940
715.871260	0.035099
716.070992	0.035004
716.270707	0.035131
716.470403	0.035362
716.670080	0.035394
716.869740	0.035494
717.069381	0.035406
717.269004	0.035255
717.468609	0.035297
717.668195	0.035145
717.867764	0.035190
718.067314	0.035024
718.266846	0.034823
718.466360	0.034786
718.665855	0.034540
718.865332	0.034347
719.064791	0.034222
719.264232	0.033997
719.463655	0.033951
719.663059	0.033873
719.862445	0.033836
720.061813	0.033681
720.261163	0.033764
720.460494	0.034107
720.659807	0.034302
720.859102	0.034396
721.058379	0.034283
721.257638	0.034278
721.456878	0.034215
721.656100	0.034075
721.855304	0.034119
722.054490	0.033885
722.253657	0.033405
722.452806	0.033120
722.651937	0.032879
722.851050	0.032848
723.050145	0.032715
723.249221	0.032463
723.448279	0.032269
723.647319	0.032182
723.846340	0.031941
724.045344	0.031848
724.244329	0.031671
724.443296	0.031573
724.642245	0.031468
724.841175	0.031409
725.040088	0.031528
725.238982	0.031595
725.437857	0.031691
725.636715	0.031859
725.835554	0.032038
726.034376	0.032352
726.233179	0.032430
726.431963	0.032483
726.630730	0.032374
726.829478	0.032306
727.028208	0.032317
727.226920	0.032172
727.425614	0.032286
727.624289	0.032178
727.822946	0.032006
728.021585	0.032114
728.220206	0.032125
728.418808	0.032292
728.617392	0.032252
728.815958	0.032438
729.014506	0.032531
729.213036	0.032491
729.411547	0.032703
729.610040	0.032791
729.808515	0.032718
730.006972	0.032786
730.205410	0.032683
730.403831	0.032659
730.602233	0.032493
730.800616	0.032270
730.998982	0.032046
731.197329	0.031912
731.395658	0.032015
731.593969	0.032017
731.792262	0.032053
731.990536	0.032068
732.188793	0.032296
732.387031	0.032334
732.585250	0.032530
732.783452	0.032536
732.981635	0.032412
733.179800	0.032266
733.377947	0.032144
733.576076	0.032046
733.774186	0.031998
733.972278	0.031731
734.170352	0.031557
734.368408	0.031419
734.566446	0.031472
734.764465	0.031443
734.962466	0.031302
735.160449	0.031341
735.358413	0.031239
735.556360	0.031244
735.754288	0.031451
735.952198	0.031573
736.150090	0.031537
736.347963	0.031600
736.545818	0.031695
736.743655	0.031839
736.941474	0.031947
737.139275	0.032048
737.337057	0.032363
737.534821	0.032316
737.732567	0.032360
737.930295	0.032571
738.128005	0.032568
738.325696	0.032651
738.523369	0.032613
738.721024	0.032475
738.918660	0.032673
739.116279	0.032564
739.313879	0.032580
739.511461	0.032682
739.709024	0.032556
739.906570	0.032644
740.104097	0.032555
740.301606	0.032518
740.499097	0.032663
740.696569	0.032538
740.894024	0.032585
741.091460	0.032543
741.288878	0.032507
741.486277	0.032698
741.683659	0.032799
741.881022	0.032912
742.078367	0.033015
742.275694	0.033052
742.473002	0.033109
742.670293	0.032884
742.867565	0.032976
743.064819	0.032989
743.262054	0.032897
743.459272	0.032887
743.656471	0.032863
743.853652	0.032884
744.050815	0.032922
744.247959	0.032774
744.445085	0.032722
744.642194	0.032806
744.839283	0.032891
745.036355	0.032778
745.233408	0.032667
745.430444	0.032656
745.627461	0.032786
745.824459	0.032647
746.021440	0.032672
746.218402	0.032818
746.415346	0.032485
746.612272	0.032432
746.809180	0.032508
747.006069	0.032367
747.202940	0.032348
747.399793	0.032083
747.596628	0.031973
747.793444	0.031930
747.990243	0.031887
748.187023	0.031961
748.383784	0.031594
748.580528	0.031499
748.777253	0.031493
748.973960	0.031296
749.170649	0.031343
749.367320	0.031271
749.563973	0.031080
749.760607	0.030966
749.957223	0.030771
750.153821	0.030693
750.350400	0.030523
750.546962	0.030331
750.743505	0.030150
750.940030	0.029872
751.136536	0.029856
751.333025	0.029860
751.529495	0.029781
751.725947	0.029835
751.922381	0.029901
752.118796	0.029916
752.315194	0.029791
752.511573	0.030044
752.707934	0.030209
752.904276	0.030345
753.100601	0.030547
753.296907	0.030510
753.493195	0.030482
753.689465	0.030666
753.885716	0.030689
754.081949	0.030886
754.278164	0.030906
754.474361	0.030993
754.670540	0.030963
754.866700	0.030924
755.062843	0.031168
755.258967	0.031235
755.455072	0.031242
755.651160	0.031259
755.847229	0.031362
756.043280	0.031441
756.239313	0.031158
756.435328	0.031237
756.631324	0.031273
756.827302	0.031056
757.023262	0.030981
757.219204	0.030932
757.415127	0.030871
757.611033	0.030841
757.806920	0.030589
758.002788	0.030692
758.198639	0.030558
758.394471	0.030231
758.590286	0.030138
758.786081	0.029981
758.981859	0.029789
759.177619	0.029598
759.373360	0.029367
759.569083	0.029135
759.764788	0.029137
759.960474	0.029037
760.156143	0.029016
760.351793	0.028970
760.547425	0.028933
760.743038	0.028943
760.938634	0.029014
761.134211	0.028978
761.329770	0.029237
761.525311	0.029063
761.720833	0.028898
761.916338	0.028907
762.111824	0.028958
762.307292	0.029102
762.502741	0.028985
762.698173	0.029028
762.893586	0.028904
763.088981	0.028762
763.284358	0.028701
763.479716	0.028667
763.675057	0.028708
763.870379	0.028575
764.065683	0.028370
764.260968	0.028343
764.456236	0.028270
764.651485	0.028380
764.846716	0.028399
765.041929	0.028372
765.237123	0.028358
765.432299	0.028407
765.627457	0.028572
765.822597	0.028759
766.017719	0.028837
766.212822	0.028990
766.407907	0.029020
766.602974	0.029043
766.798023	0.029237
766.993054	0.029456
767.188066	0.029317
767.383060	0.029205
767.578036	0.029056
767.772993	0.029211
767.967933	0.029099
768.162854	0.029155
768.357757	0.029134
768.552642	0.028904
768.747508	0.028654
768.942356	0.028745
769.137186	0.028734
769.331998	0.028610
769.526792	0.028374
769.721567	0.028393
769.916324	0.028305
770.111063	0.028147
770.305784	0.028149
770.500486	0.028383
770.695171	0.028341
770.889837	0.028328
771.084484	0.028475
771.279114	0.028510
771.473725	0.028451
771.668318	0.028452
771.862893	0.028539
772.057450	0.028543
772.251988	0.028433
772.446509	0.028327
772.641011	0.028300
772.835494	0.028354
773.029960	0.028455
773.224407	0.028493
773.418836	0.028597
773.613247	0.028694
773.807640	0.028661
774.002014	0.028877
774.196370	0.029090
774.390708	0.029230
774.585028	0.029278
774.779330	0.029263
774.973613	0.029157
775.167878	0.029119
775.362125	0.029178
775.556354	0.029355
775.750564	0.029305
775.944756	0.029284
776.138930	0.029312
776.333086	0.029371
776.527223	0.029415
776.721343	0.029585
776.915444	0.029561
777.109526	0.029407
777.303591	0.029356
777.497637	0.029239
777.691666	0.029231
777.885676	0.029216
778.079667	0.029195
778.273641	0.029091
778.467596	0.029088
778.661533	0.029135
778.855452	0.029119
779.049352	0.029146
779.243235	0.029212
779.437099	0.029337
779.630945	0.029327
779.824773	0.029286
780.018582	0.029511
780.212373	0.029658
780.406146	0.029985
780.599901	0.030376
780.793638	0.030541
780.987356	0.030708
781.181056	0.030593
781.374738	0.030735
781.568402	0.030957
781.762047	0.030953
781.955674	0.031066
782.149283	0.030929
782.342874	0.030984
782.536447	0.031192
782.730001	0.031147
782.923537	0.031223
783.117055	0.031186
783.310555	0.031227
783.504036	0.031164
783.697499	0.031053
783.890944	0.031063
784.084371	0.030718
784.277780	0.030434
784.471170	0.030602
784.664542	0.030583
784.857896	0.030568
785.051231	0.030370
785.244549	0.030380
785.437848	0.030243
785.631129	0.030099
785.824392	0.029943
786.017636	0.029846
786.210863	0.029413
786.404071	0.029414
786.597260	0.029252
786.790432	0.029119
786.983585	0.029204
787.176721	0.029008
787.369838	0.028961
787.562936	0.029177
787.756017	0.029355
787.949079	0.029461
788.142123	0.029252
788.335149	0.029312
788.528156	0.029388
788.721146	0.029298
788.914117	0.029451
789.107070	0.029314
789.300005	0.029369
789.492921	0.029334
789.685819	0.029393
789.878699	0.029219
790.071561	0.029123
790.264405	0.029254
790.457230	0.029098
790.650037	0.029161
790.842826	0.029104
791.035597	0.028977
791.228349	0.028795
791.421084	0.028904
791.613800	0.029069
791.806497	0.029182
791.999177	0.028973
792.191838	0.028945
792.384481	0.028999
792.577106	0.029257
792.769713	0.029513
792.962301	0.029603
793.154871	0.029577
793.347423	0.029808
793.539957	0.029697
793.732473	0.029741
793.924970	0.030015
794.117449	0.029980
794.309910	0.029976
794.502353	0.029815
794.694777	0.029929
794.887183	0.029899
795.079571	0.029800
795.271941	0.029873
795.464293	0.029903
795.656626	0.029676
795.848941	0.029675
796.041238	0.029564
796.233516	0.029622
796.425777	0.029534
796.618019	0.029476
796.810243	0.029361
797.002449	0.029320
797.194636	0.029476
797.386805	0.029565
797.578956	0.029493
797.771089	0.029585
797.963204	0.029567
798.155300	0.029687
798.347378	0.029842
798.539438	0.030079
798.731480	0.030166
798.923503	0.030240
799.115509	0.030539
799.307496	0.030594
799.499465	0.030559
799.691415	0.030512
799.883348	0.030560
800.075262	0.030486
800.267158	0.030433
800.459035	0.030508
800.650895	0.030222
800.842736	0.030113
801.034559	0.030031
801.226364	0.029922
801.418150	0.030046
801.609919	0.029950
801.801669	0.030006
801.993401	0.030205
802.185114	0.030185
802.376810	0.030377
802.568487	0.030336
802.760146	0.030438
802.951787	0.030692
803.143409	0.030736
803.335014	0.030938
803.526600	0.030730
803.718168	0.030481
803.909717	0.030598
804.101249	0.030585
804.292762	0.030562
804.484257	0.030630
804.675734	0.030589
804.867192	0.030649
805.058632	0.030651
805.250054	0.030695
805.441458	0.030785
805.632844	0.030884
805.824211	0.031043
806.015561	0.031311
806.206891	0.031457
806.398204	0.031485
806.589499	0.031370
806.780775	0.031240
806.972033	0.031502
807.163273	0.031618
807.354495	0.031573
807.545698	0.031651
807.736883	0.031459
807.928050	0.031464
808.119199	0.031629
808.310329	0.031735
808.501441	0.031739
808.692535	0.031754
808.883611	0.032090
809.074669	0.032283
809.265708	0.032298
809.456729	0.032484
809.647732	0.032615
809.838717	0.032792
810.029683	0.033022
810.220632	0.033305
810.411562	0.033522
810.602474	0.033388
810.793367	0.033343
810.984242	0.033425
811.175100	0.033428
811.365938	0.033325
811.556759	0.033281
811.747562	0.033074
811.938346	0.033137
812.129112	0.033087
812.319860	0.032952
812.510589	0.032974
812.701300	0.032845
812.891994	0.032968
813.082668	0.033031
813.273325	0.032906
813.463964	0.033031
813.654584	0.032966
813.845186	0.033050
814.035769	0.033137
814.226335	0.033079
814.416882	0.033256
814.607411	0.033118
814.797922	0.033121
814.988415	0.033227
815.178889	0.033138
815.369345	0.033267
815.559783	0.033032
815.750203	0.033100
815.940605	0.033122
816.130988	0.033099
816.321353	0.033149
816.511700	0.033386
816.702028	0.033447
816.892339	0.033897
817.082631	0.034071
817.272905	0.034259
817.463161	0.034341
817.653398	0.034590
817.843617	0.034644
818.033819	0.034736
818.224001	0.034809
818.414166	0.035227
818.604312	0.035148
818.794440	0.035042
818.984550	0.035252
819.174642	0.035437
819.364716	0.035488
819.554771	0.035785
819.744808	0.036028
819.934827	0.036091
820.124827	0.035853
820.314810	0.035889
820.504774	0.036027
820.694720	0.035946
820.884647	0.035991
821.074557	0.035947
821.264448	0.035844
821.454321	0.035859
821.644176	0.035983
821.834012	0.036154
822.023831	0.036116
822.213631	0.036007
822.403413	0.036152
822.593176	0.036073
822.782922	0.036039
822.972649	0.036191
823.162358	0.036259
823.352049	0.035975
823.541721	0.035977
823.731376	0.036100
823.921012	0.036292
824.110629	0.036375
824.300229	0.036542
824.489811	0.036776
824.679374	0.036655
824.868919	0.036592
825.058445	0.036710
825.247954	0.036812
825.437444	0.036880
825.626916	0.037033
825.816370	0.037110
826.005806	0.037014
826.195223	0.037250
826.384622	0.037367
826.574003	0.037578
826.763366	0.037921
826.952711	0.037946
827.142037	0.038077
827.331345	0.037950
827.520635	0.038010
827.709906	0.038289
827.899160	0.038204
828.088395	0.038434
828.277612	0.038354
828.466810	0.038360
828.655991	0.038251
828.845153	0.038346
829.034297	0.038577
829.223423	0.038624
829.412531	0.038518
829.601620	0.038596
829.790691	0.038480
829.979744	0.038583
830.168779	0.038764
830.357795	0.039098
830.546793	0.039130
830.735773	0.039178
830.924735	0.039276
831.113679	0.039738
831.302604	0.039917
831.491511	0.040209
831.680400	0.040309
831.869271	0.040127
832.058123	0.040276
832.246957	0.040451
832.435773	0.040609
832.624571	0.040799
832.813351	0.040701
833.002112	0.040675
833.190855	0.040537
833.379580	0.040697
833.568287	0.040923
833.756975	0.041013
833.945645	0.041152
834.134297	0.040935
834.322931	0.040951
834.511547	0.040797
834.700144	0.040896
834.888723	0.041255
835.077284	0.041414
835.265826	0.041535
835.454351	0.041676
835.642857	0.041474
835.831345	0.041968
836.019815	0.042311
836.208266	0.042855
836.396699	0.042979
836.585114	0.043090
836.773511	0.043078
836.961890	0.043120
837.150250	0.043049
837.338592	0.043662
837.526916	0.043519
837.715222	0.043410
837.903510	0.043209
838.091779	0.043311
838.280030	0.043257
838.468263	0.043301
838.656477	0.043655
838.844674	0.043786
839.032852	0.043722
839.221012	0.043706
839.409153	0.043653
839.597277	0.043626
839.785382	0.043610
839.973469	0.043610
840.161538	0.043877
840.349589	0.043572
840.537621	0.043305
840.725635	0.043201
840.913631	0.043297
841.101609	0.043236
841.289568	0.043471
841.477509	0.043372
841.665432	0.043182
841.853337	0.043076
842.041224	0.043170
842.229092	0.043408
842.416942	0.043521
842.604774	0.043533
842.792588	0.043682
842.980383	0.043644
843.168160	0.043793
843.355919	0.043946
843.543660	0.044046
843.731382	0.044200
843.919087	0.044421
844.106773	0.044258
844.294441	0.044500
844.482090	0.044819
844.669722	0.045102
844.857335	0.045275
845.044930	0.045612
845.232507	0.045828
845.420065	0.046072
845.607605	0.046153
845.795127	0.046472
845.982631	0.046579
846.170117	0.046646
846.357584	0.046546
846.545033	0.046800
846.732464	0.046919
846.919877	0.047013
847.107272	0.047121
847.294648	0.047088
847.482006	0.047163
847.669346	0.047179
847.856667	0.047278
848.043971	0.047299
848.231256	0.047040
848.418523	0.046869
848.605771	0.046888
848.793002	0.046846
848.980214	0.047096
849.167408	0.047003
849.354584	0.047170
849.541742	0.047274
849.728881	0.047312
849.916002	0.047802
850.103105	0.048099
850.290190	0.048305
850.477256	0.048669
850.664304	0.048701
850.851334	0.048977
851.038346	0.048888
851.225340	0.049028
851.412315	0.049375
851.599272	0.049278
851.786211	0.049522
851.973132	0.049455
852.160034	0.049165
852.346918	0.049225
852.533784	0.049148
852.720632	0.049403
852.907462	0.049144
853.094273	0.049273
853.281066	0.049505
853.467841	0.049448
853.654598	0.049434
853.841336	0.049410
854.028056	0.049400
854.214758	0.049482
854.401442	0.049635
854.588107	0.049557
854.774755	0.049343
854.961384	0.049340
855.147995	0.049317
855.334587	0.049427
855.521162	0.049671
855.707718	0.049679
855.894256	0.049883
856.080775	0.049755
856.267277	0.050095
856.453760	0.050306
856.640225	0.050210
856.826672	0.050532
857.013101	0.050794
857.199511	0.050955
857.385903	0.051308
857.572277	0.051533
857.758633	0.051798
857.944970	0.051989
858.131290	0.052315
858.317591	0.052846
858.503873	0.052811
858.690138	0.052947
858.876384	0.053110
859.062612	0.053300
859.248822	0.053236
859.435014	0.053243
859.621188	0.053389
859.807343	0.053364
859.993480	0.053138
860.179599	0.053057
860.365699	0.052853
860.551781	0.052818
860.737846	0.053003
860.923891	0.053310
861.109919	0.053739
861.295929	0.053938
861.481920	0.054023
861.667893	0.054157
861.853848	0.054401
862.039784	0.054737
862.225702	0.054797
862.411603	0.054646
862.597484	0.054765
862.783348	0.054643
862.969193	0.054659
863.155021	0.054897
863.340830	0.054963
863.526620	0.055093
863.712393	0.055011
863.898147	0.055224
864.083883	0.055267
864.269601	0.055013
864.455301	0.055068
864.640982	0.055190
864.826645	0.054731
865.012290	0.054730
865.197917	0.054584
865.383526	0.054795
865.569116	0.054459
865.754688	0.054500
865.940242	0.054670
866.125777	0.054714
866.311295	0.054947
866.496794	0.055306
866.682275	0.055333
866.867737	0.055524
867.053182	0.055291
867.238608	0.055500
867.424016	0.055527
867.609406	0.055800
867.794778	0.055631
867.980131	0.055590
868.165466	0.055662
868.350783	0.055912
868.536082	0.055938
868.721362	0.056403
868.906625	0.056892
869.091869	0.056986
869.277094	0.056733
869.462302	0.056849
869.647491	0.056454
869.832662	0.056436
870.017815	0.056434
870.202950	0.056582
870.388066	0.056261
870.573165	0.056034
870.758245	0.055889
870.943306	0.056091
871.128350	0.056249
871.313375	0.056355
871.498382	0.056541
871.683371	0.056475
871.868342	0.056458
872.053294	0.056455
872.238229	0.056571
872.423144	0.056321
872.608042	0.056083
872.792922	0.056057
872.977783	0.056327
873.162626	0.056213
873.347451	0.056300
873.532258	0.056496
873.717046	0.056879
873.901816	0.056840
874.086568	0.057513
874.271302	0.057788
874.456017	0.057794
874.640715	0.057750
874.825394	0.058073
875.010055	0.058029
875.194697	0.058039
875.379322	0.057900
875.563928	0.057845
875.748516	0.058047
875.933085	0.058072
876.117637	0.058177
876.302170	0.058091
876.486685	0.057958
876.671182	0.058060
876.855661	0.058376
877.040121	0.058221
877.224563	0.058539
877.408987	0.058459
877.593393	0.058369
877.777780	0.058591
877.962150	0.058757
878.146501	0.059194
878.330833	0.059309
878.515148	0.058827
878.699444	0.059150
878.883722	0.058891
879.067982	0.058896
879.252224	0.059275
879.436447	0.059193
879.620653	0.059483
879.804840	0.059222
879.989008	0.059051
880.173159	0.059441
880.357291	0.059319
880.541405	0.059893
880.725501	0.059952
880.909579	0.060024
881.093638	0.059970
881.277680	0.059681
881.461703	0.059971
881.645707	0.060263
881.829694	0.060296
882.013662	0.060502
882.197612	0.060439
882.381544	0.060138
882.565458	0.059993
882.749353	0.060098
882.933230	0.060345
883.117089	0.060002
883.300930	0.060084
883.484753	0.059863
883.668557	0.059817
883.852343	0.059455
884.036111	0.059837
884.219861	0.059762
884.403592	0.059885
884.587305	0.059636
884.771000	0.059722
884.954677	0.059326
885.138335	0.059339
885.321976	0.059487
885.505598	0.059198
885.689201	0.059298
885.872787	0.059500
886.056354	0.059477
886.239904	0.059538
886.423434	0.059583
886.606947	0.060090
886.790442	0.060100
886.973918	0.059800
887.157376	0.060277
887.340816	0.060210
887.524237	0.059766
887.707641	0.059922
887.891026	0.060142
888.074393	0.059917
888.257741	0.059847
888.441072	0.060212
888.624384	0.060589
888.807678	0.060539
888.990954	0.060342
889.174211	0.060850
889.357451	0.060779
889.540672	0.060654
889.723875	0.060689
889.907059	0.060559
890.090226	0.060603
890.273374	0.060462
890.456504	0.060459
890.639616	0.060637
890.822709	0.060493
891.005785	0.060369
891.188842	0.060385
891.371881	0.060421
891.554901	0.060339
891.737904	0.059719
891.920888	0.059611
892.103854	0.059671
892.286802	0.059489
892.469731	0.059103
892.652643	0.058963
892.835536	0.058849
893.018410	0.058808
893.201267	0.058777
893.384106	0.058867
893.566926	0.058720
893.749728	0.058354
893.932511	0.058212
894.115277	0.058348
894.298024	0.058308
894.480753	0.058357
894.663464	0.058237
894.846157	0.058243
895.028831	0.058691
895.211487	0.058759
895.394125	0.058923
895.576745	0.058996
895.759346	0.059061
895.941930	0.058903
896.124495	0.058574
896.307041	0.058627
896.489570	0.058528
896.672080	0.058002
896.854573	0.057678
897.037046	0.057554
897.219502	0.057138
897.401940	0.057007
897.584359	0.056902
897.766760	0.057018
897.949143	0.056891
898.131507	0.056764
898.313854	0.056596
898.496182	0.056694
898.678492	0.056491
898.860783	0.056609
899.043057	0.056672
899.225312	0.056928
899.407549	0.056984
899.589768	0.056744
899.771968	0.056715
899.954151	0.057030
900.136315	0.056863
900.318461	0.057087
900.500588	0.056868
900.682698	0.056530
900.864789	0.056200
901.046862	0.056050
901.228917	0.055596
901.410953	0.055949
901.592971	0.055480
901.774972	0.055826
901.956953	0.055496
902.138917	0.055340
902.320862	0.054960
902.502790	0.054850
902.684699	0.054913
902.866589	0.055404
903.048462	0.055072
903.230316	0.054974
903.412152	0.054823
903.593970	0.054885
903.775770	0.055111
903.957551	0.055695
904.139314	0.055857
904.321059	0.055901
904.502786	0.056033
904.684494	0.056023
904.866185	0.056374
905.047857	0.056498
905.229510	0.056732
905.411146	0.056925
905.592763	0.056649
905.774363	0.056648
905.955943	0.056437
906.137506	0.056339
906.319051	0.056385
906.500577	0.056403
906.682085	0.056005
906.863575	0.056221
907.045046	0.056101
907.226500	0.056434
907.407935	0.056519
907.589352	0.056591
907.770750	0.056670
907.952131	0.056372
908.133493	0.056089
908.314837	0.056107
908.496163	0.055382
908.677470	0.055468
908.858760	0.055090
909.040031	0.054801
909.221284	0.054139
909.402518	0.053752
909.583735	0.053481
909.764933	0.052996
909.946113	0.053056
910.127275	0.053018
910.308418	0.052640
910.489544	0.052365
910.670651	0.051982
910.851740	0.051772
911.032810	0.051338
911.213863	0.051104
911.394897	0.051278
911.575913	0.050655
911.756911	0.050844
911.937890	0.050381
912.118851	0.050157
912.299794	0.050246
912.480719	0.050634
912.661626	0.050703
912.842514	0.050836
913.023384	0.050274
913.204236	0.049992
913.385070	0.049242
913.565886	0.049185
913.746683	0.049169
913.927462	0.049140
914.108223	0.048744
914.288965	0.048824
914.469690	0.048195
914.650396	0.048542
914.831084	0.049036
915.011754	0.049192
915.192405	0.048875
915.373038	0.048918
915.553653	0.048280
915.734250	0.048172
915.914829	0.047580
916.095389	0.048024
916.275931	0.047844
916.456455	0.047366
916.636961	0.046723
916.817448	0.047051
916.997917	0.046461
917.178368	0.046672
917.358801	0.046316
917.539216	0.046466
917.719612	0.045887
917.899990	0.045567
918.080350	0.045454
918.260692	0.045152
918.441015	0.044382
918.621320	0.044653
918.801607	0.044277
918.981876	0.044193
919.162127	0.043836
919.342359	0.043767
919.522573	0.043471
919.702769	0.042772
919.882947	0.043217
920.063106	0.043291
920.243247	0.042678
920.423370	0.042294
920.603475	0.042210
920.783562	0.041796
920.963630	0.041092
921.143680	0.040643
921.323712	0.040569
921.503725	0.040150
921.683721	0.039980
921.863698	0.039544
922.043657	0.039595
922.223598	0.039458
922.403520	0.039361
922.583424	0.039903
922.763311	0.040054
922.943178	0.040161
923.123028	0.040100
923.302859	0.039794
923.482673	0.039449
923.662467	0.038913
923.842244	0.038532
924.022003	0.038468
924.201743	0.037561
924.381465	0.036920
924.561169	0.036726
924.740854	0.036326
924.920522	0.036148
925.100171	0.036185
925.279802	0.036074
925.459414	0.035310
925.639009	0.035277
925.818585	0.035272
925.998143	0.035639
926.177683	0.034859
926.357205	0.034617
926.536708	0.034072
926.716193	0.034084
926.895660	0.034332
927.075109	0.034297
927.254539	0.033479
927.433951	0.033772
927.613345	0.033088
927.792721	0.033302
927.972079	0.032999
928.151418	0.033427
928.330739	0.032940
928.510042	0.032166
928.689327	0.031953
928.868593	0.032144
929.047841	0.031313
929.227071	0.031145
929.406283	0.030669
929.585476	0.029981
929.764652	0.029315
929.943809	0.029098
930.122948	0.028432
930.302068	0.028319
930.481171	0.027580
930.660255	0.027098
930.839321	0.027059
931.018369	0.026616
931.197398	0.026393
931.376409	0.025634
931.555402	0.025152
931.734377	0.025083
931.913334	0.025053
932.092272	0.024974
932.271192	0.025263
932.450094	0.024793
932.628978	0.024499
932.807844	0.024975
932.986691	0.024953
933.165520	0.024762
933.344331	0.024934
933.523123	0.024525
933.701898	0.024205
933.880654	0.023041
934.059392	0.022900
934.238111	0.022497
934.416813	0.021617
934.595496	0.021343
934.774161	0.020684
934.952808	0.020035
935.131437	0.019557
935.310047	0.019338
935.488639	0.019542
935.667213	0.018467
935.845769	0.018299
936.024306	0.017571
936.202825	0.017889
936.381326	0.017587
936.559809	0.016558
936.738274	0.016414
936.916720	0.016563
937.095148	0.016429
937.273558	0.016702
937.451950	0.016484
937.630323	0.016183
937.808678	0.015392
937.987015	0.015131
938.165334	0.015647
938.343635	0.015151
938.521917	0.013763
938.700181	0.012851
938.878427	0.012131
939.056655	0.011670
939.234864	0.012031
939.413055	0.011011
939.591228	0.010702
939.769383	0.009371
939.947519	0.008432
940.125638	0.008827
940.303738	0.008636
940.481820	0.008813
940.659883	0.008926
940.837929	0.008544
941.015956	0.008569
941.193965	0.007975
941.371955	0.009575
941.549928	0.010063
941.727882	0.009163
941.905818	0.009800
942.083736	0.009450
942.261636	0.009278
942.439517	0.008885
942.617380	0.008586
942.795225	0.009407
942.973052	0.008216
943.150860	0.007953
943.328651	0.008097
943.506423	0.007071
943.684176	0.006564
943.861912	0.006089
944.039629	0.006058
944.217328	0.005964
944.395009	0.004241
944.572672	0.003232
944.750317	0.002994
944.927943	0.002432
945.105551	0.002376
945.283141	0.002859
945.460712	0.002458
945.638265	0.001793
945.815801	0.002116
945.993317	0.002871
946.170816	0.003262
946.348297	0.002925
946.525759	0.003532
946.703203	0.003883
946.880629	0.002192
947.058036	0.002120
947.235425	0.001763
947.412797	0.002024
947.590149	0.001919
947.767484	0.001543
947.944800	0.001414
948.122099	0.001423
948.299379	0.000879
948.476640	0.002196
948.653884	0.002587
948.831109	0.003321
949.008316	0.002607
949.185505	0.002722
949.362676	0.003129
949.539828	0.002855
949.716962	0.001963
949.894078	0.003316
950.071176	0.002829
950.248256	0.002282
950.425317	0.002158
950.602360	0.001189
950.779385	0.001104
950.956391	0.001840
951.133380	0.002856
951.310350	0.002821
951.487302	0.000307
951.664235	0.001016
951.841151	0.002379
952.018048	0.001664
952.194927	0.002655
952.371788	0.002492
952.548631	0.001210
952.725455	0.000963
952.902261	0.001254
953.079049	0.002580
953.255819	0.001876
953.432570	-0.000113
953.609303	0.002007
953.786018	0.003790
953.962715	0.004675
954.139394	0.006054
954.316054	0.006265
954.492696	0.007562
954.669320	0.008062
954.845926	0.008120
955.022513	0.009307
955.199083	0.008217
955.375634	0.007807
955.552166	0.007590
955.728681	0.007421
955.905177	0.006694
956.081655	0.005444
956.258115	0.005786
956.434557	0.005719
956.610980	0.006728
956.787385	0.006718
956.963772	0.005398
957.140141	0.004763
957.316492	0.004143
957.492824	0.004120
957.669138	0.005645
957.845434	0.005457
958.021712	0.007339
958.197971	0.007592
958.374212	0.008805
958.550435	0.009390
958.726640	0.011405
958.902826	0.013489
959.078995	0.015330
959.255145	0.016392
959.431277	0.018516
959.607390	0.018387
959.783486	0.018509
959.959563	0.019667
960.135622	0.020615
960.311662	0.020147
960.487685	0.019951
960.663689	0.019156
960.839675	0.018859
961.015643	0.016925
961.191593	0.016482
961.367524	0.016847
961.543437	0.017125
961.719332	0.018668
961.895209	0.017858
962.071067	0.018380
962.246907	0.019777
962.422730	0.018909
962.598533	0.019288
962.774319	0.020429
962.950086	0.020372
963.125835	0.021076
963.301566	0.021992
963.477279	0.025238
963.652973	0.026963
963.828650	0.026768
964.004308	0.029266
964.179947	0.029799
964.355569	0.027747
964.531172	0.028404
964.706757	0.026134
964.882324	0.024107
965.057873	0.023944
965.233403	0.021922
965.408916	0.022883
965.584410	0.021341
965.759885	0.022776
965.935343	0.023041
966.110782	0.023224
966.286203	0.023623
966.461606	0.024435
966.636991	0.025078
966.812357	0.024803
966.987705	0.023368
967.163035	0.024625
967.338347	0.021407
967.513641	0.022627
967.688916	0.022644
967.864173	0.022930
968.039412	0.022554
968.214632	0.019789
968.389835	0.020905
968.565019	0.023084
968.740185	0.021426
968.915333	0.024904
969.090462	0.025975
969.265573	0.025376
969.440667	0.027056
969.615741	0.026384
969.790798	0.027659
969.965836	0.027781
970.140856	0.028669
970.315858	0.030920
970.490842	0.030167
970.665808	0.029340
970.840755	0.029292
971.015684	0.028952
971.190595	0.031220
971.365487	0.032087
971.540362	0.032106
971.715218	0.030714
971.890056	0.029179
972.064875	0.028649
972.239677	0.029065
972.414460	0.029628
972.589225	0.028756
972.763972	0.026995
972.938700	0.027105
973.113411	0.027899
973.288103	0.028181
973.462777	0.029077
973.637432	0.029316
973.812070	0.030349
973.986689	0.031381
974.161290	0.032664
974.335873	0.032321
974.510437	0.032150
974.684984	0.031950
974.859512	0.031356
975.034022	0.030951
975.208513	0.030316
975.382987	0.028725
975.557442	0.027832
975.731879	0.026054
975.906298	0.028049
976.080698	0.028319
976.255080	0.028612
976.429445	0.028685
976.603790	0.028805
976.778118	0.028753
976.952427	0.029227
977.126719	0.029682
977.300992	0.032768
977.475246	0.032270
977.649483	0.031201
977.823701	0.030105
977.997901	0.029319
978.172083	0.030603
978.346247	0.031624
978.520392	0.033969
978.694519	0.033356
978.868628	0.032095
979.042719	0.030974
979.216791	0.033977
979.390845	0.034569
979.564882	0.035714
979.738899	0.035489
979.912899	0.035656
980.086880	0.035093
980.260843	0.034376
980.434788	0.034028
980.608715	0.034927
980.782623	0.031717
980.956514	0.031295
981.130386	0.032070
981.304240	0.030139
981.478075	0.029994
981.651892	0.028988
981.825692	0.029682
981.999472	0.029627
982.173235	0.031081
982.346980	0.030131
982.520706	0.028831
982.694414	0.029164
982.868104	0.029592
983.041775	0.029804
983.215428	0.030139
983.389064	0.030218
983.562680	0.029455
983.736279	0.028431
983.909860	0.030562
984.083422	0.032131
984.256966	0.031204
984.430491	0.031947
984.603999	0.031112
984.777488	0.029550
984.950959	0.030647
985.124412	0.031244
985.297847	0.030191
985.471263	0.029286
985.644661	0.029258
985.818041	0.028377
985.991403	0.028105
986.164747	0.029050
986.338072	0.031101
986.511379	0.029431
986.684668	0.028438
986.857938	0.028595
987.031191	0.028290
987.204425	0.027314
987.377641	0.026914
987.550839	0.026705
987.724018	0.025474
987.897179	0.024299
988.070322	0.025326
988.243447	0.026516
988.416554	0.026400
988.589642	0.026836
988.762712	0.027514
988.935764	0.027572
989.108798	0.027156
989.281813	0.027090
989.454811	0.027079
989.627790	0.027422
989.800751	0.026943
989.973693	0.026596
990.146617	0.025559
990.319524	0.025380
990.492412	0.025969
990.665281	0.025253
990.838133	0.026165
991.010966	0.026001
991.183781	0.025324
991.356578	0.024251
991.529356	0.024580
991.702117	0.025804
991.874859	0.026118
992.047583	0.026260
992.220288	0.027721
992.392976	0.027970
992.565645	0.027360
992.738296	0.026997
992.910929	0.028355
993.083543	0.028098
993.256139	0.028435
993.428718	0.027976
993.601277	0.028764
993.773819	0.028017
993.946342	0.027440
994.118848	0.027469
994.291335	0.026953
994.463803	0.025474
994.636254	0.025509
994.808686	0.024522
994.981100	0.026064
995.153496	0.024475
995.325874	0.024157
995.498233	0.025509
995.670574	0.026773
995.842897	0.027056
996.015202	0.027890
996.187488	0.027453
996.359757	0.029610
996.532007	0.027550
996.704239	0.029107
996.876452	0.030208
997.048648	0.028467
997.220825	0.028499
997.392984	0.028748
997.565124	0.028300
997.737247	0.028022
997.909351	0.025729
998.081437	0.026219
998.253505	0.025222
998.425554	0.023898
998.597586	0.023866
998.769599	0.024300
998.941594	0.024627
999.113571	0.025691
999.285529	0.027690
999.457469	0.029002
999.629391	0.029409
999.801295	0.029221
999.973181	0.028602
1000.145048	0.029213
1000.316897	0.027186
1000.488728	0.027970
1000.660541	0.027243
1000.832335	0.025954
1001.004111	0.025174
1001.175869	0.024226
1001.347609	0.025536
1001.519331	0.028666
1001.691034	0.029431
1001.862719	0.030013
1002.034386	0.028478
1002.206035	0.027832
1002.377665	0.029082
1002.549277	0.028507
1002.720871	0.029567
1002.892447	0.029187
1003.064004	0.027251
1003.235544	0.026607
1003.407065	0.026640
1003.578568	0.027328
1003.750052	0.028076
1003.921519	0.025525
1004.092967	0.026308
1004.264397	0.026958
1004.435809	0.025541
1004.607202	0.026196
1004.778577	0.025446
1004.949934	0.025852
1005.121273	0.025329
1005.292594	0.024853
1005.463896	0.026746
1005.635180	0.025563
1005.806446	0.023112
1005.977694	0.022973
1006.148923	0.022227
1006.320135	0.022493
1006.491328	0.021666
1006.662503	0.020777
1006.833659	0.020914
1007.004798	0.019988
1007.175918	0.021855
1007.347020	0.023021
1007.518103	0.023476
1007.689169	0.023537
1007.860216	0.023348
1008.031245	0.024103
1008.202256	0.026120
1008.373248	0.026121
1008.544223	0.025635
1008.715179	0.024880
1008.886117	0.024662
1009.057036	0.024600
1009.227938	0.025083
1009.398821	0.024408
1009.569686	0.023302
1009.740533	0.021415
1009.911361	0.020671
1010.082172	0.021610
1010.252964	0.021781
1010.423738	0.021994
1010.594493	0.023123
1010.765231	0.023350
1010.935950	0.023392
1011.106651	0.024517
1011.277334	0.026369
1011.447998	0.027141
1011.618645	0.025874
1011.789273	0.025207
1011.959882	0.026028
1012.130474	0.024459
1012.301048	0.024673
1012.471603	0.025469
1012.642140	0.024746
1012.812658	0.022126
1012.983159	0.022400
1013.153641	0.024209
1013.324105	0.023261
1013.494551	0.022376
1013.664979	0.022935
1013.835388	0.021405
1014.005779	0.022054
1014.176152	0.022949
1014.346507	0.024625
1014.516843	0.023613
1014.687162	0.023777
1014.857462	0.023752
1015.027744	0.024023
1015.198007	0.023762
1015.368252	0.023892
1015.538480	0.021565
1015.708689	0.020714
1015.878879	0.020332
1016.049052	0.020812
1016.219206	0.019757
1016.389342	0.021636
1016.559460	0.021096
1016.729559	0.021647
1016.899641	0.021907
1017.069704	0.023748
1017.239749	0.023858
1017.409775	0.024299
1017.579784	0.024656
1017.749774	0.024726
1017.919746	0.023448
1018.089700	0.024004
1018.259635	0.022927
1018.429553	0.022875
1018.599452	0.021590
1018.769333	0.021794
1018.939195	0.020550
1019.109040	0.019763
1019.278866	0.020677
1019.448674	0.021753
1019.618464	0.020658
1019.788235	0.021288
1019.957989	0.020923
1020.127724	0.022461
1020.297441	0.020999
1020.467139	0.021365
1020.636820	0.021352
1020.806482	0.019303
1020.976126	0.018831
1021.145752	0.019924
1021.315359	0.020310
1021.484948	0.019693
1021.654519	0.018115
1021.824072	0.018394
1021.993607	0.019198
1022.163123	0.020478
1022.332621	0.022091
1022.502101	0.020956
1022.671563	0.022035
1022.841007	0.020696
1023.010432	0.021244
1023.179839	0.020989
1023.349228	0.021335
1023.518598	0.019442
1023.687951	0.019500
1023.857285	0.017012
1024.026601	0.017510
1024.195899	0.015407
1024.365178	0.016480
1024.534439	0.016595
1024.703682	0.016961
1024.872907	0.017494
1025.042114	0.017977
1025.211302	0.015655
1025.380472	0.017780
1025.549624	0.018610
1025.718758	0.018899
1025.887873	0.018964
1026.056970	0.017932
1026.226049	0.018384
1026.395110	0.018862
1026.564153	0.020028
1026.733177	0.020409
1026.902183	0.020175
1027.071171	0.019850
1027.240141	0.019173
1027.409092	0.019769
1027.578026	0.021234
1027.746940	0.019831
1027.915837	0.019681
1028.084716	0.019645
1028.253576	0.020983
1028.422418	0.021801
1028.591242	0.019905
1028.760048	0.021834
1028.928835	0.021685
1029.097604	0.021311
1029.266355	0.023199
1029.435088	0.022438
1029.603803	0.022825
1029.772499	0.021148
1029.941177	0.020125
1030.109837	0.020784
1030.278478	0.019123
1030.447102	0.018469
1030.615707	0.019294
1030.784294	0.019414
1030.952863	0.019871
1031.121413	0.019369
1031.289945	0.021707
1031.458460	0.021127
1031.626955	0.022404
1031.795433	0.023312
1031.963892	0.022461
1032.132334	0.022259
1032.300756	0.022759
1032.469161	0.022119
1032.637548	0.021079
1032.805916	0.020708
1032.974266	0.020837
1033.142598	0.019807
1033.310911	0.019768
1033.479207	0.020914
1033.647484	0.020808
1033.815743	0.019465
1033.983983	0.020218
1034.152206	0.019769
1034.320410	0.019623
1034.488596	0.021057
1034.656764	0.022723
1034.824914	0.022967
1034.993045	0.022238
1035.161158	0.022398
1035.329253	0.023246
1035.497330	0.023279
1035.665388	0.024717
1035.833428	0.023955
1036.001450	0.022828
1036.169454	0.021219
1036.337440	0.020149
1036.505407	0.020519
1036.673356	0.019236
1036.841287	0.018727
1037.009200	0.018851
1037.177094	0.019087
1037.344970	0.019623
1037.512828	0.020457
1037.680668	0.021609
1037.848489	0.021970
1038.016293	0.020047
1038.184078	0.020712
1038.351845	0.021632
1038.519593	0.021635
1038.687324	0.020003
1038.855036	0.019551
1039.022730	0.019639
1039.190406	0.017915
1039.358063	0.017728
1039.525702	0.018909
1039.693323	0.020022
1039.860926	0.018723
1040.028511	0.017840
1040.196077	0.017354
1040.363625	0.017935
1040.531155	0.017193
1040.698667	0.019507
1040.866161	0.019262
1041.033636	0.019854
1041.201093	0.019519
1041.368532	0.020480
1041.535952	0.020880
1041.703355	0.022926
1041.870739	0.024144
1042.038105	0.024629
1042.205452	0.024032
1042.372782	0.024656
1042.540093	0.024214
1042.707386	0.022994
1042.874661	0.022143
1043.041918	0.023385
1043.209156	0.022305
1043.376376	0.021683
1043.543578	0.020900
1043.710762	0.020765
1043.877927	0.020813
1044.045074	0.021139
1044.212203	0.022693
1044.379314	0.021487
1044.546407	0.019735
1044.713481	0.020129
1044.880537	0.019336
1045.047575	0.018605
1045.214595	0.017058
1045.381596	0.016325
1045.548579	0.016872
1045.715544	0.013684
1045.882491	0.014255
1046.049420	0.015501
1046.216330	0.015345
1046.383222	0.015237
1046.550096	0.016516
1046.716951	0.016936
1046.883789	0.017742
1047.050608	0.016621
1047.217409	0.019758
1047.384192	0.020162
1047.550956	0.020199
1047.717703	0.021577
1047.884431	0.022337
1048.051140	0.021951
1048.217832	0.022159
1048.384505	0.022093
1048.551161	0.022045
1048.717798	0.019393
1048.884416	0.019315
1049.051017	0.019606
1049.217599	0.016978
1049.384163	0.015347
1049.550709	0.016351
1049.717237	0.016433
1049.883746	0.016692
1050.050237	0.018432
1050.216710	0.019637
1050.383165	0.020338
1050.549601	0.018648
1050.716019	0.019988
1050.882420	0.021980
1051.048801	0.020593
1051.215165	0.018853
1051.381510	0.019071
1051.547837	0.017101
1051.714146	0.017234
1051.880437	0.016570
1052.046709	0.017225
1052.212964	0.015541
1052.379200	0.015132
1052.545417	0.016220
1052.711617	0.017575
1052.877798	0.017546
1053.043961	0.019194
1053.210106	0.019449
1053.376233	0.019856
1053.542341	0.018348
1053.708432	0.020042
1053.874504	0.019140
1054.040557	0.017448
1054.206593	0.017497
1054.372610	0.014907
1054.538609	0.013980
1054.704590	0.013929
1054.870553	0.014681
1055.036497	0.015777
1055.202424	0.016854
1055.368331	0.017030
1055.534221	0.017959
1055.700093	0.017702
1055.865946	0.018213
1056.031781	0.017550
1056.197598	0.016839
1056.363397	0.014953
1056.529177	0.014814
1056.694939	0.013622
1056.860683	0.013402
1057.026409	0.013046
1057.192116	0.014262
1057.357806	0.014383
1057.523477	0.014860
1057.689130	0.014754
1057.854764	0.015230
1058.020381	0.015505
1058.185979	0.016284
1058.351559	0.015027
1058.517120	0.015311
1058.682664	0.015832
1058.848189	0.016028
1059.013696	0.016814
1059.179185	0.016336
1059.344656	0.016786
1059.510108	0.017442
1059.675542	0.018171
1059.840958	0.019005
1060.006356	0.019262
1060.171735	0.019280
1060.337096	0.020045
1060.502439	0.018959
1060.667764	0.020804
1060.833071	0.020269
1060.998359	0.019229
1061.163629	0.017826
1061.328881	0.017826
1061.494115	0.017988
1061.659330	0.015949
1061.824527	0.016873
1061.989706	0.017509
1062.154867	0.015291
1062.320010	0.015897
1062.485134	0.015392
1062.650240	0.016984
1062.815328	0.016718
1062.980398	0.014870
1063.145449	0.015365
1063.310482	0.014540
1063.475497	0.014046
1063.640494	0.014956
1063.805473	0.016113
1063.970433	0.016716
1064.135375	0.014989
1064.300299	0.015361
1064.465204	0.016275
1064.630092	0.016152
1064.794961	0.016851
1064.959812	0.017039
1065.124645	0.016786
1065.289459	0.014520
1065.454256	0.014717
1065.619034	0.016416
1065.783793	0.016534
1065.948535	0.016706
1066.113258	0.018112
1066.277964	0.017419
1066.442651	0.016482
1066.607319	0.019025
1066.771970	0.020243
1066.936602	0.019866
1067.101216	0.018606
1067.265812	0.018265
1067.430389	0.017559
1067.594949	0.016152
1067.759490	0.015987
1067.924013	0.016655
1068.088518	0.015463
1068.253004	0.014649
1068.417472	0.014051
1068.581922	0.011549
1068.746354	0.011498
1068.910768	0.012451
1069.075163	0.013675
1069.239540	0.013513
1069.403899	0.012636
1069.568240	0.013660
1069.732562	0.013335
1069.896866	0.013313
1070.061152	0.015782
1070.225420	0.018466
1070.389670	0.017203
1070.553901	0.015111
1070.718114	0.014055
1070.882309	0.014931
1071.046486	0.012866
1071.210644	0.012197
1071.374784	0.013898
1071.538906	0.013036
1071.703010	0.011601
1071.867096	0.012720
1072.031163	0.013846
1072.195212	0.015487
1072.359243	0.014874
1072.523256	0.015433
1072.687250	0.018631
1072.851226	0.017380
1073.015184	0.016819
1073.179124	0.014594
1073.343045	0.013364
1073.506949	0.012981
1073.670834	0.012111
1073.834701	0.014151
1073.998549	0.014628
1074.162380	0.013138
1074.326192	0.012332
1074.489986	0.013452
1074.653761	0.015564
1074.817519	0.018475
1074.981258	0.018909
1075.144979	0.020154
1075.308682	0.018935
1075.472367	0.017165
1075.636033	0.016057
1075.799681	0.015930
1075.963311	0.016369
1076.126923	0.015974
1076.290516	0.013806
1076.454092	0.013044
1076.617649	0.012873
1076.781187	0.012536
1076.944708	0.011885
1077.108210	0.012717
1077.271695	0.013190
1077.435160	0.012027
1077.598608	0.010681
1077.762038	0.011448
1077.925449	0.011671
1078.088842	0.012443
1078.252217	0.011483
1078.415573	0.013339
1078.578912	0.011103
1078.742232	0.011966
1078.905534	0.013327
1079.068817	0.014379
1079.232083	0.013954
1079.395330	0.014186
1079.558559	0.012859
1079.721770	0.013194
1079.884962	0.012974
1080.048136	0.012678
1080.211293	0.012512
1080.374430	0.012001
1080.537550	0.012050
1080.700651	0.011042
1080.863735	0.010203
1081.026800	0.010696
1081.189846	0.013217
1081.352875	0.012976
1081.515885	0.014957
1081.678877	0.015497
1081.841851	0.015115
1082.004807	0.016074
1082.167744	0.016688
1082.330663	0.016779
1082.493564	0.016993
1082.656447	0.012718
1082.819312	0.011736
1082.982158	0.012978
1083.144986	0.012128
1083.307796	0.012343
1083.470587	0.010647
1083.633361	0.009564
1083.796116	0.011407
1083.958853	0.008445
1084.121571	0.011369
1084.284272	0.014111
1084.446954	0.012577
1084.609618	0.010896
1084.772264	0.011515
1084.934892	0.011001
1085.097501	0.010872
1085.260092	0.009699
1085.422665	0.009107
1085.585220	0.006724
1085.747756	0.004807
1085.910274	0.005990
1086.072774	0.008818
1086.235256	0.010263
1086.397720	0.011618
1086.560165	0.012508
1086.722592	0.015242
1086.885001	0.016585
1087.047392	0.019144
1087.209764	0.018238
1087.372119	0.018865
1087.534455	0.016540
1087.696772	0.014466
1087.859072	0.012563
1088.021353	0.012780
1088.183616	0.008860
1088.345861	0.009623
1088.508088	0.008830
1088.670296	0.009445
1088.832486	0.007557
1088.994658	0.008414
1089.156812	0.006826
1089.318948	0.008406
1089.481065	0.007864
1089.643164	0.009529
1089.805245	0.010395
1089.967308	0.009374
1090.129352	0.009055
1090.291378	0.009651
1090.453386	0.008328
1090.615376	0.008613
1090.777347	0.007381
1090.939301	0.009347
1091.101236	0.009095
1091.263153	0.008268
1091.425051	0.009993
1091.586932	0.008553
1091.748794	0.009815
1091.910638	0.010930
1092.072463	0.008815
1092.234271	0.008270
1092.396060	0.006397
1092.557831	0.005127
1092.719584	0.005691
1092.881319	0.003813
1093.043035	0.004782
1093.204733	0.001299
1093.366413	0.001481
1093.528075	0.004497
1093.689718	0.004264
1093.851343	0.002905
1094.012950	0.002222
1094.174539	0.001442
1094.336110	0.002533
1094.497662	0.002279
1094.659196	0.003121
1094.820712	0.002821
1094.982210	0.001954
1095.143689	0.002239
1095.305151	0.002886
1095.466594	0.005301
1095.628018	0.003949
1095.789425	0.003712
1095.950813	0.005308
1096.112183	0.004997
1096.273535	0.003642
1096.434869	0.004164
1096.596184	0.004229
1096.757482	0.002673
1096.918761	0.002353
1097.080021	0.004160
1097.241264	0.004044
1097.402488	0.004044
1097.563694	0.006051
1097.724882	0.007182
1097.886052	0.006355
1098.047203	0.003880
1098.208336	0.005475
1098.369451	0.003042
1098.530548	0.001314
1098.691627	0.004658
1098.852687	0.004905
1099.013729	0.003268
1099.174753	0.000787
1099.335758	0.001892
1099.496746	0.005967
1099.657715	0.007964
1099.818666	0.010638
1099.979599	0.011650
1100.140513	0.010265
1100.301409	0.010600
1100.462287	0.015684
1100.623147	0.020452
1100.783989	0.020379
1100.944812	0.020676
1101.105617	0.019219
1101.266404	0.018106
1101.427173	0.017983
1101.587923	0.015924
1101.748656	0.014012
1101.909370	0.010055
1102.070066	0.009168
1102.230743	0.008637
1102.391403	0.009764
1102.552044	0.009696
1102.712667	0.009164
1102.873271	0.011203
1103.033858	0.012486
1103.194426	0.011333
1103.354976	0.009533
1103.515508	0.010441
1103.676021	0.011150
1103.836517	0.008323
1103.996994	0.010436
1104.157453	0.010265
1104.317893	0.008358
1104.478316	0.006572
1104.638720	0.008489
1104.799106	0.009429
1104.959474	0.005213
1105.119823	0.005655
1105.280155	0.007995
1105.440468	0.007952
1105.600763	0.009276
1105.761039	0.007205
1105.921298	0.006146
1106.081538	0.004224
1106.241760	0.004308
1106.401964	0.007635
1106.562149	0.005176
1106.722316	0.003363
1106.882465	0.001489
1107.042596	0.001020
1107.202709	0.001876
1107.362803	0.000849
1107.522879	0.003787
1107.682937	0.003926
1107.842977	0.003700
1108.002999	0.004405
1108.163002	0.004677
1108.322987	0.006477
1108.482954	0.005962
1108.642902	0.007391
1108.802833	0.011486
1108.962745	0.008792
1109.122639	0.009811
1109.282515	0.010205
1109.442372	0.011369
1109.602211	0.008944
1109.762032	0.005351
1109.921835	0.005793
1110.081620	0.003901
1110.241386	0.002312
1110.401134	0.002984
1110.560864	0.002232
1110.720576	0.000565
1110.880269	-0.003382
1111.039945	-0.004538
1111.199602	-0.003809
1111.359240	-0.003357
1111.518861	0.001734
1111.678463	0.002762
1111.838047	0.005226
1111.997613	0.006903
1112.157161	0.007695
1112.316690	0.010567
1112.476202	0.012301
1112.635695	0.016600
1112.795169	0.014741
1112.954626	0.009893
1113.114064	0.008314
1113.273484	0.004877
1113.432886	0.004686
1113.592270	0.003811
1113.751635	0.005685
1113.910983	0.006167
1114.070312	0.000772
1114.229622	0.004152
1114.388915	0.007106
1114.548189	0.007936
1114.707445	0.008914
1114.866683	0.007590
1115.025903	0.007539
1115.185104	0.003289
1115.344287	0.003510
1115.503452	0.006706
1115.662599	0.004071
1115.821727	0.002587
1115.980838	0.001945
1116.139930	0.004036
1116.299004	0.001547
1116.458059	0.001603
1116.617097	0.006220
1116.776116	0.007365
1116.935117	0.007173
1117.094099	0.008815
1117.253064	0.005850
1117.412010	0.001906
1117.570938	0.000331
1117.729848	0.004625
1117.888740	0.005277
1118.047613	0.004815
1118.206468	0.002643
1118.365305	0.002125
1118.524124	0.000724
1118.682924	0.004656
1118.841707	0.009229
1119.000471	0.012231
1119.159216	0.011303
1119.317944	0.010572
1119.476653	0.008275
1119.635344	0.012678
1119.794017	0.013906
1119.952672	0.014758
1120.111308	0.011856
1120.269927	0.011265
1120.428527	0.010763
1120.587108	0.010403
1120.745672	0.012445
1120.904217	0.014546
1121.062744	0.008402
1121.221253	0.006503
1121.379744	0.006966
1121.538216	0.010452
1121.696671	0.012770
1121.855107	0.009455
1122.013524	0.006804
1122.171924	0.009264
1122.330305	0.007424
1122.488668	0.012525
1122.647013	0.014147
1122.805340	0.013210
1122.963648	0.009681
1123.121938	0.007295
1123.280210	0.009087
1123.438464	0.012122
1123.596700	0.007258
1123.754917	0.011744
1123.913116	0.010920
1124.071297	0.008953
1124.229459	0.010593
1124.387604	0.012256
1124.545730	0.011997
1124.703838	0.014776
1124.861928	0.010422
1125.019999	0.012444
1125.178052	0.008243
1125.336088	0.008039
1125.494104	0.006894
1125.652103	0.006583
1125.810083	0.009471
1125.968045	0.012062
1126.125989	0.008891
1126.283915	0.011370
1126.441823	0.008823
1126.599712	0.009714
1126.757583	0.014433
1126.915436	0.014912
1127.073270	0.013873
1127.231087	0.011855
1127.388885	0.009300
1127.546665	0.010776
1127.704426	0.013398
1127.862170	0.012910
1128.019895	0.012030
1128.177602	0.003994
1128.335291	0.008093
1128.492961	0.011663
1128.650614	0.010343
1128.808248	0.011756
1128.965864	0.009649
1129.123461	0.007949
1129.281041	0.008098
1129.438602	0.006459
1129.596145	0.009313
1129.753670	0.009983
1129.911176	0.007912
1130.068665	0.010807
1130.226135	0.009734
1130.383587	0.012014
1130.541020	0.012457
1130.698436	0.014196
1130.855833	0.014456
1131.013212	0.017480
1131.170573	0.015641
1131.327915	0.009451
1131.485239	0.007823
1131.642545	0.006062
1131.799833	0.004008
1131.957103	-0.000607
1132.114354	0.005964
1132.271588	0.010669
1132.428803	0.005348
1132.585999	0.002409
1132.743178	0.006254
1132.900338	0.007391
1133.057480	0.011313
1133.214604	0.010661
1133.371710	0.013605
1133.528797	0.003295
1133.685866	-0.001456
1133.842917	-0.001090
1133.999950	0.001308
1134.156964	0.002407
1134.313960	-0.000462
1134.470938	0.000452
1134.627898	0.004042
1134.784840	0.005321
1134.941763	0.007747
1135.098668	0.011565
1135.255555	0.016698
1135.412424	0.016030
1135.569274	0.010450
1135.726107	0.014136
1135.882921	0.014088
1136.039716	0.010927
1136.196494	0.010528
1136.353253	0.012467
1136.509995	0.013234
1136.666717	0.008338
1136.823422	0.007163
1136.980109	0.009778
1137.136777	0.009202
1137.293427	0.006043
1137.450059	0.005015
1137.606672	0.004413
1137.763267	0.005513
1137.919844	0.001488
1138.076403	0.005359
1138.232944	0.001102
1138.389466	0.005261
1138.545971	0.004982
1138.702457	0.003666
1138.858924	0.006581
1139.015374	0.008556
1139.171805	0.006264
1139.328218	0.004869
1139.484613	0.002225
1139.640990	0.009526
1139.797348	0.007698
1139.953688	0.008638
1140.110010	0.010154
1140.266314	0.002059
1140.422600	0.001881
1140.578867	0.004572
1140.735116	0.006763
1140.891347	0.008114
1141.047559	0.000138
1141.203754	0.000166
1141.359930	-0.002005
1141.516088	-0.000707
1141.672228	0.006657
1141.828349	0.007446
1141.984452	0.001153
1142.140537	-0.000419
1142.296604	-0.000801
1142.452653	0.005456
1142.608683	0.004130
1142.764695	0.005457
1142.920689	0.006854
1143.076665	0.003155
1143.232622	0.000293
1143.388562	0.002213
1143.544483	0.002990
1143.700385	-0.000243
1143.856270	-0.001335
1144.012136	0.001694
1144.167985	0.000455
1144.323814	-0.000541
1144.479626	0.002577
1144.635420	0.001625
1144.791195	0.003020
1144.946952	0.003891
1145.102691	0.005401
1145.258411	0.007383
1145.414113	0.005913
1145.569798	0.001396
1145.725463	-0.000452
1145.881111	0.001795
1146.036741	0.010140
1146.192352	0.007576
1146.347945	0.010334
1146.503519	0.011415
1146.659076	0.010125
1146.814614	0.007146
1146.970134	0.009276
1147.125636	0.011452
1147.281120	0.010463
1147.436585	0.003939
1147.592032	0.007009
1147.747461	0.004597
1147.902872	0.000373
1148.058265	0.003401
1148.213639	0.004407
1148.368995	0.005306
1148.524333	0.003599
1148.679653	0.004316
1148.834954	0.003142
1148.990237	0.012159
1149.145502	0.011857
1149.300749	0.018451
1149.455977	0.017398
1149.611188	0.016497
1149.766380	0.017393
1149.921553	0.010980
1150.076709	0.014399
1150.231846	0.016743
1150.386966	0.004109
1150.542066	0.004266
1150.697149	-0.000033
1150.852214	-0.006714
1151.007260	-0.008281
1151.162288	-0.008075
1151.317298	0.002839
1151.472289	0.000271
1151.627263	0.000412
1151.782218	0.005798
1151.937155	0.007159
1152.092073	0.009720
1152.246974	0.013243
1152.401856	0.023239
1152.556720	0.023719
1152.711566	0.019506
1152.866393	0.016596
1153.021203	0.017579
1153.175994	0.015058
1153.330767	0.011381
1153.485521	0.009814
1153.640258	0.010154
1153.794976	0.007372
1153.949676	0.006205
1154.104358	0.005854
1154.259021	0.006775
1154.413667	0.003069
1154.568294	0.004717
1154.722903	0.009811
1154.877493	0.011465
1155.032066	0.010619
1155.186620	0.011833
1155.341156	0.015176
1155.495674	0.020194
1155.650173	0.022918
1155.804654	0.025858
1155.959118	0.024966
1156.113562	0.023837
1156.267989	0.027119
1156.422397	0.030366
1156.576788	0.022659
1156.731160	0.022241
1156.885513	0.018243
1157.039849	0.016992
1157.194166	0.019592
1157.348465	0.021906
1157.502746	0.022239
1157.657009	0.020528
1157.811253	0.025530
1157.965479	0.026190
1158.119687	0.021561
1158.273877	0.018538
1158.428048	0.016531
1158.582201	0.010440
1158.736337	0.005959
1158.890453	0.004577
1159.044552	-0.001585
1159.198632	-0.010701
1159.352694	-0.014324
1159.506738	-0.012555
1159.660764	-0.013510
1159.814771	-0.013955
1159.968761	-0.008034
1160.122732	-0.007776
1160.276685	-0.009641
1160.430619	-0.007142
1160.584535	-0.006576
1160.738434	-0.003523
1160.892313	-0.000190
1161.046175	0.001448
1161.200019	0.002756
1161.353844	-0.003946
1161.507651	-0.004345
1161.661440	-0.007507
1161.815210	-0.008073
1161.968962	-0.005451
1162.122697	-0.006807
1162.276412	-0.015256
1162.430110	-0.015642
1162.583789	-0.026454
1162.737451	-0.029662
1162.891094	-0.027857
1163.044718	-0.020654
1163.198325	-0.022935
1163.351913	-0.027612
1163.505483	-0.021484
1163.659035	-0.021010
1163.812569	-0.016845
1163.966084	-0.009181
1164.119581	-0.004576
1164.273060	-0.004693
1164.426521	-0.003689
1164.579964	0.000611
1164.733388	0.008417
1164.886794	0.009588
1165.040182	0.015850
1165.193551	0.011865
1165.346903	0.011807
1165.500236	0.016093
1165.653551	0.014627
1165.806848	0.016968
1165.960126	0.019836
1166.113386	0.012170
1166.266628	0.000750
1166.419852	-0.003673
1166.573058	-0.000998
1166.726245	-0.003522
1166.879414	-0.006474
1167.032565	-0.001965
1167.185698	-0.005236
1167.338812	-0.005448
1167.491909	-0.007172
1167.644987	-0.005516
1167.798046	0.004932
1167.951088	-0.001992
1168.104111	-0.001873
1168.257117	-0.000278
1168.410103	0.000107
1168.563072	-0.000394
1168.716023	0.001623
1168.868955	0.009657
1169.021869	0.012185
1169.174765	0.008434
1169.327642	0.012180
1169.480501	0.020273
1169.633343	0.018178
1169.786165	0.007881
1169.938970	0.001196
1170.091757	-0.008715
1170.244525	-0.018290
1170.397275	-0.020006
1170.550007	-0.023317
1170.702720	-0.017606
1170.855415	-0.029924
1171.008092	-0.020924
1171.160751	-0.005624
1171.313392	0.008154
1171.466014	-0.067394
1171.618619	0.095520
1171.771205	0.095520
1171.923772	0.095520
