sample name	sample
index	509
start time	 03-11-2021  03:12:40 PM
880	0.029395
Peak Time (s)	91.036
Peak Height 	0.0294
calc peak height	90,93
Baseline Time (s)	11.537
Baseline Value 	-0.00455
subtract baseline	10,4
Abs	-0.018520
Peak Time (s)	92.04
Peak Height 	-0.01852
calc peak height	90,93
Baseline Time (s)	10.537
Baseline Value 	0.004413
subtract baseline	10,3
PK_550	0.000226
Peak Time (s)	91.537
Peak Height 	2.2623E-4
calc peak height	90,93
Baseline Time (s)	10.037
Baseline Value 	2.5391E-4
subtract baseline	10,2
PK_880	-0.017932
Peak Time (s)	90.035
Peak Height 	-0.01793
calc peak height	90,93
Baseline Time (s)	10.037
Baseline Value 	0.002817
subtract baseline	10,1


Time (s)	A880-A510	A880-A775	A880-A975	A880	I510	I775	I975	I880	
0.036000	-0.001746	-0.000756	-0.003362	0.000909	7028.096216	45189.806502	3976.209517	24043.769245
0.536500	-0.000863	-0.000308	-0.005824	0.004222	7005.142631	44912.336003	3961.710669	23883.244848
1.037000	-0.001744	-0.000916	-0.002775	0.002388	7014.123951	45030.823524	3973.958025	23971.938362
1.537500	-0.004858	-0.000733	-0.005854	0.005599	6954.847692	44738.736160	3958.204224	23816.865776
2.040500	0.000483	-0.000349	0.001413	-0.000461	7062.323922	45362.781750	3991.853701	24110.508172
2.535000	-0.001072	-0.000372	-0.000689	-0.000726	7050.029122	45386.480455	3987.157010	24123.476443
3.035000	0.003505	-0.000993	-0.001099	-0.002813	7113.972997	45529.865427	3991.444306	24225.591751
3.535500	-0.003035	-0.001013	-0.001109	-0.000913	7033.141906	45342.165519	3986.559417	24132.574688
4.036000	-0.001230	-0.000394	-0.000267	-0.001098	7052.068011	45420.665503	3989.185446	24141.650799
4.536000	0.000638	0.000003	-0.001341	-0.000509	7064.268441	45401.954791	3984.939860	24112.875578
5.036500	0.000939	-0.000865	-0.001318	-0.001104	7072.832704	45375.232773	3986.512458	24141.906423
5.536500	-0.001148	-0.000000	-0.005319	-0.000655	7048.628739	45415.851370	3975.218160	24119.989558
6.037000	-0.002749	-0.001286	-0.005572	-0.001304	7039.573158	45353.679970	3976.219742	24151.697303
6.540000	0.001458	0.000425	-0.000483	-0.000002	7067.258690	45393.557899	3985.831378	24088.120874
7.035000	-0.000603	-0.000729	-0.003163	-0.000968	7056.795017	45375.209299	3981.471285	24135.254481
7.535000	-0.001116	-0.000218	-0.003112	-0.000412	7046.614603	45370.829897	3980.189376	24108.109214
8.035500	0.000561	-0.000060	-0.001714	-0.000299	7061.527803	45375.265385	3983.454862	24102.635231
8.535500	0.002182	0.000344	0.000508	-0.000155	7075.662721	45400.639938	3988.756737	24095.618623
9.035500	-0.001025	-0.000908	-0.005103	0.002655	7018.394818	45005.754704	3967.431270	23959.008233
9.536000	-0.000387	-0.000175	0.000341	-0.000825	7057.500965	45415.412353	3990.041281	24128.311904
10.036500	0.000000	0.000000	-0.000108	-0.000167	7054.914630	45368.214474	3987.211716	24096.179386
10.536500	0.000036	0.000619	0.000000	0.000213	7051.642852	45391.618743	3986.518242	24077.684371
11.039500	-0.004333	-0.000950	-0.003568	0.003215	6982.013645	44947.583089	3969.881185	23931.930856
11.536500	0.001510	0.000488	0.003005	0.000000	7067.738050	45399.521193	3994.757354	24088.041130
12.034500	-0.000376	0.000237	-0.000919	-0.000367	7053.241611	45410.854404	3985.651735	24105.944190
12.535500	0.000536	0.000524	0.003248	0.000115	7057.339548	45391.789655	3995.086964	24082.428838
13.035500	0.000983	0.000060	0.003095	-0.002656	7088.148040	45617.615197	4001.838376	24217.879804
13.535500	0.000261	-0.000359	0.000012	-0.001310	7068.316870	45444.749832	3990.439487	24151.978832
14.036000	0.000627	-0.000450	-0.001757	-0.000806	7067.001321	45386.706355	3984.637224	24127.379013
14.536000	-0.001321	-0.000637	-0.002912	0.001487	7026.643954	45145.172740	3975.887586	24015.660948
15.036500	-0.003043	-0.000035	-0.003225	0.004257	6984.335496	44935.290947	3968.125260	23881.561774
15.556500	0.000071	0.000142	-0.000223	-0.000886	7062.449221	45452.294307	3988.754793	24131.269730
16.037000	-0.000517	-0.000017	-0.001248	-0.001280	7060.600209	45475.322219	3987.143566	24150.533067
16.534500	0.000609	0.000546	0.002200	-0.001212	7070.722123	45523.781832	3995.806654	24147.220588
17.035000	-0.005543	-0.000710	-0.003891	0.004546	6958.279307	44842.290151	3965.730256	23867.601480
17.535500	0.002004	0.000891	0.005125	-0.002730	7098.683503	45706.628458	4007.293902	24221.528821
18.035500	-0.000277	-0.000085	-0.000251	-0.000727	7057.620336	45414.604889	3988.276938	24123.522558
18.536000	0.000564	0.000606	-0.000508	0.001055	7048.650528	45308.195329	3983.079343	24036.701411
19.036000	-0.001476	0.000285	-0.001759	0.001862	7021.633097	45198.376376	3977.856359	23997.478740
19.536000	0.001207	0.001114	0.002991	0.001331	7052.137529	45330.751008	3991.306062	24023.251548
20.039500	-0.000922	0.000539	-0.002333	0.000723	7037.673847	45333.999762	3979.287856	24052.833563
20.537000	-0.000416	-0.000168	-0.003412	0.000111	7048.301012	45324.662159	3978.101965	24082.616272
21.037500	-0.000825	-0.000165	-0.000963	0.000856	7037.334411	45252.408588	3982.425926	24046.359487
21.535000	-0.000894	0.000194	0.001353	0.000275	7042.197586	45344.028173	3989.814386	24074.633595
22.035500	0.000800	0.000248	0.002323	0.001063	7050.817434	45272.484562	3990.282618	24036.287833
22.535000	0.000223	0.000215	0.002687	0.000583	7049.892558	45316.025634	3992.445528	24059.649805
23.035500	-0.002042	-0.000624	-0.002215	0.000580	7028.405316	45234.605665	3979.946317	24059.765645
23.535500	-0.000172	0.000626	0.001602	0.000889	7043.224590	45326.342328	3988.881916	24044.763710
24.036500	-0.000910	0.000198	-0.002009	0.000559	7039.347509	45316.745555	3980.524769	24060.834678
24.539000	0.000589	0.000403	-0.002994	0.000227	7056.773030	45369.046932	3978.867943	24076.965265
25.036500	-0.000520	-0.000460	-0.000683	0.000044	7047.956141	45302.827993	3985.206501	24085.900324
25.537000	0.001254	0.000574	-0.004049	0.000813	7057.530758	45328.603624	3974.717772	24048.462035
26.037500	-0.001005	-0.000347	0.003555	0.000567	7038.371445	45262.842324	3994.713924	24060.422032
26.535000	-0.002046	0.000582	0.002541	0.000698	7027.256223	45340.615758	3991.777668	24054.063978
27.035500	-0.000818	0.000070	-0.004010	0.000144	7044.162956	45344.676261	3976.507953	24081.021428
27.536000	-0.000001	-0.000127	-0.001603	-0.000180	7055.028665	45357.076180	3983.433293	24096.826507
28.036000	0.003213	-0.000140	0.001958	-0.003411	7116.941062	45672.208521	4000.852113	24254.959920
28.536000	0.001291	0.000025	0.000523	-0.001435	7079.389848	45494.598401	3992.069338	24158.109561
29.058500	-0.000384	0.000218	-0.002630	0.002124	7029.488053	45166.421642	3974.990284	23984.764680
29.536500	0.001134	0.000081	0.006817	-0.000959	7073.321700	45453.523760	4007.090366	24134.849656
30.037000	-0.000235	-0.000233	-0.000307	-0.001546	7065.839531	45480.262038	3990.229720	24163.556986
30.537000	0.002028	-0.000414	-0.000548	-0.001602	7088.061871	45467.917033	3989.753828	24166.252872
31.090000	-0.000093	-0.000134	0.001449	-0.000123	7053.610692	45350.876477	3991.081268	24094.054733
31.535000	-0.001949	0.000296	-0.003401	0.002005	7015.811645	45185.563094	3973.347952	23990.557969
32.035000	0.000244	-0.000105	0.001046	0.001387	7042.445024	45206.714052	3986.192540	24020.561017
32.536000	-0.001881	-0.000196	-0.003583	-0.001198	7046.813917	45449.734676	3980.988335	24146.514023
33.049500	-0.003227	-0.000063	0.001565	0.004246	6982.718605	44933.696929	3980.238814	23882.103380
33.539000	0.002257	0.000638	0.003258	-0.000093	7075.779622	45423.250788	3995.646928	24092.574377
34.036500	0.000387	0.000532	0.006363	-0.000665	7063.362339	45468.886089	4005.146691	24120.482155
34.536500	0.001064	0.000410	0.002172	-0.001309	7075.998501	45519.892004	3995.981184	24151.924354
35.037000	-0.002136	0.000323	-0.005258	0.003680	6998.258650	45025.670570	3964.475476	23909.398903
35.534500	-0.001971	-0.000082	0.000392	0.000952	7025.561810	45251.207884	3985.633557	24041.707129
36.034500	-0.001273	-0.000033	0.000931	0.001184	7029.967858	45233.333182	3986.414185	24030.386433
36.535500	-0.003025	-0.000390	0.003245	0.000375	7021.049534	45277.360128	3994.411375	24069.781621
37.035500	0.000690	0.000160	0.000975	0.001127	7049.158249	45257.665254	3986.674284	24033.184564
37.535000	-0.000687	0.000418	0.003592	0.001702	7030.617974	45226.861328	3991.897579	24005.264718
38.039000	-0.002480	-0.000159	-0.001373	0.000930	7020.950173	45245.836391	3981.195555	24042.751408
38.536000	-0.000875	-0.000485	-0.001840	0.000562	7039.654879	45249.879169	3980.946265	24060.668544
39.036500	-0.000952	0.000242	-0.003469	0.001541	7029.628373	45225.379225	3974.342477	24013.036742
39.537000	0.001075	0.000809	-0.001515	0.001420	7050.029369	45292.368787	3979.593039	24018.922134
40.037000	-0.000465	0.000055	-0.000974	0.001401	7035.581054	45220.822795	3981.015533	24019.876410
40.537500	-0.001521	-0.000485	-0.001469	0.000791	7031.349417	45227.652587	3981.305688	24049.530440
41.035000	-0.003028	-0.000522	-0.002371	0.002411	7001.806621	45066.767642	3974.919277	23970.852902
41.535500	-0.000517	0.000368	-0.004867	0.000944	7039.424735	45295.846333	3972.325024	24042.090203
42.036000	-0.001355	0.000236	0.003357	0.001467	7026.514602	45231.970337	3991.896305	24016.657338
42.538500	-0.000645	0.001031	0.003351	0.002110	7027.156122	45246.827273	3990.234230	23985.461256
43.036500	0.001813	0.000485	-0.001121	0.001666	7054.722975	45236.829313	3979.968781	24006.983285
43.536500	-0.001644	0.000026	-0.000008	0.000857	7029.563252	45270.982427	3984.856545	24046.329921
44.037000	-0.000146	-0.000246	-0.004380	0.001093	7041.530622	45221.517576	3973.175522	24034.820651
44.537000	-0.001797	0.000536	0.000279	0.001091	7025.891710	45297.838919	3984.991398	24034.947412
45.040000	-0.002982	-0.000211	0.001633	0.000785	7017.574341	45254.835870	3989.227672	24049.808656
45.537500	0.000844	-0.000502	-0.001743	-0.001984	7080.369667	45496.735459	3987.675661	24184.979926
46.035000	-0.000744	0.000612	-0.005438	-0.001434	7059.907799	45552.001023	3976.887379	24158.071181
46.535500	-0.000861	0.000384	0.001307	-0.000918	7053.867616	45479.190020	3992.755221	24132.854049
47.038500	-0.001215	-0.001090	-0.000242	0.003761	7006.170623	44881.343734	3976.890218	23905.516877
47.536000	-0.000339	-0.001326	-0.000568	-0.002105	7070.182286	45427.990159	3990.990362	24190.884724
48.036500	0.001375	-0.000191	0.003878	-0.001901	7084.659408	45519.052807	4001.912154	24180.899429
48.536500	-0.000248	0.000042	0.001908	-0.001673	7066.924837	45519.493234	3996.239202	24169.730522
49.036500	-0.004534	0.000469	-0.002378	0.003787	6974.776542	45029.470310	3971.434401	23904.262664
49.534500	-0.000428	0.000687	-0.001096	-0.000413	7053.187459	45459.457408	3985.319733	24108.205501
50.034500	-0.001074	-0.000278	0.000972	-0.002082	7062.938415	45528.260972	3994.883428	24189.747465
50.535000	0.000671	-0.000222	0.003905	-0.001799	7076.929801	45506.044663	4001.717931	24175.907817
51.035500	-0.001655	-0.000478	-0.001428	0.003786	7001.792194	44937.942114	3973.828423	23904.283569
51.541000	0.000895	-0.000042	0.004960	-0.003692	7097.272545	45709.502081	4009.370192	24268.775259
52.036000	0.002242	0.000595	0.000403	-0.000542	7079.943667	45462.911736	3989.475912	24114.463052
52.536000	0.001593	-0.000436	-0.000565	-0.003272	7099.952905	45629.426720	3993.992047	24248.123285
53.036500	-0.009109	-0.002619	-0.001729	0.111671	6048.417030	35549.260151	3732.284101	19288.298728
53.537000	-0.053947	-0.016894	-0.036948	-0.008777	6644.451494	44567.414714	3917.427231	24520.208548
54.037000	-0.044765	-0.035631	-0.037866	-0.178947	8551.738941	61915.401433	4412.590732	34882.067711
54.537500	-0.037187	-0.117508	-0.021222	-0.286712	10266.656556	65535.000000	4921.499806	43884.137193
55.035000	-0.014464	-0.057248	-0.013565	-0.220206	9561.558074	64641.804393	4662.583330	38067.557431
55.535000	-0.026285	-0.028327	-0.008681	-0.156605	8501.826918	59909.811457	4436.959594	33279.349868
56.038000	-0.035112	-0.012504	-0.014968	-0.069643	7395.863138	51309.246234	4135.801784	27770.055810
56.536000	-0.018407	-0.018523	-0.016089	-0.137072	8353.873160	58648.815056	4343.210977	31944.091734
57.035500	-0.014395	-0.009062	-0.020236	-0.109954	8072.030699	56431.127860	4241.466978	30187.151602
57.536500	-0.004936	-0.030975	-0.018575	-0.182899	9149.683140	63095.053083	4496.936964	35174.264761
58.036500	-0.007669	-0.012432	-0.018667	-0.131669	8421.116334	58737.203118	4316.541925	31585.264829
58.539500	-0.009491	-0.008488	-0.020304	-0.107526	8101.525025	56203.528087	4233.656867	30035.146518
59.037000	-0.013516	-0.007473	-0.017321	-0.091219	7864.263020	54362.292453	4192.705928	29035.834522
59.537500	-0.013811	-0.007521	-0.018168	-0.083101	7769.292070	53405.184503	4165.851810	28552.158570
60.035000	-0.017265	-0.008509	-0.022649	-0.079941	7695.918048	52925.948327	4143.399271	28366.340483
60.538000	-0.020220	-0.009585	-0.021957	-0.069640	7552.171667	51634.790449	4115.718927	27769.871446
61.036000	-0.021951	-0.006734	-0.022376	-0.044267	7271.566789	49176.219833	4044.375512	26359.586239
61.536000	-0.019932	-0.007129	-0.018576	-0.049326	7343.157215	49674.819020	4068.404867	26634.215063
62.036000	-0.023902	-0.008516	-0.021277	-0.037019	7180.250236	48225.726561	4027.984285	25971.633317
62.536500	-0.024652	-0.006983	-0.020470	-0.017334	6984.155699	46373.782696	3979.082444	24950.030037
63.036500	-0.023503	-0.007726	-0.023762	-0.025102	7068.589901	47081.278288	3990.485912	25347.647542
63.537000	-0.018155	-0.002752	-0.018837	0.000300	6881.125390	45055.266504	3939.269766	24073.433799
64.042000	-0.010319	0.001014	-0.023787	0.001915	6938.354558	45264.053868	3923.351281	23994.888797
64.537500	-0.012213	0.002468	-0.020370	0.008731	6858.452692	44745.350471	3915.205932	23666.719103
65.038000	-0.008706	0.003079	-0.018339	0.007957	6897.523710	44878.765004	3921.925034	23703.736171
65.534500	-0.009028	0.003194	-0.018946	0.008355	6890.924025	44851.391693	3919.511027	23684.656998
66.035500	-0.007856	0.003217	-0.014078	0.008766	6897.894817	44814.021631	3930.251008	23665.039313
66.536000	-0.008585	0.002458	-0.018275	0.008517	6893.499688	44764.992647	3920.733738	23676.945075
67.036000	-0.008765	0.003258	-0.012950	0.015492	6828.477720	44175.142670	3916.779288	23346.197528
67.536500	-0.009159	0.003018	-0.017214	0.009645	6877.927824	44710.377314	3920.571154	23623.080026
68.037000	-0.010048	0.002803	-0.014346	0.009263	6873.310554	44726.432098	3928.400114	23641.303409
68.537000	-0.010611	0.001667	-0.018285	0.008364	6876.369531	44703.586103	3921.076568	23684.236799
69.037500	-0.014938	0.001274	-0.019098	0.012298	6801.719486	44290.093172	3909.740560	23496.996805
69.538000	-0.011168	0.001352	-0.019307	0.008351	6871.417371	44674.640308	3918.656174	23684.867743
70.035500	-0.011416	0.001438	-0.018739	0.008712	6865.868011	44648.311566	3919.153996	23667.636054
70.535500	-0.014202	0.000275	-0.019994	0.008013	6846.923526	44603.709317	3917.820238	23701.020617
71.035500	-0.013577	0.000864	-0.025464	0.011863	6817.828420	44292.485481	3895.753357	23517.632053
71.536000	-0.012728	-0.000240	-0.018132	0.009137	6850.096191	44446.942975	3919.587215	23647.310452
72.035500	-0.012634	0.000216	-0.014923	0.009737	6845.515731	44433.283849	3925.862133	23618.702693
72.536500	-0.013291	0.000477	-0.020483	0.010787	6830.083890	44358.026558	3910.040785	23568.701591
73.037000	-0.016278	0.000180	-0.018735	0.015757	6758.998468	43859.311556	3902.415516	23333.741773
73.537000	-0.015532	-0.000106	-0.018641	0.011516	6803.396310	44233.195852	3912.687110	23534.077134
74.037500	-0.014230	-0.000315	-0.019971	0.013197	6800.012523	44054.144682	3905.542311	23454.453201
74.535000	-0.012762	-0.000367	-0.020493	0.013983	6806.118419	43974.968850	3902.454126	23417.325733
75.035000	-0.016473	-0.000260	-0.022345	0.018071	6736.848165	43600.904176	3888.541011	23225.248950
75.535500	-0.016222	-0.000794	-0.020575	0.015900	6758.227993	43754.285277	3897.751135	23327.034159
76.035500	-0.016573	-0.000752	-0.023264	0.017255	6743.160638	43631.218822	3888.302910	23263.452675
76.536000	-0.015543	-0.000199	-0.019933	0.018463	6741.587028	43569.936790	3893.250991	23206.940377
77.036500	-0.020132	-0.000403	-0.022386	0.024234	6651.368479	43015.464179	3874.215178	22939.136518
77.537000	-0.017935	-0.000584	-0.019499	0.019557	6710.995143	43432.017264	3891.711977	23155.923905
78.037000	-0.015471	0.000932	-0.020110	0.021676	6714.007972	43375.927224	3885.361765	23057.426391
78.537500	-0.017001	0.000071	-0.021081	0.021850	6699.128814	43279.772010	3882.708986	23049.334671
79.037500	-0.017789	0.000707	-0.025327	0.027492	6643.497318	42817.996513	3860.100920	22789.502782
79.535000	-0.016614	0.000620	-0.021806	0.022899	6693.363638	43233.392381	3878.615018	23000.782106
80.035500	-0.017673	0.000165	-0.018687	0.023309	6680.599360	43153.312057	3884.872653	22981.811153
80.535500	-0.018746	-0.000233	-0.021453	0.023058	6673.481479	43139.746444	3879.062575	22993.412922
81.036000	-0.020369	-0.000214	-0.023792	0.028759	6610.612732	42617.811139	3860.707240	22731.631596
81.536500	-0.018971	-0.000300	-0.021009	0.023718	6665.823762	43072.556728	3878.565425	22962.941940
82.037000	-0.015475	0.001155	-0.022004	0.024922	6685.674645	43095.728159	3873.511255	22907.425162
82.537000	-0.014768	0.000535	-0.026671	0.024703	6693.732373	43058.765052	3863.374066	22917.533332
83.040000	-0.023004	-0.000400	-0.030442	0.029588	6581.247313	42525.268128	3843.934642	22693.828579
83.534500	-0.015071	0.000357	-0.022758	0.024559	6692.342810	43055.582967	3872.617482	22924.173183
84.035000	-0.017977	0.000170	-0.023299	0.024866	6664.497787	43009.998918	3870.678609	22910.030473
84.535000	-0.016020	0.000595	-0.023196	0.024888	6681.244782	43047.234781	3870.864036	22909.020243
85.035500	-0.015107	0.000730	-0.013989	0.025001	6688.192846	43049.285723	3891.866211	22903.830075
85.535500	-0.017005	-0.000035	-0.022564	0.024527	6675.829863	43022.380031	3873.133189	22925.618132
86.036000	-0.017295	0.000810	-0.021444	0.025409	6665.698215	43018.931672	3873.680225	22885.047458
86.536500	-0.018741	-0.000043	-0.023100	0.024402	6661.905622	43033.177069	3872.195538	22931.404233
87.036500	-0.021538	-0.000112	-0.027322	0.029419	6595.085039	42566.906007	3851.277348	22701.549736
87.539500	-0.015846	-0.000508	-0.026934	0.024613	6685.136686	42970.825254	3862.980973	22921.659737
88.037500	-0.018760	-0.000398	-0.020707	0.024596	6660.074002	42982.657889	3877.239793	22922.476002
88.534500	-0.017081	-0.000115	-0.020243	0.024203	6677.982787	43044.829417	3879.210511	22940.550129
89.035500	-0.021590	-0.000996	-0.029707	0.028771	6600.128110	42545.418078	3847.391271	22731.061599
89.535500	-0.018025	0.000415	-0.020148	0.024789	6664.748437	43039.757560	3878.081718	22913.577312
90.035500	-0.017932	-0.000166	-0.020497	0.023942	6672.875682	43064.247690	3879.228172	22952.600006
90.536000	-0.018701	-0.000357	-0.025515	0.024439	6661.929931	43000.742632	3866.597259	22929.671109
91.036000	-0.023939	-0.000234	-0.025443	0.029395	6574.988991	42558.009965	3855.548790	22702.625206
91.536500	-0.020881	0.000226	-0.021643	0.024671	6641.178530	43033.219422	3874.916312	22919.018683
92.039500	-0.018767	0.000219	-0.018520	0.024872	6657.625764	43013.935988	3881.643298	22909.735683
92.537000	-0.019427	-0.000971	-0.023393	0.023704	6662.008392	43011.948272	3873.122448	22963.594836
93.037500	-0.020801	-0.000404	-0.020275	0.025877	6631.525897	42864.176044	3875.287992	22863.537885
93.535000	-0.017657	0.000027	-0.021940	0.024422	6671.100881	43037.787094	3874.806919	22930.472786
94.035500	-0.018680	-0.000121	-0.023089	0.024424	6662.244811	43023.972730	3872.168340	22930.373160
94.536000	-0.017777	-0.000070	-0.021854	0.024281	6671.286855	43041.861201	3875.327583	22936.982446
95.036000	-0.019944	-0.000639	-0.027306	0.026665	6632.115933	42770.364433	3857.500952	22827.371131
95.602500	-0.018222	-0.000198	-0.020591	0.024171	6668.381736	43040.163856	3878.483676	22942.042790
96.036500	-0.018465	0.000243	-0.022864	0.024636	6662.267045	43037.983896	3872.199222	22920.618163
96.539500	-0.018627	-0.000125	-0.012224	0.024024	6666.152773	43060.432569	3898.283299	22948.807288
97.036500	-0.019610	0.000162	-0.016373	0.026511	6636.298902	42857.955064	3882.818758	22834.454462
97.537500	-0.019892	-0.000721	-0.017469	0.023505	6659.716680	43053.342253	3887.243764	22972.762331
98.035000	-0.019349	-0.000018	-0.022932	0.024269	6657.811737	43047.700165	3872.881800	22937.514873
98.535000	-0.018474	-0.000130	-0.022270	0.024063	6667.133679	43056.395851	3874.871987	22947.001187
