sample name	sample
index	33
start time	 02-11-2021  12:53:26 PM


Wavelength (nm)	Absorbance
494.344910	-0.136338
494.563924	-0.136338
494.782919	-0.136338
495.001897	0.380450
495.220856	0.111496
495.439797	0.205396
495.658719	0.289081
495.877624	0.761700
496.096510	0.624476
496.315378	0.282781
496.534227	0.197104
496.753059	0.032284
496.971872	0.107041
497.190667	0.025851
497.409444	0.021304
497.628203	0.013643
497.846943	0.009121
498.065665	0.011049
498.284369	0.013252
498.503055	0.013504
498.721723	0.013074
498.940372	0.012628
499.159003	0.013188
499.377616	0.013847
499.596210	0.014873
499.814787	0.014360
500.033345	0.013750
500.251885	0.013692
500.470406	0.013325
500.688910	0.014691
500.907395	0.017509
501.125862	0.017184
501.344311	0.013429
501.562742	0.013242
501.781154	0.013153
501.999548	0.011598
502.217924	0.009453
502.436282	0.009015
502.654621	0.007954
502.872942	0.005715
503.091245	0.005106
503.309530	0.007311
503.527797	0.007158
503.746045	0.007878
503.964275	0.008833
504.182487	0.010459
504.400681	0.012464
504.618856	0.013277
504.837013	0.014361
505.055152	0.015594
505.273273	0.015067
505.491376	0.015255
505.709460	0.015605
505.927526	0.015408
506.145574	0.016165
506.363604	0.014357
506.581615	0.013871
506.799608	0.013600
507.017583	0.012686
507.235540	0.012473
507.453478	0.011532
507.671399	0.011593
507.889301	0.012245
508.107185	0.010944
508.325050	0.010609
508.542898	0.010062
508.760727	0.009033
508.978538	0.009560
509.196330	0.008996
509.414105	0.008904
509.631861	0.007704
509.849599	0.007305
510.067319	0.006579
510.285021	0.007868
510.502704	0.008306
510.720369	0.008508
510.938016	0.008025
511.155645	0.008362
511.373255	0.009705
511.590848	0.011345
511.808422	0.011003
512.025977	0.011399
512.243515	0.010459
512.461034	0.010494
512.678536	0.009687
512.896018	0.010583
513.113483	0.012551
513.330930	0.011590
513.548358	0.010692
513.765768	0.010790
513.983160	0.010428
514.200533	0.011776
514.417889	0.011932
514.635226	0.012533
514.852545	0.012288
515.069845	0.010293
515.287128	0.010533
515.504392	0.010083
515.721638	0.011904
515.938866	0.011682
516.156075	0.010773
516.373267	0.010528
516.590440	0.011132
516.807594	0.011070
517.024731	0.012174
517.241850	0.012291
517.458950	0.011361
517.676032	0.009780
517.893095	0.009604
518.110141	0.010291
518.327168	0.010388
518.544177	0.009300
518.761168	0.009196
518.978141	0.008930
519.195095	0.008547
519.412031	0.009276
519.628949	0.009196
519.845849	0.010180
520.062731	0.010393
520.279594	0.010856
520.496439	0.011004
520.713266	0.011227
520.930074	0.010823
521.146865	0.010445
521.363637	0.011479
521.580391	0.011452
521.797127	0.011102
522.013844	0.009984
522.230543	0.009679
522.447224	0.009458
522.663887	0.008563
522.880532	0.007683
523.097158	0.007845
523.313766	0.007514
523.530356	0.007919
523.746928	0.008239
523.963481	0.008854
524.180017	0.008674
524.396534	0.009711
524.613032	0.008851
524.829513	0.009192
525.045975	0.010137
525.262420	0.009787
525.478845	0.008935
525.695253	0.008938
525.911643	0.007679
526.128014	0.007313
526.344367	0.007107
526.560702	0.008546
526.777018	0.009360
526.993316	0.008460
527.209597	0.008066
527.425858	0.008089
527.642102	0.008178
527.858328	0.008556
528.074535	0.008611
528.290724	0.008310
528.506894	0.008248
528.723047	0.008363
528.939181	0.008930
529.155297	0.010274
529.371395	0.010429
529.587475	0.009888
529.803536	0.010788
530.019579	0.010882
530.235604	0.010695
530.451611	0.011009
530.667600	0.010754
530.883570	0.010571
531.099522	0.009381
531.315456	0.010276
531.531372	0.010998
531.747269	0.010595
531.963148	0.010509
532.179009	0.009951
532.394852	0.010268
532.610676	0.010182
532.826482	0.009855
533.042271	0.010991
533.258040	0.010331
533.473792	0.009400
533.689525	0.010013
533.905240	0.010376
534.120937	0.011115
534.336616	0.010269
534.552277	0.010186
534.767919	0.010986
534.983543	0.010642
535.199149	0.011137
535.414736	0.011500
535.630306	0.010975
535.845857	0.010996
536.061390	0.011378
536.276904	0.012049
536.492401	0.011785
536.707879	0.011178
536.923339	0.011498
537.138781	0.010859
537.354204	0.011705
537.569610	0.012129
537.784997	0.011901
538.000366	0.012128
538.215716	0.011723
538.431049	0.011874
538.646363	0.012526
538.861659	0.011947
539.076937	0.012703
539.292196	0.011870
539.507438	0.011375
539.722661	0.011528
539.937866	0.010867
540.153052	0.010878
540.368221	0.011043
540.583371	0.010627
540.798503	0.010220
541.013617	0.010331
541.228712	0.010835
541.443789	0.010918
541.658848	0.011104
541.873889	0.010896
542.088912	0.010861
542.303916	0.010908
542.518902	0.011400
542.733870	0.012208
542.948820	0.011820
543.163752	0.011681
543.378665	0.012544
543.593560	0.013035
543.808437	0.013535
544.023295	0.013874
544.238136	0.013654
544.452958	0.013857
544.667762	0.013254
544.882548	0.013869
545.097315	0.014318
545.312064	0.014118
545.526795	0.013938
545.741508	0.013843
545.956203	0.013779
546.170879	0.014590
546.385537	0.014400
546.600177	0.015165
546.814799	0.014736
547.029402	0.013936
547.243988	0.013724
547.458555	0.013290
547.673103	0.013395
547.887634	0.013104
548.102146	0.012315
548.316640	0.012358
548.531116	0.012223
548.745574	0.011904
548.960013	0.012453
549.174435	0.012809
549.388838	0.012466
549.603222	0.012225
549.817589	0.012564
550.031937	0.012545
550.246267	0.012703
550.460579	0.012956
550.674873	0.012967
550.889148	0.012757
551.103405	0.012615
551.317644	0.013697
551.531865	0.013789
551.746068	0.013869
551.960252	0.014506
552.174418	0.014172
552.388566	0.013854
552.602696	0.013567
552.816807	0.013017
553.030900	0.013507
553.244975	0.012274
553.459032	0.011996
553.673070	0.011236
553.887091	0.011288
554.101093	0.011363
554.315077	0.011362
554.529042	0.012555
554.742990	0.013623
554.956919	0.012934
555.170830	0.014359
555.384722	0.015206
555.598597	0.016144
555.812453	0.016228
556.026291	0.016150
556.240111	0.016128
556.453913	0.015826
556.667696	0.015344
556.881461	0.014949
557.095208	0.014783
557.308937	0.014459
557.522647	0.014051
557.736339	0.013803
557.950013	0.013713
558.163669	0.013826
558.377307	0.013381
558.590926	0.013312
558.804527	0.013982
559.018110	0.013913
559.231675	0.014116
559.445221	0.014776
559.658749	0.014742
559.872259	0.015297
560.085751	0.016172
560.299225	0.016583
560.512680	0.016576
560.726117	0.016468
560.939536	0.016704
561.152937	0.017001
561.366319	0.016882
561.579683	0.017281
561.793029	0.016688
562.006357	0.016097
562.219667	0.016282
562.432958	0.016637
562.646231	0.016568
562.859486	0.016416
563.072723	0.016153
563.285941	0.016089
563.499141	0.016331
563.712323	0.016326
563.925487	0.016108
564.138632	0.015983
564.351760	0.015943
564.564869	0.015962
564.777960	0.016068
564.991032	0.016574
565.204087	0.016641
565.417123	0.015999
565.630141	0.016695
565.843140	0.017285
566.056122	0.017407
566.269085	0.017117
566.482030	0.017686
566.694957	0.017377
566.907866	0.017171
567.120756	0.016942
567.333628	0.017201
567.546482	0.017288
567.759318	0.017476
567.972135	0.017301
568.184935	0.017902
568.397716	0.017802
568.610478	0.018204
568.823223	0.017776
569.035949	0.018236
569.248657	0.018492
569.461347	0.018709
569.674019	0.018241
569.886672	0.017885
570.099308	0.017440
570.311925	0.017283
570.524523	0.016629
570.737104	0.016636
570.949666	0.016543
571.162210	0.016693
571.374736	0.016235
571.587244	0.016133
571.799733	0.016714
572.012205	0.016876
572.224658	0.016424
572.437092	0.017130
572.649509	0.017320
572.861907	0.017222
573.074287	0.017227
573.286649	0.017344
573.498993	0.017253
573.711318	0.016606
573.923625	0.016517
574.135914	0.016755
574.348185	0.016462
574.560438	0.016449
574.772672	0.015889
574.984888	0.015322
575.197086	0.015321
575.409266	0.015607
575.621427	0.016148
575.833570	0.016740
576.045695	0.016808
576.257802	0.016267
576.469890	0.016585
576.681961	0.017325
576.894013	0.017680
577.106046	0.017930
577.318062	0.017936
577.530059	0.018154
577.742039	0.017617
577.954000	0.018052
578.165942	0.018841
578.377867	0.018539
578.589773	0.018444
578.801661	0.018741
579.013531	0.018818
579.225382	0.018908
579.437216	0.018973
579.649031	0.019496
579.860828	0.018893
580.072606	0.018681
580.284367	0.019025
580.496109	0.018930
580.707833	0.019222
580.919539	0.018630
581.131227	0.018541
581.342896	0.018548
581.554547	0.017829
581.766180	0.018773
581.977795	0.018958
582.189391	0.019131
582.400969	0.018583
582.612529	0.017989
582.824071	0.018238
583.035595	0.017978
583.247100	0.017531
583.458587	0.017827
583.670056	0.017464
583.881506	0.017197
584.092939	0.016970
584.304353	0.017692
584.515749	0.017959
584.727127	0.018367
584.938486	0.018083
585.149828	0.018538
585.361151	0.018983
585.572456	0.018978
585.783742	0.019292
585.995011	0.019313
586.206261	0.018814
586.417493	0.018586
586.628706	0.018345
586.839902	0.018716
587.051079	0.018762
587.262238	0.018530
587.473379	0.018574
587.684502	0.018323
587.895606	0.018044
588.106692	0.017801
588.317760	0.017843
588.528810	0.017627
588.739841	0.017744
588.950855	0.017869
589.161850	0.017658
589.372827	0.017199
589.583785	0.017445
589.794726	0.017739
590.005648	0.019305
590.216552	0.019577
590.427437	0.019631
590.638305	0.019493
590.849154	0.019151
591.059985	0.019400
591.270798	0.019844
591.481592	0.019736
591.692369	0.020178
591.903127	0.019144
592.113867	0.019213
592.324588	0.019063
592.535292	0.019669
592.745977	0.019757
592.956644	0.019625
593.167293	0.019367
593.377923	0.019498
593.588536	0.019062
593.799130	0.019207
594.009706	0.019556
594.220263	0.019640
594.430803	0.019328
594.641324	0.019584
594.851827	0.020164
595.062312	0.020612
595.272778	0.020685
595.483227	0.020756
595.693657	0.020837
595.904069	0.020560
596.114462	0.021104
596.324838	0.020980
596.535195	0.020924
596.745534	0.020665
596.955855	0.020592
597.166157	0.020191
597.376441	0.020194
597.586707	0.020198
597.796955	0.019899
598.007185	0.019754
598.217396	0.020218
598.427589	0.019797
598.637764	0.019874
598.847921	0.019774
599.058060	0.020013
599.268180	0.020177
599.478282	0.020127
599.688366	0.020060
599.898431	0.020191
600.108479	0.020027
600.318508	0.020061
600.528519	0.019897
600.738511	0.020035
600.948486	0.020136
601.158442	0.020366
601.368380	0.020327
601.578300	0.020474
601.788202	0.020474
601.998085	0.020574
602.207950	0.021225
602.417797	0.021830
602.627626	0.021628
602.837436	0.021409
603.047228	0.021260
603.257002	0.021243
603.466758	0.021356
603.676496	0.021536
603.886215	0.021384
604.095916	0.021367
604.305599	0.021004
604.515264	0.021380
604.724910	0.021514
604.934538	0.021731
605.144148	0.022246
605.353740	0.022390
605.563314	0.022157
605.772869	0.022135
605.982406	0.022279
606.191925	0.022459
606.401425	0.022141
606.610908	0.022501
606.820372	0.022298
607.029818	0.022208
607.239246	0.022160
607.448655	0.022375
607.658047	0.022733
607.867420	0.022694
608.076775	0.022718
608.286111	0.022933
608.495430	0.022727
608.704730	0.022824
608.914012	0.022987
609.123275	0.023023
609.332521	0.022680
609.541748	0.022349
609.750957	0.021926
609.960148	0.021994
610.169321	0.022132
610.378475	0.022351
610.587611	0.022512
610.796729	0.022499
611.005829	0.022320
611.214910	0.022952
611.423974	0.023387
611.633019	0.023811
611.842045	0.023836
612.051054	0.023935
612.260044	0.024001
612.469017	0.023977
612.677970	0.023865
612.886906	0.023993
613.095824	0.023566
613.304723	0.023478
613.513604	0.023338
613.722467	0.023567
613.931311	0.023511
614.140138	0.023461
614.348946	0.023723
614.557736	0.023656
614.766507	0.023547
614.975261	0.023722
615.183996	0.023720
615.392713	0.023647
615.601412	0.023222
615.810092	0.023198
616.018754	0.023319
616.227399	0.022851
616.436024	0.023158
616.644632	0.023736
616.853222	0.024059
617.061793	0.023944
617.270346	0.024336
617.478880	0.024352
617.687397	0.024645
617.895895	0.024406
618.104375	0.024785
618.312837	0.024439
618.521281	0.024060
618.729706	0.023855
618.938113	0.024148
619.146502	0.024155
619.354873	0.024642
619.563226	0.024623
619.771560	0.024802
619.979876	0.024712
620.188174	0.025132
620.396453	0.025360
620.604715	0.025282
620.812958	0.025279
621.021183	0.024751
621.229390	0.024453
621.437578	0.024322
621.645748	0.024687
621.853900	0.024777
622.062034	0.024446
622.270150	0.024459
622.478247	0.024541
622.686326	0.024448
622.894387	0.025033
623.102430	0.025122
623.310454	0.025191
623.518461	0.025139
623.726449	0.025253
623.934418	0.025993
624.142370	0.026212
624.350303	0.026398
624.558218	0.026641
624.766115	0.026309
624.973994	0.026439
625.181855	0.026680
625.389697	0.026468
625.597521	0.026706
625.805327	0.026247
626.013114	0.026350
626.220883	0.026509
626.428634	0.026463
626.636367	0.026517
626.844082	0.026413
627.051778	0.026310
627.259457	0.026648
627.467117	0.026318
627.674758	0.026577
627.882382	0.026520
628.089987	0.026354
628.297574	0.026759
628.505143	0.027152
628.712694	0.027204
628.920226	0.027237
629.127740	0.027373
629.335236	0.028006
629.542714	0.028260
629.750174	0.028425
629.957615	0.028328
630.165038	0.028100
630.372443	0.028013
630.579829	0.027978
630.787198	0.027817
630.994548	0.027447
631.201880	0.027018
631.409194	0.026801
631.616489	0.026481
631.823766	0.026550
632.031025	0.026772
632.238266	0.026957
632.445489	0.027217
632.652693	0.027655
632.859879	0.028010
633.067047	0.028182
633.274197	0.028318
633.481329	0.028557
633.688442	0.028826
633.895537	0.028627
634.102614	0.028795
634.309672	0.028646
634.516713	0.028477
634.723735	0.028612
634.930739	0.028577
635.137724	0.028286
635.344692	0.028181
635.551641	0.028417
635.758572	0.028517
635.965485	0.028361
636.172379	0.028859
636.379256	0.028819
636.586114	0.028460
636.792954	0.028442
636.999775	0.028381
637.206579	0.028474
637.413364	0.028168
637.620131	0.028256
637.826880	0.028374
638.033610	0.028148
638.240323	0.028521
638.447017	0.028906
638.653692	0.028815
638.860350	0.029060
639.066990	0.029043
639.273611	0.028955
639.480214	0.028846
639.686798	0.028892
639.893365	0.029115
640.099913	0.028872
640.306443	0.028774
640.512955	0.028950
640.719449	0.028753
640.925924	0.028966
641.132381	0.029388
641.338820	0.029406
641.545241	0.029563
641.751644	0.029408
641.958028	0.029328
642.164394	0.029400
642.370742	0.029307
642.577071	0.029515
642.783383	0.029594
642.989676	0.029295
643.195951	0.029409
643.402207	0.028939
643.608446	0.028691
643.814666	0.028599
644.020868	0.028398
644.227052	0.028564
644.433218	0.028424
644.639365	0.028126
644.845494	0.028279
645.051605	0.028450
645.257698	0.028884
645.463772	0.029011
645.669828	0.029234
645.875866	0.029263
646.081886	0.029261
646.287888	0.029537
646.493871	0.030132
646.699836	0.030149
646.905783	0.029941
647.111712	0.029979
647.317622	0.030254
647.523514	0.030502
647.729388	0.030756
647.935244	0.031054
648.141082	0.031288
648.346901	0.031268
648.552702	0.031728
648.758485	0.031949
648.964250	0.032221
649.169996	0.032667
649.375724	0.032649
649.581434	0.032703
649.787126	0.032670
649.992800	0.032971
650.198455	0.033157
650.404092	0.033094
650.609711	0.033291
650.815311	0.033367
651.020894	0.032997
651.226458	0.033076
651.432004	0.033482
651.637532	0.033296
651.843041	0.033296
652.048532	0.033254
652.254006	0.033370
652.459460	0.033346
652.664897	0.033102
652.870315	0.033218
653.075716	0.033457
653.281097	0.033413
653.486461	0.033834
653.691807	0.033528
653.897134	0.033592
654.102443	0.033625
654.307734	0.033345
654.513006	0.033467
654.718261	0.033290
654.923497	0.033090
655.128715	0.032817
655.333915	0.032480
655.539096	0.032943
655.744259	0.032886
655.949404	0.032866
656.154531	0.033031
656.359640	0.033026
656.564730	0.033175
656.769802	0.033365
656.974856	0.033495
657.179892	0.033994
657.384909	0.033802
657.589908	0.033753
657.794889	0.033642
657.999852	0.033762
658.204797	0.033791
658.409723	0.033926
658.614631	0.033742
658.819521	0.033821
659.024393	0.033833
659.229246	0.034029
659.434081	0.034050
659.638898	0.034207
659.843697	0.034457
660.048478	0.035047
660.253240	0.035090
660.457984	0.035242
660.662710	0.035372
660.867417	0.035475
661.072107	0.035306
661.276778	0.035494
661.481431	0.035603
661.686066	0.035719
661.890682	0.035306
662.095281	0.035528
662.299861	0.035696
662.504422	0.035405
662.708966	0.035424
662.913491	0.035590
663.117999	0.035569
663.322488	0.035958
663.526958	0.035902
663.731411	0.035933
663.935845	0.035992
664.140261	0.036060
664.344659	0.036596
664.549038	0.036457
664.753400	0.036448
664.957743	0.036585
665.162068	0.036340
665.366375	0.036351
665.570663	0.036458
665.774933	0.036408
665.979185	0.036347
666.183419	0.036081
666.387635	0.036203
666.591832	0.036186
666.796011	0.036224
667.000172	0.036147
667.204315	0.036132
667.408439	0.035849
667.612545	0.035903
667.816634	0.035880
668.020703	0.035773
668.224755	0.035914
668.428788	0.036031
668.632803	0.036168
668.836800	0.036144
669.040779	0.036474
669.244739	0.036635
669.448681	0.036623
669.652605	0.036653
669.856511	0.036749
670.060399	0.036395
670.264268	0.036413
670.468119	0.036059
670.671952	0.036117
670.875767	0.035914
671.079563	0.036153
671.283341	0.036204
671.487101	0.036404
671.690843	0.036673
671.894567	0.036683
672.098272	0.036744
672.301959	0.037015
672.505628	0.037231
672.709278	0.037205
672.912911	0.037173
673.116525	0.037039
673.320121	0.037068
673.523699	0.036938
673.727258	0.037400
673.930799	0.037486
674.134322	0.037654
674.337827	0.037763
674.541314	0.037893
674.744782	0.037876
674.948232	0.038199
675.151664	0.038286
675.355078	0.038615
675.558474	0.038502
675.761851	0.038667
675.965210	0.038853
676.168551	0.038797
676.371873	0.038898
676.575178	0.039215
676.778464	0.039163
676.981732	0.039140
677.184981	0.039135
677.388213	0.039156
677.591426	0.039036
677.794621	0.038867
677.997798	0.039213
678.200956	0.039192
678.404097	0.039461
678.607219	0.039514
678.810323	0.039660
679.013408	0.039682
679.216476	0.039766
679.419525	0.039979
679.622556	0.040173
679.825569	0.040082
680.028563	0.040468
680.231540	0.040102
680.434498	0.040339
680.637438	0.040433
680.840359	0.040526
681.043263	0.040771
681.246148	0.041053
681.449015	0.041213
681.651864	0.041205
681.854694	0.041231
682.057506	0.041329
682.260301	0.041503
682.463076	0.041540
682.665834	0.041859
682.868573	0.041879
683.071295	0.041668
683.273998	0.041488
683.476682	0.041418
683.679349	0.041234
683.881997	0.041185
684.084627	0.041145
684.287239	0.041232
684.489833	0.041145
684.692408	0.041266
684.894965	0.041451
685.097504	0.041743
685.300025	0.041777
685.502527	0.041827
685.705012	0.042008
685.907478	0.041966
686.109925	0.042053
686.312355	0.042148
686.514766	0.042016
686.717159	0.041873
686.919534	0.041855
687.121891	0.042073
687.324230	0.042156
687.526550	0.042314
687.728852	0.042406
687.931136	0.042178
688.133401	0.042117
688.335649	0.042201
688.537878	0.042353
688.740089	0.042249
688.942281	0.042269
689.144456	0.042506
689.346612	0.042493
689.548750	0.042374
689.750870	0.042204
689.952971	0.042100
690.155055	0.042172
690.357120	0.041934
690.559167	0.041937
690.761195	0.042151
690.963206	0.042104
691.165198	0.042261
691.367172	0.042911
691.569128	0.043738
691.771065	0.043872
691.972984	0.043994
692.174885	0.044344
692.376768	0.044510
692.578633	0.044357
692.780479	0.044500
692.982308	0.044606
693.184118	0.044174
693.385909	0.043853
693.587683	0.044007
693.789438	0.043935
693.991175	0.044053
694.192894	0.043965
694.394595	0.044046
694.596277	0.043966
694.797941	0.043987
694.999587	0.044273
695.201215	0.044234
695.402824	0.044325
695.604416	0.044474
695.805989	0.044269
696.007543	0.044381
696.209080	0.044674
696.410598	0.044635
696.612099	0.044649
696.813580	0.044429
697.015044	0.044768
697.216490	0.044819
697.417917	0.044849
697.619326	0.045181
697.820717	0.045232
698.022089	0.045049
698.223444	0.045092
698.424780	0.044908
698.626098	0.044614
698.827397	0.044516
699.028679	0.044406
699.229942	0.044186
699.431187	0.044199
699.632414	0.044148
699.833622	0.044166
700.034813	0.044350
700.235985	0.044492
700.437139	0.044916
700.638274	0.044912
700.839392	0.045059
701.040491	0.045382
701.241572	0.045361
701.442635	0.045321
701.643679	0.045530
701.844706	0.045670
702.045714	0.046089
702.246704	0.046212
702.447675	0.046336
702.648629	0.046358
702.849564	0.046263
703.050481	0.046094
703.251380	0.046433
703.452260	0.046108
703.653122	0.045725
703.853966	0.045435
704.054792	0.045222
704.255600	0.045045
704.456389	0.045084
704.657160	0.045162
704.857913	0.045299
705.058648	0.045376
705.259365	0.045851
705.460063	0.046233
705.660743	0.046305
705.861405	0.046543
706.062048	0.046967
706.262674	0.047083
706.463281	0.047182
706.663870	0.047174
706.864441	0.047313
707.064993	0.047076
707.265527	0.046855
707.466043	0.046779
707.666541	0.046970
707.867021	0.046809
708.067482	0.046618
708.267925	0.046646
708.468350	0.046631
708.668757	0.046278
708.869145	0.046165
709.069516	0.046015
709.269868	0.045849
709.470201	0.045623
709.670517	0.045431
709.870814	0.045680
710.071093	0.045544
710.271354	0.045595
710.471597	0.045789
710.671821	0.045963
710.872028	0.046172
711.072216	0.046246
711.272385	0.046162
711.472537	0.046187
711.672670	0.045744
711.872785	0.045789
712.072882	0.045772
712.272961	0.045289
712.473021	0.045025
712.673063	0.044983
712.873087	0.045088
713.073093	0.045365
713.273081	0.045508
713.473050	0.045968
713.673001	0.045885
713.872934	0.045994
714.072849	0.046147
714.272745	0.046395
714.472623	0.046497
714.672483	0.046830
714.872325	0.046871
715.072148	0.046896
715.271954	0.046720
715.471741	0.046949
715.671509	0.047018
715.871260	0.047346
716.070992	0.047312
716.270707	0.047255
716.470403	0.046921
716.670080	0.046740
716.869740	0.046644
717.069381	0.046729
717.269004	0.046596
717.468609	0.046469
717.668195	0.046395
717.867764	0.046610
718.067314	0.046725
718.266846	0.046850
718.466360	0.046694
718.665855	0.046762
718.865332	0.046583
719.064791	0.046782
719.264232	0.046722
719.463655	0.046644
719.663059	0.046366
719.862445	0.046125
720.061813	0.046020
720.261163	0.045992
720.460494	0.045907
720.659807	0.045777
720.859102	0.045621
721.058379	0.045757
721.257638	0.045789
721.456878	0.045850
721.656100	0.045825
721.855304	0.046004
722.054490	0.046036
722.253657	0.046092
722.452806	0.046108
722.651937	0.046213
722.851050	0.046093
723.050145	0.045919
723.249221	0.045867
723.448279	0.046077
723.647319	0.045808
723.846340	0.045734
724.045344	0.045542
724.244329	0.045691
724.443296	0.045361
724.642245	0.045328
724.841175	0.045424
725.040088	0.045140
725.238982	0.045006
725.437857	0.044845
725.636715	0.044985
725.835554	0.044791
726.034376	0.044673
726.233179	0.044504
726.431963	0.044681
726.630730	0.044551
726.829478	0.044851
727.028208	0.044904
727.226920	0.044736
727.425614	0.044528
727.624289	0.044513
727.822946	0.044291
728.021585	0.044661
728.220206	0.044097
728.418808	0.044237
728.617392	0.043652
728.815958	0.043183
729.014506	0.043306
729.213036	0.043055
729.411547	0.043205
729.610040	0.043310
729.808515	0.042973
730.006972	0.043152
730.205410	0.042798
730.403831	0.042985
730.602233	0.043095
730.800616	0.043269
730.998982	0.043291
731.197329	0.043042
731.395658	0.042817
731.593969	0.042683
731.792262	0.042507
731.990536	0.042702
732.188793	0.042622
732.387031	0.042721
732.585250	0.042473
732.783452	0.042635
732.981635	0.042813
733.179800	0.042777
733.377947	0.042685
733.576076	0.042746
733.774186	0.042690
733.972278	0.042780
734.170352	0.042915
734.368408	0.042747
734.566446	0.042439
734.764465	0.042123
734.962466	0.042212
735.160449	0.042306
735.358413	0.042332
735.556360	0.042047
735.754288	0.041888
735.952198	0.041395
736.150090	0.041364
736.347963	0.041347
736.545818	0.041501
736.743655	0.041391
736.941474	0.041667
737.139275	0.041359
737.337057	0.041486
737.534821	0.041487
737.732567	0.041363
737.930295	0.041553
738.128005	0.041980
738.325696	0.041754
738.523369	0.041602
738.721024	0.041182
738.918660	0.040980
739.116279	0.040901
739.313879	0.040903
739.511461	0.041148
739.709024	0.041143
739.906570	0.040654
740.104097	0.041031
740.301606	0.041071
740.499097	0.040908
740.696569	0.040915
740.894024	0.040694
741.091460	0.040533
741.288878	0.040360
741.486277	0.040040
741.683659	0.040076
741.881022	0.039903
742.078367	0.039907
742.275694	0.040163
742.473002	0.040556
742.670293	0.040436
742.867565	0.040668
743.064819	0.040757
743.262054	0.041099
743.459272	0.041169
743.656471	0.040946
743.853652	0.040899
744.050815	0.040862
744.247959	0.040567
744.445085	0.040747
744.642194	0.040380
744.839283	0.040527
745.036355	0.039875
745.233408	0.039628
745.430444	0.039678
745.627461	0.039674
745.824459	0.039586
746.021440	0.039860
746.218402	0.039980
746.415346	0.040147
746.612272	0.039957
746.809180	0.040103
747.006069	0.040103
747.202940	0.039964
747.399793	0.039834
747.596628	0.039742
747.793444	0.039425
747.990243	0.039448
748.187023	0.039424
748.383784	0.039834
748.580528	0.039907
748.777253	0.040273
748.973960	0.040339
749.170649	0.040373
749.367320	0.040377
749.563973	0.040624
749.760607	0.040481
749.957223	0.040390
750.153821	0.040156
750.350400	0.040212
750.546962	0.039462
750.743505	0.039317
750.940030	0.039412
751.136536	0.039270
751.333025	0.038752
751.529495	0.038697
751.725947	0.038632
751.922381	0.038081
752.118796	0.037704
752.315194	0.038000
752.511573	0.038110
752.707934	0.037983
752.904276	0.037962
753.100601	0.038143
753.296907	0.038037
753.493195	0.037974
753.689465	0.038138
753.885716	0.038396
754.081949	0.038499
754.278164	0.038534
754.474361	0.038618
754.670540	0.038735
754.866700	0.038659
755.062843	0.038719
755.258967	0.038702
755.455072	0.038449
755.651160	0.038318
755.847229	0.038356
756.043280	0.038456
756.239313	0.038198
756.435328	0.038005
756.631324	0.038077
756.827302	0.037876
757.023262	0.037530
757.219204	0.037947
757.415127	0.037982
757.611033	0.037855
757.806920	0.037381
758.002788	0.037736
758.198639	0.037723
758.394471	0.037632
758.590286	0.037397
758.786081	0.037489
758.981859	0.037293
759.177619	0.037490
759.373360	0.037571
759.569083	0.037700
759.764788	0.037320
759.960474	0.037310
760.156143	0.037471
760.351793	0.037415
760.547425	0.037378
760.743038	0.036910
760.938634	0.036877
761.134211	0.036722
761.329770	0.036690
761.525311	0.036437
761.720833	0.036332
761.916338	0.036028
762.111824	0.036293
762.307292	0.036246
762.502741	0.036469
762.698173	0.036371
762.893586	0.036020
763.088981	0.036073
763.284358	0.035879
763.479716	0.035843
763.675057	0.035908
763.870379	0.035741
764.065683	0.035722
764.260968	0.035468
764.456236	0.035339
764.651485	0.035726
764.846716	0.035659
765.041929	0.035811
765.237123	0.035770
765.432299	0.035954
765.627457	0.035921
765.822597	0.036217
766.017719	0.036608
766.212822	0.036418
766.407907	0.036281
766.602974	0.036308
766.798023	0.036521
766.993054	0.036267
767.188066	0.035784
767.383060	0.035815
767.578036	0.035648
767.772993	0.035501
767.967933	0.035691
768.162854	0.035655
768.357757	0.035447
768.552642	0.035512
768.747508	0.035835
768.942356	0.035875
769.137186	0.035983
769.331998	0.035949
769.526792	0.035947
769.721567	0.035766
769.916324	0.035978
770.111063	0.036044
770.305784	0.035856
770.500486	0.035818
770.695171	0.036132
770.889837	0.035968
771.084484	0.035947
771.279114	0.036163
771.473725	0.035971
771.668318	0.035645
771.862893	0.035539
772.057450	0.035651
772.251988	0.035689
772.446509	0.035606
772.641011	0.035662
772.835494	0.035467
773.029960	0.035870
773.224407	0.035900
773.418836	0.035937
773.613247	0.036135
773.807640	0.036058
774.002014	0.036102
774.196370	0.036146
774.390708	0.036300
774.585028	0.036367
774.779330	0.035655
774.973613	0.035944
775.167878	0.035895
775.362125	0.035560
775.556354	0.035280
775.750564	0.035269
775.944756	0.035037
776.138930	0.034981
776.333086	0.035054
776.527223	0.035093
776.721343	0.034913
776.915444	0.034758
777.109526	0.034765
777.303591	0.034873
777.497637	0.034688
777.691666	0.034572
777.885676	0.034474
778.079667	0.034262
778.273641	0.034221
778.467596	0.034069
778.661533	0.034128
778.855452	0.034242
779.049352	0.034391
779.243235	0.034559
779.437099	0.034435
779.630945	0.033947
779.824773	0.034391
780.018582	0.034638
780.212373	0.034479
780.406146	0.034663
780.599901	0.034625
780.793638	0.034352
780.987356	0.033833
781.181056	0.034044
781.374738	0.034428
781.568402	0.033875
781.762047	0.033878
781.955674	0.034086
782.149283	0.034117
782.342874	0.033872
782.536447	0.034100
782.730001	0.034339
782.923537	0.034136
783.117055	0.033944
783.310555	0.034300
783.504036	0.033825
783.697499	0.033869
783.890944	0.033702
784.084371	0.033866
784.277780	0.033917
784.471170	0.033910
784.664542	0.034353
784.857896	0.034969
785.051231	0.035024
785.244549	0.035218
785.437848	0.035387
785.631129	0.035260
785.824392	0.035375
786.017636	0.035222
786.210863	0.035319
786.404071	0.035161
786.597260	0.034888
786.790432	0.034670
786.983585	0.034837
787.176721	0.035066
787.369838	0.035057
787.562936	0.034999
787.756017	0.035287
787.949079	0.035462
788.142123	0.035613
788.335149	0.035708
788.528156	0.035795
788.721146	0.035708
788.914117	0.035927
789.107070	0.036437
789.300005	0.036878
789.492921	0.036836
789.685819	0.036601
789.878699	0.036765
790.071561	0.036692
790.264405	0.036721
790.457230	0.037075
790.650037	0.036706
790.842826	0.036379
791.035597	0.036101
791.228349	0.036013
791.421084	0.036253
791.613800	0.036038
791.806497	0.035954
791.999177	0.036346
792.191838	0.036069
792.384481	0.036043
792.577106	0.036288
792.769713	0.036515
792.962301	0.036337
793.154871	0.036137
793.347423	0.036036
793.539957	0.035954
793.732473	0.035795
793.924970	0.035807
794.117449	0.035673
794.309910	0.035390
794.502353	0.035180
794.694777	0.035410
794.887183	0.035359
795.079571	0.035455
795.271941	0.035510
795.464293	0.035624
795.656626	0.035367
795.848941	0.035610
796.041238	0.035447
796.233516	0.035468
796.425777	0.035372
796.618019	0.035382
796.810243	0.035474
797.002449	0.035687
797.194636	0.035430
797.386805	0.035733
797.578956	0.035986
797.771089	0.036536
797.963204	0.036540
798.155300	0.036851
798.347378	0.037167
798.539438	0.036987
798.731480	0.036766
798.923503	0.036682
799.115509	0.036898
799.307496	0.036656
799.499465	0.036340
799.691415	0.036193
799.883348	0.036074
800.075262	0.035999
800.267158	0.036111
800.459035	0.036383
800.650895	0.036448
800.842736	0.036142
801.034559	0.036553
801.226364	0.036645
801.418150	0.036739
801.609919	0.036810
801.801669	0.036682
801.993401	0.036892
802.185114	0.036758
802.376810	0.036742
802.568487	0.036966
802.760146	0.036668
802.951787	0.036728
803.143409	0.036753
803.335014	0.036806
803.526600	0.036870
803.718168	0.036593
803.909717	0.036905
804.101249	0.037019
804.292762	0.037184
804.484257	0.037073
804.675734	0.037203
804.867192	0.037429
805.058632	0.037498
805.250054	0.037563
805.441458	0.037749
805.632844	0.037457
805.824211	0.037631
806.015561	0.037443
806.206891	0.037593
806.398204	0.037553
806.589499	0.037627
806.780775	0.037310
806.972033	0.037370
807.163273	0.037535
807.354495	0.037435
807.545698	0.037716
807.736883	0.038055
807.928050	0.037537
808.119199	0.037521
808.310329	0.037444
808.501441	0.038018
808.692535	0.038043
808.883611	0.037798
809.074669	0.038285
809.265708	0.038200
809.456729	0.038330
809.647732	0.038748
809.838717	0.038713
810.029683	0.038954
810.220632	0.038984
810.411562	0.039365
810.602474	0.039603
810.793367	0.039347
810.984242	0.039242
811.175100	0.039140
811.365938	0.039303
811.556759	0.039773
811.747562	0.039887
811.938346	0.039706
812.129112	0.039424
812.319860	0.039425
812.510589	0.039683
812.701300	0.039642
812.891994	0.039296
813.082668	0.039356
813.273325	0.039113
813.463964	0.038738
813.654584	0.038411
813.845186	0.038704
814.035769	0.038761
814.226335	0.038606
814.416882	0.038684
814.607411	0.039015
814.797922	0.038896
814.988415	0.039147
815.178889	0.039743
815.369345	0.040443
815.559783	0.040249
815.750203	0.040640
815.940605	0.040768
816.130988	0.041074
816.321353	0.041373
816.511700	0.041952
816.702028	0.041983
816.892339	0.041634
817.082631	0.041242
817.272905	0.041336
817.463161	0.041060
817.653398	0.041459
817.843617	0.041337
818.033819	0.041080
818.224001	0.040876
818.414166	0.040937
818.604312	0.041128
818.794440	0.041482
818.984550	0.041596
819.174642	0.041570
819.364716	0.041252
819.554771	0.041081
819.744808	0.041250
819.934827	0.041013
820.124827	0.041189
820.314810	0.041135
820.504774	0.041132
820.694720	0.041310
820.884647	0.041518
821.074557	0.041588
821.264448	0.041789
821.454321	0.041393
821.644176	0.041629
821.834012	0.041057
822.023831	0.041225
822.213631	0.041101
822.403413	0.041311
822.593176	0.041297
822.782922	0.041466
822.972649	0.041602
823.162358	0.042084
823.352049	0.041899
823.541721	0.042116
823.731376	0.041971
823.921012	0.041748
824.110629	0.041119
824.300229	0.041182
824.489811	0.041013
824.679374	0.041180
824.868919	0.040925
825.058445	0.041112
825.247954	0.041276
825.437444	0.041188
825.626916	0.041516
825.816370	0.041881
826.005806	0.042002
826.195223	0.042168
826.384622	0.041903
826.574003	0.041615
826.763366	0.041787
826.952711	0.041765
827.142037	0.042034
827.331345	0.042022
827.520635	0.041921
827.709906	0.041765
827.899160	0.041647
828.088395	0.041741
828.277612	0.042258
828.466810	0.042220
828.655991	0.042190
828.845153	0.042206
829.034297	0.042173
829.223423	0.042402
829.412531	0.042479
829.601620	0.042700
829.790691	0.042844
829.979744	0.042391
830.168779	0.042856
830.357795	0.043177
830.546793	0.043494
830.735773	0.043669
830.924735	0.043512
831.113679	0.043449
831.302604	0.043307
831.491511	0.043480
831.680400	0.043865
831.869271	0.043511
832.058123	0.043534
832.246957	0.043442
832.435773	0.043723
832.624571	0.044038
832.813351	0.044389
833.002112	0.044619
833.190855	0.044549
833.379580	0.045156
833.568287	0.045161
833.756975	0.044958
833.945645	0.045020
834.134297	0.045224
834.322931	0.045206
834.511547	0.045363
834.700144	0.045706
834.888723	0.045751
835.077284	0.045365
835.265826	0.045953
835.454351	0.046564
835.642857	0.046582
835.831345	0.046279
836.019815	0.046775
836.208266	0.046687
836.396699	0.046344
836.585114	0.046408
836.773511	0.046723
836.961890	0.046439
837.150250	0.046175
837.338592	0.046087
837.526916	0.046298
837.715222	0.045982
837.903510	0.046115
838.091779	0.046295
838.280030	0.046079
838.468263	0.046243
838.656477	0.046447
838.844674	0.046499
839.032852	0.046576
839.221012	0.046748
839.409153	0.047054
839.597277	0.047410
839.785382	0.047778
839.973469	0.048297
840.161538	0.048308
840.349589	0.048412
840.537621	0.048897
840.725635	0.049309
840.913631	0.049742
841.101609	0.049670
841.289568	0.049610
841.477509	0.049656
841.665432	0.049663
841.853337	0.049571
842.041224	0.049800
842.229092	0.049538
842.416942	0.049320
842.604774	0.049046
842.792588	0.048925
842.980383	0.048585
843.168160	0.048335
843.355919	0.048522
843.543660	0.048789
843.731382	0.048465
843.919087	0.048857
844.106773	0.048992
844.294441	0.049083
844.482090	0.049090
844.669722	0.049579
844.857335	0.049902
845.044930	0.050066
845.232507	0.050092
845.420065	0.050230
845.607605	0.050338
845.795127	0.050361
845.982631	0.050373
846.170117	0.050817
846.357584	0.050965
846.545033	0.050990
846.732464	0.050872
846.919877	0.050810
847.107272	0.050800
847.294648	0.050623
847.482006	0.051292
847.669346	0.051178
847.856667	0.051343
848.043971	0.051473
848.231256	0.051683
848.418523	0.051136
848.605771	0.051249
848.793002	0.051306
848.980214	0.051828
849.167408	0.051761
849.354584	0.051890
849.541742	0.051891
849.728881	0.051743
849.916002	0.051747
850.103105	0.052603
850.290190	0.052725
850.477256	0.053348
850.664304	0.053460
850.851334	0.053369
851.038346	0.053559
851.225340	0.053782
851.412315	0.053759
851.599272	0.053481
851.786211	0.053183
851.973132	0.053290
852.160034	0.052903
852.346918	0.052343
852.533784	0.052396
852.720632	0.052672
852.907462	0.052343
853.094273	0.052519
853.281066	0.052988
853.467841	0.053562
853.654598	0.053699
853.841336	0.053722
854.028056	0.053623
854.214758	0.053681
854.401442	0.053488
854.588107	0.053740
854.774755	0.053903
854.961384	0.053844
855.147995	0.053459
855.334587	0.053354
855.521162	0.053706
855.707718	0.054095
855.894256	0.053744
856.080775	0.053365
856.267277	0.053016
856.453760	0.053213
856.640225	0.053423
856.826672	0.054021
857.013101	0.053896
857.199511	0.053810
857.385903	0.054042
857.572277	0.054652
857.758633	0.055240
857.944970	0.055777
858.131290	0.056064
858.317591	0.055916
858.503873	0.055464
858.690138	0.055972
858.876384	0.056294
859.062612	0.056249
859.248822	0.056025
859.435014	0.055933
859.621188	0.055828
859.807343	0.055532
859.993480	0.055868
860.179599	0.056626
860.365699	0.056623
860.551781	0.056315
860.737846	0.056128
860.923891	0.056410
861.109919	0.056709
861.295929	0.056871
861.481920	0.056508
861.667893	0.056468
861.853848	0.056037
862.039784	0.056179
862.225702	0.056507
862.411603	0.056651
862.597484	0.056346
862.783348	0.056219
862.969193	0.056563
863.155021	0.056892
863.340830	0.056936
863.526620	0.056844
863.712393	0.056806
863.898147	0.056657
864.083883	0.057146
864.269601	0.057721
864.455301	0.058150
864.640982	0.058396
864.826645	0.059040
865.012290	0.059560
865.197917	0.060205
865.383526	0.060432
865.569116	0.060564
865.754688	0.060794
865.940242	0.060728
866.125777	0.060664
866.311295	0.060243
866.496794	0.060693
866.682275	0.060892
866.867737	0.060741
867.053182	0.060582
867.238608	0.060892
867.424016	0.060519
867.609406	0.060514
867.794778	0.060675
867.980131	0.060912
868.165466	0.059891
868.350783	0.059593
868.536082	0.059747
868.721362	0.059675
868.906625	0.059648
869.091869	0.059518
869.277094	0.059418
869.462302	0.059439
869.647491	0.059694
869.832662	0.059844
870.017815	0.059771
870.202950	0.059787
870.388066	0.060139
870.573165	0.060013
870.758245	0.059997
870.943306	0.060196
871.128350	0.059989
871.313375	0.060163
871.498382	0.059845
871.683371	0.060015
871.868342	0.059567
872.053294	0.059688
872.238229	0.059413
872.423144	0.059755
872.608042	0.059562
872.792922	0.059929
872.977783	0.059609
873.162626	0.060285
873.347451	0.059946
873.532258	0.060513
873.717046	0.060273
873.901816	0.060112
874.086568	0.059698
874.271302	0.059909
874.456017	0.059325
874.640715	0.059050
874.825394	0.059053
875.010055	0.059253
875.194697	0.059004
875.379322	0.059283
875.563928	0.059995
875.748516	0.060330
875.933085	0.060408
876.117637	0.061048
876.302170	0.061211
876.486685	0.061303
876.671182	0.060900
876.855661	0.061512
877.040121	0.061370
877.224563	0.061207
877.408987	0.061552
877.593393	0.061797
877.777780	0.061383
877.962150	0.061093
878.146501	0.061207
878.330833	0.061809
878.515148	0.061307
878.699444	0.061548
878.883722	0.061844
879.067982	0.061256
879.252224	0.060961
879.436447	0.061416
879.620653	0.062125
879.804840	0.062001
879.989008	0.061693
880.173159	0.061830
880.357291	0.061266
880.541405	0.061359
880.725501	0.061620
880.909579	0.061762
881.093638	0.061890
881.277680	0.062333
881.461703	0.062068
881.645707	0.062106
881.829694	0.062315
882.013662	0.062891
882.197612	0.063057
882.381544	0.063124
882.565458	0.062963
882.749353	0.062477
882.933230	0.061773
883.117089	0.062611
883.300930	0.062991
883.484753	0.062744
883.668557	0.062646
883.852343	0.061897
884.036111	0.062114
884.219861	0.062069
884.403592	0.062020
884.587305	0.062324
884.771000	0.061431
884.954677	0.061056
885.138335	0.060860
885.321976	0.060621
885.505598	0.060707
885.689201	0.060783
885.872787	0.061104
886.056354	0.060938
886.239904	0.060514
886.423434	0.060960
886.606947	0.061305
886.790442	0.060948
886.973918	0.061294
887.157376	0.061507
887.340816	0.061045
887.524237	0.060762
887.707641	0.061202
887.891026	0.061341
888.074393	0.061604
888.257741	0.061584
888.441072	0.061927
888.624384	0.061851
888.807678	0.061856
888.990954	0.062531
889.174211	0.063036
889.357451	0.062716
889.540672	0.063129
889.723875	0.062450
889.907059	0.062449
890.090226	0.062678
890.273374	0.062789
890.456504	0.062717
890.639616	0.062475
890.822709	0.061913
891.005785	0.061994
891.188842	0.061972
891.371881	0.062591
891.554901	0.062651
891.737904	0.062359
891.920888	0.061810
892.103854	0.061519
892.286802	0.061133
892.469731	0.061391
892.652643	0.061428
892.835536	0.061213
893.018410	0.060880
893.201267	0.060736
893.384106	0.061244
893.566926	0.061751
893.749728	0.062227
893.932511	0.062759
894.115277	0.062632
894.298024	0.062846
894.480753	0.062676
894.663464	0.061956
894.846157	0.062083
895.028831	0.061996
895.211487	0.061727
895.394125	0.061812
895.576745	0.061525
895.759346	0.061397
895.941930	0.061769
896.124495	0.061431
896.307041	0.062067
896.489570	0.062153
896.672080	0.062194
896.854573	0.062384
897.037046	0.061800
897.219502	0.061579
897.401940	0.061401
897.584359	0.060993
897.766760	0.061496
897.949143	0.060922
898.131507	0.060572
898.313854	0.060075
898.496182	0.060404
898.678492	0.059954
898.860783	0.059734
899.043057	0.059519
899.225312	0.059569
899.407549	0.059654
899.589768	0.059557
899.771968	0.059739
899.954151	0.060234
900.136315	0.059530
900.318461	0.060317
900.500588	0.060885
900.682698	0.061396
900.864789	0.061066
901.046862	0.060946
901.228917	0.061153
901.410953	0.060703
901.592971	0.060075
901.774972	0.060088
901.956953	0.059821
902.138917	0.059191
902.320862	0.058813
902.502790	0.058508
902.684699	0.057959
902.866589	0.058234
903.048462	0.058220
903.230316	0.058171
903.412152	0.058005
903.593970	0.058049
903.775770	0.057812
903.957551	0.057882
904.139314	0.057942
904.321059	0.057883
904.502786	0.057005
904.684494	0.056722
904.866185	0.056990
905.047857	0.056931
905.229510	0.056781
905.411146	0.057306
905.592763	0.057178
905.774363	0.057041
905.955943	0.056822
906.137506	0.057790
906.319051	0.057717
906.500577	0.057565
906.682085	0.058079
906.863575	0.058176
907.045046	0.057793
907.226500	0.057697
907.407935	0.057438
907.589352	0.057333
907.770750	0.056452
907.952131	0.056397
908.133493	0.056223
908.314837	0.055396
908.496163	0.054709
908.677470	0.054425
908.858760	0.053800
909.040031	0.053955
909.221284	0.054146
909.402518	0.054216
909.583735	0.053771
909.764933	0.053420
909.946113	0.053274
910.127275	0.052805
910.308418	0.052508
910.489544	0.053077
910.670651	0.052518
910.851740	0.051606
911.032810	0.051428
911.213863	0.051202
911.394897	0.050642
911.575913	0.050193
911.756911	0.051054
911.937890	0.051601
912.118851	0.050810
912.299794	0.050945
912.480719	0.051164
912.661626	0.051296
912.842514	0.051241
913.023384	0.050786
913.204236	0.050708
913.385070	0.050045
913.565886	0.049503
913.746683	0.049699
913.927462	0.049657
914.108223	0.050258
914.288965	0.049710
914.469690	0.050066
914.650396	0.051215
914.831084	0.051128
915.011754	0.050782
915.192405	0.050601
915.373038	0.050374
915.553653	0.050497
915.734250	0.049845
915.914829	0.049931
916.095389	0.050408
916.275931	0.049995
916.456455	0.050338
916.636961	0.050606
916.817448	0.050068
916.997917	0.050000
917.178368	0.049400
917.358801	0.049575
917.539216	0.048833
917.719612	0.047328
917.899990	0.047028
918.080350	0.046328
918.260692	0.046167
918.441015	0.046523
918.621320	0.045975
918.801607	0.045993
918.981876	0.045260
919.162127	0.045730
919.342359	0.046148
919.522573	0.045713
919.702769	0.044885
919.882947	0.044182
920.063106	0.043750
920.243247	0.044881
920.423370	0.044801
920.603475	0.044683
920.783562	0.044673
920.963630	0.044080
921.143680	0.043988
921.323712	0.044905
921.503725	0.045144
921.683721	0.044754
921.863698	0.043506
922.043657	0.042868
922.223598	0.043197
922.403520	0.041991
922.583424	0.043055
922.763311	0.042709
922.943178	0.042225
923.123028	0.041901
923.302859	0.042192
923.482673	0.041401
923.662467	0.041989
923.842244	0.040750
924.022003	0.041776
924.201743	0.040421
924.381465	0.040388
924.561169	0.040366
924.740854	0.040346
924.920522	0.039303
925.100171	0.039790
925.279802	0.038546
925.459414	0.038414
925.639009	0.037663
925.818585	0.037923
925.998143	0.037161
926.177683	0.037161
926.357205	0.036255
926.536708	0.036699
926.716193	0.036453
926.895660	0.036957
927.075109	0.037148
927.254539	0.037208
927.433951	0.037038
927.613345	0.037738
927.792721	0.036830
927.972079	0.036629
928.151418	0.035584
928.330739	0.034849
928.510042	0.033950
928.689327	0.033990
928.868593	0.033502
929.047841	0.032870
929.227071	0.030710
929.406283	0.030948
929.585476	0.030594
929.764652	0.030527
929.943809	0.029742
930.122948	0.029947
930.302068	0.029261
930.481171	0.028788
930.660255	0.028795
930.839321	0.029811
931.018369	0.029541
931.197398	0.029608
931.376409	0.029642
931.555402	0.030581
931.734377	0.030958
931.913334	0.030629
932.092272	0.030130
932.271192	0.028558
932.450094	0.028440
932.628978	0.026958
932.807844	0.027036
932.986691	0.026741
933.165520	0.025846
933.344331	0.023976
933.523123	0.024142
933.701898	0.022911
933.880654	0.022845
934.059392	0.021904
934.238111	0.022603
934.416813	0.021229
934.595496	0.019928
934.774161	0.019964
934.952808	0.020899
935.131437	0.020076
935.310047	0.019881
935.488639	0.020333
935.667213	0.021019
935.845769	0.021486
936.024306	0.024056
936.202825	0.024350
936.381326	0.024357
936.559809	0.023489
936.738274	0.023079
936.916720	0.023749
937.095148	0.022740
937.273558	0.022333
937.451950	0.021652
937.630323	0.017554
937.808678	0.018465
937.987015	0.017432
938.165334	0.017347
938.343635	0.017439
938.521917	0.018071
938.700181	0.019746
938.878427	0.018186
939.056655	0.017827
939.234864	0.019578
939.413055	0.018229
939.591228	0.017623
939.769383	0.016819
939.947519	0.017512
940.125638	0.016396
940.303738	0.014353
940.481820	0.014753
940.659883	0.013036
940.837929	0.012948
941.015956	0.012811
941.193965	0.014889
941.371955	0.014358
941.549928	0.014041
941.727882	0.013020
941.905818	0.013096
942.083736	0.013595
942.261636	0.014077
942.439517	0.012527
942.617380	0.013373
942.795225	0.011710
942.973052	0.012090
943.150860	0.012198
943.328651	0.012821
943.506423	0.012463
943.684176	0.012473
943.861912	0.012210
944.039629	0.013339
944.217328	0.013301
944.395009	0.012966
944.572672	0.010898
944.750317	0.007967
944.927943	0.007241
945.105551	0.007804
945.283141	0.007344
945.460712	0.009317
945.638265	0.010731
945.815801	0.010078
945.993317	0.009207
946.170816	0.010899
946.348297	0.010476
946.525759	0.011028
946.703203	0.009321
946.880629	0.008344
947.058036	0.005461
947.235425	0.003954
947.412797	0.002710
947.590149	0.003492
947.767484	0.004230
947.944800	0.004731
948.122099	0.002762
948.299379	0.002996
948.476640	0.002502
948.653884	0.004309
948.831109	0.002433
949.008316	0.001200
949.185505	0.001105
949.362676	-0.000264
949.539828	0.001588
949.716962	0.003189
949.894078	0.004782
950.071176	0.004219
950.248256	0.003222
950.425317	0.003988
950.602360	0.006599
950.779385	0.004881
950.956391	0.006248
951.133380	0.005360
951.310350	0.004736
951.487302	0.004409
951.664235	0.004820
951.841151	0.005388
952.018048	0.007977
952.194927	0.006854
952.371788	0.010530
952.548631	0.011799
952.725455	0.011538
952.902261	0.011872
953.079049	0.012980
953.255819	0.016276
953.432570	0.014740
953.609303	0.013511
953.786018	0.013994
953.962715	0.012169
954.139394	0.009845
954.316054	0.006939
954.492696	0.006339
954.669320	0.004028
954.845926	0.000931
955.022513	0.001349
955.199083	0.002436
955.375634	0.000215
955.552166	0.001897
955.728681	0.000435
955.905177	0.003517
956.081655	0.003580
956.258115	0.003080
956.434557	0.001591
956.610980	0.001088
956.787385	-0.002392
956.963772	0.000490
957.140141	-0.000599
957.316492	0.001298
957.492824	0.003244
957.669138	0.003786
957.845434	0.003196
958.021712	0.002750
958.197971	0.002450
958.374212	0.001066
958.550435	0.004498
958.726640	0.001631
958.902826	0.002398
959.078995	0.002830
959.255145	0.002910
959.431277	0.000253
959.607390	0.002101
959.783486	0.003175
959.959563	0.006795
960.135622	0.006068
960.311662	0.010055
960.487685	0.009083
960.663689	0.006122
960.839675	0.007808
961.015643	0.012601
961.191593	0.011361
961.367524	0.011778
961.543437	0.010846
961.719332	0.006997
961.895209	0.004911
962.071067	0.002652
962.246907	0.004421
962.422730	0.007704
962.598533	0.010608
962.774319	0.014339
962.950086	0.011435
963.125835	0.008763
963.301566	0.012366
963.477279	0.013782
963.652973	0.013411
963.828650	0.012363
964.004308	0.007046
964.179947	0.006510
964.355569	0.006442
964.531172	0.007902
964.706757	0.012927
964.882324	0.010401
965.057873	0.004496
965.233403	0.005986
965.408916	0.007164
965.584410	0.010237
965.759885	0.007955
965.935343	0.005663
966.110782	0.002683
966.286203	0.000106
966.461606	-0.004348
966.636991	-0.001130
966.812357	0.003704
966.987705	0.004364
967.163035	0.005835
967.338347	0.005080
967.513641	0.004725
967.688916	0.008191
967.864173	0.010271
968.039412	0.013798
968.214632	0.014477
968.389835	0.013598
968.565019	0.011356
968.740185	0.014777
968.915333	0.017694
969.090462	0.020790
969.265573	0.022931
969.440667	0.024997
969.615741	0.028511
969.790798	0.030652
969.965836	0.028958
970.140856	0.031368
970.315858	0.029075
970.490842	0.028472
970.665808	0.026859
970.840755	0.029072
971.015684	0.024544
971.190595	0.022679
971.365487	0.018312
971.540362	0.019301
971.715218	0.016012
971.890056	0.013647
972.064875	0.012740
972.239677	0.016364
972.414460	0.009768
972.589225	0.012689
972.763972	0.011365
972.938700	0.015239
973.113411	0.016021
973.288103	0.019383
973.462777	0.018212
973.637432	0.014304
973.812070	0.007277
973.986689	0.010762
974.161290	0.009478
974.335873	0.008096
974.510437	0.008104
974.684984	0.002793
974.859512	0.004593
975.034022	0.002614
975.208513	0.007701
975.382987	0.009912
975.557442	0.007137
975.731879	0.008081
975.906298	0.009662
976.080698	0.007842
976.255080	0.015131
976.429445	0.015485
976.603790	0.017251
976.778118	0.018730
976.952427	0.020907
977.126719	0.021097
977.300992	0.021176
977.475246	0.019073
977.649483	0.022834
977.823701	0.017582
977.997901	0.010478
978.172083	0.009271
978.346247	0.003722
978.520392	0.001390
978.694519	0.002447
978.868628	0.000718
979.042719	0.004789
979.216791	0.000546
979.390845	0.000959
979.564882	0.005261
979.738899	0.006900
979.912899	0.008160
980.086880	0.008386
980.260843	0.010267
980.434788	0.014605
980.608715	0.013292
980.782623	0.017359
980.956514	0.015226
981.130386	0.018039
981.304240	0.016611
981.478075	0.017487
981.651892	0.017039
981.825692	0.019482
981.999472	0.016336
982.173235	0.012779
982.346980	0.010734
982.520706	0.016755
982.694414	0.008935
982.868104	0.009626
983.041775	0.010611
983.215428	0.015468
983.389064	0.009505
983.562680	0.006943
983.736279	0.012470
983.909860	0.011385
984.083422	0.010056
984.256966	0.014916
984.430491	0.012307
984.603999	0.011146
984.777488	0.010994
984.950959	0.014037
985.124412	0.014126
985.297847	0.007642
985.471263	0.007730
985.644661	0.008640
985.818041	0.007269
985.991403	0.010823
986.164747	0.011460
986.338072	0.008129
986.511379	0.008051
986.684668	0.010454
986.857938	0.013142
987.031191	0.012167
987.204425	0.009564
987.377641	0.008017
987.550839	0.005938
987.724018	0.007012
987.897179	0.007772
988.070322	0.007177
988.243447	0.005374
988.416554	0.010496
988.589642	0.013232
988.762712	0.013683
988.935764	0.015190
989.108798	0.017478
989.281813	0.016444
989.454811	0.013750
989.627790	0.012603
989.800751	0.011238
989.973693	0.004647
990.146617	0.005549
990.319524	0.005528
990.492412	0.006851
990.665281	0.006881
990.838133	0.008061
991.010966	0.014321
991.183781	0.018917
991.356578	0.024544
991.529356	0.030809
991.702117	0.028467
991.874859	0.027037
992.047583	0.027967
992.220288	0.029120
992.392976	0.026420
992.565645	0.020366
992.738296	0.020275
992.910929	0.015602
993.083543	0.010230
993.256139	0.009494
993.428718	0.008862
993.601277	0.008120
993.773819	0.007966
993.946342	0.007032
994.118848	0.009617
994.291335	0.007230
994.463803	0.007864
994.636254	0.010683
994.808686	0.012501
994.981100	0.016424
995.153496	0.016647
995.325874	0.014292
995.498233	0.014590
995.670574	0.014573
995.842897	0.014368
996.015202	0.014264
996.187488	0.012798
996.359757	0.010988
996.532007	0.008160
996.704239	0.007007
996.876452	0.007298
997.048648	0.009425
997.220825	0.006049
997.392984	0.005826
997.565124	0.007386
997.737247	0.005683
997.909351	0.005469
998.081437	0.008290
998.253505	0.005751
998.425554	0.004242
998.597586	0.002946
998.769599	0.005428
998.941594	0.004168
999.113571	0.001508
999.285529	0.002624
999.457469	0.001771
999.629391	-0.000860
999.801295	0.001022
999.973181	0.003201
1000.145048	0.004220
1000.316897	-0.000535
1000.488728	-0.001064
1000.660541	0.000933
1000.832335	0.003411
1001.004111	0.007714
1001.175869	0.006674
1001.347609	0.006403
1001.519331	0.006236
1001.691034	0.007674
1001.862719	0.010792
1002.034386	0.014886
1002.206035	0.016960
1002.377665	0.011910
1002.549277	0.010540
1002.720871	0.011017
1002.892447	0.011613
1003.064004	0.012484
1003.235544	0.009104
1003.407065	0.010914
1003.578568	0.009760
1003.750052	0.009873
1003.921519	0.014268
1004.092967	0.013204
1004.264397	0.011910
1004.435809	0.012611
1004.607202	0.012359
1004.778577	0.015643
1004.949934	0.012701
1005.121273	0.010983
1005.292594	0.008100
1005.463896	0.009780
1005.635180	0.013325
1005.806446	0.011586
1005.977694	0.008616
1006.148923	0.009658
1006.320135	0.006360
1006.491328	0.009353
1006.662503	0.009522
1006.833659	0.008415
1007.004798	0.005579
1007.175918	0.000372
1007.347020	0.002956
1007.518103	0.002871
1007.689169	0.000741
1007.860216	0.002923
1008.031245	0.001693
1008.202256	0.001395
1008.373248	0.005328
1008.544223	0.006479
1008.715179	0.006310
1008.886117	0.008882
1009.057036	0.014486
1009.227938	0.014257
1009.398821	0.010767
1009.569686	0.013577
1009.740533	0.016141
1009.911361	0.015540
1010.082172	0.014920
1010.252964	0.016426
1010.423738	0.013257
1010.594493	0.012051
1010.765231	0.011990
1010.935950	0.014199
1011.106651	0.012631
1011.277334	0.008994
1011.447998	0.005357
1011.618645	0.004665
1011.789273	0.005858
1011.959882	0.008649
1012.130474	0.009024
1012.301048	0.010994
1012.471603	0.009818
1012.642140	0.009444
1012.812658	0.009752
1012.983159	0.009838
1013.153641	0.011218
1013.324105	0.012910
1013.494551	0.012027
1013.664979	0.006507
1013.835388	0.002250
1014.005779	0.003559
1014.176152	0.003971
1014.346507	0.008596
1014.516843	0.009269
1014.687162	0.011773
1014.857462	0.006902
1015.027744	0.005060
1015.198007	0.008877
1015.368252	0.009015
1015.538480	0.009055
1015.708689	0.005803
1015.878879	0.003831
1016.049052	0.003306
1016.219206	-0.004263
1016.389342	-0.002700
1016.559460	-0.003023
1016.729559	-0.006874
1016.899641	-0.005224
1017.069704	-0.005442
1017.239749	-0.003396
1017.409775	-0.005968
1017.579784	-0.006599
1017.749774	-0.003638
1017.919746	-0.002487
1018.089700	0.001354
1018.259635	0.005580
1018.429553	0.008776
1018.599452	0.008479
1018.769333	0.012563
1018.939195	0.015637
1019.109040	0.016642
1019.278866	0.017168
1019.448674	0.015843
1019.618464	0.012201
1019.788235	0.010814
1019.957989	0.011629
1020.127724	0.011724
1020.297441	0.005031
1020.467139	0.000598
1020.636820	0.000406
1020.806482	0.000072
1020.976126	-0.001545
1021.145752	-0.001981
1021.315359	-0.001334
1021.484948	-0.003013
1021.654519	-0.002501
1021.824072	0.000671
1021.993607	0.003158
1022.163123	0.007287
1022.332621	0.005580
1022.502101	0.006652
1022.671563	0.008266
1022.841007	0.007241
1023.010432	0.003551
1023.179839	0.003658
1023.349228	0.003300
1023.518598	0.003724
1023.687951	0.000963
1023.857285	0.003548
1024.026601	0.003819
1024.195899	0.001783
1024.365178	0.002740
1024.534439	0.003213
1024.703682	0.002705
1024.872907	0.003010
1025.042114	0.007100
1025.211302	0.003970
1025.380472	0.004430
1025.549624	0.006887
1025.718758	0.008741
1025.887873	0.008963
1026.056970	0.011914
1026.226049	0.013715
1026.395110	0.014398
1026.564153	0.012990
1026.733177	0.017160
1026.902183	0.014652
1027.071171	0.012818
1027.240141	0.011350
1027.409092	0.012520
1027.578026	0.008738
1027.746940	0.009708
1027.915837	0.011269
1028.084716	0.008080
1028.253576	0.005674
1028.422418	0.005734
1028.591242	0.003380
1028.760048	0.005300
1028.928835	0.003179
1029.097604	0.007309
1029.266355	0.002281
1029.435088	0.002613
1029.603803	0.003236
1029.772499	0.006526
1029.941177	0.010312
1030.109837	0.011712
1030.278478	0.010108
1030.447102	0.012651
1030.615707	0.008863
1030.784294	0.010075
1030.952863	0.007614
1031.121413	0.006219
1031.289945	0.003906
1031.458460	0.003303
1031.626955	0.005777
1031.795433	0.006635
1031.963892	0.000376
1032.132334	0.002281
1032.300756	0.000778
1032.469161	0.000856
1032.637548	-0.001145
1032.805916	-0.003483
1032.974266	-0.003576
1033.142598	-0.004333
1033.310911	-0.003811
1033.479207	0.000275
1033.647484	-0.001575
1033.815743	0.000079
1033.983983	0.000054
1034.152206	0.004047
1034.320410	0.005329
1034.488596	0.002670
1034.656764	-0.000720
1034.824914	-0.000682
1034.993045	-0.001913
1035.161158	-0.000068
1035.329253	0.003527
1035.497330	0.002099
1035.665388	0.000377
1035.833428	0.002951
1036.001450	0.003808
1036.169454	0.005716
1036.337440	0.007319
1036.505407	0.009858
1036.673356	0.010186
1036.841287	0.006385
1037.009200	0.007667
1037.177094	0.005953
1037.344970	0.005282
1037.512828	0.004910
1037.680668	0.006717
1037.848489	0.008183
1038.016293	0.004855
1038.184078	0.004169
1038.351845	0.005273
1038.519593	0.004931
1038.687324	0.005501
1038.855036	0.004323
1039.022730	0.005166
1039.190406	0.004888
1039.358063	0.002849
1039.525702	0.001995
1039.693323	0.002196
1039.860926	0.001436
1040.028511	0.000600
1040.196077	0.000549
1040.363625	0.000849
1040.531155	0.002216
1040.698667	0.000045
1040.866161	-0.002070
1041.033636	-0.001161
1041.201093	-0.001106
1041.368532	-0.001322
1041.535952	-0.000840
1041.703355	0.000527
1041.870739	-0.000757
1042.038105	-0.000397
1042.205452	-0.000665
1042.372782	0.004025
1042.540093	0.005550
1042.707386	0.001894
1042.874661	0.001810
1043.041918	-0.000466
1043.209156	-0.000299
1043.376376	-0.000399
1043.543578	-0.001089
1043.710762	0.002397
1043.877927	-0.002917
1044.045074	0.000100
1044.212203	0.004822
1044.379314	0.006091
1044.546407	0.007824
1044.713481	0.009863
1044.880537	0.011874
1045.047575	0.009851
1045.214595	0.008861
1045.381596	0.007194
1045.548579	0.003715
1045.715544	0.002849
1045.882491	0.002174
1046.049420	0.000240
1046.216330	-0.004121
1046.383222	-0.002417
1046.550096	-0.003816
1046.716951	-0.003996
1046.883789	-0.001229
1047.050608	-0.002589
1047.217409	-0.001169
1047.384192	-0.001916
1047.550956	0.000327
1047.717703	0.003735
1047.884431	-0.002734
1048.051140	-0.000975
1048.217832	-0.002708
1048.384505	-0.001841
1048.551161	-0.000787
1048.717798	-0.002096
1048.884416	-0.000913
1049.051017	0.000668
1049.217599	-0.002557
1049.384163	0.003169
1049.550709	0.000386
1049.717237	0.001171
1049.883746	0.000204
1050.050237	-0.001204
1050.216710	-0.002781
1050.383165	-0.004968
1050.549601	-0.008051
1050.716019	-0.005460
1050.882420	-0.005560
1051.048801	0.000592
1051.215165	0.000264
1051.381510	-0.003087
1051.547837	0.002562
1051.714146	0.005309
1051.880437	0.008561
1052.046709	0.010632
1052.212964	0.010505
1052.379200	0.005679
1052.545417	0.001578
1052.711617	-0.000472
1052.877798	0.002422
1053.043961	-0.003128
1053.210106	-0.005216
1053.376233	-0.005952
1053.542341	-0.004039
1053.708432	-0.006377
1053.874504	-0.003963
1054.040557	-0.000612
1054.206593	0.001904
1054.372610	0.003235
1054.538609	0.004517
1054.704590	0.008708
1054.870553	0.009764
1055.036497	0.009703
1055.202424	0.012112
1055.368331	0.015834
1055.534221	0.015789
1055.700093	0.014459
1055.865946	0.010416
1056.031781	0.008249
1056.197598	0.005713
1056.363397	0.005308
1056.529177	0.004360
1056.694939	0.004040
1056.860683	0.001272
1057.026409	-0.000237
1057.192116	0.004112
1057.357806	0.007369
1057.523477	0.010172
1057.689130	0.010172
1057.854764	0.008326
1058.020381	0.006590
1058.185979	0.006503
1058.351559	0.008516
1058.517120	0.010237
1058.682664	0.006256
1058.848189	0.006102
1059.013696	0.006526
1059.179185	0.008836
1059.344656	0.009077
1059.510108	0.010713
1059.675542	0.008533
1059.840958	0.006729
1060.006356	0.005047
1060.171735	0.007794
1060.337096	0.007877
1060.502439	0.004318
1060.667764	0.000673
1060.833071	0.000456
1060.998359	-0.000464
1061.163629	0.002514
1061.328881	0.001835
1061.494115	0.001397
1061.659330	-0.001294
1061.824527	-0.003409
1061.989706	-0.003031
1062.154867	-0.003312
1062.320010	-0.005526
1062.485134	-0.005622
1062.650240	-0.004310
1062.815328	-0.003785
1062.980398	-0.003674
1063.145449	-0.001157
1063.310482	-0.000012
1063.475497	0.000195
1063.640494	-0.002036
1063.805473	-0.002273
1063.970433	-0.005180
1064.135375	-0.006475
1064.300299	-0.008179
1064.465204	-0.009458
1064.630092	-0.010067
1064.794961	-0.008024
1064.959812	-0.009338
1065.124645	-0.005672
1065.289459	-0.005708
1065.454256	-0.000502
1065.619034	-0.007746
1065.783793	-0.007635
1065.948535	-0.007476
1066.113258	-0.006600
1066.277964	-0.008521
1066.442651	-0.005863
1066.607319	-0.008172
1066.771970	-0.004887
1066.936602	-0.009373
1067.101216	-0.000417
1067.265812	0.001066
1067.430389	0.002361
1067.594949	-0.001558
1067.759490	-0.005338
1067.924013	-0.003737
1068.088518	-0.005314
1068.253004	-0.004710
1068.417472	-0.001890
1068.581922	-0.000968
1068.746354	-0.002725
1068.910768	-0.000210
1069.075163	0.003865
1069.239540	0.015158
1069.403899	0.015031
1069.568240	0.017135
1069.732562	0.011363
1069.896866	0.012113
1070.061152	0.007362
1070.225420	0.011753
1070.389670	0.011083
1070.553901	0.009525
1070.718114	0.007348
1070.882309	0.008177
1071.046486	0.009940
1071.210644	0.010407
1071.374784	0.009680
1071.538906	0.008872
1071.703010	0.009608
1071.867096	0.006118
1072.031163	0.004822
1072.195212	-0.001849
1072.359243	-0.005692
1072.523256	-0.006204
1072.687250	-0.002767
1072.851226	-0.002334
1073.015184	0.000406
1073.179124	-0.006354
1073.343045	-0.006160
1073.506949	-0.004795
1073.670834	-0.002294
1073.834701	0.000038
1073.998549	0.000815
1074.162380	0.003600
1074.326192	0.001451
1074.489986	0.002671
1074.653761	0.002246
1074.817519	0.002116
1074.981258	0.003886
1075.144979	0.003858
1075.308682	-0.000788
1075.472367	-0.005947
1075.636033	-0.005756
1075.799681	-0.003647
1075.963311	-0.002238
1076.126923	0.003252
1076.290516	0.001142
1076.454092	-0.007286
1076.617649	-0.004959
1076.781187	0.003493
1076.944708	0.011253
1077.108210	0.012127
1077.271695	0.009856
1077.435160	0.007857
1077.598608	0.008700
1077.762038	0.009575
1077.925449	0.018377
1078.088842	0.017840
1078.252217	0.016591
1078.415573	0.009288
1078.578912	0.004416
1078.742232	0.013835
1078.905534	0.011540
1079.068817	0.006652
1079.232083	0.003614
1079.395330	-0.005136
1079.558559	-0.009099
1079.721770	-0.011317
1079.884962	-0.003854
1080.048136	-0.002698
1080.211293	-0.008784
1080.374430	-0.012037
1080.537550	-0.009124
1080.700651	-0.006815
1080.863735	0.003163
1081.026800	0.006840
1081.189846	0.010180
1081.352875	0.007143
1081.515885	0.008271
1081.678877	0.007745
1081.841851	0.013828
1082.004807	0.007612
1082.167744	0.009278
1082.330663	0.000988
1082.493564	-0.004267
1082.656447	-0.005362
1082.819312	-0.009473
1082.982158	-0.005395
1083.144986	-0.004521
1083.307796	-0.005790
1083.470587	-0.001166
1083.633361	-0.003077
1083.796116	0.005572
1083.958853	0.007223
1084.121571	0.003060
1084.284272	0.005976
1084.446954	0.003685
1084.609618	0.003728
1084.772264	0.013206
1084.934892	0.010920
1085.097501	0.018790
1085.260092	0.010225
1085.422665	0.016526
1085.585220	0.022065
1085.747756	0.022222
1085.910274	0.022929
1086.072774	0.018569
1086.235256	0.006205
1086.397720	0.009678
1086.560165	-0.001482
1086.722592	0.003591
1086.885001	-0.001986
1087.047392	-0.006901
1087.209764	-0.002673
1087.372119	-0.007477
1087.534455	-0.007312
1087.696772	-0.005611
1087.859072	-0.010240
1088.021353	-0.000489
1088.183616	0.000550
1088.345861	-0.003092
1088.508088	0.000056
1088.670296	-0.001684
1088.832486	-0.001876
1088.994658	-0.000685
1089.156812	-0.004242
1089.318948	0.003547
1089.481065	-0.000713
1089.643164	-0.009474
1089.805245	-0.001478
1089.967308	0.000604
1090.129352	-0.002025
1090.291378	-0.002145
1090.453386	0.001139
1090.615376	0.008798
1090.777347	0.013463
1090.939301	0.024931
1091.101236	0.039082
1091.263153	0.037667
1091.425051	0.032488
1091.586932	0.030059
1091.748794	0.027713
1091.910638	0.028889
1092.072463	0.024977
1092.234271	0.017088
1092.396060	0.003630
1092.557831	-0.008376
1092.719584	-0.013090
1092.881319	-0.005395
1093.043035	-0.003843
1093.204733	0.009653
1093.366413	0.003277
1093.528075	-0.001838
1093.689718	0.002259
1093.851343	0.009403
1094.012950	0.018211
1094.174539	0.021054
1094.336110	0.010952
1094.497662	0.011995
1094.659196	0.002984
1094.820712	0.001518
1094.982210	0.005064
1095.143689	-0.003684
1095.305151	-0.007518
1095.466594	-0.006253
1095.628018	-0.001869
1095.789425	0.002256
1095.950813	0.007199
1096.112183	0.017454
1096.273535	0.022844
1096.434869	0.021490
1096.596184	0.021068
1096.757482	0.018625
1096.918761	0.016631
1097.080021	0.007504
1097.241264	0.005699
1097.402488	0.008424
1097.563694	-0.003767
1097.724882	-0.013075
1097.886052	-0.017276
1098.047203	-0.009041
1098.208336	-0.005781
1098.369451	-0.011305
1098.530548	-0.006158
1098.691627	-0.005213
1098.852687	-0.021193
1099.013729	-0.016071
1099.174753	-0.004879
1099.335758	0.001929
1099.496746	-0.001810
1099.657715	0.000900
1099.818666	0.002274
1099.979599	0.004791
1100.140513	0.007431
1100.301409	0.015863
1100.462287	0.003498
1100.623147	-0.003155
1100.783989	-0.003590
1100.944812	-0.006838
1101.105617	-0.015423
1101.266404	-0.013649
1101.427173	-0.019337
1101.587923	-0.024588
1101.748656	-0.030123
1101.909370	-0.021952
1102.070066	-0.010576
1102.230743	-0.006629
1102.391403	-0.004049
1102.552044	0.001981
1102.712667	0.004774
1102.873271	0.004826
1103.033858	0.011013
1103.194426	0.027639
1103.354976	0.028257
1103.515508	0.018908
1103.676021	0.022999
1103.836517	0.011237
1103.996994	0.005285
1104.157453	0.012438
1104.317893	0.030435
1104.478316	0.035243
1104.638720	0.024028
1104.799106	0.021824
1104.959474	0.026837
1105.119823	0.028903
1105.280155	0.046035
1105.440468	0.056766
1105.600763	0.049028
1105.761039	0.029119
1105.921298	0.016855
1106.081538	0.020762
1106.241760	0.021831
1106.401964	0.012799
1106.562149	0.005663
1106.722316	-0.002094
1106.882465	-0.005920
1107.042596	-0.010240
1107.202709	-0.005795
1107.362803	-0.008879
1107.522879	-0.011590
1107.682937	-0.007724
1107.842977	0.000784
1108.002999	-0.003275
1108.163002	0.004249
1108.322987	0.003531
1108.482954	0.006906
1108.642902	-0.004032
1108.802833	0.006769
1108.962745	-0.002583
1109.122639	-0.011608
1109.282515	-0.009109
1109.442372	-0.004108
1109.602211	-0.009361
1109.762032	-0.009651
1109.921835	-0.007821
1110.081620	-0.002362
1110.241386	-0.002727
1110.401134	0.024125
1110.560864	0.023174
1110.720576	0.020917
1110.880269	0.026632
1111.039945	0.026936
1111.199602	0.027155
1111.359240	0.021622
1111.518861	0.032227
1111.678463	0.023383
1111.838047	0.007033
1111.997613	0.008970
1112.157161	0.009353
1112.316690	-0.000453
1112.476202	0.007756
1112.635695	0.007896
1112.795169	0.011952
1112.954626	0.008176
1113.114064	0.006676
1113.273484	0.004393
1113.432886	0.014687
1113.592270	0.005608
1113.751635	0.012637
1113.910983	0.010404
1114.070312	0.004645
1114.229622	-0.002000
1114.388915	0.003434
1114.548189	0.013986
1114.707445	0.005978
1114.866683	-0.003293
1115.025903	0.003777
1115.185104	0.002127
1115.344287	0.012613
1115.503452	0.015071
1115.662599	0.019344
1115.821727	0.011386
1115.980838	0.006452
1116.139930	0.031457
1116.299004	0.032109
1116.458059	0.035120
1116.617097	0.035423
1116.776116	0.026095
1116.935117	0.032018
1117.094099	0.030700
1117.253064	0.032165
1117.412010	0.035031
1117.570938	0.023849
1117.729848	0.029404
1117.888740	0.014227
1118.047613	0.007969
1118.206468	0.003823
1118.365305	0.001669
1118.524124	-0.015304
1118.682924	-0.013566
1118.841707	-0.001778
1119.000471	-0.009144
1119.159216	-0.010118
1119.317944	0.004960
1119.476653	0.020780
1119.635344	0.028863
1119.794017	0.036706
1119.952672	0.060892
1120.111308	0.051104
1120.269927	0.037080
1120.428527	0.039795
1120.587108	0.035504
1120.745672	0.030882
1120.904217	0.015978
1121.062744	0.016058
1121.221253	0.012601
1121.379744	0.016450
1121.538216	0.016463
1121.696671	0.026767
1121.855107	0.037442
1122.013524	0.043012
1122.171924	0.031479
1122.330305	0.031634
1122.488668	0.017445
1122.647013	0.016309
1122.805340	0.001831
1122.963648	-0.000207
1123.121938	-0.013532
1123.280210	-0.023566
1123.438464	-0.031107
1123.596700	-0.018957
1123.754917	-0.018541
1123.913116	-0.021635
1124.071297	-0.029167
1124.229459	-0.009092
1124.387604	-0.003228
1124.545730	-0.002340
1124.703838	-0.001698
1124.861928	0.003317
1125.019999	-0.015397
1125.178052	-0.008089
1125.336088	-0.000489
1125.494104	0.012718
1125.652103	0.001343
1125.810083	0.001143
1125.968045	0.002575
1126.125989	0.007799
1126.283915	0.011246
1126.441823	0.009442
1126.599712	-0.006943
1126.757583	-0.006417
1126.915436	-0.010967
1127.073270	-0.010685
1127.231087	0.007661
1127.388885	0.002770
1127.546665	-0.000627
1127.704426	0.003868
1127.862170	0.032692
1128.019895	0.043032
1128.177602	0.041920
1128.335291	0.039664
1128.492961	0.038656
1128.650614	0.023707
1128.808248	0.019346
1128.965864	0.017630
1129.123461	0.015553
1129.281041	0.016477
1129.438602	0.027982
1129.596145	0.037086
1129.753670	0.033891
1129.911176	0.038785
1130.068665	0.035148
1130.226135	0.039227
1130.383587	0.050129
1130.541020	0.044356
1130.698436	0.034831
1130.855833	0.016325
1131.013212	0.005601
1131.170573	-0.001178
1131.327915	-0.005620
1131.485239	-0.008343
1131.642545	-0.008670
1131.799833	-0.026836
1131.957103	-0.012615
1132.114354	-0.018093
1132.271588	-0.027779
1132.428803	-0.031564
1132.585999	-0.024554
1132.743178	-0.023583
1132.900338	-0.019613
1133.057480	-0.020826
1133.214604	-0.022814
1133.371710	-0.031700
1133.528797	-0.043186
1133.685866	-0.017397
1133.842917	-0.024613
1133.999950	-0.033025
1134.156964	-0.035888
1134.313960	-0.048380
1134.470938	-0.050701
1134.627898	-0.052294
1134.784840	-0.062678
1134.941763	-0.046297
1135.098668	-0.063189
1135.255555	-0.048831
1135.412424	-0.043285
1135.569274	-0.060108
1135.726107	-0.059721
1135.882921	-0.043813
1136.039716	-0.025202
1136.196494	-0.018943
1136.353253	-0.020901
1136.509995	-0.026823
1136.666717	-0.019862
1136.823422	-0.024397
1136.980109	-0.002793
1137.136777	0.018038
1137.293427	0.018118
1137.450059	0.021221
1137.606672	0.034569
1137.763267	0.045992
1137.919844	0.059025
1138.076403	0.050045
1138.232944	0.053591
1138.389466	0.055776
1138.545971	0.054133
1138.702457	0.063189
1138.858924	0.058225
1139.015374	0.070574
1139.171805	0.050235
1139.328218	0.062426
1139.484613	0.073790
1139.640990	0.096889
1139.797348	0.093215
1139.953688	0.093640
1140.110010	0.079573
1140.266314	0.077958
1140.422600	0.047396
1140.578867	0.035955
1140.735116	0.025140
1140.891347	0.019186
1141.047559	0.002219
1141.203754	-0.003646
1141.359930	-0.000516
1141.516088	-0.004627
1141.672228	-0.003898
1141.828349	0.005400
1141.984452	0.004484
1142.140537	0.006402
1142.296604	0.007190
1142.452653	0.006709
1142.608683	0.022874
1142.764695	0.009735
1142.920689	0.015404
1143.076665	0.032230
1143.232622	0.032170
1143.388562	0.061804
1143.544483	0.066438
1143.700385	0.067732
1143.856270	0.079966
1144.012136	0.069243
1144.167985	0.087652
1144.323814	0.084263
1144.479626	0.052173
1144.635420	0.048450
1144.791195	0.028008
1144.946952	0.020203
1145.102691	0.018346
1145.258411	0.033837
1145.414113	0.022083
1145.569798	0.011026
1145.725463	0.009198
1145.881111	0.023014
1146.036741	0.054597
1146.192352	0.073376
1146.347945	0.078206
1146.503519	0.084810
1146.659076	0.071202
1146.814614	0.073819
1146.970134	0.100037
1147.125636	0.097061
1147.281120	0.086323
1147.436585	0.046815
1147.592032	0.051919
1147.747461	0.059174
1147.902872	0.057690
1148.058265	0.045092
1148.213639	0.074466
1148.368995	0.040558
1148.524333	0.069339
1148.679653	0.075013
1148.834954	0.071457
1148.990237	0.075588
1149.145502	0.068598
1149.300749	0.061559
1149.455977	0.060316
1149.611188	0.045750
1149.766380	0.068058
1149.921553	0.017060
1150.076709	0.011593
1150.231846	0.043059
1150.386966	0.020624
1150.542066	0.024361
1150.697149	0.030978
1150.852214	0.030021
1151.007260	0.031565
1151.162288	0.019430
1151.317298	0.048693
1151.472289	0.051834
1151.627263	0.051501
1151.782218	0.051388
1151.937155	0.038450
1152.092073	0.032847
1152.246974	0.046996
1152.401856	0.032311
1152.556720	0.022080
1152.711566	0.014849
1152.866393	-0.000604
1153.021203	-0.013787
1153.175994	-0.005698
1153.330767	0.028744
1153.485521	0.019710
1153.640258	-0.007849
1153.794976	0.001302
1153.949676	-0.006120
1154.104358	-0.004301
1154.259021	-0.014700
1154.413667	-0.014343
1154.568294	-0.009554
1154.722903	0.001621
1154.877493	-0.002895
1155.032066	0.018763
1155.186620	0.013946
1155.341156	0.023894
1155.495674	0.019530
1155.650173	0.056467
1155.804654	0.077355
1155.959118	0.052148
1156.113562	0.010143
1156.267989	0.017850
1156.422397	0.006296
1156.576788	0.025024
1156.731160	0.011882
1156.885513	0.013997
1157.039849	0.013034
1157.194166	-0.011163
1157.348465	-0.004596
1157.502746	0.006381
1157.657009	0.012077
1157.811253	0.031599
1157.965479	0.036665
1158.119687	0.040643
1158.273877	0.015666
1158.428048	-0.000085
1158.582201	0.002789
1158.736337	0.035303
1158.890453	0.018275
1159.044552	0.036943
1159.198632	0.021516
1159.352694	0.003916
1159.506738	0.033064
1159.660764	0.053113
1159.814771	0.023706
1159.968761	0.025160
1160.122732	-0.005258
1160.276685	0.011148
1160.430619	-0.004550
1160.584535	-0.002531
1160.738434	-0.001080
1160.892313	-0.019216
1161.046175	-0.014618
1161.200019	0.025898
1161.353844	0.025968
1161.507651	0.024186
1161.661440	0.006337
1161.815210	0.000036
1161.968962	-0.025201
1162.122697	-0.023874
1162.276412	-0.016746
1162.430110	-0.030481
1162.583789	-0.041325
1162.737451	-0.057693
1162.891094	-0.054804
1163.044718	-0.045630
1163.198325	-0.053821
1163.351913	-0.027166
1163.505483	-0.017405
1163.659035	-0.026089
1163.812569	-0.021740
1163.966084	-0.045573
1164.119581	-0.027958
1164.273060	-0.022614
1164.426521	-0.027266
1164.579964	-0.023520
1164.733388	-0.036993
1164.886794	-0.038965
1165.040182	-0.054376
1165.193551	-0.047785
1165.346903	0.006839
1165.500236	0.021465
1165.653551	0.021324
1165.806848	0.041793
1165.960126	0.037067
1166.113386	0.025606
1166.266628	0.006153
1166.419852	0.045208
1166.573058	0.069155
1166.726245	0.006208
1166.879414	-0.015645
1167.032565	-0.034940
1167.185698	-0.065451
1167.338812	-0.067703
1167.491909	-0.019827
1167.644987	-0.008476
1167.798046	0.009493
1167.951088	-0.005445
1168.104111	0.016564
1168.257117	0.030688
1168.410103	0.059312
1168.563072	0.089183
1168.716023	0.137696
1168.868955	0.094247
1169.021869	0.090874
1169.174765	0.071956
1169.327642	0.078294
1169.480501	0.076440
1169.633343	0.062083
1169.786165	0.060404
1169.938970	0.024162
1170.091757	-0.015796
1170.244525	0.012930
1170.397275	0.042044
1170.550007	0.025484
1170.702720	0.003228
1170.855415	0.031111
1171.008092	0.018954
1171.160751	0.010458
1171.313392	0.024591
1171.466014	0.208508
1171.618619	-0.073790
1171.771205	-0.073790
1171.923772	-0.073790
