sample name	sample
index	572
start time	 03-16-2021  03:05:33 PM
880	-0.009511
Peak Time (s)	182.536
Peak Height 	-0.009511
calc peak height	180,183
Baseline Time (s)	9.04
Baseline Value 	-0.005909
subtract baseline	10,4
Abs	0.001029
Peak Time (s)	182.036
Peak Height 	0.001029
calc peak height	180,183
Baseline Time (s)	10.036
Baseline Value 	0.007007
subtract baseline	10,3
PK_550	0.004393
Peak Time (s)	181.035
Peak Height 	0.004393
calc peak height	180,183
Baseline Time (s)	9.536
Baseline Value 	6.0077E-4
subtract baseline	10,2
PK_880	0.002477
Peak Time (s)	180.535
Peak Height 	0.002477
calc peak height	180,183
Baseline Time (s)	10.036
Baseline Value 	8.0102E-4
subtract baseline	10,1


Time (s)	A880-A510	A880-A775	A880-A975	A880	I510	I775	I975	I880	
0.035000	0.000892	-0.000596	-0.004811	0.003880	5575.415838	33838.202675	3607.533967	18359.940287
0.535500	-0.002584	-0.000291	-0.004228	0.005742	5541.885187	33727.379802	3605.183599	18293.486794
1.036000	-0.002573	-0.000464	-0.002354	0.004077	5552.366647	33833.642602	3611.704365	18352.911978
1.537000	-0.003032	-0.000090	-0.011551	0.007096	5530.655832	33645.526748	3589.420709	18245.319166
2.036500	0.000116	-0.000248	-0.000597	0.001099	5588.116132	34062.248730	3620.510120	18459.757676
2.536500	0.000079	-0.000338	-0.007262	0.001133	5587.669628	34053.396158	3608.078456	18458.534296
3.037500	0.001525	0.000102	-0.010172	-0.001062	5610.882262	34243.198297	3606.762739	18537.748592
3.537000	-0.001226	-0.000244	-0.000231	0.004117	5560.574378	33846.497540	3615.565860	18351.476981
4.035000	0.001146	-0.000499	-0.005981	0.000509	5598.425453	34086.644853	3611.593008	18481.009792
4.535000	0.000524	-0.000735	-0.003723	-0.000094	5598.299560	34112.993260	3616.901873	18502.750296
5.035500	0.000279	0.000646	-0.000902	0.001864	5584.293647	34071.546801	3618.511068	18432.219705
5.536000	0.000497	0.000468	-0.000858	0.002108	5584.132477	34041.248598	3618.137804	18423.471264
6.036000	0.002337	-0.000063	-0.002457	0.001253	5601.278049	34064.514823	3616.752216	18454.217636
6.536500	-0.000391	-0.000787	-0.007547	0.000720	5587.301535	34050.762076	3608.314370	18473.396142
7.036500	0.000276	-0.000419	-0.002730	0.000357	5593.852453	34103.360927	3617.913009	18486.505038
7.536500	-0.000050	0.000550	-0.005498	0.001287	5585.870567	34106.192216	3611.049122	18452.999250
8.036500	0.000799	0.000407	-0.004052	0.000304	5597.518264	34166.663817	3615.550764	18488.412001
8.535000	-0.000336	-0.000390	-0.004754	0.000122	5591.456143	34122.346647	3614.585760	18494.978181
9.040000	-0.000376	-0.000106	0.000730	0.000000	5591.977452	34151.604328	3625.058721	18499.372843
9.535500	0.000308	0.000000	-0.001691	-0.000170	5597.406453	34171.440176	3620.835667	18505.498491
10.036000	0.000000	-0.000608	0.000000	-0.000382	5596.799618	34142.897949	3624.404838	18513.169378
10.535500	0.001400	0.000909	0.000751	0.000780	5598.317643	34168.514496	3623.633231	18471.240443
11.035500	0.003251	0.000349	0.001033	0.001100	5608.087078	34105.078908	3623.561622	18459.703472
11.536500	-0.002299	0.000090	-0.001167	-0.000174	5580.874780	34178.238272	3621.825992	18505.664022
12.036500	0.000100	-0.000713	-0.006480	-0.000483	5598.082508	34142.611441	3612.507146	18516.821411
12.537500	-0.000544	-0.000211	0.000402	-0.000060	5591.285042	34148.325032	3624.554805	18501.521019
13.037000	0.000416	-0.000504	-0.006659	-0.000743	5601.753705	34176.461239	3612.656509	18526.227651
13.538500	0.001027	0.000308	-0.005448	0.002604	5584.347058	33994.136339	3608.709048	18405.647650
14.035500	-0.002844	-0.000785	-0.008785	0.002173	5562.621815	33946.743030	3603.372160	18421.132017
14.535500	-0.000424	0.000296	-0.002460	0.002511	5575.748307	33999.914090	3614.407856	18408.990901
15.036000	0.000240	0.000095	-0.002935	0.000051	5595.566432	34162.352184	3618.100915	18497.518129
15.536000	-0.002922	-0.000159	-0.001614	0.002157	5562.233168	33992.760438	3616.638915	18421.712149
16.036500	0.001587	0.000068	0.000850	-0.000161	5605.515961	34175.732199	3625.587579	18505.189381
16.536500	-0.000304	-0.000699	-0.008514	-0.000950	5598.479950	34177.318142	3609.610636	18533.696400
17.037000	0.000746	0.000491	-0.002454	-0.002772	5616.848234	34395.276501	3624.283498	18599.746390
17.537000	0.000775	0.000636	0.005688	0.002123	5585.799221	34052.208802	3630.407934	18422.932398
18.034500	-0.000749	-0.000213	-0.002342	0.001342	5581.095833	34047.356399	3616.800226	18451.017056
18.538000	-0.000530	-0.000098	-0.001937	0.001426	5581.942645	34049.502337	3617.397905	18447.971695
19.035000	0.000244	-0.000986	-0.002048	0.000619	5591.976661	34043.668134	3618.695134	18477.028378
19.536000	-0.001095	-0.000541	-0.004275	0.000753	5582.632683	34066.079159	3614.302370	18472.216289
20.035500	0.000858	0.000490	0.005997	0.001879	5587.881096	34059.270608	3631.455202	18431.711551
20.536000	-0.000691	-0.000054	-0.000613	0.001580	5579.950891	34041.669908	3619.580731	18442.437490
21.036500	-0.000076	-0.000525	-0.002933	0.001377	5585.131862	34022.375251	3615.635593	18449.734269
21.537000	0.000104	-0.000114	-0.002956	0.001866	5583.175534	34016.876389	3614.686220	18432.177950
22.037000	0.000347	-0.000149	-0.000196	0.001539	5586.789466	34037.752229	3620.436789	18443.907619
22.537000	0.000550	0.000417	0.001375	0.001697	5587.077468	34067.084452	3623.083338	18438.239557
23.037500	-0.002274	-0.000691	0.003113	0.000807	5574.829261	34051.418165	3628.028406	18470.270976
23.535000	-0.000275	-0.000526	-0.006768	0.001148	5585.326630	34038.800423	3608.961419	18457.988846
24.035500	0.001147	0.000288	0.003577	0.001428	5592.580334	34077.155435	3627.732088	18447.926213
24.535500	0.001174	0.000490	-0.002888	0.001387	5593.006333	34094.616535	3615.700730	18449.371856
25.036000	-0.000204	0.000051	-0.003200	0.000931	5587.152173	34095.821799	3615.968800	18465.795522
25.536000	0.000285	0.000798	0.000827	0.002178	5582.350561	34059.904432	3621.154758	18420.967564
26.036500	0.003973	0.000598	0.001280	0.002203	5605.658800	34043.756227	3621.957316	18420.062046
26.537000	-0.001895	-0.000182	-0.007676	0.001396	5573.503385	34045.729276	3606.833883	18449.079442
27.037000	0.001659	0.000193	-0.004644	-0.001229	5612.808895	34261.860797	3617.300458	18543.787789
27.535000	0.001741	0.000539	0.002816	0.000334	5603.334528	34173.953756	3628.360717	18487.318117
28.038000	0.001059	-0.000351	-0.004381	-0.000372	5603.488188	34160.690160	3616.195247	18512.789009
28.535000	0.001208	-0.000660	0.000129	-0.000658	5606.268254	34159.066369	3625.166909	18523.150312
29.035500	-0.001043	0.000635	-0.000388	-0.000195	5588.973714	34219.094413	3623.324657	18506.418566
29.535500	0.000881	0.000397	0.000397	0.000466	5597.012519	34154.255568	3623.558317	18482.562400
30.036000	-0.000029	0.000251	0.001409	-0.000117	5594.930447	34185.742025	3626.557988	18503.606085
30.536500	-0.001113	-0.000298	-0.007836	0.003066	5567.898292	33917.685411	3603.475615	18389.092235
31.036500	0.001228	-0.000226	0.003815	0.001061	5595.430856	34066.547363	3628.872293	18461.108987
31.537000	0.002470	0.001146	0.003303	0.002441	5594.548519	34065.995773	3625.306961	18411.505821
32.034500	0.002366	0.000856	0.000957	0.000298	5607.556876	34199.450900	3624.925882	18488.612306
32.537500	0.002769	0.000472	-0.002711	0.000236	5610.540454	34176.263136	3618.174693	18490.871663
33.035000	0.003557	0.000595	-0.007098	-0.000927	5623.051613	34269.110507	3612.185351	18532.884435
33.534500	0.000517	0.000973	-0.000692	0.001998	5584.958339	34085.470168	3618.653890	18427.431078
34.035500	-0.000879	0.000012	0.001562	0.002396	5573.599286	33987.853158	3622.122086	18413.123769
34.536000	-0.002413	-0.000148	-0.005061	0.001981	5566.541635	34006.102093	3610.572851	18428.012568
35.036000	-0.001395	0.000107	-0.006527	0.002005	5572.813692	34022.694955	3607.826395	18427.166487
35.536000	0.001191	0.000270	-0.005789	0.002512	5585.977042	33998.055941	3608.251781	18408.975649
36.037000	0.000456	0.000449	-0.005320	0.002356	5582.304660	34022.075926	3609.404174	18414.572391
36.537000	0.000827	-0.000336	0.004289	0.001732	5588.612094	34010.506342	3628.502043	18436.977827
37.038000	-0.000174	0.000299	0.000405	0.002956	5574.517197	33968.239656	3618.911598	18393.021033
37.534500	0.000622	0.000157	0.001664	0.002264	5583.937560	34007.714677	3622.560710	18417.856985
38.035000	-0.001472	0.000838	-0.001562	0.002454	5569.491171	34042.933748	3616.181580	18411.037076
38.535500	-0.000918	0.000143	-0.004832	0.002312	5573.884077	34003.228909	3610.383672	18416.127169
39.036000	0.000055	0.000729	0.001588	0.003286	5573.877901	33975.394261	3620.505007	18381.192731
39.536500	0.000482	0.000130	-0.003493	0.002465	5581.775990	33991.357474	3612.577326	18410.639018
40.036500	0.000375	0.000420	0.004867	0.002545	5580.595919	34006.438423	3628.059287	18407.790143
40.536500	-0.001249	-0.000702	-0.003540	0.001540	5576.672937	33998.005532	3614.204991	18443.876878
41.037000	0.000890	0.000712	-0.002112	0.003279	5579.208233	33974.775031	3613.629621	18381.469833
41.537500	-0.000075	0.000183	-0.004062	0.002262	5579.536651	34009.723872	3611.901359	18417.952761
42.040500	0.002210	-0.000641	0.002054	0.002175	5594.587305	33956.875976	3623.458925	18421.044238
42.535000	0.000252	0.000577	-0.006351	0.002836	5577.968377	33996.783605	3606.619985	18397.327619
43.035500	-0.002160	-0.000237	-0.005969	0.002372	5565.672293	33971.682833	3608.176506	18413.979711
43.535500	0.001606	0.000305	-0.002020	-0.001238	5612.524599	34270.618666	3622.219241	18544.112060
44.035500	0.002046	0.000801	0.005575	-0.000061	5607.807772	34221.378597	3634.337510	18501.572007
44.536000	0.001937	0.000782	0.007542	0.000760	5601.866455	34160.789569	3636.517789	18471.949987
45.036500	0.000807	0.001013	0.002807	0.001779	5588.187972	34104.047761	3625.619356	18435.277699
45.536500	-0.001582	-0.000203	-0.004493	0.003819	5560.206730	33870.636215	3608.230298	18362.117883
46.037000	0.002582	0.000550	0.000558	0.000687	5606.458377	34149.351328	3623.446600	18474.607066
46.534500	0.000330	-0.000416	0.001871	-0.000088	5597.032974	34135.577339	3627.373628	18502.560875
47.037000	0.000312	0.000156	-0.000717	0.003691	5572.942944	33905.432583	3615.454453	18366.706954
47.535000	0.000172	0.000234	-0.003489	0.003940	5570.491396	33893.236792	3609.858274	18357.797221
48.034500	0.000399	0.001296	0.000489	0.000688	5592.525985	34203.054496	3623.313382	18474.550547
48.535500	-0.001270	0.001008	-0.001903	0.001050	5579.644213	34156.207852	3618.161697	18461.520854
49.036000	-0.000606	-0.000607	-0.005580	0.000998	5584.176006	34043.739418	3611.431474	18463.383115
49.535500	-0.002623	-0.000128	-0.005081	0.002482	5562.065081	33971.592397	3609.611841	18410.021852
50.036000	0.005065	0.000300	-0.000151	0.003596	5603.730191	33922.516519	3616.682414	18370.096650
50.537000	0.017459	0.002205	0.018965	0.059553	5339.043283	30286.985867	3550.942081	16490.631587
51.034000	-0.000376	-0.007030	-0.004585	0.079862	5128.110350	28483.036048	3479.613022	15866.226521
51.537500	-0.010852	-0.017848	0.001131	-0.140718	6557.731854	44395.117767	3938.623251	24498.142933
52.034500	-0.013347	-0.075514	-0.005495	-0.371696	9138.242564	64767.116578	4703.016686	39715.502068
52.535500	-0.007390	-0.048133	0.005830	-0.330268	8643.520921	62796.601439	4576.136468	36358.923413
53.035500	-0.007751	-0.022113	-0.003102	-0.264790	7825.806396	57590.745450	4297.781774	31665.488721
53.535500	-0.003602	-0.018602	0.000318	-0.249149	7695.354693	56083.253553	4256.453956	30645.247522
54.036000	-0.008851	-0.013635	-0.004216	-0.245508	7596.773121	56245.895096	4229.450561	30412.927947
54.536000	-0.015099	-0.011822	-0.009555	-0.214047	7200.386107	52722.831560	4113.995983	28484.987414
55.037000	-0.003959	-0.007932	-0.012876	-0.242273	7614.997034	56550.140641	4191.056694	30208.180126
55.537000	-0.002301	-0.004690	-0.011954	-0.229834	7497.684273	55425.126352	4154.871112	29434.952020
56.037000	0.000122	-0.003635	-0.005512	-0.218363	7401.459040	54179.331953	4139.369080	28741.292291
56.535000	-0.000932	-0.002873	-0.010319	-0.200868	7210.343689	52239.521093	4072.745130	27717.981611
57.035500	-0.003352	-0.002500	-0.006070	-0.171716	6903.230386	49073.210512	4002.285263	26101.771257
57.535500	-0.001950	-0.002846	-0.007994	-0.155465	6766.334684	47340.294095	3953.351267	25246.798623
58.035500	-0.003208	-0.003363	-0.009975	-0.131500	6544.251153	44902.004898	3886.949701	24042.954752
58.536000	-0.004285	-0.003771	-0.007015	-0.113538	6384.959243	43160.630505	3850.327148	23183.207543
59.036500	-0.008234	-0.001553	-0.008138	-0.111489	6336.201302	43176.303695	3842.744620	23087.387240
59.535500	-0.003029	0.001636	-0.008718	-0.084907	6167.815766	41061.957262	3780.032585	21884.262384
60.037000	0.001047	-0.001680	-0.006621	-0.105265	6360.970649	42590.985190	3831.594039	22799.055939
60.537500	-0.001828	-0.000337	-0.009124	-0.079827	6138.136554	40446.474166	3767.836612	21662.581452
61.037000	-0.004898	-0.001964	-0.010441	-0.106931	6326.349257	42717.659928	3826.532365	22875.820076
61.541000	-0.007339	-0.000926	-0.009113	-0.128188	6481.141737	44817.365692	3880.882295	23881.733268
62.035500	-0.004322	0.001666	-0.006150	-0.119841	6436.611925	44265.003880	3867.666544	23480.863118
62.537000	-0.005923	0.001277	-0.006268	-0.117926	6407.536287	44045.885613	3862.719668	23389.959518
63.042500	-0.003721	0.000857	-0.010956	-0.117068	6418.618158	43924.872683	3849.340954	23349.369925
63.539000	-0.002672	0.000740	-0.010256	-0.114269	6404.187925	43649.972949	3844.322021	23217.495852
64.039000	-0.003212	0.001354	-0.014159	-0.111796	6379.486614	43475.807232	3829.225631	23101.726314
64.537000	0.000859	0.001306	-0.007137	-0.109965	6397.839779	43300.427883	3841.501476	23016.413383
65.037000	-0.003233	-0.000038	-0.007551	-0.104201	6317.782523	42643.861320	3826.905542	22750.140748
65.539500	-0.000775	0.000537	-0.007083	-0.107564	6364.842740	43006.327205	3835.931892	22905.066027
66.034500	-0.001307	0.000980	-0.008456	-0.105243	6341.702439	42833.024013	3827.229212	22798.027510
66.535500	-0.002782	0.000758	-0.010894	-0.104445	6323.374621	42739.294965	3819.665173	22761.350294
67.035000	-0.004014	-0.000072	-0.013337	-0.097110	6255.148713	41996.442241	3797.150560	22427.449459
67.536000	-0.002411	0.000821	-0.008150	-0.099420	6286.145253	42286.155882	3814.367497	22531.984398
68.038500	-0.001125	0.000390	-0.008602	-0.098818	6291.585272	42192.470632	3811.927187	22504.679544
68.536000	-0.000963	0.000945	-0.007451	-0.097089	6279.124214	42086.373087	3810.594411	22426.509801
69.036500	-0.007183	-0.000387	-0.014336	-0.090849	6181.587384	41408.338168	3780.758593	22146.859647
69.537000	-0.003148	0.001341	-0.005680	-0.093080	6230.290876	41761.312127	3805.443913	22246.369345
70.037000	-0.002451	-0.000034	-0.011957	-0.093741	6240.930739	41697.401341	3792.633219	22275.950872
70.537000	-0.003852	0.000190	-0.011422	-0.092235	6218.185410	41582.913330	3790.434539	22208.627750
71.035000	-0.006500	-0.000845	-0.013409	-0.087510	6161.158965	41072.754117	3775.373162	21998.865487
71.535000	-0.005067	0.000054	-0.011717	-0.088981	6183.499936	41281.786349	3782.442685	22063.917040
72.035500	-0.003543	-0.000254	-0.010409	-0.089685	6200.747636	41316.818797	3786.964914	22095.119073
72.535500	-0.002018	0.000937	-0.008740	-0.087152	6192.938482	41198.219178	3785.020189	21983.062478
73.036000	-0.007756	-0.000328	-0.016743	-0.081520	6106.042256	40594.084143	3754.832814	21736.187037
73.536500	-0.002763	-0.000975	-0.009041	-0.085655	6175.621215	40898.374257	3780.985332	21917.121440
74.037000	-0.002940	-0.000141	-0.009717	-0.084582	6166.001241	40877.492832	3777.075362	21869.994570
74.537000	-0.001558	-0.000140	-0.009302	-0.083418	6167.677917	40775.776556	3775.405093	21819.014614
75.040000	-0.007546	-0.000802	-0.009041	-0.076471	6069.747202	40117.281878	3760.632598	21517.592678
75.537500	-0.001889	0.000146	-0.007180	-0.080598	6143.551918	40555.178603	3773.851878	21696.052770
76.034500	-0.001895	-0.001043	-0.006734	-0.080198	6140.456132	40417.524764	3773.955935	21678.690653
76.535000	-0.003750	-0.001178	-0.006750	-0.079553	6121.455519	40350.110906	3772.485673	21650.698641
77.035500	-0.004928	-0.001303	-0.013855	-0.071836	6054.735334	39679.123292	3740.135835	21319.101292
77.535500	-0.003268	-0.000295	-0.007497	-0.075904	6097.548548	40112.025761	3762.776211	21493.183333
78.036000	-0.001656	-0.000509	-0.004199	-0.074707	6100.670717	39991.258066	3767.404598	21441.795664
78.536000	-0.000186	-0.000214	-0.008300	-0.072888	6098.041200	39861.152218	3754.421164	21363.980147
79.036500	-0.004541	-0.001353	-0.008813	-0.067025	6022.057868	39269.337359	3740.633589	21115.358736
79.539500	-0.004045	-0.000374	-0.008159	-0.070683	6052.734785	39660.243298	3749.937700	21270.101033
80.037500	-0.002624	-0.000683	-0.007913	-0.069839	6057.020623	39562.625427	3748.640763	21234.271634
80.535000	-0.002775	-0.000441	-0.009221	-0.068706	6047.495958	39487.326205	3743.369235	21186.299865
81.038000	-0.006225	-0.001574	-0.005540	-0.063007	5980.429864	38915.601565	3739.036564	20946.905592
81.535000	-0.004326	-0.000568	-0.003589	-0.065016	6008.902720	39166.834822	3747.561029	21030.956342
82.036000	-0.002411	-0.001114	-0.003512	-0.065300	6025.035123	39144.898135	3748.341811	21042.835754
82.536000	-0.003315	-0.001312	-0.009750	-0.064589	6013.179120	39069.096357	3733.421243	21013.052442
83.036000	-0.008670	-0.000650	-0.014447	-0.057713	5924.799405	38554.610825	3709.096912	20727.333103
83.536500	-0.003286	-0.000355	-0.011039	-0.060555	5983.961086	38813.379347	3722.153298	20844.875687
84.037000	-0.004202	-0.000576	-0.005643	-0.061273	5982.529674	38854.626805	3735.108106	20874.701228
84.537500	-0.004404	-0.000913	-0.006328	-0.060208	5973.340690	38738.511304	3731.379879	20830.460505
85.037500	-0.003575	-0.000479	-0.010673	-0.052508	5924.013021	38143.231020	3706.134130	20514.030378
85.535000	-0.003642	-0.000694	-0.009380	-0.057698	5960.722463	38549.791802	3719.636060	20726.714165
86.035000	-0.006952	-0.000182	-0.003125	-0.056867	5931.013408	38523.597150	3731.086866	20692.487072
86.535500	-0.002599	-0.001311	-0.003541	-0.056100	5956.719143	38368.205793	3728.577735	20660.953008
87.036000	-0.008380	-0.001312	-0.010429	-0.049203	5866.782964	37808.605148	3699.828330	20379.920923
87.536000	-0.004073	-0.000521	-0.005944	-0.053750	5929.313757	38240.831020	3718.560681	20564.676081
88.036500	-0.003608	-0.000381	-0.009236	-0.052830	5926.072612	38177.367361	3709.777011	20527.160995
88.536500	-0.004457	-0.000940	-0.014362	-0.052191	5915.477019	38079.996777	3697.889836	20501.098958
89.039500	-0.009150	-0.000459	-0.016643	-0.050899	5873.260313	38014.331315	3690.602352	20448.603421
89.534500	-0.006641	-0.000513	-0.008460	-0.048379	5873.175034	37806.531372	3702.180661	20346.605603
90.035000	-0.007095	-0.001367	-0.013034	-0.049609	5878.618857	37836.795811	3695.323831	20396.310174
90.535000	-0.004936	-0.000608	-0.009187	-0.048137	5883.448237	37779.477638	3700.189269	20336.869165
91.035500	-0.006955	-0.000886	-0.011014	-0.042102	5827.351363	37275.464459	3684.187830	20095.159169
91.535500	-0.005822	-0.001116	-0.013334	-0.046062	5862.703061	37572.372915	3687.502978	20253.366399
92.036000	-0.006506	-0.001710	-0.004110	-0.046400	5860.287877	37551.893978	3707.074191	20266.964134
92.536500	-0.004267	0.000224	-0.009032	-0.044070	5859.655498	37520.342848	3692.191475	20173.629659
93.036000	-0.004866	-0.000702	-0.011038	-0.039601	5824.511118	37092.364963	3679.112626	19996.011195
93.534000	-0.004379	-0.000464	-0.009119	-0.041957	5844.170148	37297.406566	3687.725828	20089.390549
94.037000	-0.006630	-0.000005	-0.000850	-0.042847	5834.742571	37404.610205	3706.469368	20124.839908
94.534500	-0.004434	-0.000415	0.001536	-0.041972	5843.897710	37302.551757	3709.597747	20090.007654
95.037000	-0.007259	-0.001057	-0.008908	-0.035694	5781.389644	36758.003167	3675.555916	19842.190203
95.535500	-0.002663	0.000656	-0.009691	-0.038815	5834.294288	37137.458396	3680.238716	19964.941576
96.035000	-0.002440	-0.000448	-0.005510	-0.040132	5844.968885	37154.331539	3691.346917	20017.023657
96.535500	-0.001036	0.000990	-0.001678	-0.038850	5845.812188	37166.648016	3696.546232	19966.329257
97.036000	-0.005965	-0.000456	-0.005769	-0.033338	5774.182828	36621.358173	3677.123488	19750.141951
97.536500	-0.004248	0.000741	-0.003613	-0.037437	5813.869575	37035.545920	3689.724501	19910.639906
98.037000	-0.001335	0.001641	0.000552	-0.036807	5829.596186	37056.767301	3696.927913	19885.867667
98.539500	-0.002292	0.000539	-0.009128	-0.037212	5825.788919	37001.946540	3678.153853	19901.797163
99.037500	-0.006869	0.000359	-0.008582	-0.031539	5755.918056	36544.845154	3667.945227	19680.149263
99.537500	-0.005395	0.001146	-0.001135	-0.035452	5792.435002	36911.425687	3690.725792	19832.730660
100.038000	-0.002861	0.000471	-0.004810	-0.036220	5815.037689	36918.780757	3684.839613	19862.836945
100.535500	-0.004549	-0.000011	-0.010990	-0.036027	5802.140354	36865.891351	3672.072555	19855.271427
101.036000	-0.006336	0.000378	-0.010832	-0.030982	5755.760442	36503.173694	3662.407196	19658.562229
101.536000	-0.002052	0.002462	-0.004326	-0.032903	5797.854072	36814.933776	3679.141184	19733.181619
102.036500	-0.002198	0.001188	-0.007223	-0.034221	5805.873360	36818.318121	3675.979823	19784.582012
102.536500	-0.001135	0.001347	-0.004121	-0.034338	5813.969429	36839.902748	3682.434763	19789.153035
103.037500	-0.003877	0.000557	-0.005885	-0.029512	5762.429744	36403.291598	3669.273338	19601.668095
103.534500	-0.002704	0.000717	-0.006217	-0.032967	5793.838005	36683.677175	3675.485151	19735.664147
104.037500	0.000229	0.001720	-0.004805	-0.032893	5813.410620	36756.137364	3678.161978	19732.806665
104.535000	-0.001617	0.000720	-0.004321	-0.033589	5805.520485	36732.419451	3680.526995	19759.890510
105.035500	-0.005993	0.001839	-0.002559	-0.028071	5738.510717	36391.034302	3673.015990	19546.076865
105.536000	-0.002598	0.000790	-0.002378	-0.032742	5793.026274	36671.834103	3682.730341	19726.900423
106.036000	-0.001926	0.001933	-0.003501	-0.031936	5792.109994	36698.124667	3678.855676	19695.554183
106.536000	-0.002050	0.001062	-0.006988	-0.031953	5791.384233	36631.684920	3671.927925	19696.236591
107.036500	-0.002911	0.001727	-0.003997	-0.027535	5755.608808	36340.975837	3669.094521	19525.449134
107.536500	-0.003676	0.001187	0.000020	-0.032229	5782.190209	36662.806445	3686.534222	19706.947132
108.039500	-0.000039	0.001268	-0.003124	-0.032072	5805.942730	36656.963361	3679.885730	19700.862720
108.537500	-0.002654	0.002170	-0.002268	-0.031025	5780.953960	36645.618504	3679.499935	19660.192902
109.037500	-0.002726	0.001754	-0.008462	-0.027086	5753.830647	36308.470830	3659.411139	19508.195700
109.534500	0.000445	0.002139	-0.006538	-0.030837	5800.800545	36628.631284	3670.604841	19652.932309
110.035000	0.001153	0.001862	-0.000006	-0.030743	5804.997200	36599.766404	3683.481962	19649.269301
110.535500	-0.001884	0.001576	-0.000805	-0.030732	5784.196835	36576.693778	3681.851440	19648.843931
111.036000	0.000512	0.001911	-0.000014	-0.030920	5801.823844	36617.297432	3683.821108	19656.125129
111.536000	-0.001682	0.001502	0.002630	-0.030937	5786.971811	36586.863986	3689.203079	19656.812410
112.036500	-0.000788	0.002053	-0.005407	-0.030287	5788.626006	36579.191665	3671.757974	19631.612784
112.539500	-0.000737	0.001596	-0.004309	-0.030344	5789.363971	36548.086492	3674.058456	19633.813843
113.042500	-0.005382	0.001462	-0.006980	-0.027583	5739.330551	36324.255166	3663.297664	19527.289467
113.534500	-0.001722	0.001555	-0.008320	-0.029703	5778.307249	36495.324492	3664.836386	19609.051952
114.035000	-0.000956	0.002345	-0.007371	-0.030014	5785.630668	36580.688398	3667.324550	19621.070637
114.535000	-0.000703	0.002485	-0.001806	-0.029630	5784.736721	36561.774933	3677.633722	19606.235414
115.035000	-0.002089	0.002439	-0.004508	-0.026526	5754.349930	36318.148957	3666.089221	19486.697858
115.535500	0.000240	0.002733	-0.004250	-0.028955	5786.553025	36528.593292	3671.410566	19580.135266
116.036000	-0.003029	0.001939	-0.007634	-0.029700	5769.424202	36524.778610	3666.182692	19608.917583
116.536500	-0.003404	0.001165	-0.009408	-0.030762	5774.078774	36547.101139	3664.777480	19650.005468
117.036500	-0.000239	0.001595	-0.007238	-0.029632	5787.908348	36492.889062	3666.831909	19606.296928
117.670000	-0.001254	0.001684	-0.005033	-0.029712	5781.552149	36506.011172	3671.359923	19609.402481
118.071000	0.000395	0.001452	-0.000846	-0.029680	5792.560006	36485.511323	3679.657338	19608.163971
118.535000	-0.001567	0.002181	-0.004061	-0.029227	5776.127199	36506.811568	3672.326200	19590.631090
119.035000	-0.003592	0.001450	-0.002612	-0.028213	5755.587464	36371.955289	3673.194204	19551.543538
119.641500	-0.001674	0.002919	-0.007319	-0.027187	5761.603437	36406.131786	3661.851897	19512.072036
120.071000	-0.000079	0.002779	-0.004131	-0.028649	5782.311161	36508.479469	3671.040762	19568.358007
120.536000	-0.000875	0.002130	-0.007501	-0.029065	5779.722801	36490.330547	3665.192143	19584.380873
121.036500	-0.001426	0.002930	-0.003508	-0.025993	5755.222780	36314.871566	3667.010795	19466.241736
121.536500	-0.001382	0.001956	-0.004404	-0.028560	5772.864364	36437.850110	3670.322414	19564.926740
122.042000	-0.003019	0.002807	-0.007375	-0.027833	5756.884534	36447.390890	3663.012174	19536.913043
122.537500	-0.002133	0.002019	-0.006709	-0.028766	5769.173898	36458.688285	3666.164583	19572.865141
123.037500	-0.004783	0.001690	-0.001192	-0.026433	5735.646311	36253.298852	3672.476167	19483.115045
123.534000	0.001162	0.002894	-0.006404	-0.027449	5782.590467	36424.482235	3664.169438	19522.163279
124.035500	-0.002400	0.001515	-0.001287	-0.028439	5765.153088	36394.372119	3676.287192	19560.243550
124.535500	-0.000971	0.002190	-0.005190	-0.027806	5770.538165	36397.670678	3667.270533	19535.871201
125.036000	-0.002544	0.001940	-0.001201	-0.026797	5753.111903	36300.571182	3673.184892	19497.098595
125.539000	-0.002281	0.002719	-0.004407	-0.027219	5757.726800	36393.190018	3667.659117	19513.321528
126.036500	-0.003819	0.002320	-0.002710	-0.027723	5750.763618	36401.274915	3672.025149	19532.693871
126.537000	-0.001122	0.002998	-0.003673	-0.027025	5764.236611	36399.737587	3668.727954	19505.863488
127.036500	-0.002547	0.001798	-0.003154	-0.026185	5748.977848	36242.533418	3668.091578	19473.616664
127.537500	-0.001308	0.002839	-0.002796	-0.027039	5763.068249	36388.486572	3670.492813	19506.372964
128.037500	-0.000159	0.002855	-0.001671	-0.026297	5765.820349	36332.485907	3671.252853	19477.892173
128.535000	-0.000885	0.002237	-0.000470	-0.027060	5766.068874	36343.696968	3675.165388	19507.184691
129.035500	0.000306	0.001847	-0.007461	-0.025488	5763.503587	36192.821629	3658.243581	19446.919658
129.535500	-0.002150	0.002026	-0.011521	-0.026260	5752.151995	36265.891636	3651.832295	19476.502269
130.035000	-0.003071	0.003017	-0.004840	-0.026213	5745.643469	36338.555806	3664.816848	19474.697008
130.535500	-0.003251	0.002350	-0.000541	-0.026322	5745.165936	36295.568687	3673.552061	19478.854392
131.036500	-0.004414	0.001728	-0.005133	-0.025826	5734.053284	36209.576669	3663.475431	19459.858807
131.539500	-0.002848	0.001826	-0.008801	-0.025830	5744.571898	36217.431346	3656.291935	19460.009780
132.037000	-0.000974	0.002829	-0.007046	-0.025817	5757.082069	36293.498024	3659.698902	19459.495493
132.537500	0.001729	0.003660	-0.002013	-0.024797	5768.449867	36279.011127	3667.602466	19420.491657
133.035000	-0.001983	0.002277	-0.001545	-0.024956	5744.513152	36184.942050	3668.844182	19426.568065
133.535000	-0.001161	0.002494	-0.001783	-0.025275	5752.171314	36226.062761	3669.002634	19438.742626
134.035500	-0.000459	0.003034	0.000262	-0.024918	5754.496970	36240.210141	3672.357150	19425.116586
134.536000	-0.002856	0.002943	-0.002226	-0.025201	5740.300587	36254.889373	3667.979930	19435.928647
135.036000	-0.002876	0.002489	-0.006498	-0.025323	5740.978323	36229.350828	3659.803630	19440.582027
135.536000	-0.000434	0.001588	-0.003205	-0.025352	5757.591470	36162.435058	3666.343021	19441.707165
136.037000	-0.001439	0.003254	-0.002099	-0.024461	5744.831836	36221.937732	3666.766617	19407.630144
136.537000	-0.001526	0.002372	-0.003202	-0.025412	5750.643654	36227.271138	3666.468492	19444.021749
137.037500	-0.001105	0.001881	-0.006234	-0.024941	5750.306342	36153.444478	3659.574102	19425.984741
137.534500	-0.002531	0.002717	-0.002429	-0.023852	5733.444720	36134.030746	3664.913245	19384.399476
138.037000	-0.002663	0.002301	-0.008628	-0.024991	5740.184675	36189.453270	3654.992364	19427.889237
138.535000	-0.000160	0.003216	-0.000536	-0.023944	5749.955641	36179.317302	3668.837572	19387.899146
139.036000	-0.000735	0.003049	-0.006694	-0.023415	5742.543138	36125.932593	3655.689299	19367.743291
139.536000	-0.003859	0.002783	-0.005349	-0.023274	5720.730789	36094.826888	3658.043574	19362.386470
140.036500	-0.000638	0.002869	-0.007763	-0.023569	5744.227571	36123.937131	3653.906176	19373.611360
140.536500	0.000914	0.002555	-0.007213	-0.023675	5755.374118	36108.112640	3655.184935	19377.671342
141.040000	-0.000607	0.001444	-0.002418	-0.024793	5752.656554	36108.551419	3666.792920	19420.327478
141.537000	-0.000171	0.003053	-0.002070	-0.022508	5740.245003	36056.860429	3662.973099	19333.236782
142.037500	0.002738	0.003232	-0.001781	-0.022654	5760.788642	36081.726111	3663.830430	19338.791471
142.535000	0.000354	0.002558	0.000019	-0.023271	5748.893409	36077.389117	3668.605186	19362.286546
143.035500	0.002142	0.002906	0.001471	-0.022971	5758.899510	36081.013990	3670.888162	19350.829014
143.535000	0.000598	0.002468	-0.003813	-0.022699	5746.679070	36026.754469	3659.924368	19340.487446
144.036000	0.000047	0.002389	-0.001376	-0.023407	5747.737004	36074.854589	3666.112890	19367.439175
144.536000	0.000822	0.002798	-0.002794	-0.022480	5746.721067	36035.270876	3661.495692	19332.186364
145.041500	-0.002250	0.002455	-0.002911	-0.022335	5725.193805	35997.944704	3660.980054	19326.646116
145.539000	0.000468	0.003300	-0.003851	-0.021657	5738.823275	36010.694558	3657.808709	19300.900889
146.037000	0.000126	0.003265	-0.005731	-0.022173	5739.983731	36047.443961	3655.146238	19320.489391
146.537000	0.001412	0.003394	0.002624	-0.021795	5746.073224	36028.444691	3670.841650	19306.135401
147.037500	-0.001335	0.002120	-0.005539	-0.022105	5729.763494	35954.926420	3655.388763	19317.931067
147.534500	-0.000960	0.003050	-0.005937	-0.021903	5730.917132	36010.421747	3654.217074	19310.239658
148.035000	-0.002299	0.002636	-0.001545	-0.021845	5721.601909	35974.392704	3662.701568	19308.040585
148.535500	0.000037	0.002645	-0.003859	-0.021808	5736.951337	35972.311695	3658.090912	19306.659763
149.036000	-0.003426	0.002973	-0.002454	-0.021006	5708.548493	35936.197654	3659.269591	19276.237478
149.536000	0.002363	0.003629	-0.001447	-0.020607	5744.488843	35955.699186	3660.461713	19261.120580
150.039500	0.000432	0.002787	-0.002909	-0.021659	5738.599701	35971.767337	3659.658019	19300.997176
150.536000	-0.000473	0.002931	-0.007192	-0.021265	5729.913350	35952.700739	3650.540161	19286.066087
151.037000	-0.001091	0.003128	-0.004457	-0.021125	5724.855900	35957.037733	3655.586136	19280.739977
151.537500	0.001493	0.002808	-0.004424	-0.020645	5738.909393	35896.112869	3654.715119	19262.555699
152.034500	-0.000541	0.003634	-0.002048	-0.020521	5724.495367	35949.563717	3659.115940	19257.866338
152.535500	-0.002195	0.003019	-0.003587	-0.020747	5714.994467	35919.967563	3656.547611	19266.431919
153.035500	0.000287	0.003226	0.000223	-0.020351	5728.878391	35905.500040	3663.239963	19251.424813
153.536000	0.002592	0.004000	-0.003770	-0.019587	5739.185686	35906.331638	3653.928640	19222.561789
154.036500	-0.001967	0.002045	-0.007883	-0.021553	5721.871284	35907.110922	3649.758105	19296.958611
154.536500	0.000173	0.002372	-0.003638	-0.020791	5731.058144	35874.013436	3656.532808	19268.082503
155.039500	0.001115	0.003266	-0.002755	-0.020109	5732.800335	35890.167776	3656.925901	19242.298469
155.537000	0.000149	0.003305	-0.004014	-0.019763	5724.046442	35866.892249	3653.796248	19229.225279
156.037500	0.000524	0.003199	-0.000691	-0.019895	5727.418272	35868.776399	3660.547747	19234.184133
156.537500	0.000404	0.002473	0.000560	-0.019314	5722.751446	35769.586978	3661.863533	19212.255537
157.035000	0.000600	0.003381	-0.001541	-0.019435	5724.856345	35847.647433	3657.980761	19216.808116
157.535000	0.000786	0.003689	0.000872	-0.018686	5721.107874	35814.208564	3661.242340	19188.565925
158.036000	-0.000217	0.002335	0.002141	-0.020542	5726.799382	35852.306347	3667.402838	19258.674216
158.535500	0.000081	0.002363	-0.000202	-0.018706	5716.556763	35715.217392	3659.175741	19189.333133
159.036000	0.000066	0.003226	-0.003172	-0.019639	5722.663894	35851.396965	3655.195900	19224.535109
159.536500	-0.001452	0.003283	-0.003135	-0.019564	5712.076009	35850.077590	3655.119936	19221.693390
160.037000	0.000489	0.003097	-0.000448	-0.019650	5725.549298	35842.401295	3660.543753	19224.931991
160.537000	-0.001205	0.003135	-0.001263	-0.017290	5698.657365	35666.566213	3654.337432	19136.052370
161.037000	-0.002120	0.003337	-0.000788	-0.019411	5706.630753	35842.544375	3659.410760	19215.935387
161.537500	0.001302	0.003863	0.003794	-0.018790	5725.242126	35835.278954	3667.206963	19192.486543
162.035000	0.002344	0.002844	0.004170	-0.019136	5734.507347	35784.253209	3668.634862	19205.543884
162.535000	-0.002072	0.003484	-0.004653	-0.016989	5690.953896	35670.211924	3647.179172	19124.765577
163.036000	0.001437	0.003595	0.000273	-0.018631	5725.079770	35802.914262	3659.960586	19186.510669
163.536000	-0.000254	0.003571	0.001498	-0.018240	5711.238190	35771.435148	3661.597116	19171.771009
164.036500	-0.000050	0.002456	-0.004620	-0.019152	5718.650644	35756.056101	3651.430629	19206.139092
164.539000	0.001872	0.004034	-0.000807	-0.015044	5704.152376	35564.934055	3650.858942	19051.916613
165.037000	0.001124	0.003964	0.002064	-0.017551	5715.811634	35748.989699	3661.355486	19145.865964
165.537000	0.003083	0.004077	-0.008892	-0.017607	5729.229685	35761.820541	3640.213259	19147.975821
166.037500	0.001348	0.003340	-0.003404	-0.017858	5719.343301	35725.033143	3651.279389	19157.410367
166.535000	-0.003057	0.002984	-0.001481	-0.015105	5672.118554	35490.558167	3649.670349	19054.202831
167.035000	0.000449	0.003365	0.002369	-0.017328	5709.850455	35686.789130	3661.516727	19137.486282
167.535500	0.000285	0.003427	-0.000884	-0.017359	5708.968563	35693.851248	3655.210170	19138.641979
168.038500	0.001430	0.003235	-0.001439	-0.017581	5718.044797	35696.109101	3654.562003	19146.997326
168.536000	-0.001061	0.002882	-0.001531	-0.014381	5680.451783	35428.578187	3648.171305	19027.169189
169.036500	0.003239	0.003536	-0.002388	-0.017132	5727.104529	35684.927044	3651.842658	19130.126034
169.536500	0.001232	0.003396	-0.003118	-0.016446	5709.190259	35622.505667	3649.096407	19104.370220
170.037000	0.001871	0.003559	-0.007324	-0.017084	5717.673394	35683.045420	3642.217424	19128.316296
170.537000	-0.003662	0.003129	-0.006581	-0.013333	5656.603707	35368.523776	3636.461449	18988.096469
171.037500	0.000616	0.003056	0.001220	-0.016914	5708.219432	35632.206829	3658.452522	19121.958480
171.535000	0.000700	0.003476	0.001289	-0.016227	5704.217150	35612.024488	3657.242738	19096.169817
172.035500	0.000491	0.003067	-0.000068	-0.016942	5707.571193	35635.112770	3655.989524	19122.993165
172.535000	-0.002940	0.003021	-0.002516	-0.012774	5657.668509	35318.615752	3643.174234	18967.316412
173.036000	-0.001001	0.003690	-0.001664	-0.016145	5692.447859	35622.028802	3651.332356	19093.111702
173.536000	0.000687	0.002951	-0.001647	-0.016268	5704.409596	35575.565986	3651.602457	19097.712413
174.039500	0.001108	0.003329	-0.000030	-0.016094	5706.046251	35590.948183	3654.409334	19091.208740
174.536500	-0.002642	0.003059	-0.004640	-0.012162	5655.623542	35275.763893	3637.932761	18944.587759
175.037000	0.000777	0.003614	0.000092	-0.016249	5704.875962	35624.171737	3654.950363	19097.008918
175.537000	0.000914	0.002787	-0.003119	-0.016324	5706.281534	35567.471952	3648.859443	19099.821789
176.035000	0.000062	0.002581	-0.004770	-0.016657	5702.847400	35576.997479	3646.310944	19112.302719
176.535500	-0.000494	0.003580	-0.006566	-0.010910	5661.459026	35221.242090	3631.884067	18898.161832
177.035500	0.000101	0.003080	-0.009679	-0.016517	5702.177520	35604.021385	3636.624481	19107.033981
177.536000	0.002461	0.002622	-0.003391	-0.015836	5713.305687	35518.318456	3647.389249	19081.546845
178.035500	0.000782	0.003259	0.002950	-0.015411	5699.370082	35534.239957	3658.896774	19065.633289
178.539000	-0.001272	0.004321	-0.006258	-0.009771	5648.994410	35191.602192	3630.310711	18856.079633
179.036500	-0.001847	0.002277	-0.003890	-0.016324	5688.052286	35529.028939	3647.367611	19099.802267
179.537000	-0.000601	0.003813	-0.001098	-0.015059	5687.933458	35549.486307	3650.322200	19052.475750
180.037500	0.000622	0.003222	-0.003579	-0.015521	5699.035389	35539.721405	3646.418082	19069.740166
180.535000	0.002477	0.003737	-0.000407	-0.014740	5706.138052	35519.718820	3651.044145	19040.543881
181.034500	0.002054	0.004393	-0.002265	-0.014418	5701.206891	35544.802710	3646.824328	19028.518545
181.535500	-0.002112	0.003193	-0.005063	-0.015139	5678.529844	35508.793058	3642.823744	19055.460383
182.035500	-0.001030	0.003407	0.001029	-0.014719	5682.870920	35493.277211	3653.792875	19039.762506
182.536000	-0.001373	0.003140	-0.004962	-0.009511	5646.651116	35084.471888	3632.273253	18846.475700
183.053500	0.001334	0.003821	-0.005685	-0.014671	5698.132598	35520.841338	3640.733855	19037.993974
183.536000	0.000510	0.002981	0.002687	-0.015283	5696.726878	35503.662278	3658.130727	19060.837596
184.061000	0.000724	0.003518	0.003293	-0.014598	5693.621755	35492.555551	3657.975803	19035.244725
184.537000	0.000305	0.003803	-0.001015	-0.014238	5688.487969	35486.954791	3648.891684	19021.810297
185.036500	0.000811	0.003214	0.002464	-0.014673	5694.689620	35475.372517	3656.503131	19038.048812
185.534500	0.001943	0.004634	0.004893	-0.013088	5691.705596	35462.964542	3658.152744	18978.983453
186.035000	0.002780	0.003644	0.007264	-0.013908	5702.641811	35450.215751	3664.420070	19009.523380
186.535500	-0.002914	0.004788	-0.001317	-0.007720	5625.121976	35073.836497	3635.796670	18780.524916
