sample name	sample
index	564
start time	 03-16-2021  02:29:26 PM
880	0.105697
Peak Time (s)	181.038
Peak Height 	0.1057
calc peak height	180,183
Baseline Time (s)	8.535
Baseline Value 	-3.2693E-4
subtract baseline	10,4
Abs	0.071909
Peak Time (s)	180.035
Peak Height 	0.07191
calc peak height	180,183
Baseline Time (s)	10.537
Baseline Value 	0.004171
subtract baseline	10,3
PK_550	0.037273
Peak Time (s)	182.036
Peak Height 	0.03727
calc peak height	180,183
Baseline Time (s)	10.537
Baseline Value 	8.6001E-4
subtract baseline	10,2
PK_880	0.065499
Peak Time (s)	182.036
Peak Height 	0.0655
calc peak height	180,183
Baseline Time (s)	8.535
Baseline Value 	4.5828E-4
subtract baseline	10,1


Time (s)	A880-A510	A880-A775	A880-A975	A880	I510	I775	I975	I880	
0.036000	-0.004843	-0.000792	-0.006620	0.005401	5488.821201	33523.869631	3552.466378	18152.467848
0.538500	-0.003673	-0.001311	0.000327	0.003106	5511.085737	33650.049925	3571.131716	18234.351466
1.036500	-0.000493	-0.000281	-0.008429	0.002362	5536.506286	33776.604894	3554.927121	18260.985729
1.538500	0.002987	0.000338	-0.000075	-0.000330	5576.961482	34014.190359	3577.345026	18357.740580
2.037000	-0.002214	-0.000944	-0.004339	0.005388	5505.774624	33513.974943	3557.061180	18152.905973
2.537500	-0.001317	0.000392	0.003098	-0.000465	5549.570573	34027.799954	3584.170664	18362.615146
3.034500	0.002009	-0.000915	-0.005491	-0.003078	5588.667926	34121.961592	3571.877846	18457.115575
3.535500	-0.000148	-0.000729	-0.005012	-0.000438	5557.045775	33945.144032	3567.473428	18361.616587
4.035000	0.001184	-0.000184	0.000456	0.000582	5559.091680	33910.987695	3576.561696	18324.881135
4.539000	0.001597	-0.000503	-0.001788	-0.000947	5571.858874	33998.023330	3575.095702	18379.989506
5.036000	-0.000025	0.000196	-0.006300	-0.000224	5556.448427	33996.241518	3564.425455	18353.902021
5.536000	0.001465	-0.000155	-0.002004	-0.000459	5567.779613	33987.984885	3573.653843	18362.399437
6.036500	0.001007	0.000570	0.002000	0.000197	5560.452636	33992.898079	3580.532069	18338.733020
6.537000	0.002369	0.000392	-0.001134	0.000174	5569.561924	33981.718440	3574.138514	18339.571609
7.037000	0.001126	0.000070	0.003087	0.000175	5561.383195	33958.524962	3582.824289	18339.544747
7.537500	0.000732	0.000724	-0.004791	0.000381	5557.446675	33990.778801	3566.259134	18332.122863
8.035000	0.000813	-0.000539	-0.002848	-0.000453	5563.450445	33959.852963	3571.913014	18362.152565
8.535000	0.000000	-0.000122	0.003677	0.000000	5555.146366	33957.290036	3584.406286	18345.840324
9.038500	-0.000279	-0.000698	-0.004249	-0.000416	5556.043673	33945.794720	3568.981268	18360.830010
9.536000	0.002018	-0.000092	-0.000370	-0.000156	5569.422296	33970.659138	3576.381451	18351.456436
10.036000	-0.000523	0.000870	0.003500	0.000272	5549.944545	34009.084993	3583.477122	18336.045711
10.536500	-0.001088	0.000000	0.000000	-0.000201	5549.339094	33980.498070	3577.233377	18353.068244
11.037000	0.000862	0.000147	0.000365	0.000130	5559.943828	33967.298890	3577.304006	18341.149490
11.537500	0.002358	0.000813	-0.002844	0.000917	5564.606405	33958.569732	3569.128756	18312.840729
12.037500	0.001158	0.000358	-0.001239	0.000475	5559.625143	33957.628820	3573.307554	18328.735245
12.535000	0.001952	0.001054	0.002156	0.001028	5561.209574	33967.998266	3579.142350	18308.861996
13.035000	0.003041	-0.000274	-0.004201	-0.000671	5579.566197	33994.605386	3569.598933	18370.024215
13.536500	0.000417	0.000196	-0.000436	0.003284	5536.421156	33744.725398	3569.211623	18227.960990
14.036000	0.000434	0.000344	0.003462	0.003772	5533.360401	33720.517656	3576.184525	18210.538322
14.539500	0.001694	0.000486	-0.004192	0.002621	5549.076785	33812.904221	3562.934897	18251.682842
15.036000	0.003061	0.000360	0.001421	0.000332	5573.079065	33968.072956	3579.061652	18333.878433
15.536500	-0.000133	-0.000137	-0.000710	0.004355	5525.891622	33644.656240	3566.475443	18189.707605
16.065000	0.001514	-0.000254	0.000216	-0.000438	5567.964351	33979.340890	3578.167431	18361.646641
16.537000	0.000832	-0.000052	-0.002009	-0.000028	5560.787082	33964.327049	3572.760294	18346.853319
17.037000	0.002310	0.000168	0.001228	-0.002143	5584.467762	34132.680864	3583.773215	18423.237147
17.535000	0.003133	0.000694	0.003591	0.003153	5555.017459	33789.699739	3577.722868	18232.662472
18.035500	0.001619	0.000473	0.002984	0.002152	5551.655214	33845.560070	3578.531364	18268.499059
18.538500	0.001937	0.000420	0.002299	0.002838	5549.247540	33792.661601	3575.714796	18243.921502
19.035500	0.002518	0.000203	0.002653	0.002949	5552.327219	33769.225745	3576.213375	18239.954348
19.536000	0.001479	0.001794	-0.001773	0.004325	5536.558610	33784.572401	3564.381198	18190.776041
20.036500	0.000756	0.000279	-0.005363	0.002376	5544.556504	33815.614713	3561.065000	18260.481668
20.558500	-0.000036	0.001216	-0.002444	0.003512	5531.999297	33801.364666	3564.669340	18219.821803
21.036500	0.001450	0.000106	0.002881	0.003039	5544.756065	33755.856698	3576.497007	18236.736232
21.594500	0.003114	0.000978	0.002316	0.003536	5552.382111	33782.630187	3574.318828	18218.948172
22.043000	0.000751	0.000193	0.002095	0.003070	5539.995857	33759.843189	3574.820265	18235.627035
22.579500	0.000619	-0.000054	-0.001435	0.002846	5540.598393	33758.188727	3568.071710	18243.645662
23.043500	0.004238	0.001187	0.004758	0.003513	5559.899756	33799.207632	3579.382241	18219.779902
23.670500	0.003346	0.001016	0.002050	0.003669	5553.029313	33775.876110	3573.502448	18214.208036
24.036000	0.003853	0.001837	-0.003025	0.004770	5549.142992	33755.821431	3560.949444	18174.905920
24.536000	0.003208	0.001244	0.006397	0.004282	5548.120188	33748.377335	3581.176863	18192.327267
25.036000	0.001498	0.001691	0.005667	0.004190	5537.560959	33786.825164	3579.859562	18195.595768
25.536500	0.006923	0.002028	0.003732	0.004808	5569.032859	33766.754554	3574.613579	18173.553104
26.037000	0.001346	0.000588	0.002403	0.003157	5543.305285	33781.829736	3575.272264	18232.493963
26.538000	0.003661	0.000868	0.006452	0.004232	5551.411877	33725.050227	3581.393842	18194.113396
27.037500	0.003651	0.001041	0.002487	0.001208	5571.193984	33954.083287	3579.452111	18302.373606
27.635000	0.004456	0.001034	0.002235	0.001385	5575.335104	33940.823151	3578.569906	18296.021778
28.043500	0.005419	0.001791	-0.002140	0.003216	5569.616471	33863.750777	3565.885957	18230.391262
28.536000	0.002447	0.001921	-0.001405	0.002348	5555.795494	33935.357670	3569.145436	18261.478723
29.039000	0.002874	0.000799	0.006400	0.001725	5562.684910	33899.540408	3586.477085	18283.804743
29.536500	0.004235	0.001605	0.003496	0.002623	5565.725555	33892.933402	3578.615747	18251.622321
30.036500	0.004685	0.000947	0.002223	0.002850	5567.193036	33829.442315	3575.533500	18243.477542
30.537000	0.005019	0.001472	0.005072	0.002973	5568.585020	33858.311095	3581.143347	18239.102883
31.040500	0.003442	0.001697	0.002323	0.006552	5534.842259	33618.813300	3568.175922	18111.553503
31.534500	0.002617	0.000806	0.002635	0.002296	5557.249190	33859.098620	3577.517077	18263.334484
32.035000	0.003030	0.002114	0.004106	0.003632	5551.205054	33857.068332	3577.795975	18215.529988
32.536000	0.004559	0.002198	0.005189	0.003084	5564.823011	33902.369774	3581.156275	18235.112899
33.035500	0.004657	0.002205	-0.000554	0.003531	5562.535746	33870.904027	3568.469314	18219.153472
33.536000	0.003622	0.001189	-0.000398	0.006085	5539.056405	33615.933927	3563.602895	18128.128349
34.036500	0.002188	0.002046	0.003780	0.006032	5530.076171	33680.720678	3572.207835	18130.019275
34.536500	0.004125	0.001357	0.001223	0.005981	5543.011205	33635.214303	3567.099717	18131.813797
35.037000	0.003249	0.001197	0.008562	0.005802	5538.469136	33636.673151	3582.509191	18138.204669
35.537500	0.001319	0.002056	0.006262	0.006732	5519.900797	33631.584046	3575.856276	18105.163356
36.037500	0.004667	0.001043	0.007178	0.005856	5547.367400	33621.842179	3579.542054	18136.275266
36.538000	0.000771	0.000250	0.006222	0.005479	5524.468856	33592.282244	3578.350603	18149.693333
37.035000	0.002240	0.002359	0.004926	0.006541	5527.105686	33666.694643	3573.510108	18111.937302
37.538000	0.001213	0.000793	0.003193	0.005834	5525.033891	33605.616501	3571.411956	18137.042443
38.036000	0.001971	0.001913	0.003990	0.006723	5524.181793	33621.990203	3571.224429	18105.478600
38.536000	0.005436	0.002383	0.010328	0.006862	5545.820027	33645.616343	3583.970744	18100.563936
39.036500	0.001080	0.001297	0.004990	0.006053	5522.747762	33625.886477	3574.640398	18129.259559
39.536500	0.003575	0.001752	-0.002171	0.007146	5531.848403	33580.572364	3557.885685	18090.497965
40.037000	0.004252	0.001223	0.002824	0.006191	5542.471912	33610.796720	3569.930263	18124.366135
40.537500	0.001907	0.001966	-0.002053	0.006394	5525.902393	33649.207341	3559.636206	18117.146694
41.037500	0.004176	0.001709	0.001193	0.006459	5540.228768	33626.317767	3566.068389	18114.857559
41.535000	0.004457	0.001309	0.003001	0.006735	5540.263503	33578.220888	3569.183823	18105.057682
42.038000	0.004116	0.001664	0.002046	0.006670	5538.461823	33608.101443	3567.372607	18107.365798
42.535500	0.004726	0.002568	0.000442	0.007284	5538.432277	33628.669608	3562.875768	18085.582760
43.036000	0.004369	0.001742	0.001455	0.006719	5539.791504	33610.095989	3566.072142	18105.611318
43.535500	0.003634	0.001932	0.003597	0.007136	5532.297081	33594.033697	3569.581271	18090.855926
44.036500	0.006603	0.002803	0.004723	0.004148	5571.278028	33869.508954	3578.004313	18197.117337
44.536500	0.005033	0.002167	0.008370	0.004939	5555.763329	33767.378546	3583.898463	18168.912357
45.037000	0.005704	0.002446	0.008429	0.005003	5559.746046	33782.715167	3583.887119	18166.624336
45.537500	0.002855	0.001261	0.003524	0.010397	5506.157491	33315.792263	3562.812507	17975.681741
46.035000	0.003971	0.001918	0.001956	0.004455	5551.975381	33784.180625	3571.703471	18186.157970
46.535000	0.006344	0.001247	0.004615	0.004806	5565.238339	33711.152421	3576.428857	18173.638806
47.035500	0.001297	0.001116	0.004415	0.007090	5517.443814	33539.368137	3571.342309	18092.465870
47.535500	0.002892	0.002214	0.002870	0.010117	5508.202408	33402.760954	3562.055997	17985.533508
48.036000	0.005344	0.002680	0.005858	0.005286	5555.528837	33779.202648	3577.998082	18156.555325
48.535500	0.006967	0.003291	0.010730	0.006052	5561.152408	33768.159441	3586.483627	18129.317796
49.036500	0.005020	0.001322	0.008059	0.004550	5558.228169	33734.761588	3584.058499	18182.754801
49.536500	0.002783	0.001761	0.001213	0.010280	5506.451570	33359.378892	3558.388775	17979.816564
50.037000	0.008651	0.003553	0.009831	0.005754	5574.188729	33808.147436	3585.235904	18139.893694
50.537500	0.010243	0.005733	0.002333	0.005084	5589.146792	34012.770549	3571.187161	18163.734096
51.035000	0.008370	-0.002498	0.015447	0.104599	4989.675279	27139.765558	3411.257246	14996.756530
51.537500	-0.005899	-0.008425	0.004723	-0.023707	5674.239115	35084.742447	3637.177232	19223.730270
52.035500	-0.006327	-0.029789	-0.019612	-0.301935	8329.768802	61181.705439	4393.744322	34058.255989
52.536000	0.004074	-0.011667	0.009460	-0.163446	6894.357962	47032.902079	4013.116976	25495.875367
53.036500	-0.015477	-0.016757	-0.009296	-0.148162	6571.829667	45002.561139	3912.967884	24707.525613
53.536500	-0.022782	-0.010554	-0.023133	-0.172625	6727.453543	48095.238642	3943.392602	25982.816689
54.036500	-0.010748	-0.005131	-0.019104	-0.226589	7386.807260	54742.618776	4123.209568	29063.439781
54.537000	-0.001845	-0.004007	-0.013742	-0.225596	7472.775842	54758.391960	4137.755306	29003.228234
55.034500	-0.004503	-0.002437	-0.017335	-0.207326	7248.709056	52795.760117	4066.418880	27919.623940
55.534500	-0.001843	-0.000658	-0.016452	-0.181418	7012.128838	50090.063550	3989.047358	26459.048890
56.034500	-0.000150	-0.000587	-0.013258	-0.159714	6818.394592	47788.744527	3934.624544	25300.801019
56.537500	-0.000444	-0.001254	-0.006068	-0.132467	6565.937313	44983.851214	3878.209599	23926.338865
57.035500	0.003045	-0.002035	-0.012525	-0.112199	6419.811421	42984.839698	3806.979485	22958.448943
57.536000	0.002559	-0.001301	-0.006487	-0.093259	6257.520665	41332.140386	3774.125129	22093.863691
58.036000	0.005532	-0.001937	0.002649	-0.077363	6153.512217	39890.399535	3757.300098	21396.819918
58.536500	0.005475	-0.000185	-0.001309	-0.052539	5961.769823	37967.792510	3688.518625	20358.004356
59.037000	0.002583	-0.000323	-0.002133	-0.027024	5755.877936	35946.751160	3629.447664	19350.427740
59.537000	0.001370	-0.002697	0.001315	-0.032313	5784.601836	36170.428823	3648.647266	19554.459464
60.034500	0.004383	-0.000986	0.004891	-0.003577	5607.775607	34152.934819	3594.385694	18475.234398
60.535000	0.005555	-0.000093	0.002161	0.010827	5520.813717	33190.499890	3559.195774	17960.581478
61.038000	0.005596	-0.000730	0.005957	0.020146	5461.404402	32500.129104	3548.144293	17636.585834
61.536000	0.003495	0.000950	0.009395	0.024768	5419.137645	32299.131230	3545.793769	17478.445417
62.036000	0.004973	0.002421	0.007741	0.013810	5497.838688	33157.626417	3564.440104	17856.114771
62.536000	0.004222	0.003189	0.002442	0.016430	5476.278618	33028.078166	3548.543704	17764.937585
63.036500	0.007389	0.004858	0.008763	0.014054	5511.812486	33311.624753	3566.017883	17847.589915
63.537000	0.008421	0.003722	0.009873	0.012665	5527.477139	33329.456662	3571.104897	17896.127716
64.042500	0.008558	0.004386	0.013794	0.012918	5526.725933	33358.443326	3578.623183	17887.284644
64.537500	0.010508	0.004345	0.010274	0.013053	5538.519187	33346.023358	3571.131337	17882.552451
65.037500	0.007835	0.006220	0.009207	0.013936	5515.452406	33416.022811	3567.158330	17851.701580
65.536000	0.008001	0.005736	0.009591	0.018242	5488.841706	33079.445350	3559.226879	17702.218366
66.035000	0.008292	0.005973	0.013824	0.015787	5506.463872	33268.128908	3572.798525	17787.263131
66.535500	0.011151	0.006234	0.010254	0.016681	5519.149542	33223.646502	3563.715525	17756.244164
67.036000	0.014285	0.007740	0.014617	0.018116	5530.160512	33228.696679	3569.664070	17706.581379
67.535500	0.008033	0.006208	0.010687	0.024332	5450.349211	32689.399646	3549.227934	17493.304583
68.036000	0.012364	0.008587	0.016392	0.019510	5508.709981	33190.268589	3570.439068	17658.462663
68.536500	0.014306	0.009145	0.014632	0.020646	5513.917632	33149.777948	3564.553784	17619.406967
69.037000	0.016987	0.008716	0.018926	0.020806	5530.234674	33108.512014	3572.966893	17613.894093
69.537000	0.011363	0.008716	0.012676	0.026356	5458.595037	32722.781130	3549.156187	17424.491688
70.035000	0.017513	0.010543	0.020638	0.023209	5518.075007	33068.304548	3571.556207	17531.599961
70.538000	0.017581	0.009063	0.017568	0.023102	5519.204089	32972.472646	3565.524640	17535.235175
71.035500	0.018542	0.009712	0.019387	0.023725	5521.391697	32974.277365	3567.953675	17513.982036
71.538500	0.017456	0.009590	0.020503	0.027182	5492.138386	32726.113747	3563.207477	17396.538482
72.036000	0.017269	0.011009	0.015748	0.025327	5502.841393	32953.051095	3557.358256	17459.434251
72.539000	0.021323	0.010854	0.024845	0.026151	5523.691611	32885.038296	3574.143179	17431.458843
73.037000	0.022675	0.012025	0.017195	0.027689	5522.485749	32859.529140	3555.522992	17379.367680
73.537000	0.015611	0.011542	0.014681	0.034547	5433.755827	32354.546905	3536.929780	17149.365333
74.037500	0.019581	0.011315	0.021054	0.027929	5500.978694	32793.735833	3562.810476	17371.279030
74.534500	0.020108	0.011733	0.017199	0.028897	5498.143341	32755.659986	3553.111464	17338.582350
75.037500	0.021671	0.012298	0.025463	0.029969	5501.294464	32720.600933	3567.612877	17302.492302
75.535500	0.020018	0.011901	0.010141	0.037516	5442.791941	32177.071717	3522.322812	17050.919770
76.035500	0.024333	0.013291	0.017934	0.031973	5505.530300	32650.912596	3548.442349	17235.272387
76.536000	0.019807	0.012396	0.021308	0.031713	5478.204264	32607.190834	3555.699933	17243.961568
77.036000	0.023197	0.013321	0.022910	0.032978	5491.783683	32583.824138	3556.376727	17201.659993
77.536500	0.020650	0.013265	0.023150	0.040384	5428.755939	32075.260243	3542.111228	16956.440971
78.037000	0.025249	0.013983	0.022508	0.035252	5490.365215	32473.247142	3551.023606	17125.938570
78.537000	0.025230	0.013425	0.024292	0.035372	5489.472108	32426.827356	3554.347395	17121.934839
79.037000	0.022994	0.014630	0.027020	0.036118	5470.450200	32458.242932	3558.325652	17097.190424
79.535000	0.020142	0.013800	0.023355	0.043401	5406.775897	31908.017080	3536.577862	16857.737554
80.035000	0.024782	0.014756	0.025650	0.037763	5471.365343	32354.422118	3552.282896	17042.764161
80.535500	0.025671	0.014213	0.027924	0.037978	5475.651576	32302.816437	3556.405198	17035.668649
81.036000	0.025733	0.013718	0.024778	0.037793	5477.220245	32281.656361	3550.480322	17041.755284
81.536500	0.024685	0.015031	0.026758	0.044952	5425.423339	31886.568555	3540.219917	16807.284464
82.036000	0.026027	0.014737	0.026173	0.040152	5464.094494	32190.608600	3548.562639	16964.068545
82.536500	0.025282	0.015603	0.025646	0.040670	5456.100058	32214.294103	3546.487175	16947.074944
83.036500	0.027820	0.015390	0.029287	0.041139	5469.215088	32167.994107	3552.805300	16931.697128
83.540000	0.024222	0.015326	0.022704	0.046865	5410.606584	31778.124240	3528.543937	16745.265670
84.034500	0.026951	0.015330	0.034127	0.042350	5456.032566	32081.954645	3560.088652	16892.061057
84.538000	0.030140	0.015859	0.026653	0.042646	5474.379160	32097.697141	3544.565206	16882.371965
85.035500	0.027023	0.016833	0.026065	0.044165	5445.028366	32060.874953	3540.402641	16832.850048
85.535500	0.024358	0.015472	0.028222	0.049282	5396.454719	31626.621815	3534.590308	16667.297042
86.035500	0.028186	0.016338	0.026457	0.044934	5447.512820	31975.680329	3539.661450	16807.856897
86.538500	0.030684	0.017627	0.031345	0.046141	5455.658643	31981.111386	3546.937745	16768.682956
87.036500	0.028721	0.016256	0.035152	0.044933	5450.891667	31970.178409	3556.953216	16807.891488
87.536500	0.026236	0.016975	0.026999	0.048518	5412.848492	31777.830262	3533.693299	16691.894784
88.037000	0.029453	0.017264	0.026249	0.046841	5443.482919	31909.673446	3535.508577	16746.041868
88.534500	0.028893	0.017176	0.031180	0.046927	5439.418727	31897.939945	3545.051615	16743.251077
89.034500	0.029850	0.017138	0.036449	0.047686	5440.662338	31844.461539	3554.033640	16718.726854
89.538000	0.027946	0.017609	0.030228	0.052144	5400.951184	31578.433072	3532.917474	16575.555639
90.035500	0.029771	0.019087	0.033658	0.049067	5431.499146	31882.584683	3545.722917	16674.216546
90.537000	0.030020	0.018827	0.030473	0.049221	5432.096346	31854.855321	3539.127342	16669.271171
91.036500	0.029546	0.016889	0.032725	0.048789	5431.826131	31754.000233	3544.423881	16683.162435
91.536000	0.026521	0.017046	0.027228	0.053300	5385.006780	31464.458327	3524.838019	16538.654198
92.036000	0.031977	0.017932	0.031703	0.049778	5440.888085	31757.657205	3540.453129	16651.372357
92.537000	0.032313	0.019040	0.029305	0.050394	5439.125933	31790.501343	3534.534776	16631.588691
93.037500	0.031809	0.018957	0.034144	0.050872	5432.959116	31752.983221	3543.110797	16616.255961
93.537500	0.030436	0.018148	0.026796	0.053293	5409.270184	31537.927086	3524.016595	16538.873154
94.037500	0.033636	0.019249	0.036355	0.052399	5434.840886	31670.575830	3544.465280	16567.415099
94.535500	0.032420	0.019436	0.036966	0.052714	5425.247395	31662.034283	3545.049360	16557.347173
95.035500	0.033434	0.019593	0.033732	0.052591	5432.369821	31680.767370	3538.910655	16561.287435
95.535500	0.029065	0.018491	0.032183	0.058341	5369.670743	31227.575186	3524.673783	16378.962250
96.036500	0.032822	0.019489	0.033176	0.052783	5427.335495	31661.023149	3537.439256	16555.157906
96.536500	0.033199	0.019913	0.029570	0.053983	5422.188419	31609.365099	3528.054223	16516.911166
97.036500	0.036679	0.019894	0.031331	0.054319	5441.899526	31585.780854	3530.826466	16506.238080
97.537000	0.031794	0.019460	0.035492	0.058022	5388.401586	31312.178559	3531.719792	16389.005362
98.037000	0.033990	0.019595	0.035374	0.054495	5423.932982	31554.219763	3538.395171	16500.641490
98.538000	0.032060	0.019122	0.037292	0.054342	5412.853285	31532.962237	3542.474645	16505.498489
99.035000	0.036669	0.020710	0.032754	0.056066	5430.866470	31523.960433	3530.195805	16450.793469
99.535500	0.033556	0.019857	0.035847	0.056578	5408.249702	31433.597858	3535.234792	16434.594059
100.035500	0.034643	0.019762	0.040548	0.055852	5419.539336	31475.369880	3545.930292	16457.582185
100.536000	0.033331	0.019411	0.038979	0.055700	5412.308310	31462.197233	3543.124396	16462.395987
101.036000	0.035009	0.020677	0.038014	0.056590	5417.215261	31487.030376	3539.466487	16434.207732
101.536500	0.034572	0.020873	0.036712	0.060874	5387.943125	31217.622893	3528.541906	16299.389665
102.034000	0.035869	0.021126	0.039080	0.057613	5416.201449	31449.095064	3539.550559	16401.909470
102.537500	0.038115	0.020831	0.038356	0.057668	5429.888232	31425.946484	3538.018981	16400.165065
103.037500	0.035854	0.021249	0.036818	0.057878	5414.452143	31439.670044	3534.589861	16393.533248
103.538000	0.034484	0.020296	0.039199	0.059787	5394.115229	31251.114937	3535.514963	16333.473697
104.035500	0.037468	0.021928	0.040149	0.059187	5416.360544	31398.069154	3538.558513	16352.333616
104.535500	0.036034	0.020966	0.036407	0.058863	5409.451316	31356.035417	3531.864198	16362.523729
105.035500	0.036041	0.021269	0.041743	0.059098	5408.030378	31360.473321	3541.874040	16355.134725
105.536000	0.036820	0.021440	0.036529	0.062129	5394.078370	31172.604552	3525.753809	16260.159113
106.036500	0.038269	0.022630	0.043848	0.060677	5412.065369	31346.122547	3542.912443	16305.565729
106.536500	0.038038	0.022103	0.036061	0.060217	5413.492680	31341.713994	3528.554610	16319.986594
107.037000	0.035314	0.022401	0.035587	0.060906	5392.329261	31315.948526	3526.296421	16298.385935
107.537000	0.031478	0.020727	0.040152	0.063464	5353.127805	31038.754830	3530.196408	16218.531644
108.040500	0.039405	0.021996	0.043782	0.061560	5413.640115	31246.310654	3541.038483	16277.917242
108.535000	0.037628	0.020787	0.040923	0.060694	5407.976276	31223.838984	3537.118219	16305.039741
109.035000	0.040167	0.023716	0.036873	0.062683	5411.394698	31285.564647	3525.345998	16242.854118
109.535500	0.038274	0.022231	0.038223	0.062156	5402.913490	31222.658458	3528.988500	16259.314811
110.036000	0.039897	0.022749	0.037837	0.062454	5411.136490	31237.036076	3527.656774	16249.988942
110.536000	0.038080	0.021925	0.036579	0.062121	5401.921863	31204.840227	3525.863581	16260.386012
111.036500	0.038730	0.022687	0.043714	0.062493	5403.647058	31230.447308	3539.066250	16248.786740
111.536500	0.037329	0.022432	0.042217	0.063305	5389.958397	31160.514231	3534.537944	16223.486557
112.037000	0.040981	0.021705	0.040542	0.062943	5414.845533	31136.648587	3531.970889	16234.761887
112.537500	0.041106	0.021740	0.044065	0.062937	5415.657511	31139.281260	3538.882631	16234.933259
113.040500	0.039232	0.023662	0.039027	0.064876	5392.010231	31138.214223	3525.270636	16174.651317
113.535000	0.041856	0.022964	0.038813	0.066638	5397.336857	30977.711953	3521.454498	16120.076365
114.035500	0.039232	0.022266	0.038346	0.064486	5394.414940	31072.456420	3524.707746	16186.746500
114.536000	0.039952	0.023725	0.046445	0.065420	5393.090053	31106.729268	3538.680524	16157.759961
115.036000	0.037979	0.023557	0.042901	0.065483	5380.546531	31091.672141	3531.618282	16155.826684
115.536500	0.040423	0.023035	0.040967	0.069026	5373.792149	30827.421603	3521.004082	16046.478486
116.036500	0.042821	0.024110	0.038451	0.066925	5401.537910	31033.698482	3520.204675	16111.215276
116.536000	0.040677	0.022999	0.041747	0.066656	5389.934829	30978.795103	3527.091474	16119.507514
117.037500	0.043827	0.025193	0.050385	0.068452	5398.306399	31004.712275	3540.468604	16064.122638
117.538000	0.046128	0.024751	0.049489	0.068922	5409.664562	30945.434310	3537.780588	16049.677317
118.035000	0.042409	0.024515	0.045801	0.067680	5394.313850	31010.868142	3532.989084	16087.913648
118.535500	0.044116	0.024015	0.042893	0.067465	5406.213184	30992.259201	3527.744375	16094.529670
119.035500	0.044332	0.024084	0.047658	0.068016	5404.138672	30960.927580	3535.966360	16077.549939
119.536000	0.039159	0.024350	0.047494	0.071319	5352.067549	30764.208472	3529.197217	15976.187189
120.036000	0.043046	0.025802	0.050252	0.070054	5383.594786	30940.187001	3537.056009	16014.922494
120.536500	0.043503	0.025018	0.043724	0.069139	5392.060232	30948.699965	3526.110840	16043.013888
121.036500	0.043284	0.025598	0.050359	0.070023	5385.250364	30928.953912	3537.327384	16015.866903
121.537000	0.043825	0.026033	0.046460	0.072782	5371.627367	30778.453136	3524.354777	15931.539235
122.037500	0.045699	0.024913	0.050908	0.070216	5398.973068	30871.975512	3538.025970	16009.951159
122.537500	0.047169	0.025789	0.050524	0.071455	5400.407938	30848.472200	3534.842679	15972.029713
123.035500	0.043289	0.025654	0.049012	0.071485	5376.289993	30837.787260	3531.829340	15971.115473
123.535000	0.044047	0.025077	0.044915	0.071936	5378.180459	30771.329880	3523.004856	15957.338965
124.035500	0.043820	0.024915	0.045463	0.070864	5383.372991	30830.149620	3526.137969	15990.099388
124.536000	0.045466	0.025815	0.050215	0.071812	5387.673651	30827.049164	3533.539648	15961.112703
125.036500	0.044747	0.026057	0.044873	0.072004	5382.064853	30830.297369	3522.792231	15955.266233
125.536500	0.046006	0.026849	0.052924	0.074103	5376.899051	30745.867178	3534.358370	15891.349740
126.037000	0.044055	0.027300	0.045444	0.073701	5367.408428	30800.946450	3520.623693	15903.579078
126.537500	0.046213	0.025208	0.044845	0.072807	5386.148708	30723.621847	3521.190043	15930.779848
127.037500	0.046634	0.027076	0.051237	0.074292	5379.600063	30748.260494	3530.696485	15885.606325
127.535000	0.043854	0.026582	0.047629	0.074342	5362.256313	30713.205872	3523.598938	15884.077118
128.034500	0.048573	0.027278	0.049013	0.074266	5391.702762	30762.975028	3526.423321	15886.385172
128.535500	0.045844	0.027325	0.054881	0.074832	5371.431512	30729.506074	3536.763891	15869.218067
129.035500	0.044619	0.026556	0.048799	0.074332	5367.000117	30712.214001	3525.882516	15884.405086
129.536000	0.046846	0.026857	0.050849	0.075659	5372.504762	30646.151637	3527.284113	15844.157897
130.036500	0.045186	0.027927	0.059563	0.075269	5364.728070	30740.155821	3545.131935	15855.963461
130.536500	0.046160	0.028034	0.050181	0.075726	5367.896238	30717.592964	3525.859742	15842.146764
131.037000	0.048824	0.028373	0.051830	0.076220	5381.207073	30707.611813	3528.098927	15827.189805
131.537500	0.048799	0.028707	0.052200	0.077911	5370.678478	30620.355003	3525.537277	15776.185576
132.037000	0.049078	0.028328	0.053791	0.076047	5383.839160	30715.913582	3532.253608	15832.441372
132.535500	0.048215	0.028056	0.048366	0.076375	5376.518803	30677.281603	3521.100324	15822.527611
133.035500	0.048093	0.027207	0.053714	0.076010	5378.002193	30646.078174	3532.175475	15833.535615
133.536000	0.047051	0.027998	0.056523	0.079312	5351.449844	30485.171000	3531.214826	15734.056963
134.036000	0.051478	0.028413	0.050603	0.077442	5390.034486	30631.588276	3523.356637	15790.316463
134.536500	0.047157	0.027759	0.048386	0.077399	5363.760553	30592.361601	3519.169422	15791.602679
135.036500	0.048752	0.027710	0.053431	0.076860	5376.829385	30623.752623	3529.967395	15807.853016
135.537000	0.044306	0.027294	0.051003	0.079088	5336.160992	30454.509513	3520.953526	15740.784976
136.034500	0.046357	0.027908	0.051359	0.078350	5353.081509	30540.942488	3523.063693	15762.975459
136.540000	0.050923	0.028628	0.054210	0.079395	5374.598149	30520.114495	3526.556831	15731.561772
137.034500	0.050756	0.028683	0.048831	0.079342	5373.899563	30527.033221	3516.295376	15733.159060
137.535500	0.050566	0.028906	0.053758	0.079935	5369.099235	30503.344275	3524.634862	15715.367028
138.035500	0.049729	0.028293	0.055846	0.079164	5368.694234	30513.479034	3530.183101	15738.489165
138.536000	0.048913	0.029367	0.048430	0.080136	5357.774917	30519.998753	3514.009990	15709.349247
139.036000	0.051581	0.028234	0.054429	0.079536	5377.772988	30485.944132	3526.708450	15727.333853
139.536500	0.050252	0.029119	0.055963	0.082703	5350.295712	30340.509463	3523.548071	15632.684407
140.036500	0.048354	0.027873	0.055981	0.079662	5357.252669	30454.793841	3529.476339	15723.543846
140.537000	0.050686	0.028547	0.055209	0.080459	5366.631579	30446.961357	3526.430087	15699.682899
141.040000	0.051571	0.029213	0.053651	0.080569	5371.371135	30482.490592	3523.203365	15696.385550
141.535000	0.051119	0.029832	0.056424	0.083495	5350.750072	30335.412209	3522.907719	15609.095298
142.035000	0.048972	0.029346	0.060861	0.081821	5347.879244	30411.047653	3534.785874	15658.965881
142.535500	0.052059	0.029771	0.056733	0.082233	5364.173707	30411.882491	3525.946379	15646.667926
143.036000	0.050341	0.029518	0.060685	0.081875	5355.873877	30418.573909	3534.336508	15657.346580
143.536000	0.050746	0.029357	0.054626	0.084134	5344.602821	30264.711805	3518.217035	15590.121251
144.036000	0.052229	0.029357	0.054320	0.082124	5365.880176	30392.450193	3521.494623	15649.923253
144.536500	0.052370	0.030181	0.055568	0.083430	5358.768867	30361.801230	3521.383509	15611.043498
145.037000	0.052648	0.029534	0.058425	0.083687	5358.894512	30304.366088	3526.407915	15603.411502
145.537000	0.051465	0.030135	0.062884	0.085289	5341.966930	30240.877161	3531.963298	15555.899092
146.037000	0.054141	0.030636	0.060240	0.083971	5366.279890	30356.306451	3529.380991	15594.975150
146.535000	0.053063	0.030676	0.054525	0.083842	5360.478300	30367.076390	3518.584515	15598.791751
147.035000	0.049820	0.030433	0.055354	0.084927	5334.201354	30282.734256	3518.093819	15566.622686
147.535500	0.053651	0.030763	0.064288	0.085290	5355.238979	30280.607433	3534.704728	15555.864860
148.035500	0.051722	0.030636	0.058913	0.084550	5348.001975	30319.478019	3525.681236	15577.781274
148.536500	0.054122	0.030786	0.061317	0.085078	5359.404902	30295.543875	3529.320881	15562.140550
149.036500	0.052172	0.031558	0.059973	0.086980	5336.011037	30223.900727	3523.032140	15505.937003
149.536500	0.056205	0.031842	0.055674	0.086644	5362.557111	30263.175942	3515.416923	15515.849954
150.036500	0.052818	0.031152	0.057510	0.085936	5346.247579	30264.315269	3520.298370	15536.763631
150.540500	0.054242	0.030323	0.058703	0.085307	5358.734379	30251.594255	3523.810804	15555.350901
151.034500	0.055468	0.031025	0.058791	0.087844	5350.754173	30135.561574	3519.090755	15480.469059
151.535000	0.051911	0.032105	0.057397	0.087165	5333.306172	30246.799805	3517.718989	15500.459140
152.035500	0.055730	0.031973	0.054633	0.087497	5354.457930	30217.364053	3511.800568	15490.673432
152.535500	0.053959	0.031062	0.059611	0.087118	5345.995300	30183.726604	3522.066310	15501.846699
153.035500	0.051082	0.031270	0.057754	0.089162	5316.291630	30067.973801	3514.578372	15441.732341
153.536000	0.055762	0.032346	0.060687	0.090375	5337.185278	30059.350607	3517.873311	15406.208562
154.036500	0.053836	0.031974	0.057650	0.088131	5339.111418	30177.449612	3516.352785	15472.041100
154.537000	0.055709	0.032490	0.058379	0.088521	5348.104003	30185.391045	3517.002604	15460.564978
155.037000	0.052434	0.031493	0.054625	0.090523	5316.241875	29996.393551	3506.043234	15401.867866
155.537500	0.056042	0.032338	0.059068	0.090697	5336.931764	30038.599115	3514.158372	15396.783518
156.034500	0.054949	0.032556	0.060751	0.089536	5337.341557	30125.383125	3519.607064	15430.761151
156.535000	0.055239	0.032144	0.055341	0.089262	5340.752865	30116.703827	3509.790327	15438.796230
157.035500	0.057153	0.032202	0.062850	0.088931	5354.391673	30141.287066	3524.821494	15448.522288
157.535500	0.054500	0.032835	0.058621	0.089779	5333.162393	30127.726965	3515.058687	15423.661521
158.036000	0.055284	0.032085	0.059008	0.089158	5341.661783	30119.540114	3516.985924	15441.855941
158.536000	0.056031	0.033459	0.060891	0.090215	5339.786337	30139.588806	3518.572121	15410.890491
159.036500	0.058474	0.033544	0.061403	0.090740	5351.421583	30111.807075	3518.546800	15395.530602
159.537000	0.056809	0.033410	0.062206	0.092481	5330.785056	29993.847250	3516.747376	15344.720209
160.039500	0.056783	0.034223	0.065169	0.091668	5335.535629	30096.107628	3524.013290	15368.409546
160.537500	0.056161	0.033515	0.061404	0.090887	5336.500033	30100.734059	3518.265647	15391.224406
161.034500	0.058866	0.033846	0.062274	0.092077	5345.681210	30046.656656	3517.652492	15356.503151
161.535500	0.056281	0.032977	0.060621	0.092271	5328.869144	29979.855456	3514.116234	15350.842550
162.035500	0.057884	0.033076	0.059902	0.090898	5346.875313	30072.329289	3515.367038	15390.897553
162.536000	0.059065	0.034435	0.063574	0.092402	5344.918343	30063.258454	3519.525403	15347.034068
163.036000	0.054795	0.032655	0.056054	0.096393	5295.264381	29702.435439	3497.686844	15231.317115
163.536500	0.057560	0.032855	0.059878	0.092684	5334.098090	29946.324283	3511.911993	15338.823445
164.036500	0.059193	0.033725	0.068316	0.092573	5344.654996	30007.874200	3528.358958	15342.056149
164.537000	0.057863	0.033624	0.065901	0.092556	5336.700433	30002.572214	3523.711257	15342.537198
165.035000	0.055867	0.033601	0.061736	0.097018	5297.931350	29722.387816	3507.208916	15213.296954
165.534500	0.060561	0.034897	0.058037	0.094827	5339.286570	29940.008179	3504.358384	15276.604431
166.035000	0.058735	0.034829	0.062406	0.093805	5334.423395	29999.835647	3514.596928	15306.227414
166.535000	0.059471	0.033117	0.060937	0.092423	5347.249236	29979.052880	3514.429542	15346.405689
167.036000	0.055066	0.033596	0.062737	0.097982	5287.433339	29662.208545	3507.278339	15185.548086
167.536500	0.058889	0.034668	0.061936	0.094973	5328.296747	29916.474416	3511.472164	15272.357770
168.036500	0.061419	0.034991	0.061704	0.094549	5346.174603	29963.316922	3511.837302	15284.653075
168.536500	0.058313	0.035475	0.055241	0.094666	5326.677879	29986.320572	3499.400165	15281.263952
169.037000	0.057083	0.035082	0.064405	0.099652	5289.491547	29650.829026	3507.275326	15137.636082
169.536500	0.057879	0.034669	0.067401	0.096224	5314.703346	29838.327114	3519.532907	15236.191711
170.037000	0.059666	0.035378	0.067644	0.094653	5334.919456	29980.995167	3523.028077	15281.624830
170.535000	0.060214	0.035145	0.066931	0.095474	5333.275291	29915.045469	3520.073041	15257.885679
171.035000	0.058248	0.034364	0.065061	0.099599	5296.737494	29609.594312	3508.618930	15139.135662
171.535500	0.061312	0.034314	0.062036	0.096365	5334.525918	29807.444855	3509.017429	15232.138557
172.036000	0.061120	0.035794	0.069581	0.096320	5333.636319	29902.647766	3523.549568	15233.436657
172.536000	0.058296	0.035645	0.067964	0.096133	5317.751551	29905.029528	3520.791526	15238.820095
173.036000	0.059127	0.034725	0.065394	0.101822	5288.749876	29494.645421	3505.042322	15075.642134
173.537000	0.057918	0.034878	0.065078	0.097811	5305.436543	29752.458638	3512.050461	15190.465849
174.036500	0.059135	0.036221	0.065615	0.097170	5316.565945	29876.209399	3514.300076	15208.934569
174.537500	0.061738	0.035337	0.064684	0.096673	5335.241501	29852.062155	3513.470390	15223.258153
175.037500	0.061440	0.035781	0.059524	0.096843	5332.408519	29869.096890	3503.360330	15218.333835
175.535500	0.060657	0.035313	0.064416	0.098278	5319.053859	29750.500366	3509.904300	15177.050548
176.035500	0.060854	0.036177	0.070964	0.097819	5322.996307	29832.958606	3523.326203	15190.243732
176.535500	0.061327	0.036889	0.066846	0.098642	5320.887505	29825.996813	3513.837336	15166.581890
177.036000	0.063993	0.035561	0.075818	0.098229	5339.464836	29768.955607	3531.950146	15178.448907
177.536000	0.062901	0.036092	0.063073	0.098251	5332.730019	29800.683179	3507.406289	15177.815770
178.036500	0.063575	0.036849	0.064991	0.098949	5332.582337	29804.356429	3509.719389	15157.768384
178.537000	0.061662	0.036196	0.066631	0.098530	5323.577499	29789.754139	3513.641013	15169.802710
179.037500	0.063594	0.037318	0.073885	0.099142	5331.535768	29821.577585	3526.416780	15152.247659
179.537500	0.063217	0.036702	0.073354	0.099614	5326.416015	29753.796544	3524.475807	15138.727469
180.035000	0.062215	0.036944	0.071909	0.099085	5323.568655	29801.801631	3522.706507	15153.879019
180.535500	0.063224	0.037117	0.067960	0.099971	5324.306323	29757.352350	3513.426891	15128.485977
181.038500	0.059745	0.036081	0.064881	0.105697	5269.474305	29339.872544	3496.795463	14965.688568
181.535500	0.064264	0.037100	0.066140	0.100195	5329.227355	29742.408401	3509.537199	15122.091317
182.036000	0.065499	0.037273	0.070220	0.100661	5333.871206	29724.207037	3516.430005	15108.777359
182.536500	0.064079	0.036404	0.068389	0.099835	5330.276050	29721.481090	3514.505643	15132.377961
183.036500	0.060988	0.036663	0.060392	0.106679	5271.017578	29315.359948	3486.628752	14937.996943
183.534000	0.064036	0.037531	0.063814	0.101773	5318.358682	29671.182773	3502.155796	15077.037154
184.037500	0.064699	0.037243	0.069563	0.101182	5325.898115	29689.949369	3514.176034	15093.886817
184.535000	0.062524	0.037170	0.068423	0.101198	5312.731207	29684.431556	3511.970520	15093.420838
185.035500	0.063170	0.037876	0.069488	0.106493	5285.022849	29401.145146	3503.953947	14943.237107
185.534500	0.063941	0.037661	0.067708	0.103061	5310.057815	29599.399494	3507.075027	15040.365859
186.035500	0.065383	0.037100	0.067448	0.101164	5330.127133	29682.195273	3510.181234	15094.399753
