sample name	sample
index	375
start time	 03-04-2021  12:53:21 PM
880	-0.024346
Peak Time (s)	91.535
Peak Height 	-0.02435
calc peak height	90,93
Baseline Time (s)	9.537
Baseline Value 	-0.002842
subtract baseline	10,4
Abs	0.006423
Peak Time (s)	90.037
Peak Height 	0.006423
calc peak height	90,93
Baseline Time (s)	10.537
Baseline Value 	0.003705
subtract baseline	10,3
PK_550	0.004654
Peak Time (s)	92.536
Peak Height 	0.004654
calc peak height	90,93
Baseline Time (s)	9.537
Baseline Value 	4.9517E-4
subtract baseline	10,2
PK_880	0.006552
Peak Time (s)	90.537
Peak Height 	0.006552
calc peak height	90,93
Baseline Time (s)	9.037
Baseline Value 	3.1784E-4
subtract baseline	10,1


Time (s)	A880-A510	A880-A775	A880-A975	A880	I510	I775	I975	I880	
0.034000	-0.004912	-0.001308	-0.003950	0.006779	6783.348485	46673.690899	3970.122436	24756.577372
0.535000	-0.000484	-0.000458	-0.003442	0.005267	6837.229933	46912.500818	3975.378265	24832.960384
1.035500	-0.003421	-0.000991	-0.001594	0.003551	6826.101668	47032.665011	3984.708369	24919.982707
1.535500	0.002235	-0.000472	-0.002118	0.001198	6899.717346	47325.478669	3989.522423	25039.795026
2.036000	-0.003352	-0.000451	-0.006855	0.007127	6794.287961	46725.075478	3961.714869	24739.070713
2.536000	0.001558	-0.000039	0.000029	0.001362	6891.923410	47353.018167	3994.769680	25031.433180
3.036000	0.002321	-0.000871	0.000377	-0.001934	6929.695924	47606.032466	4004.473873	25200.360873
3.536000	0.000945	0.000180	-0.007620	0.001153	6888.190503	47396.815882	3975.211618	25042.115744
4.036500	-0.002094	-0.000717	-0.003551	0.002508	6847.740791	47166.690351	3982.307736	24972.998581
4.537000	0.000833	-0.000753	0.000643	0.000482	6893.366433	47369.994693	3998.740655	25076.427692
5.037500	-0.000080	-0.000540	-0.001418	0.000514	6884.617530	47388.507466	3993.184085	25074.773350
5.535000	-0.000073	-0.000915	-0.000711	0.000280	6886.851929	47374.156692	3995.676604	25086.751815
6.038000	0.002526	0.000369	0.000927	0.000632	6907.681495	47469.628367	3999.093710	25068.723383
6.536000	-0.000596	0.000430	-0.004496	0.001658	6869.303727	47370.778006	3982.057173	25016.333397
7.036000	-0.000070	-0.001310	-0.003366	-0.000510	6894.186465	47414.539007	3990.737233	25127.201057
7.536000	0.002382	-0.000676	0.000142	0.000439	6908.142624	47382.342920	3997.522385	25078.621502
8.036000	-0.000605	-0.000446	0.001500	0.000087	6883.717308	47442.009987	4002.075875	25096.635797
8.537000	0.000240	0.000037	-0.002137	0.000813	6884.809779	47417.054015	3990.488925	25059.466459
9.037000	0.000000	0.000387	0.004245	0.000322	6887.139041	47503.448374	4008.792791	25084.620755
9.537500	-0.000086	0.000000	0.002769	0.000000	6889.315632	47496.676389	4005.697187	25101.081052
10.035000	0.000882	0.000040	-0.005241	0.000116	6897.210510	47488.937802	3984.151572	25095.152133
10.537500	-0.000612	-0.000650	0.000000	-0.000361	6887.787033	47466.958158	3999.270271	25119.567947
11.035500	-0.000433	-0.000492	0.001954	-0.000535	6891.062221	47501.159154	4004.951194	25128.520664
11.536000	0.000035	-0.000586	-0.003450	-0.000460	6894.702388	47483.693129	3990.386296	25124.654732
12.036000	-0.002578	-0.000287	-0.003551	0.003902	6830.580099	47068.396670	3978.654561	24902.113703
12.536000	0.001292	-0.000964	-0.001956	-0.000187	6903.826104	47416.974364	3993.616925	25110.676024
13.036500	0.001581	-0.000303	-0.000249	-0.000831	6912.498275	47550.926681	3999.857880	25143.669748
13.536000	0.000152	-0.000755	-0.001823	-0.000897	6899.835087	47511.273112	3995.847829	25147.051836
14.039500	-0.001295	-0.000207	0.001781	0.003866	6842.632105	47080.352866	3992.777908	24903.974734
14.537000	-0.003534	-0.000839	-0.000712	0.001448	6844.261596	47262.362053	3992.580690	25027.050614
15.034500	-0.000531	-0.000460	-0.000422	-0.000563	6890.409239	47507.293507	3998.686191	25129.929128
15.535000	-0.000514	-0.000556	0.000251	-0.000690	6891.749887	47510.452776	4000.816945	25136.462732
16.035000	-0.004552	-0.001842	-0.005838	0.003813	6813.431957	46919.561672	3972.924579	24906.657414
16.535500	-0.000763	-0.000373	-0.001943	-0.000343	6886.229333	47493.657398	3994.063502	25118.674130
17.036000	0.002584	0.000386	0.002922	-0.002359	6936.121049	47779.421352	4012.440182	25222.198536
17.536000	0.000269	0.000450	0.001277	0.001336	6880.242461	47405.768283	3998.151841	25032.745721
18.036500	0.001195	0.000065	-0.005252	0.003790	6866.170094	47115.710987	3974.511982	24907.836664
18.537000	0.001024	0.000606	-0.002962	0.001931	6881.730298	47360.754007	3985.369619	25002.405824
19.037500	0.000682	0.000055	-0.002121	0.001242	6884.934733	47374.895857	3989.398605	25037.550556
19.537500	-0.000352	-0.000557	-0.000799	0.001408	6873.849354	47295.297068	3992.453343	25029.073174
20.038000	-0.000574	0.000018	-0.005519	0.002985	6857.311505	47192.959620	3975.912460	24948.735580
20.535500	0.000334	0.000255	-0.001722	0.001505	6879.296141	47368.487376	3989.761264	25024.156409
21.035500	0.000570	-0.000040	-0.002493	0.001469	6881.802879	47341.893624	3987.820291	25025.968224
21.536000	-0.000504	0.000073	-0.001936	0.001653	6870.196735	47334.649242	3988.802423	25016.580330
22.036000	-0.003051	-0.000413	0.001175	0.002739	6836.875378	47174.090465	3994.158178	24961.251284
22.536500	-0.000054	-0.000368	-0.000852	0.000866	6881.602478	47370.094523	3993.748472	25056.766846
23.037000	-0.000663	-0.000268	0.000210	0.000830	6876.318837	47384.013677	3996.661438	25058.613526
23.537000	-0.001602	-0.001036	-0.003436	0.000409	6871.548007	47348.503120	3988.130208	25080.156727
24.037500	-0.000921	0.000016	0.000910	0.001287	6869.732938	47366.334315	3997.308108	25035.268852
24.535000	-0.001042	0.000427	0.001053	0.001506	6866.598960	47385.921119	3997.105467	25024.069983
25.035500	0.000988	0.000156	-0.004529	0.001211	6888.045489	47388.463722	3983.142535	25039.137580
25.535500	-0.000817	-0.000158	0.000427	0.000823	6874.969394	47396.026856	3997.257757	25058.995606
26.036000	-0.001620	-0.000422	0.000011	0.002609	6851.159708	47186.409982	3991.419208	24967.838971
26.536000	0.001772	-0.000321	-0.000303	0.000945	6897.777323	47366.778660	3994.995455	25052.723346
27.036500	0.001181	-0.000520	0.002497	-0.001632	6916.229750	47611.038496	4009.342995	25184.815687
27.536500	0.001654	0.000086	-0.002862	-0.001169	6916.325800	47625.759769	3993.815572	25161.035623
28.037000	0.001923	-0.000354	0.000668	-0.000642	6913.918323	47526.239144	4001.798406	25133.960683
28.537500	0.000291	0.000082	-0.001713	-0.000387	6896.393936	47544.863668	3994.790870	25120.927530
29.034500	0.000661	-0.000663	0.001236	-0.000840	6904.034459	47514.875775	4003.845020	25144.159549
29.537500	0.002235	-0.000287	-0.001414	-0.000406	6914.627532	47508.816607	3995.632726	25121.866408
30.035500	-0.000488	-0.000413	-0.000040	-0.000034	6885.911735	47457.729887	3998.293700	25102.797517
30.535500	-0.000703	-0.000088	0.003383	0.002446	6861.070302	47237.152827	4000.802899	24976.142673
31.035500	-0.001269	-0.000615	-0.003280	0.001452	6865.009638	47284.894826	3985.792991	25026.845765
31.536000	-0.000428	-0.000156	0.000359	-0.000254	6888.498218	47506.702969	3999.940076	25114.078804
32.036500	-0.003935	-0.001183	-0.008570	0.005315	6805.402837	46834.244256	3961.967172	24830.560074
32.537000	0.001728	0.000686	0.004290	0.000125	6904.976036	47554.302218	4009.440889	25094.656496
33.037500	0.001927	0.000784	0.005517	-0.000118	6909.088944	47589.381449	4013.395116	25107.118325
33.538500	-0.000637	-0.000704	-0.003914	0.000852	6876.355647	47337.117284	3985.702223	25057.483126
34.035500	-0.001945	-0.000673	-0.000343	0.002873	6845.772556	47133.992460	3989.790270	24954.451982
34.535500	-0.000657	-0.000172	-0.002382	0.001417	6870.964641	47333.825848	3988.250206	25028.652378
35.035500	-0.000177	0.000086	0.000307	0.002050	6869.550868	47295.454448	3993.685212	24996.343797
35.536000	0.000289	0.000231	-0.004260	0.002137	6873.052840	47301.380296	3981.422449	24991.928681
36.036000	-0.000591	-0.000106	0.002640	0.003286	6854.387513	47149.597260	3996.594270	24933.430163
36.536000	0.000048	-0.000049	-0.001285	0.001943	6872.615229	47292.631637	3989.758183	25001.818864
37.036500	0.000013	0.000480	0.001932	0.002680	6865.512863	47271.277797	3996.323945	24964.271593
37.537000	-0.000020	-0.000289	-0.001628	0.001441	6876.617462	47319.349517	3990.177580	25027.420306
38.036500	-0.001056	-0.001383	-0.004133	0.001153	6869.717522	47236.981970	3984.336018	25042.117340
38.534500	-0.001175	0.000085	0.000819	0.002088	6860.022250	47291.405755	3994.940302	24994.403327
39.038000	-0.000720	-0.000531	-0.003316	0.001285	6871.598897	47310.507272	3986.135510	25035.347725
39.535500	0.000266	0.000540	-0.002783	0.001826	6875.697081	47364.790432	3986.117333	25007.749531
40.035500	-0.001865	0.000359	-0.000249	0.003585	6839.978822	47166.563605	3988.156958	24918.222813
40.536000	0.001890	0.001080	-0.001512	0.002367	6885.698538	47364.632228	3988.038028	24980.178528
41.036500	-0.001508	-0.000349	0.000624	0.001605	6861.402722	47296.392559	3995.704628	25019.027961
41.536500	0.000454	-0.000031	0.000789	0.001959	6876.202481	47292.758823	3995.201694	25000.973234
42.036500	-0.001668	0.000217	-0.001139	0.002922	6847.858087	47219.705973	3987.560863	24951.951291
42.537000	0.000746	0.000135	0.000404	0.001923	6879.238136	47313.370788	3994.276057	25002.814292
43.037500	-0.000521	-0.000242	0.003020	0.001325	6873.069342	47335.996633	4002.827497	25033.332712
43.534500	0.002889	0.000288	0.003810	-0.002900	6944.062124	47825.418070	4016.297495	25250.120939
44.035000	-0.002460	0.000303	-0.000917	0.004526	6825.971378	47065.031515	3983.925039	24870.498573
44.535500	0.000963	0.000468	0.000852	-0.000127	6900.215581	47557.771267	4000.917095	25107.568333
45.035500	0.001909	0.000100	-0.001082	-0.000270	6910.327663	47534.674691	3996.152117	25114.909541
45.536000	-0.000210	-0.000235	0.002106	-0.000251	6890.492640	47498.276065	4004.595592	25113.933727
46.036000	-0.003175	0.000013	-0.002957	0.004460	6820.063362	47042.303349	3978.752990	24873.853074
46.537000	0.000689	0.000294	0.005369	0.000184	6894.788656	47507.974297	4012.182853	25091.663080
47.036500	-0.000964	0.000075	-0.000888	0.002480	6858.364942	47250.353837	3989.386572	24974.431744
47.537500	-0.002252	-0.000792	-0.002550	0.001062	6859.558058	47306.693743	3988.744722	25046.772438
48.037500	-0.003371	0.000633	-0.005236	0.004810	6815.105520	47069.737598	3971.899172	24856.108091
48.538000	0.000883	0.000232	-0.002275	-0.000065	6898.906257	47527.211588	3992.447336	25104.434506
49.035500	0.001253	0.000691	-0.000060	-0.000347	6904.945304	47603.402265	3999.072364	25118.846733
49.535500	0.001908	0.000856	0.004799	-0.001033	6917.425236	47691.099740	4013.927279	25154.047021
50.036000	-0.001205	-0.000107	0.001546	0.012166	6768.235526	46253.734794	3970.406739	24486.645096
50.536000	0.009307	-0.010661	0.023284	0.304293	4908.413000	24489.330087	3448.017441	13896.820864
51.035500	-0.035388	-0.013220	-0.015048	0.202819	5193.060280	30014.200759	3542.661346	16802.020173
51.537000	-0.021207	-0.026811	-0.009947	-0.034310	7013.233265	48273.559692	4064.959135	26929.489660
52.034000	-0.011331	-0.149564	-0.004930	-0.297049	10631.351260	65535.000000	5106.474861	46937.247914
52.537500	-0.027693	-0.178272	-0.015306	-0.325757	10855.141854	65535.000000	5204.053300	49949.390233
53.037500	-0.087959	-0.302441	-0.075096	-0.449926	12120.877992	65535.000000	5581.287210	65535.000000
53.535000	-0.073518	-0.302441	-0.061000	-0.449926	12433.645351	65535.000000	5671.617155	65535.000000
54.035000	-0.006744	-0.167486	0.003902	-0.314971	11044.196427	65535.000000	5250.286060	48794.298093
54.538500	-0.012294	-0.122892	-0.000109	-0.270377	10152.892163	65535.000000	4995.422670	44311.676229
55.036000	-0.018265	-0.104037	-0.008757	-0.251522	9748.262584	65535.000000	4863.354325	42550.508592
55.535500	-0.011927	-0.092466	-0.011730	-0.239951	9665.877696	65535.000000	4796.819629	41506.906236
56.036000	-0.005051	-0.088670	-0.010205	-0.236155	9714.236564	65535.000000	4786.630747	41170.552269
56.536500	-0.000884	-0.082428	-0.007453	-0.229913	9681.622193	65535.000000	4771.074026	40623.870733
57.037000	0.000844	-0.071583	-0.008692	-0.219067	9540.125329	65535.000000	4718.171447	39692.476853
57.537500	-0.000008	-0.051425	-0.009344	-0.194416	9159.723136	64890.081243	4612.051793	37659.969920
58.037500	0.002641	-0.033342	-0.009648	-0.164887	8782.263857	63277.439946	4494.626411	35372.398875
58.535500	0.000451	-0.022789	-0.008153	-0.145881	8500.653863	62113.273783	4429.363554	33980.163462
59.035000	-0.001382	-0.017798	-0.004436	-0.130310	8279.491700	60688.033142	4386.657293	32884.177291
59.536000	-0.005611	-0.011626	-0.013639	-0.098872	7853.008960	57421.386726	4248.775118	30787.464972
60.036000	-0.008615	-0.010985	-0.012622	-0.089669	7714.910558	56356.928065	4222.533707	30201.911532
60.536000	-0.003491	-0.010710	-0.008375	-0.097138	7857.440355	57318.849838	4260.247046	30676.182291
61.036500	-0.005376	-0.011118	-0.012758	-0.099141	7858.801064	57519.154469	4252.505600	30804.801909
61.537000	-0.007094	-0.004921	-0.012882	-0.096139	7804.877173	57922.435754	4242.395006	30612.286434
62.034500	-0.006443	-0.005646	-0.012387	-0.104803	7911.843952	58937.719878	4272.216778	31171.478510
62.537500	-0.006857	-0.005289	-0.011480	-0.097913	7827.784809	58100.999531	4252.667134	30725.909179
63.056500	-0.004757	-0.003089	-0.008931	-0.091236	7775.801633	57534.719773	4239.332229	30300.725100
63.540500	-0.006613	-0.002965	-0.007229	-0.084840	7683.477247	56751.215639	4224.323216	29899.539888
64.039000	-0.010619	-0.000998	-0.007424	-0.072467	7505.335913	55476.045474	4184.929177	29140.048071
64.536000	-0.005430	-0.000624	-0.009922	-0.072938	7566.128023	55578.335991	4178.682438	29168.528503
65.036500	-0.005673	-0.000138	-0.010029	-0.068462	7515.384851	55096.428416	4164.663217	28898.760650
65.537000	-0.007336	0.000158	-0.007977	-0.064834	7459.139702	54697.395758	4159.876068	28682.134104
66.036500	-0.006521	0.000645	-0.008726	-0.061501	7432.614083	54359.100059	4147.558083	28484.741834
66.537000	-0.009068	-0.000167	-0.008228	-0.059964	7389.919844	54081.571919	4144.444061	28394.232114
67.036500	-0.006874	0.000166	-0.009624	-0.057562	7387.750369	53838.185832	4133.113097	28253.382524
67.535000	-0.012606	-0.000960	-0.013197	-0.052917	7281.095160	53165.680152	4108.934980	27983.225847
68.035000	-0.013824	-0.000804	-0.014569	-0.049997	7239.270609	52846.672776	4096.487462	27814.873359
68.535000	-0.009643	-0.001196	-0.007842	-0.054162	7324.034859	53282.507773	4128.314225	28055.316326
69.035500	-0.010005	-0.001544	-0.010990	-0.053501	7313.555228	53165.592847	4117.094152	28016.991085
69.536000	-0.007609	-0.001330	-0.006513	-0.051880	7321.482518	53002.986185	4125.497880	27923.263662
70.036500	-0.011324	-0.001307	-0.012938	-0.045749	7221.712426	52303.183697	4088.958951	27571.945007
70.536500	-0.007222	-0.001748	-0.010732	-0.050135	7307.589899	52754.032169	4108.011220	27822.773100
71.034500	-0.008149	-0.001277	-0.004420	-0.049172	7288.318972	52697.563465	4123.684099	27767.466829
71.537000	-0.011220	-0.001622	-0.009407	-0.044307	7208.334198	52103.708210	4094.965886	27490.032505
72.037500	-0.008153	-0.000953	-0.009556	-0.047163	7267.896284	52504.743654	4102.791317	27652.547459
72.535000	-0.005006	0.000390	-0.007432	-0.045487	7282.819465	52466.648086	4104.090578	27557.043569
73.035500	-0.007507	-0.000644	-0.007095	-0.045431	7256.904485	52342.373218	4104.905099	27553.821603
73.536000	-0.007768	-0.000650	-0.009394	-0.039735	7197.147532	51697.266264	4081.892510	27232.054787
74.036000	-0.007379	-0.000724	-0.005167	-0.044174	7245.522606	52190.284632	4106.856590	27482.449993
74.536500	-0.006037	-0.001060	-0.003312	-0.044248	7259.809208	52160.666285	4112.483564	27486.663446
75.036500	-0.007742	-0.001803	-0.005786	-0.044138	7241.497695	52063.969369	4104.953332	27480.415099
75.536500	-0.006985	-0.000829	-0.003192	-0.038567	7193.320896	51546.221954	4096.335551	27166.633238
76.038000	-0.003484	-0.000800	-0.001337	-0.042878	7271.788929	52034.925410	4114.253691	27409.111435
76.540000	-0.002264	-0.001277	-0.000814	-0.043595	7291.464511	52062.006537	4117.886123	27449.672637
77.035000	0.000029	-0.000072	-0.003807	-0.042256	7301.180486	52046.948769	4105.235380	27373.974829
77.535000	-0.006703	-0.000579	-0.009712	-0.037569	7186.204202	51462.487240	4074.827652	27110.826214
78.035500	-0.002498	-0.000551	-0.005998	-0.041903	7271.890414	51952.819486	4097.865098	27354.043368
78.536000	-0.003869	-0.000947	-0.001623	-0.041915	7258.149430	51909.433725	4110.602323	27354.744700
79.036000	-0.000962	0.000298	-0.000602	-0.040469	7272.932241	51886.712773	4109.361882	27273.302935
79.536000	-0.000005	0.000196	-0.003114	-0.040660	7284.592883	51896.897483	4102.613998	27284.071408
80.036500	-0.003331	0.001050	-0.005669	-0.034307	7187.298994	51280.196380	4077.046386	26929.353786
80.537000	-0.002049	0.001291	-0.004302	-0.039792	7255.087835	51922.399443	4096.664558	27235.265953
81.037500	-0.001706	0.000728	0.003792	-0.039959	7260.238024	51877.689930	4120.736878	27244.635014
81.537500	-0.003756	0.001139	-0.004004	-0.034392	7183.919703	51299.640086	4082.027604	26934.081259
82.035000	-0.004880	0.002007	-0.003257	-0.034221	7171.069899	51377.310743	4083.671054	26924.560049
82.535500	0.002469	0.002084	0.005025	-0.039370	7296.631598	51964.283783	4122.631874	27211.590394
83.036000	-0.000933	0.001830	-0.000816	-0.040449	7273.024437	52057.651525	4108.678857	27272.170098
83.535500	-0.002283	0.001534	-0.004438	-0.034636	7201.002824	51370.876261	4081.484922	26947.599524
84.036000	0.002597	0.002522	0.000903	-0.039186	7296.058411	51993.080822	4110.009980	27201.284410
84.536500	0.001253	0.002058	-0.003879	-0.039633	7286.936919	51991.112974	4097.429263	27226.369067
85.036500	0.001854	0.002854	-0.002613	-0.038890	7285.489448	51997.125450	4098.940477	27184.719487
85.537000	-0.001296	0.002740	-0.004277	-0.032747	7192.018836	51294.667583	4076.567860	26843.062544
86.040000	0.001412	0.002391	-0.000856	-0.032522	7216.798113	51230.739970	4085.678145	26830.623813
86.534500	0.004206	0.002516	0.002538	-0.037611	7296.414398	51814.622131	4110.187213	27113.186731
87.035000	0.002385	0.002579	0.000182	-0.036971	7271.401271	51749.635299	4101.475669	27077.444660
87.535000	-0.000652	0.002943	-0.003400	-0.030495	7176.043848	51066.765153	4072.669234	26718.986272
88.035500	0.001399	0.003234	-0.000713	-0.029711	7188.627242	51012.233993	4078.068419	26675.965560
88.536000	0.004149	0.004424	0.006987	-0.033746	7256.618361	51594.680707	4111.888966	26898.276949
89.036000	0.005272	0.003334	0.002166	-0.033968	7270.226189	51497.408524	4098.526709	26910.562301
89.537000	0.005057	0.003696	0.004035	-0.033059	7258.856317	51436.285831	4101.306543	26860.305331
90.037000	0.005209	0.003435	0.006423	-0.032575	7255.499062	51352.972812	4106.830218	26833.544855
90.537000	0.006552	0.004194	0.005652	-0.031022	7253.384725	51264.522458	4100.090373	26747.989079
91.038000	0.006075	0.003867	-0.001841	-0.030584	7244.157549	51179.437862	4077.345940	26723.908336
91.535000	0.002806	0.004012	-0.002681	-0.024346	7149.448859	50506.512757	4057.392685	26383.534447
92.035500	0.005164	0.003549	0.005613	-0.029359	7222.696840	51008.076883	4095.170919	26656.651241
92.536000	0.006512	0.004654	0.006254	-0.027716	7219.742165	50948.577817	4092.289059	26566.823776
93.092000	0.007775	0.004586	0.004028	-0.027255	7227.779833	50890.046177	4084.583538	26541.657931
93.536000	0.002006	0.004066	0.001752	-0.021424	7112.936853	50193.117055	4061.625723	26225.801773
94.036500	0.002695	0.004860	0.000309	-0.019869	7104.477780	50110.302819	4053.242962	26142.287001
94.537000	0.007260	0.004894	0.011602	-0.025173	7201.799584	50694.354976	4100.380081	26428.393239
95.034000	0.004387	0.005172	0.007073	-0.024029	7161.927655	50599.149886	4084.065197	26366.403200
95.540000	0.003128	0.005283	-0.000186	-0.017867	7089.215954	49939.072176	4046.308446	26035.233208
96.037500	0.003504	0.005514	-0.002140	-0.017908	7093.267842	49968.487439	4041.020617	26037.419648
