sample name	sample
index	1038
start time	 04-19-2021  01:58:26 PM
880	0.065171
Peak Time (s)	102.535
Peak Height 	0.06517
calc peak height	100,103
Baseline Time (s)	11.036
Baseline Value 	-0.005349
subtract baseline	10,4
Abs	0.037398
Peak Time (s)	101.535
Peak Height 	0.0374
calc peak height	100,103
Baseline Time (s)	9.537
Baseline Value 	0.007087
subtract baseline	10,3
PK_550	0.031105
Peak Time (s)	102.035
Peak Height 	0.03111
calc peak height	100,103
Baseline Time (s)	8.537
Baseline Value 	3.2882E-4
subtract baseline	10,2
PK_880	0.036673
Peak Time (s)	102.035
Peak Height 	0.03667
calc peak height	100,103
Baseline Time (s)	9.537
Baseline Value 	0.002119
subtract baseline	10,1


Time (s)	A880-A510	A880-A775	A880-A975	A880	I510	I775	I975	I880	
0.037000	-0.000828	-0.000051	-0.007057	0.002456	6576.052360	45927.375149	3980.300869	24327.194666
0.537500	-0.001151	-0.000240	-0.003038	0.003957	6560.748092	45760.769454	3986.672855	24253.356231
1.037500	-0.004439	-0.000660	-0.005868	0.007003	6508.108821	45420.835243	3971.860252	24104.261810
1.539000	-0.000401	0.000383	0.000241	0.001926	6584.103418	46022.741942	4000.229560	24353.305461
2.035500	-0.000839	0.000317	-0.003903	0.001309	6585.610524	46077.413452	3991.205242	24383.786525
2.535500	-0.000596	0.000451	-0.003455	0.001500	6586.042452	46071.696602	3991.860845	24374.328425
3.036500	-0.002130	0.000159	-0.002974	0.002364	6565.889140	45957.250504	3990.883292	24331.702579
3.536500	-0.000242	0.000888	0.000366	0.001325	6590.512188	46132.448778	4002.096910	24382.980395
4.036500	-0.000678	-0.000101	0.002491	0.000102	6597.159799	46155.631690	4010.744970	24443.490345
4.537000	-0.000817	0.000299	-0.003349	0.000506	6592.576720	46155.413152	3994.671182	24423.523154
5.034000	-0.002232	0.000053	-0.004315	-0.000030	6585.152754	46184.093314	3993.570637	24450.039950
5.535000	-0.000466	0.000404	-0.002519	0.000403	6596.408593	46176.040699	3997.057166	24428.615713
6.038000	0.000062	0.000146	-0.002800	0.000246	6602.199560	46165.863624	3996.737782	24436.355521
6.535500	-0.000013	-0.000070	-0.001318	0.000078	6602.994394	46161.172428	4000.973677	24444.707134
7.035500	-0.001414	-0.000048	0.000548	-0.000232	6593.757483	46194.133682	4006.581114	24460.048708
7.536000	-0.000517	0.000006	0.000084	0.000005	6599.335796	46175.951581	4004.770570	24448.299846
8.036000	0.000102	0.000534	-0.003240	0.000535	6600.092092	46175.758568	3994.874339	24422.072095
8.536500	0.000130	0.000000	0.002937	0.000121	6603.840661	46163.873913	4011.855878	24442.573607
9.037000	-0.001092	-0.000183	-0.005619	-0.000014	6594.640511	46159.008967	3990.204020	24449.237640
9.537000	0.000000	-0.000077	0.000000	-0.000344	6606.677497	46202.464674	4005.456383	24465.630801
10.037500	-0.000646	0.000681	-0.001627	0.000005	6598.252220	46243.200679	4000.368028	24448.330167
10.538000	0.001790	-0.000030	-0.003720	-0.000756	6625.395790	46248.162049	3996.952282	24486.094561
11.035500	0.000497	0.000755	0.001476	0.000000	6607.972740	46250.999947	4008.381898	24448.567110
11.535500	-0.000100	0.000631	0.000761	0.000314	6600.257758	46207.353186	4005.721596	24432.999844
12.035500	-0.002160	0.001171	-0.003948	-0.000014	6585.632263	46293.914355	3994.470125	24449.283664
12.536000	-0.000962	0.000359	0.001125	-0.000296	6598.126327	46241.033885	4008.238318	24463.232921
13.036500	0.000820	0.000698	-0.003499	-0.000322	6613.440230	46277.328414	3996.403886	24464.510835
13.537000	0.001147	0.000251	-0.001638	-0.000116	6614.474003	46212.364452	4000.649249	24454.312541
14.037000	-0.000428	-0.000290	-0.005518	0.001550	6587.036995	45993.311097	3986.485484	24371.859224
14.537500	0.000451	0.000960	-0.002418	0.002168	6589.246294	46055.993438	3992.802783	24341.373861
15.042500	0.000036	0.000300	-0.003045	-0.000361	6607.129832	46241.697720	3997.667618	24466.487705
15.535000	-0.000395	0.000402	-0.002275	0.000120	6599.396371	46203.880804	3998.406622	24442.597551
16.035500	-0.001841	0.000696	-0.002409	0.000465	6584.280300	46198.794354	3997.180606	24425.516239
16.536000	0.001204	0.000244	-0.003161	-0.000009	6614.053191	46201.061655	3996.469023	24449.026925
17.036000	0.001975	-0.000233	0.000641	-0.003516	6650.569940	46503.435996	4015.340978	24623.528348
17.536000	0.000171	0.000209	0.000892	0.000812	6598.329840	46115.931228	4004.772377	24408.334424
18.036000	-0.002110	-0.000201	-0.002450	0.000633	6580.594034	46093.056082	3996.645516	24417.208298
18.537000	-0.001997	0.000080	-0.008328	0.000995	6578.504402	46085.114796	3980.780221	24399.326204
19.037000	-0.000483	0.000624	-0.003088	0.001530	6586.746572	46085.879816	3992.719313	24372.854622
19.537000	-0.000879	0.001116	-0.002540	0.001603	6582.801752	46127.599378	3993.935930	24369.284052
20.034500	-0.002636	0.000246	-0.008089	0.000842	6574.415161	46116.649739	3981.767087	24406.852891
20.535000	0.000304	0.000769	-0.003776	0.001180	6596.344559	46135.032799	3991.856714	24390.137926
21.035500	-0.002017	-0.000155	-0.003356	0.000890	6579.219936	46072.098284	3993.670339	24404.503533
21.535500	-0.001209	0.000486	-0.002308	0.001438	6581.411497	46081.348435	3994.949391	24377.424201
22.036000	0.001349	0.000680	-0.004670	0.001207	6604.962480	46123.523440	3989.511148	24388.813629
22.536500	-0.001725	-0.000143	-0.008597	0.000764	6582.730456	46085.822284	3980.681345	24410.712989
23.036500	-0.002185	-0.000307	-0.002231	0.000655	6579.785959	46080.442533	3997.151153	24416.140015
23.537000	-0.001353	-0.000097	-0.006087	0.000655	6586.792868	46101.246833	3987.314568	24416.137518
24.037000	-0.000190	0.001032	0.000715	0.001240	6591.674225	46155.247880	4003.215633	24387.215776
24.534500	-0.001300	0.000110	-0.003381	0.000995	6584.370816	46088.025333	3993.339301	24399.314777
25.037000	-0.001283	0.000176	-0.006360	0.000951	6584.883824	46098.911306	3985.871124	24401.491831
25.535500	-0.000580	0.000688	-0.003099	0.001297	6587.899914	46115.456579	3993.288521	24384.400048
26.035500	-0.000355	0.000940	-0.001254	0.001597	6587.257011	46110.605695	3997.239356	24369.540790
26.536000	-0.000712	0.000406	-0.004751	0.000876	6590.337381	46129.218701	3990.150072	24405.204713
27.036500	0.000203	0.000451	-0.000182	-0.000770	6612.019736	46297.474152	4006.088181	24486.788730
27.536500	0.000019	-0.000067	-0.003399	-0.001568	6617.231044	46325.376934	3999.855557	24526.420349
28.037000	-0.000841	0.000665	-0.004187	0.000343	6593.743501	46207.921037	3992.945915	24431.582597
28.540000	-0.001701	0.000778	-0.001608	-0.000171	6590.828254	46270.357869	4000.869241	24457.045247
29.037500	-0.001332	0.001116	-0.002130	0.000927	6584.682089	46194.762233	3996.712460	24402.685822
29.537500	0.001257	0.000839	0.003124	0.000180	6612.892488	46241.409382	4012.187811	24439.641558
30.035500	-0.000737	0.000472	-0.003084	-0.000208	6599.277445	46243.501560	3997.175803	24458.865876
30.535000	-0.000375	0.000141	-0.003598	0.001796	6585.410321	46011.601066	3990.741072	24359.710440
31.035500	-0.001448	0.000452	-0.005834	0.002194	6573.040174	46003.078452	3984.054039	24340.099437
31.536000	0.001508	0.000531	-0.000523	0.000159	6615.210633	46212.956162	4002.810593	24440.705718
32.038500	0.000975	0.000221	-0.002720	-0.000337	6614.885921	46231.407393	3998.439225	24465.263606
32.536500	0.001317	-0.000114	0.002092	-0.000595	6619.993075	46223.796395	4011.521087	24478.100992
33.040000	-0.000804	0.001047	-0.001263	0.000265	6594.716946	46253.707877	4000.632724	24435.420224
33.537500	-0.000490	0.000631	-0.005759	0.002332	6579.940015	46007.125222	3983.894536	24333.306566
34.040000	0.000056	0.000779	0.004528	0.001946	6587.787114	46060.028672	4011.248060	24352.335604
34.535000	-0.002190	0.000268	-0.002661	0.001581	6571.963069	46045.614579	3993.682286	24370.364036
35.035500	0.000030	0.000542	-0.002525	0.001756	6589.176381	46055.409162	3993.582136	24361.724010
35.535500	-0.000499	0.000548	-0.002859	0.001839	6584.011222	46047.830666	3992.517567	24357.633974
36.036000	-0.001169	0.000431	-0.000247	0.002034	6576.725155	46016.813164	3998.698653	24347.969972
36.536000	0.000178	0.000433	-0.001708	0.001749	6590.472711	46045.174683	3995.686295	24362.031104
37.036500	-0.002646	-0.000139	-0.002094	0.001641	6567.625007	45999.264722	3994.977570	24367.388674
37.539500	-0.001050	0.000347	-0.001064	0.001964	6578.318824	46015.483442	3996.784809	24351.439832
38.037000	-0.001675	-0.000474	-0.005425	0.001385	6577.934723	45991.518243	3987.143342	24380.042627
38.537500	-0.002135	0.000392	-0.004824	0.001912	6569.644183	46025.116086	3987.330800	24354.022314
39.038000	0.000728	0.000574	0.001499	0.001938	6593.518297	46040.497111	4003.436743	24352.703012
39.535500	-0.002561	-0.000087	-0.000937	0.001201	6572.026411	46047.970522	3999.066133	24389.103095
40.035500	-0.000051	0.000768	-0.004147	0.002264	6584.196108	46027.338636	3988.153653	24336.622329
40.536000	-0.001272	-0.000438	-0.001758	0.001435	6580.898538	45990.118959	3996.363381	24377.555836
41.036000	0.000857	0.000848	0.001233	0.002207	6592.341190	46040.988276	4002.057611	24339.448009
41.536000	0.000135	0.000709	-0.000857	0.001419	6592.901037	46105.373932	3998.714283	24378.347286
42.042000	-0.001554	-0.000573	-0.003164	0.000238	6588.616287	46095.384926	3995.829049	24436.787841
42.536500	0.002032	0.000394	0.001357	0.001379	6609.298566	46078.117590	4004.512794	24380.349300
43.037000	-0.001575	0.000352	-0.001920	0.001301	6579.483974	46081.717103	3996.293666	24384.194359
43.537500	0.001969	0.000811	0.002127	-0.002283	6639.958141	46484.557100	4016.000420	24562.020833
44.040500	0.000862	0.000394	-0.006131	0.000917	6603.287880	46123.860594	3986.536953	24403.141453
44.535000	-0.001828	0.000295	0.001234	-0.000379	6591.509003	46243.017682	4008.736898	24467.384501
45.035500	0.000871	0.000717	0.000823	0.000208	6609.375100	46226.480997	4006.154212	24438.243078
45.536000	0.000366	0.001144	-0.001349	0.000215	6605.041682	46268.316814	4000.541439	24437.899682
46.036000	-0.001207	0.001085	-0.005717	0.003868	6561.027744	45900.140707	3980.118300	24257.719274
46.539000	0.002559	0.000575	-0.004073	0.000075	6624.860400	46225.618875	3993.921437	24444.856695
47.036500	-0.002553	0.000599	-0.000059	0.002015	6565.268669	46035.395591	3999.232177	24348.929426
47.537000	-0.001304	0.000440	-0.004446	0.001799	6577.566778	46041.014589	3988.576355	24359.572191
48.040500	-0.000454	0.000241	-0.001754	0.001608	6586.336383	46040.226332	3995.931230	24369.036309
48.537500	-0.001677	0.000446	-0.002334	-0.000152	6590.862346	46235.306414	3998.952540	24456.078246
49.035500	-0.002434	0.000091	-0.006767	-0.000211	6584.975032	46205.882692	3987.786105	24459.004277
49.535500	0.002839	0.000810	0.002446	-0.002118	6645.993334	46467.942924	4016.401329	24553.808607
50.035500	0.005349	0.000608	-0.002293	0.022693	6459.739577	44035.262234	3941.943357	23352.668206
50.535500	0.023460	-0.004386	0.025044	0.340181	4699.107285	22529.929090	3426.615630	12758.096589
51.038500	-0.008115	-0.005905	-0.032856	0.286067	4793.607126	25043.988405	3421.909247	14063.155665
51.536500	-0.039075	-0.032547	-0.061639	-0.149658	7670.536581	59538.974918	4256.223378	33304.687171
52.036500	-0.021349	-0.034717	-0.033651	-0.158947	7975.099666	60473.365725	4379.166049	33961.494103
52.537000	-0.022049	-0.071564	-0.027512	-0.229943	8862.395127	65174.611608	4669.674044	39473.684619
53.037500	-0.016972	-0.026839	-0.018135	-0.153254	7959.814964	60763.174948	4413.357692	33557.238709
53.534500	-0.005343	-0.057848	-0.006672	-0.211491	8838.578573	64500.404994	4679.522420	37953.346764
54.035000	-0.000856	-0.030023	-0.013892	-0.168279	8334.102220	62359.673386	4482.717977	34635.630357
54.535500	-0.007697	-0.016051	-0.014163	-0.134000	7845.442105	59647.988055	4360.493878	32228.765587
55.035500	0.001300	-0.012636	-0.007569	-0.123574	7829.289346	58740.908833	4347.527863	31533.627670
55.539000	-0.000031	-0.008800	-0.003991	-0.090493	7455.678541	55111.134289	4251.437968	29435.248223
56.036500	-0.001510	-0.006168	-0.011705	-0.074293	7274.958729	53508.314950	4178.204068	28464.527833
56.536500	-0.001075	-0.002882	-0.007874	-0.054509	7085.411454	51625.716171	4131.542375	27327.124311
57.037000	0.004974	0.000195	-0.000772	-0.032564	6935.874254	49558.455703	4089.640187	26124.602392
57.537500	0.005411	0.002803	-0.003133	-0.012743	6760.800592	47749.332733	4029.631574	25089.534304
58.034500	0.004033	0.001936	-0.004627	0.000152	6636.788539	46353.701467	3992.311123	24441.056491
58.535500	0.001948	0.001300	-0.007034	0.010874	6528.920798	45234.567468	3959.319194	23916.288299
59.035500	0.004724	0.003520	0.000712	0.021992	6460.366274	44378.126684	3951.007354	23385.712619
59.536500	0.005308	0.006804	-0.003205	0.030078	6399.817797	43923.121377	3921.934123	23008.251452
60.038500	0.008395	0.006654	-0.000866	0.032009	6409.071852	43727.468629	3922.907097	22919.115635
60.539000	0.004767	0.007135	-0.006153	0.060677	6159.384066	41168.279168	3844.810841	21641.816135
61.036500	0.011288	0.009180	0.002535	0.033583	6419.673720	43816.896957	3927.287399	22846.793713
61.540000	0.010237	0.009869	0.002536	0.037863	6377.040995	43480.822674	3917.062678	22651.416670
62.037500	0.008336	0.012036	0.003122	0.039639	6347.934822	43517.234025	3914.237020	22570.895851
62.537500	0.007898	0.013485	0.001173	0.048166	6278.001160	42862.243809	3889.692715	22188.883700
63.035000	0.015544	0.014564	0.011291	0.055289	6282.034915	42311.400155	3896.650590	21875.475021
63.535000	0.018893	0.014598	0.011006	0.062152	6254.991001	41698.155613	3880.129089	21578.362131
64.035500	0.020457	0.015184	0.010747	0.056472	6310.994098	42260.445309	3892.634153	21823.929490
64.538500	0.019179	0.017967	0.014333	0.060787	6267.664121	42122.198002	3890.941643	21637.048054
65.036500	0.021572	0.018009	0.012856	0.048490	6382.669655	43249.660008	3916.333365	22174.534667
65.536000	0.021366	0.016653	0.018152	0.020187	6613.757037	45826.004267	3999.332706	23470.907876
66.036500	0.025660	0.018603	0.015703	0.040208	6482.578288	44080.676690	3943.118507	22545.189667
66.537000	0.023577	0.017551	0.021098	0.044434	6431.270625	43584.487114	3945.970088	22355.178702
67.036500	0.025092	0.017582	0.020113	0.048509	6410.659494	43208.313050	3933.674121	22173.680108
67.537000	0.024236	0.019632	0.015451	0.032569	6533.847018	44908.810337	3961.277829	22893.366740
68.037500	0.022770	0.020759	0.021440	0.023427	6598.203108	45911.516472	3999.455698	23318.187475
68.535000	0.018148	0.020419	0.014478	0.018241	6602.970381	46392.948648	3994.904016	23563.172709
69.052500	0.020360	0.022090	0.014980	0.008850	6702.559193	47512.321985	4020.488687	24014.345732
69.536000	0.020667	0.022954	0.018790	0.004953	6739.301542	48002.953940	4040.828425	24204.447478
70.036000	0.019046	0.022553	0.017688	0.002310	6748.288198	48235.824845	4044.939607	24334.353616
70.536000	0.018501	0.022530	0.015774	0.006155	6709.845903	47834.876652	4029.655535	24145.673991
71.037000	0.023089	0.023693	0.018965	0.003914	6769.829048	48187.651354	4044.069193	24255.453571
71.537500	0.019227	0.023221	0.019390	0.004952	6726.691072	48030.797084	4042.432576	24204.510045
72.037000	0.021869	0.023871	0.019773	0.007028	6731.648913	47883.266575	4037.928524	24103.057111
72.538000	0.017358	0.023942	0.017091	0.013956	6632.693221	47180.145660	4012.684067	23767.868915
73.035000	0.022764	0.024619	0.020858	0.013211	6685.577854	47324.947952	4024.464327	23803.624947
73.538000	0.022290	0.023886	0.021541	0.015985	6657.553281	46968.479455	4018.989643	23670.684034
74.035500	0.023744	0.024268	0.018671	0.018687	6646.847606	46734.291023	4004.526392	23541.986834
74.536000	0.020505	0.023377	0.022064	0.026215	6555.711641	45894.720489	3993.913690	23187.695241
75.036000	0.023960	0.025331	0.022848	0.024591	6598.425100	46249.513486	4000.082072	23263.613845
75.536000	0.025480	0.024627	0.021619	0.026026	6599.140188	46036.989444	3993.258913	23196.489408
76.040000	0.027166	0.025653	0.028828	0.028198	6595.030146	45923.610016	4006.194562	23095.346905
76.537000	0.020764	0.025411	0.017272	0.034683	6487.732232	45263.904508	3960.551597	22796.395759
77.037500	0.028133	0.025925	0.022427	0.031052	6579.123046	45669.252116	3982.543204	22963.258657
77.534500	0.027641	0.025958	0.022868	0.031017	6575.278327	45675.925259	3983.747204	22964.865410
78.038000	0.026491	0.026412	0.023633	0.032251	6555.291669	45599.329329	3982.559281	22907.976629
78.535000	0.023584	0.025921	0.016989	0.038062	6483.144361	44985.669702	3951.515556	22642.359661
79.035500	0.029831	0.026000	0.023311	0.033329	6574.254584	45453.460569	3979.027756	22858.457355
79.536000	0.028704	0.027496	0.028657	0.034721	6553.140870	45463.572385	3989.035033	22794.629603
80.036500	0.027724	0.027332	0.026350	0.035256	6540.509501	45395.319551	3981.833721	22770.198239
80.536000	0.024253	0.026711	0.021274	0.040933	6465.148716	44784.954472	3954.996146	22512.442273
81.037000	0.026467	0.026572	0.025045	0.035572	6527.433307	45290.329343	3977.743971	22755.733220
81.537500	0.029518	0.026926	0.023782	0.036335	6546.466678	45250.582372	3972.654926	22720.937001
82.034500	0.028964	0.027495	0.025527	0.037255	6534.200634	45216.458427	3974.726035	22679.060133
82.540500	0.029479	0.027507	0.026882	0.037674	6534.995270	45176.881763	3977.077608	22659.992953
83.034500	0.033254	0.027441	0.026660	0.038104	6562.904079	45128.825296	3975.438065	22640.458807
83.536000	0.030831	0.027508	0.025145	0.038872	6536.271935	45060.821725	3969.718670	22605.611844
84.036000	0.030990	0.027239	0.026006	0.038888	6537.462333	45033.258570	3971.830731	22604.890508
84.536000	0.026034	0.027389	0.024626	0.045082	6445.898788	44452.290974	3953.030901	22326.164133
85.036500	0.033006	0.027795	0.029768	0.040819	6538.171196	44900.379094	3976.425825	22517.565963
85.537000	0.031846	0.028386	0.029969	0.042637	6513.481891	44782.143710	3972.367318	22435.734296
86.037000	0.031134	0.027706	0.031717	0.042072	6512.270495	44771.136868	3978.176948	22461.143162
86.537000	0.030764	0.027624	0.024087	0.047915	6461.312149	44205.194760	3944.769101	22200.035911
87.038000	0.035991	0.028101	0.032266	0.043937	6537.061532	44629.979391	3974.866155	22377.394450
87.535000	0.031982	0.028170	0.029674	0.044873	6496.166008	44546.967527	3966.047093	22335.521285
88.035500	0.032000	0.028035	0.029381	0.045024	6495.077490	44519.668448	3964.942124	22328.790355
88.535500	0.031383	0.027694	0.028246	0.050367	6446.415699	43979.781739	3948.944215	22091.483408
89.035500	0.034941	0.029186	0.030327	0.047174	6501.590463	44424.227406	3961.949510	22232.963759
89.536500	0.032270	0.029279	0.032610	0.047475	6477.187184	44404.347338	3966.878053	22219.551832
90.036500	0.033782	0.028740	0.031881	0.047616	6488.419059	44339.553958	3964.710702	22213.295061
90.537000	0.030475	0.029085	0.028025	0.053353	6414.982931	43829.520009	3941.112242	21960.154876
91.037500	0.032125	0.028875	0.030540	0.049123	6462.551560	44209.219447	3957.651249	22146.468630
91.540000	0.034682	0.029334	0.026581	0.050573	6471.593159	44115.335746	3944.368416	22082.422610
92.035000	0.032021	0.029619	0.032326	0.050592	6449.762825	44140.429176	3958.433529	22081.551928
92.535500	0.035521	0.029944	0.029783	0.051435	6471.393351	44091.366793	3950.093819	22044.396696
93.035500	0.036229	0.029526	0.031604	0.051583	6475.981815	44038.007389	3954.208082	22037.923467
93.536000	0.032753	0.028811	0.030171	0.051444	6448.786118	43983.503439	3951.023431	22043.999723
94.036500	0.036800	0.030128	0.031178	0.052902	6469.864505	43970.220525	3949.917481	21979.919654
94.536500	0.029761	0.029984	0.030480	0.058175	6370.776448	43462.411213	3935.367388	21749.948981
95.036500	0.033876	0.029460	0.034728	0.053722	6439.430974	43830.065667	3956.635086	21943.982869
95.537000	0.034079	0.030816	0.034924	0.055190	6429.211577	43819.596372	3953.500183	21879.798089
96.040000	0.035531	0.029800	0.033829	0.054962	6442.796381	43745.669443	3951.368292	21889.775685
96.535500	0.035651	0.031148	0.031916	0.056280	6433.102295	43748.457079	3943.460441	21832.292506
97.035000	0.034506	0.030641	0.032901	0.056271	6423.944932	43701.706658	3945.888271	21832.686349
97.535500	0.035205	0.031310	0.033371	0.058181	6414.194520	43585.520313	3942.373271	21749.678586
98.036000	0.036921	0.030722	0.031588	0.057860	6430.604253	43560.630901	3938.818972	21763.634190
98.536000	0.031829	0.030808	0.031073	0.062836	6350.272336	43106.539663	3925.572804	21548.998537
99.036500	0.035852	0.030800	0.029866	0.058119	6419.901443	43543.763067	3934.019429	21752.394658
99.536500	0.034521	0.030818	0.032586	0.059465	6398.417067	43419.890797	3937.344113	21694.108359
100.037000	0.035094	0.030403	0.030423	0.059060	6406.247171	43419.010163	3933.092140	21711.620457
100.540000	0.031647	0.029946	0.024943	0.064199	6338.107876	42901.611860	3907.763077	21490.636703
101.037000	0.033590	0.030938	0.028986	0.060364	6383.816820	43347.581287	3926.496254	21655.323387
101.535000	0.033528	0.030423	0.037398	0.060683	6380.788527	43270.101940	3946.094665	21641.556777
102.035500	0.036673	0.031105	0.031572	0.061494	6399.399505	43258.158763	3929.991803	21606.610249
102.535500	0.033019	0.030321	0.030708	0.065171	6341.250006	42846.728183	3919.118157	21449.095385
103.036000	0.035526	0.031464	0.029129	0.062182	6384.762992	43227.677837	3922.484395	21577.068095
103.536500	0.035237	0.031587	0.032169	0.063988	6368.105624	43072.013651	3925.435455	21499.625218
104.036500	0.039712	0.032270	0.033875	0.064767	6397.539771	43063.247689	3927.663433	21466.369158
104.536500	0.033979	0.031776	0.034462	0.068163	6325.302391	42706.095874	3920.936137	21321.937863
105.040000	0.034631	0.030936	0.028911	0.064210	6361.545565	42991.619336	3917.129777	21490.150300
105.537500	0.035213	0.031810	0.033199	0.066360	6349.160596	42874.305584	3922.224364	21398.464034
106.034500	0.036777	0.032068	0.032935	0.066299	6362.000815	42903.582913	3921.740812	21401.052473
106.535500	0.035247	0.031299	0.027689	0.069828	6322.199787	42510.674114	3900.994003	21251.536020
107.035500	0.036807	0.031667	0.036488	0.067188	6355.209673	42785.309755	3928.123850	21363.289370
107.536000	0.038164	0.032607	0.035257	0.069326	6349.042114	42675.620990	3920.056032	21272.697140
108.036000	0.036238	0.031737	0.028918	0.068168	6342.996990	42701.931934	3907.777123	21321.697010
108.536500	0.035228	0.032096	0.035936	0.072288	6302.857465	42359.661537	3914.628461	21147.993055
109.036000	0.036568	0.031984	0.030822	0.068866	6340.099036	42660.848906	3910.622542	21292.170887
109.534000	0.036061	0.031989	0.028875	0.070462	6323.604914	42515.800189	3902.284932	21224.784778
110.037500	0.037189	0.032286	0.037445	0.070146	6334.927355	42571.604747	3923.326941	21238.116662
110.536500	0.036018	0.032731	0.028643	0.070290	6324.613785	42598.941729	3902.142781	21232.011498
111.034500	0.037852	0.032456	0.034160	0.070805	6334.950033	42527.002589	3913.932732	21210.315276
111.535500	0.038133	0.033259	0.034153	0.071123	6334.662130	42571.190193	3913.161797	21196.931953
112.036000	0.041125	0.033605	0.034762	0.071888	6352.192941	42533.038429	3912.794024	21164.767761
