sample name	sample
index	1339
start time	 05-03-2021  12:34:39 PM
880	-0.016131
Peak Time (s)	91.037
Peak Height 	-0.01613
calc peak height	90,93
Baseline Time (s)	10.034
Baseline Value 	-0.003709
subtract baseline	10,4
Abs	-0.023536
Peak Time (s)	92.535
Peak Height 	-0.02354
calc peak height	90,93
Baseline Time (s)	9.537
Baseline Value 	0.002472
subtract baseline	10,3
PK_550	-0.001234
Peak Time (s)	90.537
Peak Height 	-0.001234
calc peak height	90,93
Baseline Time (s)	10.034
Baseline Value 	3.7363E-4
subtract baseline	10,2
PK_880	-0.020589
Peak Time (s)	90.537
Peak Height 	-0.02059
calc peak height	90,93
Baseline Time (s)	9.537
Baseline Value 	0.00127
subtract baseline	10,1


Time (s)	A880-A510	A880-A775	A880-A975	A880	I510	I775	I975	I880	
0.037000	-0.000321	-0.000749	-0.003815	0.001889	6116.892451	42578.289096	3882.471195	22081.698570
0.534000	-0.002340	-0.000411	0.000159	0.003688	6089.162945	42445.358514	3887.277727	22002.580714
1.035000	-0.002430	0.000043	-0.005556	0.003633	6088.911802	42491.651187	3874.819760	22004.988760
1.535000	-0.003845	-0.000841	-0.007705	0.006497	6058.126928	42152.087566	3863.920655	21879.694102
2.038500	0.001967	0.000565	-0.004465	0.001468	6136.710527	42736.814289	3881.964353	22100.251188
2.535500	0.000063	-0.001354	0.002750	-0.000243	6135.301052	42717.824925	3901.836685	22175.909533
3.036000	0.000817	-0.000327	0.003412	-0.001397	6149.323813	42917.844880	3905.928708	22227.057761
3.539000	-0.001286	-0.000359	0.000512	0.000926	6116.873083	42701.835070	3894.202843	22124.171518
4.037000	-0.000620	0.000252	-0.006440	0.000785	6122.772007	42770.727643	3879.123736	22130.421576
4.537000	-0.001562	-0.000006	-0.004105	0.000666	6116.760185	42757.964001	3884.529376	22135.659219
5.037500	-0.001131	0.000153	-0.006984	0.000466	6121.365398	42790.868254	3878.628238	22144.509028
5.535000	0.000385	-0.000185	0.001136	0.001722	6123.264511	42645.069788	3893.820422	22089.061194
6.038000	0.001652	0.000439	-0.003539	0.000546	6141.171369	42809.725836	3886.045324	22140.964235
6.536000	-0.000715	0.000293	-0.000885	0.000012	6127.732122	42845.390221	3893.127172	22164.618677
7.035000	-0.001137	-0.000253	-0.003472	0.000177	6123.430622	42780.141547	3887.011825	22157.297837
7.536000	-0.001270	-0.000270	-0.003139	-0.000201	6125.223951	42813.319856	3888.587057	22174.041826
8.036000	-0.002016	-0.000469	0.000789	-0.000571	6122.475754	42828.910647	3898.169619	22190.416397
8.537000	0.000320	0.000404	0.001038	0.000214	6133.831249	42837.098853	3896.970576	22155.672008
9.039000	-0.002158	-0.001151	-0.004080	-0.000794	6123.065642	42786.823755	3887.816277	22200.305794
9.537000	0.000000	-0.000356	0.000000	-0.000217	6134.646785	42806.901926	3895.613305	22174.758106
10.034500	0.000172	0.000000	0.000336	0.000000	6134.314662	42819.617246	3895.878001	22165.138501
10.538000	-0.000384	0.000228	0.001035	0.000166	6129.019953	42825.273085	3897.069229	22157.781560
11.035500	-0.002091	-0.000163	-0.006724	-0.000348	6120.298917	42836.606754	3880.990484	22180.561293
11.538500	0.000168	0.000683	-0.002657	0.000202	6132.801380	42863.766489	3888.763327	22156.184492
12.036000	-0.000502	0.000300	0.001744	0.000403	6126.420871	42810.125833	3898.127772	22147.299154
12.536000	-0.000302	0.000990	-0.002615	0.000869	6124.482281	42830.738657	3887.377653	22126.715644
13.036000	0.001072	-0.000064	0.001095	-0.002227	6157.325759	43018.496244	3902.576068	22263.947379
13.536500	-0.001220	0.000701	-0.003791	-0.000330	6126.540884	42914.348749	3887.428296	22179.769508
14.036500	-0.002133	-0.000894	-0.005950	-0.001331	6127.173213	42859.718547	3884.864167	22224.123093
14.537000	-0.000908	0.000044	-0.000252	0.002016	6111.688901	42639.068848	3890.075515	22076.104898
15.035000	0.000967	-0.000499	0.001232	-0.000118	6141.020575	42784.729636	3898.147602	22170.367659
15.564000	0.001258	-0.000225	-0.002360	-0.000591	6146.633819	42853.166016	3891.183944	22191.305731
16.038000	-0.000903	-0.000219	-0.001500	-0.000553	6130.493017	42850.313340	3893.015300	22189.647265
16.536000	-0.000152	0.000945	0.002009	0.000561	6127.830296	42854.881067	3898.367371	22140.324179
17.036000	0.000048	0.000736	0.000685	-0.000007	6133.453868	42887.836004	3896.673725	22165.428869
17.536500	-0.000674	-0.000491	0.000871	-0.000713	6133.340969	42839.965317	3898.671280	22196.714228
18.036500	0.001075	0.000907	0.000655	0.000153	6139.814069	42888.813025	3896.247873	22158.349181
18.537000	-0.000463	-0.000048	-0.003705	0.001288	6120.240862	42697.223123	3884.039059	22108.195181
19.037000	-0.001727	-0.000439	-0.001870	0.000936	6113.593449	42693.693557	3888.881051	22123.762027
19.536500	-0.001536	-0.000076	-0.004858	0.000909	6115.182177	42729.391909	3882.333553	22124.958003
20.035000	-0.003251	0.000378	0.001151	0.001359	6099.436445	42729.722856	3894.664534	22105.087703
20.535500	0.001422	0.000329	0.000756	0.001245	6134.346827	42735.605803	3894.035370	22110.094683
21.035500	-0.000327	0.000106	-0.000047	0.000965	6123.597919	42740.935638	3892.871875	22122.485679
21.536000	-0.003768	0.000200	-0.004359	0.001190	6096.908758	42728.830430	3882.810943	22112.521441
22.036000	-0.000971	-0.000035	0.000800	0.000812	6120.011557	42742.005952	3895.102711	22129.242356
22.536500	-0.002261	0.000266	-0.001613	0.001213	6107.683407	42732.873593	3888.837018	22111.529083
23.037000	0.000265	-0.000289	-0.000711	0.000957	6127.984352	42705.448298	3891.410168	22122.817404
23.536500	0.001091	0.000147	-0.004698	0.001538	6129.778225	42692.209952	3881.300555	22097.198037
24.037500	-0.000595	0.000169	-0.002407	0.001095	6120.690380	42734.822417	3887.338801	22116.750444
24.537000	-0.000499	0.000315	0.000680	0.001071	6121.563971	42750.326690	3894.254089	22117.793821
25.035000	-0.001399	0.000212	-0.000945	0.000984	6115.629472	42748.865864	3890.830287	22121.640712
25.538500	-0.001784	-0.000153	-0.003740	0.001159	6111.548680	42699.411359	3884.245968	22113.887608
26.035500	0.000462	0.000922	-0.001589	0.001637	6124.446559	42754.053426	3887.949184	22092.795493
26.536000	0.001773	0.000685	-0.000856	0.002154	6130.261736	42685.096602	3888.428157	22070.043681
27.038500	-0.000430	0.000007	-0.001533	0.000731	6124.551453	42753.263540	3890.084157	22132.804387
27.536500	-0.001415	-0.000186	-0.001559	0.000897	6116.148310	42720.342460	3889.656876	22125.470817
28.036000	0.002514	0.000192	-0.001526	-0.002136	6167.326820	43033.791227	3896.492361	22259.924339
28.536500	-0.001020	0.000196	0.006146	-0.000580	6129.831981	42890.934976	3910.269729	22190.842943
29.037500	0.001045	0.000897	0.003382	0.000151	6139.614904	42888.112293	3902.371707	22158.458674
29.534500	-0.001568	0.000241	-0.004691	0.000344	6119.068300	42810.136397	3883.945967	22149.919961
30.035500	-0.000627	0.000767	0.002994	-0.000113	6129.293478	42900.464586	3902.093498	22170.157907
30.538500	-0.000489	0.000980	-0.000147	0.000059	6129.033195	42904.139356	3894.667392	22162.507260
31.036000	-0.001818	-0.000096	-0.001179	-0.001214	6128.628194	42922.292507	3895.205941	22218.944053
31.555500	0.001510	0.000502	-0.004447	-0.000300	6146.348930	42893.230183	3885.909714	22178.419915
32.036500	-0.001616	0.000261	0.000687	0.002179	6105.351230	42644.039501	3891.801454	22068.916619
32.563500	0.000767	-0.000229	-0.003518	-0.000345	6141.222902	42830.331281	3888.068269	22180.437869
33.062000	0.001470	0.000567	0.000002	0.000419	6140.768394	42833.261466	3894.196681	22146.612654
33.536500	-0.001581	-0.000134	0.001465	0.000081	6120.893053	42799.932424	3898.225598	22161.573797
34.037500	0.000458	0.000483	0.004215	-0.000062	6136.873822	42869.694186	3904.729374	22167.898611
34.535000	0.000648	0.000559	0.001599	-0.000298	6139.997918	42898.319911	3899.374445	22178.338245
35.038000	0.000410	0.000543	-0.002024	0.000891	6129.527427	42787.716345	3888.639732	22125.748643
35.541000	-0.001824	0.000035	0.002432	0.001204	6110.926627	42712.459036	3897.873525	22111.904457
36.036000	-0.001682	-0.000380	-0.001524	0.000866	6114.429390	42705.495283	3889.805035	22126.852121
36.538500	-0.001538	0.000706	0.000289	0.001278	6112.474891	42767.176690	3892.920108	22108.647114
37.036500	-0.003044	0.000058	0.004311	0.001393	6100.685293	42697.296311	3901.667870	22103.577896
37.536000	-0.000514	-0.000004	-0.002401	0.000623	6124.728631	42762.143047	3888.396450	22137.565969
38.034000	-0.002020	-0.000183	-0.000552	0.000817	6112.317969	42727.959153	3892.075239	22128.994462
38.536500	0.000205	0.000772	-0.001362	0.001098	6126.512277	42789.681319	3889.647701	22116.588939
39.035000	-0.001770	0.000034	-0.003890	0.001007	6112.756272	42730.404032	3884.250118	22120.598749
39.537000	-0.001238	0.000326	-0.000699	0.001324	6114.319901	42728.157916	3890.618575	22106.607347
40.035500	0.001000	0.000878	0.001507	0.001725	6127.744770	42742.035414	3894.641915	22088.950258
40.536000	0.000276	0.000636	0.000387	0.001580	6123.512739	42733.146697	3892.468109	22095.342811
41.036000	0.000121	0.000342	-0.002958	0.001183	6125.274545	42742.566387	3885.921953	22112.851004
41.536000	-0.001527	0.000389	-0.000230	0.001391	6111.734159	42727.794906	3891.514001	22103.674604
42.036500	0.000673	0.000946	-0.001890	0.002082	6122.741918	42715.591590	3886.296869	22073.218088
42.537000	-0.001113	0.000540	-0.000306	0.001792	6111.823193	42704.909415	3890.452376	22085.971375
43.037000	-0.001947	0.000409	0.000068	0.001463	6108.151108	42723.029461	3892.016488	22100.489368
43.537500	0.000035	0.000864	-0.005344	0.001674	6121.065242	42745.413386	3879.580538	22091.203566
44.035000	-0.001334	0.000366	-0.000478	0.001779	6110.309565	42690.228884	3890.101129	22086.560351
44.538000	-0.000223	0.000328	0.002843	0.001641	6119.417668	42699.365271	3897.817546	22092.643015
45.036000	0.001855	0.001506	0.004448	-0.002292	6163.601225	43169.530355	3910.300008	22266.848144
45.536000	0.001974	0.000978	0.001390	-0.000406	6150.545981	42946.722651	3899.147396	22183.104006
46.039500	0.000411	-0.000230	0.000622	-0.000645	6140.807772	42857.751321	3897.964138	22193.732245
46.536000	-0.001011	0.000599	0.003765	0.000190	6124.262710	42857.156553	3903.146103	22156.750128
47.037000	0.000727	0.000854	-0.001118	0.001083	6130.446919	42798.645184	3890.225774	22117.272278
47.536500	-0.001463	0.000398	0.001047	-0.000129	6123.290549	42868.022476	3897.759466	22170.856949
48.037000	-0.000976	-0.000085	-0.001832	-0.000185	6127.259678	42828.740871	3891.455922	22173.321276
48.537500	-0.000738	-0.000014	-0.002829	-0.000867	6134.001363	42897.950767	3890.754719	22203.544035
49.040500	-0.001958	-0.000135	0.003867	0.002118	6103.307054	42613.428533	3899.042133	22071.616568
49.535500	-0.001658	0.000008	-0.001064	0.000284	6118.842257	42794.301085	3892.120322	22152.559657
50.035000	0.000591	0.000296	0.000590	-0.000065	6137.864363	42852.755564	3896.592666	22168.008043
50.535500	-0.000176	0.000014	0.001905	-0.000445	6135.021351	42861.700055	3900.390006	22184.826666
51.039000	-0.001823	-0.000538	0.000020	0.000349	6117.168595	42738.377984	3894.392935	22149.710629
51.536500	0.001774	0.000532	0.001306	-0.002851	6167.142675	43131.124403	3904.457465	22291.738690
52.037000	0.002657	-0.000701	0.005088	0.007654	6096.630687	42060.450916	3889.414420	21829.321773
52.537000	0.001208	0.003574	0.006517	0.008587	6079.412138	42362.388418	3890.515929	21788.765511
53.037500	0.014990	-0.018925	-0.002614	0.424365	4189.497048	17334.318859	3288.013076	10176.960456
53.535000	0.004553	-0.015514	-0.019736	0.103371	5485.068975	33278.630412	3655.695461	18093.304038
54.034500	-0.009885	-0.055521	-0.026375	-0.229623	8230.056074	62467.331404	4474.030462	35559.637249
54.535500	-0.033427	-0.027949	-0.029515	-0.130081	6926.724698	53382.506618	4147.885661	28878.323569
55.035500	-0.032787	-0.054162	-0.037315	-0.235770	8030.197403	63504.566920	4457.032175	36024.636678
55.539000	-0.007859	-0.077566	-0.017783	-0.271740	8795.075222	65281.430741	4665.870610	38881.384814
56.039000	0.003475	-0.065769	-0.011845	-0.252711	8692.400604	64252.442684	4614.184356	37340.655207
56.536500	0.003271	-0.034136	-0.008363	-0.189596	7913.209849	59967.854293	4397.472928	32687.780870
57.036500	-0.007886	-0.026398	-0.020318	-0.157286	7440.406043	56833.015702	4254.796547	30555.081021
57.537500	-0.011666	-0.020042	-0.019816	-0.153925	7367.154208	57205.644709	4246.071317	30342.193653
58.035000	-0.009891	-0.015170	-0.020466	-0.151434	7359.879407	57503.684418	4236.553737	30185.455986
58.537500	-0.011426	-0.014651	-0.021574	-0.157392	7405.027862	58323.062191	4251.279807	30561.809820
59.035500	-0.012031	-0.013115	-0.026381	-0.149142	7315.094993	57473.954285	4212.004027	30042.079319
59.536000	-0.007817	-0.011310	-0.025779	-0.149702	7363.349165	57771.607876	4215.450517	30077.030628
60.036000	-0.009422	-0.008715	-0.026370	-0.120617	7062.170162	54529.281977	4130.222595	28319.258254
60.536000	-0.009344	-0.010169	-0.020552	-0.116541	7024.480901	53876.937398	4135.065190	28082.175831
61.036500	-0.009173	-0.007884	-0.023355	-0.092474	6806.286359	51387.049845	4062.472692	26726.862373
61.536500	-0.009129	-0.006356	-0.024995	-0.072437	6632.738825	49367.331661	4007.097355	25654.413933
62.036500	-0.014339	-0.006860	-0.025257	-0.060677	6491.574530	48075.619281	3977.556581	25047.628770
62.534000	-0.012054	-0.008033	-0.022663	-0.051718	6437.551328	47035.803407	3962.245759	24596.306102
63.034000	-0.012226	-0.007903	-0.021544	-0.034970	6304.247473	45381.730263	3925.583614	23777.092265
63.536500	-0.017502	-0.009257	-0.030849	-0.025005	6188.537177	44290.847829	3882.161949	23304.445527
64.065500	-0.018005	-0.007492	-0.028241	-0.028609	6211.755641	44804.807881	3895.950127	23474.156222
64.535500	-0.019751	-0.005606	-0.028855	-0.029835	6207.851435	45105.593806	3897.319569	23532.193694
65.036000	-0.017793	-0.005261	-0.022320	-0.033823	6252.775279	45527.977157	3921.165373	23722.138089
65.538500	-0.017965	-0.004322	-0.025185	-0.036750	6273.805147	45908.492738	3921.306543	23862.675024
66.036000	-0.023169	-0.005503	-0.027286	-0.041509	6270.397940	46263.624190	3927.422785	24093.182723
66.534000	-0.021917	-0.004293	-0.024795	-0.046742	6320.362138	46910.534525	3945.406217	24349.570414
67.039000	-0.024383	-0.004617	-0.031928	-0.046583	6300.050818	46861.730781	3928.419876	24341.761875
67.537000	-0.020881	-0.004055	-0.029450	-0.054381	6388.383397	47714.554309	3952.440503	24729.452132
68.043000	-0.020097	-0.004551	-0.029249	-0.057718	6421.176083	48008.271086	3960.846417	24897.546231
68.535000	-0.020365	-0.004676	-0.037882	-0.060482	6441.188482	48282.642393	3946.941857	25037.700963
69.035000	-0.022994	-0.004849	-0.038313	-0.059136	6409.373589	48124.592820	3942.771167	24969.357385
69.536000	-0.022961	-0.003669	-0.029290	-0.063938	6448.110903	48750.702976	3975.687958	25214.268680
70.036000	-0.024828	-0.003399	-0.028739	-0.064052	6434.012399	48791.134107	3977.295861	25220.080108
70.536500	-0.023993	-0.004119	-0.031129	-0.065671	6453.761006	48886.070434	3975.431076	25303.294828
71.036500	-0.028020	-0.004236	-0.033187	-0.060292	6378.673400	48308.855777	3957.599109	25028.065747
71.537500	-0.024312	-0.003574	-0.030498	-0.063891	6436.871023	48755.796036	3972.657715	25211.853057
72.037500	-0.025201	-0.004183	-0.030832	-0.061755	6412.655793	48467.366486	3966.715246	25102.597358
72.538000	-0.027247	-0.004116	-0.039552	-0.061988	6398.225165	48498.724310	3946.557026	25114.471294
73.035000	-0.028827	-0.003295	-0.035135	-0.054711	6328.595563	47827.102084	3939.854070	24746.058414
73.535500	-0.028183	-0.003106	-0.029480	-0.059174	6368.566012	48309.995690	3963.771330	24971.251740
74.036000	-0.027209	-0.003516	-0.035645	-0.058041	6367.320277	48149.315587	3946.463263	24913.875649
74.535500	-0.027231	-0.003333	-0.030519	-0.057594	6363.630454	48121.789839	3957.526759	24891.272497
75.036500	-0.031522	-0.003660	-0.035654	-0.051272	6281.202185	47436.003626	3930.646959	24574.076216
75.536500	-0.027525	-0.003219	-0.031545	-0.055465	6344.626778	47912.762605	3950.054004	24783.906675
76.037000	-0.026836	-0.003217	-0.034443	-0.052516	6327.009206	47608.939744	3936.347488	24636.114593
76.536500	-0.028378	-0.004104	-0.033190	-0.052592	6315.620706	47525.635715	3939.445433	24639.896634
77.034500	-0.031513	-0.002682	-0.041076	-0.043578	6222.748676	46753.693824	3900.731045	24194.178010
77.539500	-0.030000	-0.003198	-0.036088	-0.048712	6273.243768	47221.707641	3923.738057	24446.922215
78.035500	-0.030126	-0.002884	-0.034104	-0.045939	6251.127507	46971.914373	3921.926842	24310.042965
78.538000	-0.027988	-0.002970	-0.032563	-0.044555	6256.864026	46823.251696	3922.285972	24242.069590
79.035500	-0.030417	-0.003443	-0.033906	-0.043508	6230.497601	46670.062602	3916.815264	24190.772886
79.536000	-0.029370	-0.002893	-0.031840	-0.041230	6221.206243	46496.493758	3916.328941	24079.583483
80.036500	-0.028124	-0.003571	-0.033152	-0.039872	6220.365163	46292.957640	3910.255596	24013.609504
80.536500	-0.027397	-0.003782	-0.031266	-0.039121	6220.182846	46197.192151	3912.833616	23977.211826
81.034000	-0.031265	-0.003531	-0.037444	-0.032680	6143.443614	45585.524268	3884.546056	23667.529868
81.537000	-0.024878	-0.002580	-0.036781	-0.036955	6222.840329	46101.374275	3895.517442	23872.547604
82.037500	-0.028892	-0.002815	-0.031731	-0.035573	6182.413740	45941.022354	3903.747087	23806.032024
82.537500	-0.029296	-0.002584	-0.035752	-0.035830	6181.317416	45989.322848	3895.300755	23818.381387
83.035000	-0.024695	-0.001572	-0.031681	-0.034125	6202.949178	45920.848912	3900.603095	23736.601336
83.535500	-0.024608	-0.002138	-0.031752	-0.033845	6201.498298	45837.176912	3899.812243	23723.162663
84.036000	-0.025260	-0.002345	-0.031170	-0.033714	6195.643545	45803.864222	3900.827287	23716.910046
84.536500	-0.026468	-0.003362	-0.039759	-0.033459	6184.723536	45678.556028	3881.158249	23704.710396
85.036500	-0.029294	-0.003425	-0.036538	-0.026453	6112.295538	44989.245320	3872.862262	23372.481622
85.537000	-0.024179	-0.002611	-0.038483	-0.030856	6182.380785	45496.902196	3878.240257	23580.637674
86.037000	-0.024171	-0.002460	-0.027527	-0.029747	6174.195534	45403.182413	3900.097974	23527.991973
86.534500	-0.023692	-0.002760	-0.030818	-0.028876	6171.290070	45288.983252	3890.798597	23486.753145
87.034000	-0.027524	-0.002366	-0.036090	-0.021728	6090.843426	44636.019058	3863.573247	23151.379323
87.535500	-0.023578	-0.001664	-0.031591	-0.026205	6152.368115	45135.822429	3883.172329	23360.791118
88.035500	-0.024213	-0.002751	-0.028279	-0.025974	6145.992843	45008.045443	3889.993388	23349.946299
88.536000	-0.024406	-0.003075	-0.025231	-0.025212	6138.968394	44903.122509	3895.086030	23314.161481
89.036000	-0.025576	-0.003115	-0.032490	-0.019372	6087.891913	44339.318226	3866.265773	23042.053899
89.536500	-0.022688	-0.002309	-0.027934	-0.023552	6139.393801	44816.839003	3885.389118	23236.429503
90.036000	-0.023476	-0.002442	-0.027832	-0.023140	6130.594699	44764.430198	3884.706006	23217.205813
90.537000	-0.020589	-0.001234	-0.026210	-0.021498	6139.725134	44722.753483	3884.660786	23140.700096
91.037000	-0.025444	-0.001868	-0.026121	-0.016131	6065.498323	44149.800490	3873.067226	22892.574413
91.535000	-0.024955	-0.001908	-0.029165	-0.021630	6108.766885	44670.516962	3878.442432	23146.797141
92.035500	-0.021475	-0.001596	-0.025333	-0.021010	6129.648725	44641.119241	3885.519994	23118.015878
92.535500	-0.021578	-0.001837	-0.023536	-0.020471	6124.946572	44566.320047	3888.306215	23092.962773
93.036000	-0.025652	-0.002800	-0.034365	-0.015500	6059.480077	44001.858832	3853.892946	22863.604302
93.535500	-0.020433	-0.000583	-0.025147	-0.019090	6123.223798	44554.153608	3881.693115	23029.006694
94.036500	-0.021434	-0.000584	-0.025094	-0.018734	6113.317157	44520.015838	3881.026167	23012.533521
94.539500	-0.021808	-0.001972	-0.026312	-0.019518	6116.306319	44462.185754	3880.070029	23048.774780
95.037000	-0.025482	-0.002633	-0.029600	-0.014075	6050.510565	43883.257711	3861.064271	22798.379665
95.622500	-0.021695	-0.001197	-0.027640	-0.018491	6109.654310	44438.207023	3874.908497	23001.324127
96.090500	-0.024004	-0.002359	-0.026378	-0.015342	6070.178489	44028.687602	3870.790326	22856.398639
96.535000	-0.021612	-0.001928	-0.026111	-0.018293	6108.806214	44349.501271	3877.821686	22992.141081
97.034500	-0.021021	-0.001580	-0.027537	-0.018178	6112.276417	44371.774435	3874.447185	22986.837113
97.535500	-0.021459	-0.001303	-0.027599	-0.017423	6103.601874	44326.241784	3872.662031	22952.030186
98.035500	-0.021639	-0.001070	-0.027566	-0.015843	6090.836904	44198.155622	3869.293314	22879.356085
98.536000	-0.021631	-0.002245	-0.029593	-0.018021	6106.698301	44293.518734	3869.622992	22979.612561
