sample name	sample
index	708
start time	 03-25-2021  10:57:39 AM


Wavelength (nm)	Absorbance
494.344910	-0.083035
494.563924	-0.083035
494.782919	-0.083035
495.001897	0.008088
495.220856	-0.051587
495.439797	-0.064600
495.658719	-0.074580
495.877624	-0.055867
496.096510	-0.048391
496.315378	-0.057587
496.534227	-0.066777
496.753059	-0.068615
496.971872	-0.036387
497.190667	0.008130
497.409444	0.020097
497.628203	0.026103
497.846943	0.025575
498.065665	0.026552
498.284369	0.026944
498.503055	0.028030
498.721723	0.029650
498.940372	0.029390
499.159003	0.029779
499.377616	0.030180
499.596210	0.030510
499.814787	0.031533
500.033345	0.030873
500.251885	0.031102
500.470406	0.031541
500.688910	0.030777
500.907395	0.030479
501.125862	0.030886
501.344311	0.031194
501.562742	0.030199
501.781154	0.030292
501.999548	0.030283
502.217924	0.030067
502.436282	0.029859
502.654621	0.029836
502.872942	0.030456
503.091245	0.030053
503.309530	0.030408
503.527797	0.031646
503.746045	0.030955
503.964275	0.031132
504.182487	0.030614
504.400681	0.030494
504.618856	0.029928
504.837013	0.029329
505.055152	0.029849
505.273273	0.029944
505.491376	0.029558
505.709460	0.029135
505.927526	0.029790
506.145574	0.029753
506.363604	0.029482
506.581615	0.029763
506.799608	0.030137
507.017583	0.030139
507.235540	0.029922
507.453478	0.029826
507.671399	0.029430
507.889301	0.028702
508.107185	0.029562
508.325050	0.029356
508.542898	0.029681
508.760727	0.029652
508.978538	0.029055
509.196330	0.028778
509.414105	0.028531
509.631861	0.029806
509.849599	0.029760
510.067319	0.029757
510.285021	0.030606
510.502704	0.030588
510.720369	0.030861
510.938016	0.031247
511.155645	0.031574
511.373255	0.031882
511.590848	0.031794
511.808422	0.031731
512.025977	0.031893
512.243515	0.031520
512.461034	0.031700
512.678536	0.031159
512.896018	0.031105
513.113483	0.030525
513.330930	0.030011
513.548358	0.029887
513.765768	0.031002
513.983160	0.030588
514.200533	0.030543
514.417889	0.030500
514.635226	0.030699
514.852545	0.030828
515.069845	0.031327
515.287128	0.031987
515.504392	0.031509
515.721638	0.031042
515.938866	0.030546
516.156075	0.030611
516.373267	0.030169
516.590440	0.029842
516.807594	0.029674
517.024731	0.029503
517.241850	0.029096
517.458950	0.029766
517.676032	0.029771
517.893095	0.030483
518.110141	0.031295
518.327168	0.031457
518.544177	0.032643
518.761168	0.032924
518.978141	0.033344
519.195095	0.033368
519.412031	0.033173
519.628949	0.033712
519.845849	0.033305
520.062731	0.032476
520.279594	0.033059
520.496439	0.032753
520.713266	0.032300
520.930074	0.031989
521.146865	0.032142
521.363637	0.031750
521.580391	0.031019
521.797127	0.031642
522.013844	0.032257
522.230543	0.032216
522.447224	0.031915
522.663887	0.032092
522.880532	0.032093
523.097158	0.032725
523.313766	0.032891
523.530356	0.032976
523.746928	0.032690
523.963481	0.031890
524.180017	0.031774
524.396534	0.032122
524.613032	0.032531
524.829513	0.032709
525.045975	0.031981
525.262420	0.032248
525.478845	0.032348
525.695253	0.032631
525.911643	0.033061
526.128014	0.032572
526.344367	0.032134
526.560702	0.032038
526.777018	0.031957
526.993316	0.032429
527.209597	0.032727
527.425858	0.032765
527.642102	0.032942
527.858328	0.032623
528.074535	0.032772
528.290724	0.033028
528.506894	0.033183
528.723047	0.033071
528.939181	0.033081
529.155297	0.033266
529.371395	0.033866
529.587475	0.033769
529.803536	0.033900
530.019579	0.034619
530.235604	0.034197
530.451611	0.034395
530.667600	0.034750
530.883570	0.034799
531.099522	0.034371
531.315456	0.034316
531.531372	0.034354
531.747269	0.034462
531.963148	0.034644
532.179009	0.035405
532.394852	0.034758
532.610676	0.034807
532.826482	0.034767
533.042271	0.034626
533.258040	0.034455
533.473792	0.034661
533.689525	0.034736
533.905240	0.034043
534.120937	0.033806
534.336616	0.034079
534.552277	0.034393
534.767919	0.034275
534.983543	0.034784
535.199149	0.034636
535.414736	0.034455
535.630306	0.034749
535.845857	0.035479
536.061390	0.035551
536.276904	0.035782
536.492401	0.035376
536.707879	0.035468
536.923339	0.035510
537.138781	0.035597
537.354204	0.035353
537.569610	0.035212
537.784997	0.034536
538.000366	0.034924
538.215716	0.035244
538.431049	0.035363
538.646363	0.035552
538.861659	0.035564
539.076937	0.035540
539.292196	0.036035
539.507438	0.036385
539.722661	0.036876
539.937866	0.036711
540.153052	0.036107
540.368221	0.036225
540.583371	0.036192
540.798503	0.036055
541.013617	0.036330
541.228712	0.035837
541.443789	0.035679
541.658848	0.035344
541.873889	0.035043
542.088912	0.035587
542.303916	0.035399
542.518902	0.035173
542.733870	0.034919
542.948820	0.034537
543.163752	0.034524
543.378665	0.034583
543.593560	0.035209
543.808437	0.035247
544.023295	0.035110
544.238136	0.035467
544.452958	0.035836
544.667762	0.036100
544.882548	0.036531
545.097315	0.036735
545.312064	0.036459
545.526795	0.036218
545.741508	0.036608
545.956203	0.036760
546.170879	0.036719
546.385537	0.036335
546.600177	0.036321
546.814799	0.036186
547.029402	0.036554
547.243988	0.036507
547.458555	0.036548
547.673103	0.036790
547.887634	0.036830
548.102146	0.036835
548.316640	0.037233
548.531116	0.037136
548.745574	0.037231
548.960013	0.037408
549.174435	0.037765
549.388838	0.037602
549.603222	0.037428
549.817589	0.037182
550.031937	0.037345
550.246267	0.037371
550.460579	0.037535
550.674873	0.037578
550.889148	0.036760
551.103405	0.036408
551.317644	0.036772
551.531865	0.036871
551.746068	0.036907
551.960252	0.036936
552.174418	0.036588
552.388566	0.036837
552.602696	0.037039
552.816807	0.037876
553.030900	0.038347
553.244975	0.038059
553.459032	0.037922
553.673070	0.037639
553.887091	0.037329
554.101093	0.037756
554.315077	0.037576
554.529042	0.037338
554.742990	0.037062
554.956919	0.037208
555.170830	0.037534
555.384722	0.037220
555.598597	0.037689
555.812453	0.037809
556.026291	0.037769
556.240111	0.037947
556.453913	0.038005
556.667696	0.037953
556.881461	0.037942
557.095208	0.037746
557.308937	0.038370
557.522647	0.038494
557.736339	0.038384
557.950013	0.038593
558.163669	0.038583
558.377307	0.038673
558.590926	0.039026
558.804527	0.039059
559.018110	0.039242
559.231675	0.038911
559.445221	0.038852
559.658749	0.039192
559.872259	0.039097
560.085751	0.039373
560.299225	0.039290
560.512680	0.039010
560.726117	0.039271
560.939536	0.039401
561.152937	0.039647
561.366319	0.039773
561.579683	0.039935
561.793029	0.040007
562.006357	0.040019
562.219667	0.040151
562.432958	0.040623
562.646231	0.040351
562.859486	0.040631
563.072723	0.040570
563.285941	0.040786
563.499141	0.040695
563.712323	0.040435
563.925487	0.040255
564.138632	0.040508
564.351760	0.040466
564.564869	0.040687
564.777960	0.040313
564.991032	0.040328
565.204087	0.040289
565.417123	0.040016
565.630141	0.040350
565.843140	0.040531
566.056122	0.040196
566.269085	0.040206
566.482030	0.040077
566.694957	0.040218
566.907866	0.040357
567.120756	0.040244
567.333628	0.040449
567.546482	0.040448
567.759318	0.040114
567.972135	0.040242
568.184935	0.040159
568.397716	0.040081
568.610478	0.039730
568.823223	0.039872
569.035949	0.039781
569.248657	0.040039
569.461347	0.040182
569.674019	0.040518
569.886672	0.040705
570.099308	0.040906
570.311925	0.041135
570.524523	0.041363
570.737104	0.041207
570.949666	0.041774
571.162210	0.041829
571.374736	0.041744
571.587244	0.041970
571.799733	0.042031
572.012205	0.041763
572.224658	0.041694
572.437092	0.041685
572.649509	0.041717
572.861907	0.041462
573.074287	0.041124
573.286649	0.041054
573.498993	0.040658
573.711318	0.040625
573.923625	0.040866
574.135914	0.040909
574.348185	0.040894
574.560438	0.040996
574.772672	0.041060
574.984888	0.041460
575.197086	0.041739
575.409266	0.041993
575.621427	0.042038
575.833570	0.042095
576.045695	0.042186
576.257802	0.042574
576.469890	0.042552
576.681961	0.042506
576.894013	0.042459
577.106046	0.042366
577.318062	0.042420
577.530059	0.042382
577.742039	0.042034
577.954000	0.042027
578.165942	0.041988
578.377867	0.041969
578.589773	0.041816
578.801661	0.041869
579.013531	0.041672
579.225382	0.041706
579.437216	0.041836
579.649031	0.042013
579.860828	0.042195
580.072606	0.042173
580.284367	0.042023
580.496109	0.042305
580.707833	0.042200
580.919539	0.042255
581.131227	0.042389
581.342896	0.042498
581.554547	0.042530
581.766180	0.042391
581.977795	0.042440
582.189391	0.042835
582.400969	0.042638
582.612529	0.042638
582.824071	0.042885
583.035595	0.042745
583.247100	0.042705
583.458587	0.043053
583.670056	0.043174
583.881506	0.043280
584.092939	0.043175
584.304353	0.043273
584.515749	0.043377
584.727127	0.043436
584.938486	0.043727
585.149828	0.043869
585.361151	0.043795
585.572456	0.043921
585.783742	0.043804
585.995011	0.043930
586.206261	0.043742
586.417493	0.043849
586.628706	0.043778
586.839902	0.043427
587.051079	0.043444
587.262238	0.043374
587.473379	0.043285
587.684502	0.043379
587.895606	0.043404
588.106692	0.043689
588.317760	0.043471
588.528810	0.043504
588.739841	0.043515
588.950855	0.043248
589.161850	0.043224
589.372827	0.043042
589.583785	0.043127
589.794726	0.043114
590.005648	0.042941
590.216552	0.043135
590.427437	0.043153
590.638305	0.043542
590.849154	0.043660
591.059985	0.043275
591.270798	0.043366
591.481592	0.043291
591.692369	0.043195
591.903127	0.043312
592.113867	0.043281
592.324588	0.043160
592.535292	0.043000
592.745977	0.043105
592.956644	0.043790
593.167293	0.043868
593.377923	0.043781
593.588536	0.043689
593.799130	0.043802
594.009706	0.043842
594.220263	0.043854
594.430803	0.043924
594.641324	0.044005
594.851827	0.043903
595.062312	0.044036
595.272778	0.044246
595.483227	0.044505
595.693657	0.044462
595.904069	0.044549
596.114462	0.044811
596.324838	0.044882
596.535195	0.044940
596.745534	0.044990
596.955855	0.044893
597.166157	0.044783
597.376441	0.044802
597.586707	0.044814
597.796955	0.044989
598.007185	0.045128
598.217396	0.044997
598.427589	0.044740
598.637764	0.044931
598.847921	0.044945
599.058060	0.045185
599.268180	0.044961
599.478282	0.044959
599.688366	0.044886
599.898431	0.044794
600.108479	0.044693
600.318508	0.044734
600.528519	0.044609
600.738511	0.044717
600.948486	0.044745
601.158442	0.045034
601.368380	0.045216
601.578300	0.045094
601.788202	0.044938
601.998085	0.045286
602.207950	0.045431
602.417797	0.045120
602.627626	0.045241
602.837436	0.045213
603.047228	0.045425
603.257002	0.045316
603.466758	0.045458
603.676496	0.045731
603.886215	0.045908
604.095916	0.045853
604.305599	0.045975
604.515264	0.045834
604.724910	0.045894
604.934538	0.045779
605.144148	0.046078
605.353740	0.046103
605.563314	0.046123
605.772869	0.045771
605.982406	0.045890
606.191925	0.046124
606.401425	0.046347
606.610908	0.046533
606.820372	0.046316
607.029818	0.046077
607.239246	0.046085
607.448655	0.046108
607.658047	0.046372
607.867420	0.046422
608.076775	0.046207
608.286111	0.045939
608.495430	0.045547
608.704730	0.045919
608.914012	0.045858
609.123275	0.046078
609.332521	0.046027
609.541748	0.045733
609.750957	0.045880
609.960148	0.045904
610.169321	0.046062
610.378475	0.046144
610.587611	0.045888
610.796729	0.045933
611.005829	0.045691
611.214910	0.045723
611.423974	0.045850
611.633019	0.045698
611.842045	0.045888
612.051054	0.046102
612.260044	0.046197
612.469017	0.046232
612.677970	0.046404
612.886906	0.046465
613.095824	0.046381
613.304723	0.046447
613.513604	0.046595
613.722467	0.046438
613.931311	0.046232
614.140138	0.046347
614.348946	0.046345
614.557736	0.046448
614.766507	0.046502
614.975261	0.046652
615.183996	0.046579
615.392713	0.046569
615.601412	0.046866
615.810092	0.046804
616.018754	0.046764
616.227399	0.046954
616.436024	0.046785
616.644632	0.046773
616.853222	0.046817
617.061793	0.047187
617.270346	0.047100
617.478880	0.047005
617.687397	0.047025
617.895895	0.047126
618.104375	0.047127
618.312837	0.047399
618.521281	0.047445
618.729706	0.047455
618.938113	0.047454
619.146502	0.047640
619.354873	0.047901
619.563226	0.048310
619.771560	0.048393
619.979876	0.048276
620.188174	0.048394
620.396453	0.048387
620.604715	0.048305
620.812958	0.048072
621.021183	0.048177
621.229390	0.047995
621.437578	0.047911
621.645748	0.047821
621.853900	0.048006
622.062034	0.047743
622.270150	0.047890
622.478247	0.048096
622.686326	0.048410
622.894387	0.048199
623.102430	0.048217
623.310454	0.048111
623.518461	0.048372
623.726449	0.048315
623.934418	0.048428
624.142370	0.048393
624.350303	0.048498
624.558218	0.048305
624.766115	0.048481
624.973994	0.048511
625.181855	0.048645
625.389697	0.048214
625.597521	0.048220
625.805327	0.048158
626.013114	0.048139
626.220883	0.048149
626.428634	0.048276
626.636367	0.048109
626.844082	0.048218
627.051778	0.048058
627.259457	0.048425
627.467117	0.048288
627.674758	0.048400
627.882382	0.048349
628.089987	0.048201
628.297574	0.047998
628.505143	0.048227
628.712694	0.048213
628.920226	0.048409
629.127740	0.048338
629.335236	0.048686
629.542714	0.048727
629.750174	0.048824
629.957615	0.048818
630.165038	0.049083
630.372443	0.049198
630.579829	0.049135
630.787198	0.049051
630.994548	0.048910
631.201880	0.048962
631.409194	0.048897
631.616489	0.049042
631.823766	0.049078
632.031025	0.049098
632.238266	0.049081
632.445489	0.049099
632.652693	0.049050
632.859879	0.049312
633.067047	0.049280
633.274197	0.049441
633.481329	0.049385
633.688442	0.049479
633.895537	0.049373
634.102614	0.049338
634.309672	0.049455
634.516713	0.049835
634.723735	0.049617
634.930739	0.049492
635.137724	0.049324
635.344692	0.049156
635.551641	0.049078
635.758572	0.049144
635.965485	0.049043
636.172379	0.049218
636.379256	0.049074
636.586114	0.049318
636.792954	0.049510
636.999775	0.049712
637.206579	0.049805
637.413364	0.049955
637.620131	0.049914
637.826880	0.049948
638.033610	0.049705
638.240323	0.049803
638.447017	0.049701
638.653692	0.049670
638.860350	0.049797
639.066990	0.050235
639.273611	0.050244
639.480214	0.050427
639.686798	0.050410
639.893365	0.050398
640.099913	0.050255
640.306443	0.050425
640.512955	0.050347
640.719449	0.050276
640.925924	0.049808
641.132381	0.049851
641.338820	0.049799
641.545241	0.049987
641.751644	0.050308
641.958028	0.050496
642.164394	0.050339
642.370742	0.050529
642.577071	0.050349
642.783383	0.050641
642.989676	0.050565
643.195951	0.050612
643.402207	0.050678
643.608446	0.050570
643.814666	0.050524
644.020868	0.050844
644.227052	0.050741
644.433218	0.050956
644.639365	0.050851
644.845494	0.050936
645.051605	0.050963
645.257698	0.050921
645.463772	0.050847
645.669828	0.050770
645.875866	0.050475
646.081886	0.050529
646.287888	0.050648
646.493871	0.050805
646.699836	0.050732
646.905783	0.050696
647.111712	0.050532
647.317622	0.050599
647.523514	0.050572
647.729388	0.050754
647.935244	0.050932
648.141082	0.050920
648.346901	0.050875
648.552702	0.051144
648.758485	0.051158
648.964250	0.051400
649.169996	0.051516
649.375724	0.051686
649.581434	0.051854
649.787126	0.051849
649.992800	0.051646
650.198455	0.051587
650.404092	0.051620
650.609711	0.051613
650.815311	0.051487
651.020894	0.051637
651.226458	0.051530
651.432004	0.051553
651.637532	0.051321
651.843041	0.051684
652.048532	0.051759
652.254006	0.051628
652.459460	0.051701
652.664897	0.051841
652.870315	0.051665
653.075716	0.051593
653.281097	0.051410
653.486461	0.051501
653.691807	0.051424
653.897134	0.051398
654.102443	0.051512
654.307734	0.051792
654.513006	0.051899
654.718261	0.052093
654.923497	0.052343
655.128715	0.052585
655.333915	0.052745
655.539096	0.052846
655.744259	0.052955
655.949404	0.052953
656.154531	0.052679
656.359640	0.052612
656.564730	0.052455
656.769802	0.052434
656.974856	0.052150
657.179892	0.052189
657.384909	0.052100
657.589908	0.052210
657.794889	0.052171
657.999852	0.052320
658.204797	0.052400
658.409723	0.052458
658.614631	0.052504
658.819521	0.052633
659.024393	0.052560
659.229246	0.052538
659.434081	0.052456
659.638898	0.052324
659.843697	0.052298
660.048478	0.052035
660.253240	0.052054
660.457984	0.051960
660.662710	0.052080
660.867417	0.052114
661.072107	0.052057
661.276778	0.052022
661.481431	0.052214
661.686066	0.052194
661.890682	0.052480
662.095281	0.052490
662.299861	0.052612
662.504422	0.052546
662.708966	0.052453
662.913491	0.052540
663.117999	0.052684
663.322488	0.052596
663.526958	0.052637
663.731411	0.052612
663.935845	0.052627
664.140261	0.052732
664.344659	0.052703
664.549038	0.052927
664.753400	0.052848
664.957743	0.052818
665.162068	0.053071
665.366375	0.053071
665.570663	0.053056
665.774933	0.053189
665.979185	0.053131
666.183419	0.053269
666.387635	0.053359
666.591832	0.053446
666.796011	0.053478
667.000172	0.053460
667.204315	0.053635
667.408439	0.053943
667.612545	0.053885
667.816634	0.054091
668.020703	0.054130
668.224755	0.054104
668.428788	0.054258
668.632803	0.054395
668.836800	0.054459
669.040779	0.054556
669.244739	0.054382
669.448681	0.054685
669.652605	0.054388
669.856511	0.054395
670.060399	0.054360
670.264268	0.054259
670.468119	0.054255
670.671952	0.053994
670.875767	0.053980
671.079563	0.053949
671.283341	0.053904
671.487101	0.053950
671.690843	0.053964
671.894567	0.053995
672.098272	0.053940
672.301959	0.054019
672.505628	0.054156
672.709278	0.054291
672.912911	0.054369
673.116525	0.054456
673.320121	0.054749
673.523699	0.054820
673.727258	0.054851
673.930799	0.054940
674.134322	0.054916
674.337827	0.054997
674.541314	0.054667
674.744782	0.054748
674.948232	0.054479
675.151664	0.054508
675.355078	0.054541
675.558474	0.054681
675.761851	0.054837
675.965210	0.054797
676.168551	0.054881
676.371873	0.055049
676.575178	0.054986
676.778464	0.055265
676.981732	0.055103
677.184981	0.055114
677.388213	0.055091
677.591426	0.055183
677.794621	0.055380
677.997798	0.055440
678.200956	0.055738
678.404097	0.055805
678.607219	0.055815
678.810323	0.056193
679.013408	0.056293
679.216476	0.056271
679.419525	0.056439
679.622556	0.056361
679.825569	0.056279
680.028563	0.056028
680.231540	0.056266
680.434498	0.056204
680.637438	0.055984
680.840359	0.055874
681.043263	0.055906
681.246148	0.055890
681.449015	0.056034
681.651864	0.056140
681.854694	0.056113
682.057506	0.056021
682.260301	0.055893
682.463076	0.055936
682.665834	0.055934
682.868573	0.056070
683.071295	0.056058
683.273998	0.055984
683.476682	0.056071
683.679349	0.056293
683.881997	0.056332
684.084627	0.056529
684.287239	0.056529
684.489833	0.056648
684.692408	0.056435
684.894965	0.056338
685.097504	0.056331
685.300025	0.056315
685.502527	0.056144
685.705012	0.056098
685.907478	0.056059
686.109925	0.056221
686.312355	0.056269
686.514766	0.056520
686.717159	0.056510
686.919534	0.056666
687.121891	0.056572
687.324230	0.056733
687.526550	0.056864
687.728852	0.056880
687.931136	0.056932
688.133401	0.056924
688.335649	0.056910
688.537878	0.056994
688.740089	0.057059
688.942281	0.057154
689.144456	0.057090
689.346612	0.056992
689.548750	0.056992
689.750870	0.056888
689.952971	0.057013
690.155055	0.057020
690.357120	0.056999
690.559167	0.056996
690.761195	0.057117
690.963206	0.057186
691.165198	0.057248
691.367172	0.057383
691.569128	0.057546
691.771065	0.057487
691.972984	0.057466
692.174885	0.057453
692.376768	0.057333
692.578633	0.057386
692.780479	0.057481
692.982308	0.057510
693.184118	0.057530
693.385909	0.057457
693.587683	0.057559
693.789438	0.057558
693.991175	0.057706
694.192894	0.057789
694.394595	0.057868
694.596277	0.057730
694.797941	0.057855
694.999587	0.057819
695.201215	0.057721
695.402824	0.057641
695.604416	0.057749
695.805989	0.057862
696.007543	0.057937
696.209080	0.057894
696.410598	0.058037
696.612099	0.058052
696.813580	0.058102
697.015044	0.058261
697.216490	0.058359
697.417917	0.058218
697.619326	0.058260
697.820717	0.058229
698.022089	0.058127
698.223444	0.058242
698.424780	0.058314
698.626098	0.058326
698.827397	0.058423
699.028679	0.058411
699.229942	0.058642
699.431187	0.058442
699.632414	0.058547
699.833622	0.058764
700.034813	0.058803
700.235985	0.058855
700.437139	0.058994
700.638274	0.058903
700.839392	0.059044
701.040491	0.059022
701.241572	0.059216
701.442635	0.059261
701.643679	0.059187
701.844706	0.059258
702.045714	0.059134
702.246704	0.059215
702.447675	0.059284
702.648629	0.059403
702.849564	0.059293
703.050481	0.059326
703.251380	0.059302
703.452260	0.059337
703.653122	0.059144
703.853966	0.059252
704.054792	0.059121
704.255600	0.059002
704.456389	0.058984
704.657160	0.059062
704.857913	0.059008
705.058648	0.059032
705.259365	0.058924
705.460063	0.058881
705.660743	0.058948
705.861405	0.058911
706.062048	0.058906
706.262674	0.058783
706.463281	0.058733
706.663870	0.058611
706.864441	0.058572
707.064993	0.058641
707.265527	0.058755
707.466043	0.058761
707.666541	0.058867
707.867021	0.059158
708.067482	0.059305
708.267925	0.059432
708.468350	0.059610
708.668757	0.059659
708.869145	0.059703
709.069516	0.059757
709.269868	0.059658
709.470201	0.059601
709.670517	0.059600
709.870814	0.059254
710.071093	0.059279
710.271354	0.059248
710.471597	0.059258
710.671821	0.059392
710.872028	0.059353
711.072216	0.059373
711.272385	0.059197
711.472537	0.058993
711.672670	0.059078
711.872785	0.058975
712.072882	0.058721
712.272961	0.058490
712.473021	0.058345
712.673063	0.058196
712.873087	0.058117
713.073093	0.058263
713.273081	0.058267
713.473050	0.058368
713.673001	0.058600
713.872934	0.058787
714.072849	0.059087
714.272745	0.059118
714.472623	0.059199
714.672483	0.059155
714.872325	0.059239
715.072148	0.059305
715.271954	0.059319
715.471741	0.059203
715.671509	0.059445
715.871260	0.059317
716.070992	0.059237
716.270707	0.059286
716.470403	0.059240
716.670080	0.059109
716.869740	0.059037
717.069381	0.059012
717.269004	0.058847
717.468609	0.058463
717.668195	0.058447
717.867764	0.058263
718.067314	0.058278
718.266846	0.058319
718.466360	0.058269
718.665855	0.058184
718.865332	0.058150
719.064791	0.058173
719.264232	0.058188
719.463655	0.058195
719.663059	0.058096
719.862445	0.058103
720.061813	0.058005
720.261163	0.058189
720.460494	0.058150
720.659807	0.058236
720.859102	0.058299
721.058379	0.058458
721.257638	0.058340
721.456878	0.058794
721.656100	0.058919
721.855304	0.059037
722.054490	0.058930
722.253657	0.058941
722.452806	0.058934
722.651937	0.059138
722.851050	0.058998
723.050145	0.059098
723.249221	0.059049
723.448279	0.058912
723.647319	0.059000
723.846340	0.059141
724.045344	0.059192
724.244329	0.059028
724.443296	0.058788
724.642245	0.058894
724.841175	0.058721
725.040088	0.058573
725.238982	0.058692
725.437857	0.058513
725.636715	0.058338
725.835554	0.058345
726.034376	0.058212
726.233179	0.058186
726.431963	0.058023
726.630730	0.058084
726.829478	0.057865
727.028208	0.057666
727.226920	0.057633
727.425614	0.057437
727.624289	0.057322
727.822946	0.057362
728.021585	0.057330
728.220206	0.057223
728.418808	0.057265
728.617392	0.057133
728.815958	0.056973
729.014506	0.057033
729.213036	0.056986
729.411547	0.056970
729.610040	0.057110
729.808515	0.057187
730.006972	0.057270
730.205410	0.057224
730.403831	0.057546
730.602233	0.057674
730.800616	0.057648
730.998982	0.057759
731.197329	0.057993
731.395658	0.057935
731.593969	0.057879
731.792262	0.057851
731.990536	0.057719
732.188793	0.057614
732.387031	0.057439
732.585250	0.057305
732.783452	0.057346
732.981635	0.057118
733.179800	0.057183
733.377947	0.057152
733.576076	0.057268
733.774186	0.057255
733.972278	0.057261
734.170352	0.057344
734.368408	0.057327
734.566446	0.057432
734.764465	0.057393
734.962466	0.057129
735.160449	0.057072
735.358413	0.056704
735.556360	0.056730
735.754288	0.056731
735.952198	0.056636
736.150090	0.056546
736.347963	0.056165
736.545818	0.056013
736.743655	0.055981
736.941474	0.055716
737.139275	0.055752
737.337057	0.055608
737.534821	0.055347
737.732567	0.055283
737.930295	0.055287
738.128005	0.055247
738.325696	0.055238
738.523369	0.055242
738.721024	0.055432
738.918660	0.055489
739.116279	0.055451
739.313879	0.055515
739.511461	0.055402
739.709024	0.055542
739.906570	0.055530
740.104097	0.055619
740.301606	0.055574
740.499097	0.055512
740.696569	0.055599
740.894024	0.055566
741.091460	0.055499
741.288878	0.055471
741.486277	0.055108
741.683659	0.055135
741.881022	0.055015
742.078367	0.054846
742.275694	0.054736
742.473002	0.054590
742.670293	0.054466
742.867565	0.054303
743.064819	0.054453
743.262054	0.054739
743.459272	0.054736
743.656471	0.054803
743.853652	0.055035
744.050815	0.055188
744.247959	0.055202
744.445085	0.055394
744.642194	0.055578
744.839283	0.055534
745.036355	0.055380
745.233408	0.055355
745.430444	0.055336
745.627461	0.055268
745.824459	0.055081
746.021440	0.055139
746.218402	0.055035
746.415346	0.055003
746.612272	0.055000
746.809180	0.055335
747.006069	0.055418
747.202940	0.055439
747.399793	0.055335
747.596628	0.055481
747.793444	0.055479
747.990243	0.055334
748.187023	0.055368
748.383784	0.055235
748.580528	0.054832
748.777253	0.054805
748.973960	0.054688
749.170649	0.054739
749.367320	0.054541
749.563973	0.054399
749.760607	0.054529
749.957223	0.054457
750.153821	0.054516
750.350400	0.054493
750.546962	0.054331
750.743505	0.054251
750.940030	0.054190
751.136536	0.054319
751.333025	0.054354
751.529495	0.054233
751.725947	0.054270
751.922381	0.054237
752.118796	0.054289
752.315194	0.054533
752.511573	0.054526
752.707934	0.054531
752.904276	0.054483
753.100601	0.054554
753.296907	0.054842
753.493195	0.054798
753.689465	0.054876
753.885716	0.054633
754.081949	0.054523
754.278164	0.054469
754.474361	0.054791
754.670540	0.054741
754.866700	0.054728
755.062843	0.054754
755.258967	0.054842
755.455072	0.054944
755.651160	0.055134
755.847229	0.055165
756.043280	0.055179
756.239313	0.054859
756.435328	0.054896
756.631324	0.054934
756.827302	0.054857
757.023262	0.054793
757.219204	0.054685
757.415127	0.054645
757.611033	0.054617
757.806920	0.054746
758.002788	0.054717
758.198639	0.054553
758.394471	0.054438
758.590286	0.054229
758.786081	0.054184
758.981859	0.054040
759.177619	0.054012
759.373360	0.053961
759.569083	0.053815
759.764788	0.054052
759.960474	0.054198
760.156143	0.054350
760.351793	0.054447
760.547425	0.054568
760.743038	0.054798
760.938634	0.054886
761.134211	0.054766
761.329770	0.054774
761.525311	0.054361
761.720833	0.054287
761.916338	0.054018
762.111824	0.054051
762.307292	0.053820
762.502741	0.053654
762.698173	0.053687
762.893586	0.053734
763.088981	0.053723
763.284358	0.054067
763.479716	0.054119
763.675057	0.054159
763.870379	0.054187
764.065683	0.054511
764.260968	0.054501
764.456236	0.054440
764.651485	0.054572
764.846716	0.054642
765.041929	0.054596
765.237123	0.054689
765.432299	0.054740
765.627457	0.054765
765.822597	0.054770
766.017719	0.054648
766.212822	0.054580
766.407907	0.054577
766.602974	0.054714
766.798023	0.054562
766.993054	0.054285
767.188066	0.054283
767.383060	0.054237
767.578036	0.053996
767.772993	0.054099
767.967933	0.054333
768.162854	0.054262
768.357757	0.054193
768.552642	0.054183
768.747508	0.054329
768.942356	0.054437
769.137186	0.054291
769.331998	0.054294
769.526792	0.054334
769.721567	0.054207
769.916324	0.054143
770.111063	0.054097
770.305784	0.054177
770.500486	0.054441
770.695171	0.054258
770.889837	0.054177
771.084484	0.054173
771.279114	0.054164
771.473725	0.054054
771.668318	0.054126
771.862893	0.054167
772.057450	0.054097
772.251988	0.053768
772.446509	0.053925
772.641011	0.054222
772.835494	0.054094
773.029960	0.054142
773.224407	0.054046
773.418836	0.054092
773.613247	0.054178
773.807640	0.054156
774.002014	0.054159
774.196370	0.054199
774.390708	0.054049
774.585028	0.054218
774.779330	0.054315
774.973613	0.054497
775.167878	0.054526
775.362125	0.054462
775.556354	0.054427
775.750564	0.054484
775.944756	0.054330
776.138930	0.054187
776.333086	0.054141
776.527223	0.053998
776.721343	0.053869
776.915444	0.053707
777.109526	0.053648
777.303591	0.053861
777.497637	0.053781
777.691666	0.053748
777.885676	0.054071
778.079667	0.053919
778.273641	0.053971
778.467596	0.053996
778.661533	0.054131
778.855452	0.054148
779.049352	0.053999
779.243235	0.054276
779.437099	0.054363
779.630945	0.054248
779.824773	0.054476
780.018582	0.054533
780.212373	0.054949
780.406146	0.054914
780.599901	0.055075
780.793638	0.055143
780.987356	0.054965
781.181056	0.055106
781.374738	0.055202
781.568402	0.055150
781.762047	0.055036
781.955674	0.054758
782.149283	0.054723
782.342874	0.054576
782.536447	0.054578
782.730001	0.054612
782.923537	0.054395
783.117055	0.054252
783.310555	0.054172
783.504036	0.054187
783.697499	0.054180
783.890944	0.054214
784.084371	0.054230
784.277780	0.054337
784.471170	0.054461
784.664542	0.054486
784.857896	0.054501
785.051231	0.054615
785.244549	0.054573
785.437848	0.054608
785.631129	0.054876
785.824392	0.054948
786.017636	0.054804
786.210863	0.054757
786.404071	0.054697
786.597260	0.054623
786.790432	0.054546
786.983585	0.054731
787.176721	0.054663
787.369838	0.054441
787.562936	0.054580
787.756017	0.054654
787.949079	0.054615
788.142123	0.054822
788.335149	0.054999
788.528156	0.055206
788.721146	0.055068
788.914117	0.055191
789.107070	0.055238
789.300005	0.055072
789.492921	0.055106
789.685819	0.055123
789.878699	0.055201
790.071561	0.055238
790.264405	0.055241
790.457230	0.055253
790.650037	0.055346
790.842826	0.055498
791.035597	0.055577
791.228349	0.055490
791.421084	0.055489
791.613800	0.055549
791.806497	0.055310
791.999177	0.055420
792.191838	0.055648
792.384481	0.055524
792.577106	0.055517
792.769713	0.055352
792.962301	0.055649
793.154871	0.055637
793.347423	0.055529
793.539957	0.055819
793.732473	0.055525
793.924970	0.055510
794.117449	0.055594
794.309910	0.055363
794.502353	0.055332
794.694777	0.055076
794.887183	0.055262
795.079571	0.055422
795.271941	0.055410
795.464293	0.055520
795.656626	0.055549
795.848941	0.055588
796.041238	0.055855
796.233516	0.055963
796.425777	0.056229
796.618019	0.056065
796.810243	0.056024
797.002449	0.056157
797.194636	0.056320
797.386805	0.056269
797.578956	0.056425
797.771089	0.056425
797.963204	0.056686
798.155300	0.056467
798.347378	0.056607
798.539438	0.056534
798.731480	0.056427
798.923503	0.056436
799.115509	0.056428
799.307496	0.056396
799.499465	0.056287
799.691415	0.055919
799.883348	0.056060
800.075262	0.055967
800.267158	0.056001
800.459035	0.056047
800.650895	0.056098
800.842736	0.056273
801.034559	0.056185
801.226364	0.056399
801.418150	0.056765
801.609919	0.056905
801.801669	0.057042
801.993401	0.056982
802.185114	0.056995
802.376810	0.057093
802.568487	0.056956
802.760146	0.057166
802.951787	0.057403
803.143409	0.057491
803.335014	0.057639
803.526600	0.057724
803.718168	0.057954
803.909717	0.058014
804.101249	0.057888
804.292762	0.058096
804.484257	0.057932
804.675734	0.057701
804.867192	0.057659
805.058632	0.057490
805.250054	0.057653
805.441458	0.057828
805.632844	0.057936
805.824211	0.058174
806.015561	0.058128
806.206891	0.058201
806.398204	0.058169
806.589499	0.058181
806.780775	0.058289
806.972033	0.058255
807.163273	0.057980
807.354495	0.057784
807.545698	0.057773
807.736883	0.057768
807.928050	0.057900
808.119199	0.057812
808.310329	0.057888
808.501441	0.057958
808.692535	0.057910
808.883611	0.057986
809.074669	0.058260
809.265708	0.058309
809.456729	0.058207
809.647732	0.058122
809.838717	0.058216
810.029683	0.058415
810.220632	0.058452
810.411562	0.058470
810.602474	0.058720
810.793367	0.058785
810.984242	0.058997
811.175100	0.059299
811.365938	0.059471
811.556759	0.059594
811.747562	0.059456
811.938346	0.059187
812.129112	0.059473
812.319860	0.059264
812.510589	0.059181
812.701300	0.058971
812.891994	0.058655
813.082668	0.058582
813.273325	0.058443
813.463964	0.058349
813.654584	0.058569
813.845186	0.058242
814.035769	0.058280
814.226335	0.058342
814.416882	0.058195
814.607411	0.058417
814.797922	0.058541
814.988415	0.058806
815.178889	0.059047
815.369345	0.059128
815.559783	0.059436
815.750203	0.059703
815.940605	0.059811
816.130988	0.060020
816.321353	0.060268
816.511700	0.060368
816.702028	0.060587
816.892339	0.060535
817.082631	0.060550
817.272905	0.060729
817.463161	0.060692
817.653398	0.060644
817.843617	0.060663
818.033819	0.060423
818.224001	0.060287
818.414166	0.060037
818.604312	0.060332
818.794440	0.060473
818.984550	0.060277
819.174642	0.060409
819.364716	0.060454
819.554771	0.060599
819.744808	0.060805
819.934827	0.060778
820.124827	0.060805
820.314810	0.060543
820.504774	0.060516
820.694720	0.060509
820.884647	0.060397
821.074557	0.060394
821.264448	0.060301
821.454321	0.060361
821.644176	0.060306
821.834012	0.060475
822.023831	0.060699
822.213631	0.060670
822.403413	0.060630
822.593176	0.060716
822.782922	0.060946
822.972649	0.060677
823.162358	0.060575
823.352049	0.060712
823.541721	0.060659
823.731376	0.060306
823.921012	0.060189
824.110629	0.060402
824.300229	0.060399
824.489811	0.060330
824.679374	0.060733
824.868919	0.060898
825.058445	0.061139
825.247954	0.061079
825.437444	0.061220
825.626916	0.061396
825.816370	0.061389
826.005806	0.061509
826.195223	0.061581
826.384622	0.061618
826.574003	0.061599
826.763366	0.061374
826.952711	0.061444
827.142037	0.061532
827.331345	0.061543
827.520635	0.061461
827.709906	0.061421
827.899160	0.061396
828.088395	0.061516
828.277612	0.061639
828.466810	0.061665
828.655991	0.061849
828.845153	0.061937
829.034297	0.062125
829.223423	0.062251
829.412531	0.062109
829.601620	0.062034
829.790691	0.061960
829.979744	0.062086
830.168779	0.062319
830.357795	0.062293
830.546793	0.062279
830.735773	0.062189
830.924735	0.062223
831.113679	0.062386
831.302604	0.062726
831.491511	0.062885
831.680400	0.062895
831.869271	0.062887
832.058123	0.062880
832.246957	0.063242
832.435773	0.063474
832.624571	0.063631
832.813351	0.063915
833.002112	0.063801
833.190855	0.063699
833.379580	0.063923
833.568287	0.063993
833.756975	0.063980
833.945645	0.063855
834.134297	0.063830
834.322931	0.063531
834.511547	0.063589
834.700144	0.063700
834.888723	0.063850
835.077284	0.063670
835.265826	0.063958
835.454351	0.064152
835.642857	0.064074
835.831345	0.064177
836.019815	0.064528
836.208266	0.064465
836.396699	0.064430
836.585114	0.064584
836.773511	0.064756
836.961890	0.064489
837.150250	0.064863
837.338592	0.065055
837.526916	0.065092
837.715222	0.065220
837.903510	0.065372
838.091779	0.065579
838.280030	0.065693
838.468263	0.065828
838.656477	0.066194
838.844674	0.066122
839.032852	0.066323
839.221012	0.066446
839.409153	0.066600
839.597277	0.066478
839.785382	0.066530
839.973469	0.066580
840.161538	0.066679
840.349589	0.066846
840.537621	0.066867
840.725635	0.066703
840.913631	0.066776
841.101609	0.066656
841.289568	0.066723
841.477509	0.066579
841.665432	0.066504
841.853337	0.066393
842.041224	0.066277
842.229092	0.066289
842.416942	0.066498
842.604774	0.066425
842.792588	0.066644
842.980383	0.066816
843.168160	0.067156
843.355919	0.067431
843.543660	0.067639
843.731382	0.067593
843.919087	0.067694
844.106773	0.067806
844.294441	0.068013
844.482090	0.068152
844.669722	0.068314
844.857335	0.068200
845.044930	0.068125
845.232507	0.068266
845.420065	0.068589
845.607605	0.068813
845.795127	0.069159
845.982631	0.069496
846.170117	0.069464
846.357584	0.069657
846.545033	0.070040
846.732464	0.070203
846.919877	0.070178
847.107272	0.070144
847.294648	0.070261
847.482006	0.070162
847.669346	0.069880
847.856667	0.070186
848.043971	0.070101
848.231256	0.070156
848.418523	0.070184
848.605771	0.070239
848.793002	0.070305
848.980214	0.070262
849.167408	0.070115
849.354584	0.070045
849.541742	0.069696
849.728881	0.069738
849.916002	0.069653
850.103105	0.069568
850.290190	0.069664
850.477256	0.069895
850.664304	0.070005
850.851334	0.070397
851.038346	0.070791
851.225340	0.070987
851.412315	0.071139
851.599272	0.071298
851.786211	0.071661
851.973132	0.071690
852.160034	0.071639
852.346918	0.071434
852.533784	0.071342
852.720632	0.071508
852.907462	0.071593
853.094273	0.071616
853.281066	0.071613
853.467841	0.071601
853.654598	0.071552
853.841336	0.071737
854.028056	0.072024
854.214758	0.072041
854.401442	0.071969
854.588107	0.071983
854.774755	0.072279
854.961384	0.072251
855.147995	0.072321
855.334587	0.072585
855.521162	0.072707
855.707718	0.072793
855.894256	0.073098
856.080775	0.073226
856.267277	0.073487
856.453760	0.073445
856.640225	0.073606
856.826672	0.073600
857.013101	0.073683
857.199511	0.073731
857.385903	0.073685
857.572277	0.073618
857.758633	0.073541
857.944970	0.073593
858.131290	0.073788
858.317591	0.074066
858.503873	0.074195
858.690138	0.074371
858.876384	0.074394
859.062612	0.074571
859.248822	0.074761
859.435014	0.075073
859.621188	0.075064
859.807343	0.075140
859.993480	0.074975
860.179599	0.075178
860.365699	0.075240
860.551781	0.075299
860.737846	0.075438
860.923891	0.075384
861.109919	0.075312
861.295929	0.075438
861.481920	0.075456
861.667893	0.075628
861.853848	0.075761
862.039784	0.075755
862.225702	0.075671
862.411603	0.075754
862.597484	0.075998
862.783348	0.076291
862.969193	0.076597
863.155021	0.076580
863.340830	0.076920
863.526620	0.076784
863.712393	0.076816
863.898147	0.077182
864.083883	0.077029
864.269601	0.077178
864.455301	0.077294
864.640982	0.077364
864.826645	0.077350
865.012290	0.077125
865.197917	0.077202
865.383526	0.077186
865.569116	0.077043
865.754688	0.077305
865.940242	0.077250
866.125777	0.077113
866.311295	0.077062
866.496794	0.077585
866.682275	0.077669
866.867737	0.078015
867.053182	0.078199
867.238608	0.078343
867.424016	0.078563
867.609406	0.078602
867.794778	0.078668
867.980131	0.078557
868.165466	0.078081
868.350783	0.078034
868.536082	0.077672
868.721362	0.077605
868.906625	0.077534
869.091869	0.077546
869.277094	0.077777
869.462302	0.078067
869.647491	0.078250
869.832662	0.078778
870.017815	0.079012
870.202950	0.079554
870.388066	0.079875
870.573165	0.079959
870.758245	0.080086
870.943306	0.079915
871.128350	0.079921
871.313375	0.080120
871.498382	0.080128
871.683371	0.080240
871.868342	0.080065
872.053294	0.079738
872.238229	0.079746
872.423144	0.079607
872.608042	0.079551
872.792922	0.079455
872.977783	0.079377
873.162626	0.079373
873.347451	0.079397
873.532258	0.079631
873.717046	0.079897
873.901816	0.080416
874.086568	0.080595
874.271302	0.080835
874.456017	0.080631
874.640715	0.080617
874.825394	0.080601
875.010055	0.080530
875.194697	0.080282
875.379322	0.080425
875.563928	0.080239
875.748516	0.080141
875.933085	0.080238
876.117637	0.080395
876.302170	0.080561
876.486685	0.080487
876.671182	0.080461
876.855661	0.080779
877.040121	0.080598
877.224563	0.080503
877.408987	0.080423
877.593393	0.080419
877.777780	0.080424
877.962150	0.080478
878.146501	0.080821
878.330833	0.081270
878.515148	0.081184
878.699444	0.081571
878.883722	0.081689
879.067982	0.081765
879.252224	0.081746
879.436447	0.081784
879.620653	0.081918
879.804840	0.081627
879.989008	0.081452
880.173159	0.081532
880.357291	0.081528
880.541405	0.081588
880.725501	0.081956
880.909579	0.082127
881.093638	0.082232
881.277680	0.082153
881.461703	0.082222
881.645707	0.082064
881.829694	0.081888
882.013662	0.081945
882.197612	0.081855
882.381544	0.081694
882.565458	0.081486
882.749353	0.081854
882.933230	0.081800
883.117089	0.081957
883.300930	0.082135
883.484753	0.082248
883.668557	0.082079
883.852343	0.082279
884.036111	0.082232
884.219861	0.082561
884.403592	0.082647
884.587305	0.082758
884.771000	0.082982
884.954677	0.082888
885.138335	0.082901
885.321976	0.082562
885.505598	0.082566
885.689201	0.082571
885.872787	0.082194
886.056354	0.081736
886.239904	0.081866
886.423434	0.081390
886.606947	0.081692
886.790442	0.081661
886.973918	0.081866
887.157376	0.082069
887.340816	0.081773
887.524237	0.081847
887.707641	0.081966
887.891026	0.081498
888.074393	0.081679
888.257741	0.081564
888.441072	0.081685
888.624384	0.081731
888.807678	0.081396
888.990954	0.081505
889.174211	0.081462
889.357451	0.081375
889.540672	0.081818
889.723875	0.081522
889.907059	0.081702
890.090226	0.081451
890.273374	0.081271
890.456504	0.081617
890.639616	0.081599
890.822709	0.081839
891.005785	0.081973
891.188842	0.081556
891.371881	0.081604
891.554901	0.081135
891.737904	0.081397
891.920888	0.081883
892.103854	0.081434
892.286802	0.082005
892.469731	0.081989
892.652643	0.081865
892.835536	0.082239
893.018410	0.082412
893.201267	0.082605
893.384106	0.082170
893.566926	0.081927
893.749728	0.082093
893.932511	0.081779
894.115277	0.081730
894.298024	0.081344
894.480753	0.081365
894.663464	0.081277
894.846157	0.081099
895.028831	0.081267
895.211487	0.081050
895.394125	0.080927
895.576745	0.080681
895.759346	0.080559
895.941930	0.081016
896.124495	0.080675
896.307041	0.080748
896.489570	0.080855
896.672080	0.080983
896.854573	0.081109
897.037046	0.081203
897.219502	0.081538
897.401940	0.081622
897.584359	0.081577
897.766760	0.081841
897.949143	0.081761
898.131507	0.081602
898.313854	0.081841
898.496182	0.081978
898.678492	0.081955
898.860783	0.081803
899.043057	0.081529
899.225312	0.081529
899.407549	0.081325
899.589768	0.081283
899.771968	0.081425
899.954151	0.081013
900.136315	0.080732
900.318461	0.080826
900.500588	0.080672
900.682698	0.080813
900.864789	0.080620
901.046862	0.080650
901.228917	0.080851
901.410953	0.080540
901.592971	0.080816
901.774972	0.080641
901.956953	0.080325
902.138917	0.080124
902.320862	0.080000
902.502790	0.080341
902.684699	0.079781
902.866589	0.079285
903.048462	0.079550
903.230316	0.079183
903.412152	0.079311
903.593970	0.079082
903.775770	0.079222
903.957551	0.079101
904.139314	0.078471
904.321059	0.078761
904.502786	0.078894
904.684494	0.078788
904.866185	0.078561
905.047857	0.078275
905.229510	0.078318
905.411146	0.078559
905.592763	0.078350
905.774363	0.078256
905.955943	0.078098
906.137506	0.078335
906.319051	0.078028
906.500577	0.078234
906.682085	0.078277
906.863575	0.077934
907.045046	0.077755
907.226500	0.077935
907.407935	0.078187
907.589352	0.077959
907.770750	0.077547
907.952131	0.077633
908.133493	0.077519
908.314837	0.077362
908.496163	0.077358
908.677470	0.077184
908.858760	0.076894
909.040031	0.076519
909.221284	0.076347
909.402518	0.076311
909.583735	0.076012
909.764933	0.075673
909.946113	0.076014
910.127275	0.076029
910.308418	0.075549
910.489544	0.075589
910.670651	0.075799
910.851740	0.075948
911.032810	0.075571
911.213863	0.075504
911.394897	0.075375
911.575913	0.075095
911.756911	0.074652
911.937890	0.074840
912.118851	0.073979
912.299794	0.073779
912.480719	0.073654
912.661626	0.073519
912.842514	0.073341
913.023384	0.072994
913.204236	0.072948
913.385070	0.072772
913.565886	0.072534
913.746683	0.072858
913.927462	0.072487
914.108223	0.072187
914.288965	0.072138
914.469690	0.072066
914.650396	0.072161
914.831084	0.071575
915.011754	0.071918
915.192405	0.071741
915.373038	0.071912
915.553653	0.071763
915.734250	0.071601
915.914829	0.071542
916.095389	0.071033
916.275931	0.070834
916.456455	0.070488
916.636961	0.070403
916.817448	0.070338
916.997917	0.070188
917.178368	0.069824
917.358801	0.070313
917.539216	0.070271
917.719612	0.070336
917.899990	0.070007
918.080350	0.070275
918.260692	0.069885
918.441015	0.069400
918.621320	0.069181
918.801607	0.069061
918.981876	0.068458
919.162127	0.068185
919.342359	0.068069
919.522573	0.068631
919.702769	0.068128
919.882947	0.068181
920.063106	0.068697
920.243247	0.068392
920.423370	0.068379
920.603475	0.067817
920.783562	0.067514
920.963630	0.067856
921.143680	0.067435
921.323712	0.067464
921.503725	0.067456
921.683721	0.066642
921.863698	0.066525
922.043657	0.066578
922.223598	0.066602
922.403520	0.066242
922.583424	0.065598
922.763311	0.065315
922.943178	0.064955
923.123028	0.064143
923.302859	0.064148
923.482673	0.063534
923.662467	0.063292
923.842244	0.063112
924.022003	0.063049
924.201743	0.063214
924.381465	0.062956
924.561169	0.062930
924.740854	0.063301
924.920522	0.062364
925.100171	0.062460
925.279802	0.062096
925.459414	0.061649
925.639009	0.061249
925.818585	0.060963
925.998143	0.060340
926.177683	0.060444
926.357205	0.059790
926.536708	0.060142
926.716193	0.060396
926.895660	0.060153
927.075109	0.060429
927.254539	0.060404
927.433951	0.059507
927.613345	0.060012
927.792721	0.059498
927.972079	0.059367
928.151418	0.059111
928.330739	0.058488
928.510042	0.058456
928.689327	0.058705
928.868593	0.058532
929.047841	0.058839
929.227071	0.058417
929.406283	0.057959
929.585476	0.057463
929.764652	0.057371
929.943809	0.057363
930.122948	0.057360
930.302068	0.055890
930.481171	0.055549
930.660255	0.055444
930.839321	0.054606
931.018369	0.054097
931.197398	0.054041
931.376409	0.053602
931.555402	0.053179
931.734377	0.052484
931.913334	0.052633
932.092272	0.052994
932.271192	0.052249
932.450094	0.052353
932.628978	0.052277
932.807844	0.052124
932.986691	0.051494
933.165520	0.050653
933.344331	0.050294
933.523123	0.050265
933.701898	0.049334
933.880654	0.048948
934.059392	0.048275
934.238111	0.048633
934.416813	0.048350
934.595496	0.048793
934.774161	0.048558
934.952808	0.048638
935.131437	0.048275
935.310047	0.047793
935.488639	0.048044
935.667213	0.048123
935.845769	0.047193
936.024306	0.046980
936.202825	0.046069
936.381326	0.046209
936.559809	0.045591
936.738274	0.045486
936.916720	0.045446
937.095148	0.044820
937.273558	0.044785
937.451950	0.044608
937.630323	0.044490
937.808678	0.044425
937.987015	0.044422
938.165334	0.044766
938.343635	0.044408
938.521917	0.043893
938.700181	0.044080
938.878427	0.043456
939.056655	0.043566
939.234864	0.042759
939.413055	0.042934
939.591228	0.041891
939.769383	0.040971
939.947519	0.040330
940.125638	0.040855
940.303738	0.039434
940.481820	0.039164
940.659883	0.038585
940.837929	0.038408
941.015956	0.038004
941.193965	0.038376
941.371955	0.037883
941.549928	0.038099
941.727882	0.037963
941.905818	0.038330
942.083736	0.038039
942.261636	0.037933
942.439517	0.037058
942.617380	0.036158
942.795225	0.035396
942.973052	0.035463
943.150860	0.034776
943.328651	0.033400
943.506423	0.033435
943.684176	0.033122
943.861912	0.033221
944.039629	0.034136
944.217328	0.035017
944.395009	0.034480
944.572672	0.033382
944.750317	0.032691
944.927943	0.032696
945.105551	0.030746
945.283141	0.030409
945.460712	0.029664
945.638265	0.028951
945.815801	0.029432
945.993317	0.029926
946.170816	0.030702
946.348297	0.030421
946.525759	0.030264
946.703203	0.030574
946.880629	0.030343
947.058036	0.030584
947.235425	0.030059
947.412797	0.029011
947.590149	0.028422
947.767484	0.028302
947.944800	0.028304
948.122099	0.027941
948.299379	0.029038
948.476640	0.029285
948.653884	0.028647
948.831109	0.028149
949.008316	0.028097
949.185505	0.027984
949.362676	0.026797
949.539828	0.027156
949.716962	0.027103
949.894078	0.026392
950.071176	0.024830
950.248256	0.024954
950.425317	0.025562
950.602360	0.025002
950.779385	0.024670
950.956391	0.025287
951.133380	0.024164
951.310350	0.023340
951.487302	0.023761
951.664235	0.024257
951.841151	0.024646
952.018048	0.024649
952.194927	0.024069
952.371788	0.024472
952.548631	0.024606
952.725455	0.025587
952.902261	0.024860
953.079049	0.024859
953.255819	0.024907
953.432570	0.024823
953.609303	0.024696
953.786018	0.024147
953.962715	0.024287
954.139394	0.023310
954.316054	0.022540
954.492696	0.023208
954.669320	0.022261
954.845926	0.022431
955.022513	0.020552
955.199083	0.020531
955.375634	0.021344
955.552166	0.020997
955.728681	0.021025
955.905177	0.019730
956.081655	0.019375
956.258115	0.019102
956.434557	0.018850
956.610980	0.017818
956.787385	0.017917
956.963772	0.017605
957.140141	0.016586
957.316492	0.016530
957.492824	0.017587
957.669138	0.019195
957.845434	0.018022
958.021712	0.018542
958.197971	0.019201
958.374212	0.018652
958.550435	0.018201
958.726640	0.019737
958.902826	0.019032
959.078995	0.020252
959.255145	0.021124
959.431277	0.022294
959.607390	0.022858
959.783486	0.024001
959.959563	0.024359
960.135622	0.025249
960.311662	0.024761
960.487685	0.024696
960.663689	0.024305
960.839675	0.021736
961.015643	0.023014
961.191593	0.021920
961.367524	0.021152
961.543437	0.021739
961.719332	0.021069
961.895209	0.021228
962.071067	0.022034
962.246907	0.022080
962.422730	0.023194
962.598533	0.021947
962.774319	0.022081
962.950086	0.024872
963.125835	0.023667
963.301566	0.024494
963.477279	0.022837
963.652973	0.023830
963.828650	0.024724
964.004308	0.024793
964.179947	0.025188
964.355569	0.025677
964.531172	0.022899
964.706757	0.022643
964.882324	0.023786
965.057873	0.024284
965.233403	0.023546
965.408916	0.022759
965.584410	0.023024
965.759885	0.023131
965.935343	0.022834
966.110782	0.024964
966.286203	0.025268
966.461606	0.024202
966.636991	0.026746
966.812357	0.025938
966.987705	0.024988
967.163035	0.024508
967.338347	0.024989
967.513641	0.023990
967.688916	0.020917
967.864173	0.020094
968.039412	0.018488
968.214632	0.014080
968.389835	0.015000
968.565019	0.016132
968.740185	0.016994
968.915333	0.017734
969.090462	0.018690
969.265573	0.019657
969.440667	0.021554
969.615741	0.022057
969.790798	0.024162
969.965836	0.022840
970.140856	0.022141
970.315858	0.021807
970.490842	0.021197
970.665808	0.021128
970.840755	0.021654
971.015684	0.019178
971.190595	0.021122
971.365487	0.022100
971.540362	0.023718
971.715218	0.024785
971.890056	0.024644
972.064875	0.024019
972.239677	0.024831
972.414460	0.024196
972.589225	0.026799
972.763972	0.025523
972.938700	0.024212
973.113411	0.025607
973.288103	0.024711
973.462777	0.025859
973.637432	0.025839
973.812070	0.026274
973.986689	0.029321
974.161290	0.029118
974.335873	0.027444
974.510437	0.029957
974.684984	0.028604
974.859512	0.029678
975.034022	0.029008
975.208513	0.028798
975.382987	0.028696
975.557442	0.026788
975.731879	0.027684
975.906298	0.028882
976.080698	0.029614
976.255080	0.028118
976.429445	0.026668
976.603790	0.026805
976.778118	0.029064
976.952427	0.029072
977.126719	0.028730
977.300992	0.029068
977.475246	0.028342
977.649483	0.026873
977.823701	0.029022
977.997901	0.028462
978.172083	0.028966
978.346247	0.027787
978.520392	0.027861
978.694519	0.026155
978.868628	0.023030
979.042719	0.024883
979.216791	0.024474
979.390845	0.024785
979.564882	0.025825
979.738899	0.025411
979.912899	0.025559
980.086880	0.024963
980.260843	0.027548
980.434788	0.030255
980.608715	0.029481
980.782623	0.028266
980.956514	0.026879
981.130386	0.027172
981.304240	0.026935
981.478075	0.025407
981.651892	0.026440
981.825692	0.025910
981.999472	0.026254
982.173235	0.027118
982.346980	0.029243
982.520706	0.029605
982.694414	0.029437
982.868104	0.028941
983.041775	0.029365
983.215428	0.028839
983.389064	0.027286
983.562680	0.025263
983.736279	0.023979
983.909860	0.021845
984.083422	0.022234
984.256966	0.022576
984.430491	0.023526
984.603999	0.023859
984.777488	0.024503
984.950959	0.026039
985.124412	0.027804
985.297847	0.028912
985.471263	0.030429
985.644661	0.029215
985.818041	0.028378
985.991403	0.026763
986.164747	0.026101
986.338072	0.024651
986.511379	0.023444
986.684668	0.022296
986.857938	0.021262
987.031191	0.021653
987.204425	0.021805
987.377641	0.022379
987.550839	0.024400
987.724018	0.025244
987.897179	0.026367
988.070322	0.027362
988.243447	0.028182
988.416554	0.028141
988.589642	0.026901
988.762712	0.028270
988.935764	0.027620
989.108798	0.025977
989.281813	0.026816
989.454811	0.027231
989.627790	0.026293
989.800751	0.026222
989.973693	0.026453
990.146617	0.026814
990.319524	0.025237
990.492412	0.026099
990.665281	0.026312
990.838133	0.025533
991.010966	0.025265
991.183781	0.026126
991.356578	0.026630
991.529356	0.026261
991.702117	0.026883
991.874859	0.028472
992.047583	0.029669
992.220288	0.030024
992.392976	0.030566
992.565645	0.029599
992.738296	0.029403
992.910929	0.029570
993.083543	0.031032
993.256139	0.032388
993.428718	0.030988
993.601277	0.028960
993.773819	0.029111
993.946342	0.028750
994.118848	0.030345
994.291335	0.029224
994.463803	0.027111
994.636254	0.025588
994.808686	0.023237
994.981100	0.024350
995.153496	0.024093
995.325874	0.024460
995.498233	0.024379
995.670574	0.023183
995.842897	0.025283
996.015202	0.026705
996.187488	0.027561
996.359757	0.028484
996.532007	0.028790
996.704239	0.030621
996.876452	0.031369
997.048648	0.031945
997.220825	0.032023
997.392984	0.032115
997.565124	0.031011
997.737247	0.031586
997.909351	0.032423
998.081437	0.031779
998.253505	0.031214
998.425554	0.030808
998.597586	0.030954
998.769599	0.031935
998.941594	0.032369
999.113571	0.034615
999.285529	0.033353
999.457469	0.032483
999.629391	0.034247
999.801295	0.033115
999.973181	0.033006
1000.145048	0.033829
1000.316897	0.033298
1000.488728	0.031826
1000.660541	0.030209
1000.832335	0.031748
1001.004111	0.030507
1001.175869	0.028311
1001.347609	0.028494
1001.519331	0.027313
1001.691034	0.026838
1001.862719	0.026390
1002.034386	0.027801
1002.206035	0.027230
1002.377665	0.026376
1002.549277	0.027245
1002.720871	0.026634
1002.892447	0.027671
1003.064004	0.028766
1003.235544	0.027473
1003.407065	0.026738
1003.578568	0.026121
1003.750052	0.026322
1003.921519	0.024980
1004.092967	0.024957
1004.264397	0.026557
1004.435809	0.026105
1004.607202	0.026272
1004.778577	0.027346
1004.949934	0.028488
1005.121273	0.028986
1005.292594	0.029999
1005.463896	0.031498
1005.635180	0.032259
1005.806446	0.032300
1005.977694	0.033282
1006.148923	0.031790
1006.320135	0.031737
1006.491328	0.032345
1006.662503	0.031726
1006.833659	0.030842
1007.004798	0.029692
1007.175918	0.029598
1007.347020	0.029689
1007.518103	0.028631
1007.689169	0.029839
1007.860216	0.028781
1008.031245	0.027549
1008.202256	0.028399
1008.373248	0.029091
1008.544223	0.030994
1008.715179	0.031146
1008.886117	0.030486
1009.057036	0.030637
1009.227938	0.029608
1009.398821	0.030784
1009.569686	0.031469
1009.740533	0.029849
1009.911361	0.029271
1010.082172	0.028683
1010.252964	0.029034
1010.423738	0.029552
1010.594493	0.030107
1010.765231	0.031875
1010.935950	0.031716
1011.106651	0.031944
1011.277334	0.032831
1011.447998	0.032203
1011.618645	0.031953
1011.789273	0.030886
1011.959882	0.030506
1012.130474	0.030084
1012.301048	0.027439
1012.471603	0.027281
1012.642140	0.027571
1012.812658	0.025762
1012.983159	0.026002
1013.153641	0.025273
1013.324105	0.023319
1013.494551	0.022393
1013.664979	0.022152
1013.835388	0.024701
1014.005779	0.024860
1014.176152	0.023302
1014.346507	0.025228
1014.516843	0.025481
1014.687162	0.027600
1014.857462	0.029148
1015.027744	0.029362
1015.198007	0.030416
1015.368252	0.030268
1015.538480	0.030760
1015.708689	0.031217
1015.878879	0.031193
1016.049052	0.031275
1016.219206	0.030903
1016.389342	0.032833
1016.559460	0.032519
1016.729559	0.031678
1016.899641	0.031859
1017.069704	0.031537
1017.239749	0.031256
1017.409775	0.032312
1017.579784	0.034101
1017.749774	0.033111
1017.919746	0.031986
1018.089700	0.033174
1018.259635	0.032294
1018.429553	0.032233
1018.599452	0.032139
1018.769333	0.033416
1018.939195	0.032027
1019.109040	0.030199
1019.278866	0.030316
1019.448674	0.029711
1019.618464	0.029425
1019.788235	0.030647
1019.957989	0.030208
1020.127724	0.030284
1020.297441	0.030407
1020.467139	0.030732
1020.636820	0.030141
1020.806482	0.030283
1020.976126	0.031134
1021.145752	0.031230
1021.315359	0.030805
1021.484948	0.029765
1021.654519	0.029705
1021.824072	0.029254
1021.993607	0.029331
1022.163123	0.031336
1022.332621	0.031185
1022.502101	0.030064
1022.671563	0.030243
1022.841007	0.030791
1023.010432	0.033415
1023.179839	0.032577
1023.349228	0.032934
1023.518598	0.031061
1023.687951	0.029397
1023.857285	0.029912
1024.026601	0.030177
1024.195899	0.029069
1024.365178	0.027914
1024.534439	0.027072
1024.703682	0.026511
1024.872907	0.026282
1025.042114	0.027332
1025.211302	0.026369
1025.380472	0.026244
1025.549624	0.025926
1025.718758	0.026726
1025.887873	0.028073
1026.056970	0.026395
1026.226049	0.028534
1026.395110	0.028484
1026.564153	0.029463
1026.733177	0.030405
1026.902183	0.029983
1027.071171	0.030718
1027.240141	0.030977
1027.409092	0.028787
1027.578026	0.028809
1027.746940	0.026105
1027.915837	0.025514
1028.084716	0.024462
1028.253576	0.024622
1028.422418	0.024651
1028.591242	0.024008
1028.760048	0.023435
1028.928835	0.025625
1029.097604	0.026607
1029.266355	0.027812
1029.435088	0.028320
1029.603803	0.029227
1029.772499	0.029361
1029.941177	0.029152
1030.109837	0.030025
1030.278478	0.030343
1030.447102	0.029099
1030.615707	0.029240
1030.784294	0.028214
1030.952863	0.027665
1031.121413	0.026820
1031.289945	0.026499
1031.458460	0.026611
1031.626955	0.026827
1031.795433	0.027958
1031.963892	0.029317
1032.132334	0.028173
1032.300756	0.029633
1032.469161	0.030315
1032.637548	0.031636
1032.805916	0.030830
1032.974266	0.030332
1033.142598	0.029287
1033.310911	0.029079
1033.479207	0.028098
1033.647484	0.029291
1033.815743	0.029041
1033.983983	0.027896
1034.152206	0.025444
1034.320410	0.026972
1034.488596	0.028729
1034.656764	0.029272
1034.824914	0.027610
1034.993045	0.028003
1035.161158	0.028225
1035.329253	0.026447
1035.497330	0.026952
1035.665388	0.028192
1035.833428	0.027672
1036.001450	0.026659
1036.169454	0.027091
1036.337440	0.028331
1036.505407	0.027971
1036.673356	0.026530
1036.841287	0.028967
1037.009200	0.028746
1037.177094	0.028317
1037.344970	0.028317
1037.512828	0.028855
1037.680668	0.028310
1037.848489	0.028818
1038.016293	0.029752
1038.184078	0.029898
1038.351845	0.030635
1038.519593	0.031791
1038.687324	0.033841
1038.855036	0.034627
1039.022730	0.033820
1039.190406	0.034293
1039.358063	0.035477
1039.525702	0.032950
1039.693323	0.032928
1039.860926	0.031792
1040.028511	0.032810
1040.196077	0.032037
1040.363625	0.031274
1040.531155	0.029448
1040.698667	0.028746
1040.866161	0.025685
1041.033636	0.027449
1041.201093	0.028204
1041.368532	0.029591
1041.535952	0.028800
1041.703355	0.027511
1041.870739	0.027762
1042.038105	0.028836
1042.205452	0.027717
1042.372782	0.028227
1042.540093	0.027975
1042.707386	0.029137
1042.874661	0.027936
1043.041918	0.025757
1043.209156	0.027136
1043.376376	0.027079
1043.543578	0.026178
1043.710762	0.027005
1043.877927	0.028164
1044.045074	0.027673
1044.212203	0.025653
1044.379314	0.025129
1044.546407	0.025925
1044.713481	0.026447
1044.880537	0.026556
1045.047575	0.027929
1045.214595	0.028867
1045.381596	0.027705
1045.548579	0.027476
1045.715544	0.027987
1045.882491	0.028856
1046.049420	0.027400
1046.216330	0.026741
1046.383222	0.027512
1046.550096	0.027954
1046.716951	0.028979
1046.883789	0.029122
1047.050608	0.030947
1047.217409	0.029745
1047.384192	0.030110
1047.550956	0.031399
1047.717703	0.030835
1047.884431	0.030237
1048.051140	0.030083
1048.217832	0.028946
1048.384505	0.029053
1048.551161	0.029306
1048.717798	0.030780
1048.884416	0.030041
1049.051017	0.029496
1049.217599	0.028674
1049.384163	0.029654
1049.550709	0.028692
1049.717237	0.028168
1049.883746	0.028566
1050.050237	0.026362
1050.216710	0.025918
1050.383165	0.025544
1050.549601	0.026099
1050.716019	0.025555
1050.882420	0.023827
1051.048801	0.025123
1051.215165	0.026828
1051.381510	0.027151
1051.547837	0.029311
1051.714146	0.029916
1051.880437	0.030022
1052.046709	0.029028
1052.212964	0.030175
1052.379200	0.031795
1052.545417	0.031624
1052.711617	0.031192
1052.877798	0.029741
1053.043961	0.028251
1053.210106	0.028710
1053.376233	0.027729
1053.542341	0.028482
1053.708432	0.028995
1053.874504	0.028221
1054.040557	0.028435
1054.206593	0.026536
1054.372610	0.026568
1054.538609	0.026257
1054.704590	0.025162
1054.870553	0.024630
1055.036497	0.026547
1055.202424	0.027134
1055.368331	0.026386
1055.534221	0.025595
1055.700093	0.025743
1055.865946	0.026906
1056.031781	0.028535
1056.197598	0.029308
1056.363397	0.029586
1056.529177	0.027769
1056.694939	0.028367
1056.860683	0.028386
1057.026409	0.028257
1057.192116	0.028322
1057.357806	0.027648
1057.523477	0.027454
1057.689130	0.026003
1057.854764	0.027239
1058.020381	0.027593
1058.185979	0.025294
1058.351559	0.025471
1058.517120	0.026980
1058.682664	0.026269
1058.848189	0.026742
1059.013696	0.025839
1059.179185	0.026724
1059.344656	0.026532
1059.510108	0.027821
1059.675542	0.029325
1059.840958	0.029637
1060.006356	0.028884
1060.171735	0.028999
1060.337096	0.028098
1060.502439	0.028046
1060.667764	0.027500
1060.833071	0.028119
1060.998359	0.027538
1061.163629	0.025250
1061.328881	0.025891
1061.494115	0.024349
1061.659330	0.025136
1061.824527	0.024687
1061.989706	0.025660
1062.154867	0.025407
1062.320010	0.026671
1062.485134	0.026109
1062.650240	0.027892
1062.815328	0.027664
1062.980398	0.029510
1063.145449	0.028344
1063.310482	0.028635
1063.475497	0.027241
1063.640494	0.027838
1063.805473	0.025121
1063.970433	0.023523
1064.135375	0.022435
1064.300299	0.021727
1064.465204	0.021614
1064.630092	0.024290
1064.794961	0.024179
1064.959812	0.025026
1065.124645	0.026572
1065.289459	0.027072
1065.454256	0.029771
1065.619034	0.031184
1065.783793	0.032280
1065.948535	0.031017
1066.113258	0.031254
1066.277964	0.032962
1066.442651	0.033027
1066.607319	0.031559
1066.771970	0.031859
1066.936602	0.029905
1067.101216	0.029209
1067.265812	0.028071
1067.430389	0.029657
1067.594949	0.029257
1067.759490	0.027660
1067.924013	0.026407
1068.088518	0.027822
1068.253004	0.030102
1068.417472	0.030428
1068.581922	0.030847
1068.746354	0.030402
1068.910768	0.028715
1069.075163	0.028290
1069.239540	0.029143
1069.403899	0.032059
1069.568240	0.030630
1069.732562	0.027413
1069.896866	0.027120
1070.061152	0.025740
1070.225420	0.027214
1070.389670	0.027004
1070.553901	0.024495
1070.718114	0.024206
1070.882309	0.023945
1071.046486	0.024492
1071.210644	0.026204
1071.374784	0.026313
1071.538906	0.026298
1071.703010	0.026992
1071.867096	0.030617
1072.031163	0.034061
1072.195212	0.032803
1072.359243	0.030631
1072.523256	0.029501
1072.687250	0.027374
1072.851226	0.026923
1073.015184	0.028226
1073.179124	0.025312
1073.343045	0.021893
1073.506949	0.019450
1073.670834	0.021061
1073.834701	0.021358
1073.998549	0.022313
1074.162380	0.024441
1074.326192	0.025705
1074.489986	0.023531
1074.653761	0.024471
1074.817519	0.024407
1074.981258	0.025087
1075.144979	0.026167
1075.308682	0.026778
1075.472367	0.026006
1075.636033	0.025313
1075.799681	0.024428
1075.963311	0.027077
1076.126923	0.027863
1076.290516	0.030027
1076.454092	0.029923
1076.617649	0.029132
1076.781187	0.027225
1076.944708	0.028102
1077.108210	0.029861
1077.271695	0.029963
1077.435160	0.030080
1077.598608	0.030912
1077.762038	0.030533
1077.925449	0.031031
1078.088842	0.030154
1078.252217	0.029820
1078.415573	0.029965
1078.578912	0.029624
1078.742232	0.030175
1078.905534	0.027843
1079.068817	0.029551
1079.232083	0.026983
1079.395330	0.027671
1079.558559	0.027558
1079.721770	0.028962
1079.884962	0.027777
1080.048136	0.026290
1080.211293	0.025445
1080.374430	0.027451
1080.537550	0.023860
1080.700651	0.025510
1080.863735	0.025061
1081.026800	0.025041
1081.189846	0.025972
1081.352875	0.027667
1081.515885	0.029851
1081.678877	0.030840
1081.841851	0.030327
1082.004807	0.030688
1082.167744	0.031700
1082.330663	0.030355
1082.493564	0.028861
1082.656447	0.030498
1082.819312	0.029670
1082.982158	0.027228
1083.144986	0.028713
1083.307796	0.027595
1083.470587	0.027161
1083.633361	0.025882
1083.796116	0.027621
1083.958853	0.030775
1084.121571	0.028104
1084.284272	0.029525
1084.446954	0.028448
1084.609618	0.027623
1084.772264	0.028954
1084.934892	0.028341
1085.097501	0.028305
1085.260092	0.027496
1085.422665	0.025610
1085.585220	0.025351
1085.747756	0.025112
1085.910274	0.027774
1086.072774	0.028536
1086.235256	0.027733
1086.397720	0.028015
1086.560165	0.029012
1086.722592	0.028418
1086.885001	0.028905
1087.047392	0.027451
1087.209764	0.024556
1087.372119	0.023725
1087.534455	0.023745
1087.696772	0.024141
1087.859072	0.025610
1088.021353	0.025061
1088.183616	0.026642
1088.345861	0.027252
1088.508088	0.030150
1088.670296	0.031357
1088.832486	0.031732
1088.994658	0.029996
1089.156812	0.029147
1089.318948	0.030015
1089.481065	0.031461
1089.643164	0.029599
1089.805245	0.029972
1089.967308	0.028928
1090.129352	0.026696
1090.291378	0.024850
1090.453386	0.023881
1090.615376	0.025319
1090.777347	0.026216
1090.939301	0.023433
1091.101236	0.023117
1091.263153	0.023007
1091.425051	0.021643
1091.586932	0.023247
1091.748794	0.023069
1091.910638	0.023099
1092.072463	0.023162
1092.234271	0.020860
1092.396060	0.021081
1092.557831	0.019912
1092.719584	0.019843
1092.881319	0.020945
1093.043035	0.022384
1093.204733	0.024463
1093.366413	0.026808
1093.528075	0.026168
1093.689718	0.026714
1093.851343	0.026775
1094.012950	0.029304
1094.174539	0.028387
1094.336110	0.030388
1094.497662	0.030777
1094.659196	0.031739
1094.820712	0.031653
1094.982210	0.033031
1095.143689	0.032332
1095.305151	0.034859
1095.466594	0.037783
1095.628018	0.037115
1095.789425	0.035504
1095.950813	0.034289
1096.112183	0.030286
1096.273535	0.031462
1096.434869	0.032198
1096.596184	0.034097
1096.757482	0.032894
1096.918761	0.030523
1097.080021	0.030546
1097.241264	0.031941
1097.402488	0.033560
1097.563694	0.034636
1097.724882	0.031937
1097.886052	0.029939
1098.047203	0.025476
1098.208336	0.024893
1098.369451	0.024690
1098.530548	0.025375
1098.691627	0.023461
1098.852687	0.021036
1099.013729	0.018857
1099.174753	0.019762
1099.335758	0.020069
1099.496746	0.022717
1099.657715	0.022323
1099.818666	0.021419
1099.979599	0.022799
1100.140513	0.021425
1100.301409	0.022811
1100.462287	0.021154
1100.623147	0.020141
1100.783989	0.021493
1100.944812	0.021352
1101.105617	0.022628
1101.266404	0.022506
1101.427173	0.023259
1101.587923	0.024264
1101.748656	0.023796
1101.909370	0.027752
1102.070066	0.029612
1102.230743	0.025795
1102.391403	0.026175
1102.552044	0.025296
1102.712667	0.027425
1102.873271	0.025666
1103.033858	0.027618
1103.194426	0.026885
1103.354976	0.027004
1103.515508	0.025661
1103.676021	0.028864
1103.836517	0.028021
1103.996994	0.029555
1104.157453	0.026612
1104.317893	0.024582
1104.478316	0.025915
1104.638720	0.027851
1104.799106	0.026248
1104.959474	0.028451
1105.119823	0.026457
1105.280155	0.030625
1105.440468	0.031161
1105.600763	0.031763
1105.761039	0.033767
1105.921298	0.035115
1106.081538	0.033696
1106.241760	0.038525
1106.401964	0.034453
1106.562149	0.036354
1106.722316	0.032453
1106.882465	0.031264
1107.042596	0.031742
1107.202709	0.031256
1107.362803	0.030408
1107.522879	0.031740
1107.682937	0.031565
1107.842977	0.032031
1108.002999	0.031487
1108.163002	0.032191
1108.322987	0.029402
1108.482954	0.029219
1108.642902	0.031128
1108.802833	0.027687
1108.962745	0.025925
1109.122639	0.023917
1109.282515	0.026507
1109.442372	0.029728
1109.602211	0.031661
1109.762032	0.030634
1109.921835	0.032754
1110.081620	0.032011
1110.241386	0.035878
1110.401134	0.035800
1110.560864	0.040200
1110.720576	0.037761
1110.880269	0.034535
1111.039945	0.033191
1111.199602	0.034960
1111.359240	0.030564
1111.518861	0.028822
1111.678463	0.026402
1111.838047	0.024895
1111.997613	0.018001
1112.157161	0.018441
1112.316690	0.019471
1112.476202	0.014754
1112.635695	0.016189
1112.795169	0.019410
1112.954626	0.020811
1113.114064	0.019557
1113.273484	0.022554
1113.432886	0.021199
1113.592270	0.024232
1113.751635	0.024489
1113.910983	0.028566
1114.070312	0.027117
1114.229622	0.029866
1114.388915	0.031124
1114.548189	0.034098
1114.707445	0.032793
1114.866683	0.038664
1115.025903	0.037510
1115.185104	0.037545
1115.344287	0.037021
1115.503452	0.037410
1115.662599	0.033568
1115.821727	0.031335
1115.980838	0.024911
1116.139930	0.029483
1116.299004	0.029279
1116.458059	0.025432
1116.617097	0.023056
1116.776116	0.024706
1116.935117	0.023432
1117.094099	0.025801
1117.253064	0.026731
1117.412010	0.029385
1117.570938	0.021611
1117.729848	0.022743
1117.888740	0.023931
1118.047613	0.025528
1118.206468	0.023668
1118.365305	0.021155
1118.524124	0.019262
1118.682924	0.019396
1118.841707	0.019175
1119.000471	0.023041
1119.159216	0.017257
1119.317944	0.019843
1119.476653	0.018995
1119.635344	0.022408
1119.794017	0.026843
1119.952672	0.027885
1120.111308	0.028031
1120.269927	0.029031
1120.428527	0.030163
1120.587108	0.036189
1120.745672	0.034077
1120.904217	0.030445
1121.062744	0.030997
1121.221253	0.030438
1121.379744	0.028977
1121.538216	0.027321
1121.696671	0.028156
1121.855107	0.026231
1122.013524	0.025561
1122.171924	0.026889
1122.330305	0.029511
1122.488668	0.023078
1122.647013	0.023161
1122.805340	0.024331
1122.963648	0.024290
1123.121938	0.023464
1123.280210	0.023333
1123.438464	0.021789
1123.596700	0.024931
1123.754917	0.025436
1123.913116	0.027979
1124.071297	0.026070
1124.229459	0.023741
1124.387604	0.024684
1124.545730	0.027350
1124.703838	0.031088
1124.861928	0.029866
1125.019999	0.025167
1125.178052	0.023598
1125.336088	0.023341
1125.494104	0.027049
1125.652103	0.029199
1125.810083	0.030054
1125.968045	0.031185
1126.125989	0.029162
1126.283915	0.029111
1126.441823	0.029795
1126.599712	0.033386
1126.757583	0.031283
1126.915436	0.031748
1127.073270	0.030384
1127.231087	0.025475
1127.388885	0.016917
1127.546665	0.014690
1127.704426	0.013802
1127.862170	0.015793
1128.019895	0.011506
1128.177602	0.015764
1128.335291	0.013362
1128.492961	0.013075
1128.650614	0.017770
1128.808248	0.018518
1128.965864	0.016323
1129.123461	0.020788
1129.281041	0.018503
1129.438602	0.022373
1129.596145	0.019928
1129.753670	0.017646
1129.911176	0.017726
1130.068665	0.016435
1130.226135	0.017274
1130.383587	0.017921
1130.541020	0.013439
1130.698436	0.015875
1130.855833	0.011705
1131.013212	0.015812
1131.170573	0.016598
1131.327915	0.016762
1131.485239	0.018180
1131.642545	0.017305
1131.799833	0.022383
1131.957103	0.029489
1132.114354	0.026376
1132.271588	0.030930
1132.428803	0.025913
1132.585999	0.027861
1132.743178	0.032174
1132.900338	0.035029
1133.057480	0.041753
1133.214604	0.037004
1133.371710	0.035021
1133.528797	0.030516
1133.685866	0.026818
1133.842917	0.027425
1133.999950	0.026490
1134.156964	0.024633
1134.313960	0.024083
1134.470938	0.024591
1134.627898	0.027173
1134.784840	0.024226
1134.941763	0.025995
1135.098668	0.030113
1135.255555	0.029152
1135.412424	0.031612
1135.569274	0.032932
1135.726107	0.027379
1135.882921	0.022766
1136.039716	0.024240
1136.196494	0.024770
1136.353253	0.029584
1136.509995	0.033318
1136.666717	0.037686
1136.823422	0.035527
1136.980109	0.031463
1137.136777	0.029264
1137.293427	0.027551
1137.450059	0.020818
1137.606672	0.020694
1137.763267	0.024103
1137.919844	0.014705
1138.076403	0.010740
1138.232944	0.010420
1138.389466	0.011986
1138.545971	0.015651
1138.702457	0.020171
1138.858924	0.022214
1139.015374	0.021659
1139.171805	0.018910
1139.328218	0.026109
1139.484613	0.029727
1139.640990	0.030689
1139.797348	0.023754
1139.953688	0.022187
1140.110010	0.019087
1140.266314	0.020364
1140.422600	0.014285
1140.578867	0.012581
1140.735116	0.010473
1140.891347	0.005771
1141.047559	0.003768
1141.203754	0.008334
1141.359930	0.010430
1141.516088	0.014853
1141.672228	0.016679
1141.828349	0.023295
1141.984452	0.023944
1142.140537	0.020967
1142.296604	0.020550
1142.452653	0.021978
1142.608683	0.018205
1142.764695	0.014048
1142.920689	0.012344
1143.076665	0.015605
1143.232622	0.017533
1143.388562	0.016106
1143.544483	0.010691
1143.700385	0.013449
1143.856270	0.013191
1144.012136	0.020494
1144.167985	0.025613
1144.323814	0.027100
1144.479626	0.026252
1144.635420	0.023117
1144.791195	0.023602
1144.946952	0.032709
1145.102691	0.032115
1145.258411	0.037075
1145.414113	0.031507
1145.569798	0.035018
1145.725463	0.029012
1145.881111	0.024624
1146.036741	0.024403
1146.192352	0.023995
1146.347945	0.023125
1146.503519	0.023638
1146.659076	0.022392
1146.814614	0.028208
1146.970134	0.020437
1147.125636	0.025676
1147.281120	0.024071
1147.436585	0.022982
1147.592032	0.032825
1147.747461	0.030707
1147.902872	0.029263
1148.058265	0.028236
1148.213639	0.022272
1148.368995	0.026700
1148.524333	0.021710
1148.679653	0.032610
1148.834954	0.032335
1148.990237	0.018956
1149.145502	0.019437
1149.300749	0.020266
1149.455977	0.012153
1149.611188	0.015789
1149.766380	0.014478
1149.921553	0.016924
1150.076709	0.009636
1150.231846	0.012808
1150.386966	0.017118
1150.542066	0.016855
1150.697149	0.018230
1150.852214	0.026720
1151.007260	0.033611
1151.162288	0.037084
1151.317298	0.043220
1151.472289	0.043601
1151.627263	0.039570
1151.782218	0.036052
1151.937155	0.034127
1152.092073	0.030242
1152.246974	0.031417
1152.401856	0.028744
1152.556720	0.025503
1152.711566	0.021783
1152.866393	0.020112
1153.021203	0.023589
1153.175994	0.028261
1153.330767	0.035389
1153.485521	0.035934
1153.640258	0.031011
1153.794976	0.025763
1153.949676	0.029725
1154.104358	0.023840
1154.259021	0.019421
1154.413667	0.017036
1154.568294	0.010410
1154.722903	0.004659
1154.877493	0.007209
1155.032066	0.008964
1155.186620	0.004304
1155.341156	0.000416
1155.495674	-0.001436
1155.650173	0.009100
1155.804654	0.011465
1155.959118	0.017403
1156.113562	0.018645
1156.267989	0.018263
1156.422397	0.017787
1156.576788	0.022509
1156.731160	0.021274
1156.885513	0.023181
1157.039849	0.020532
1157.194166	0.016987
1157.348465	0.011665
1157.502746	0.007868
1157.657009	0.004919
1157.811253	0.000399
1157.965479	0.006450
1158.119687	0.008294
1158.273877	0.010462
1158.428048	0.011684
1158.582201	0.013767
1158.736337	0.013219
1158.890453	0.013931
1159.044552	0.016686
1159.198632	0.023170
1159.352694	0.017726
1159.506738	0.019375
1159.660764	0.025091
1159.814771	0.014306
1159.968761	0.010667
1160.122732	0.013880
1160.276685	0.020109
1160.430619	0.028347
1160.584535	0.022053
1160.738434	0.020401
1160.892313	0.016852
1161.046175	0.011874
1161.200019	0.018059
1161.353844	0.027463
1161.507651	0.032797
1161.661440	0.024773
1161.815210	0.016980
1161.968962	0.024126
1162.122697	0.021167
1162.276412	0.024071
1162.430110	0.019141
1162.583789	0.013380
1162.737451	0.006469
1162.891094	0.006176
1163.044718	0.010812
1163.198325	0.017226
1163.351913	0.013990
1163.505483	0.015771
1163.659035	0.012560
1163.812569	0.012869
1163.966084	0.017781
1164.119581	0.016156
1164.273060	0.015857
1164.426521	0.013866
1164.579964	0.007439
1164.733388	0.005080
1164.886794	0.011580
1165.040182	0.013891
1165.193551	0.017489
1165.346903	0.019554
1165.500236	0.013658
1165.653551	0.008028
1165.806848	0.018288
1165.960126	0.020791
1166.113386	0.024213
1166.266628	0.012451
1166.419852	0.009356
1166.573058	0.009881
1166.726245	0.011123
1166.879414	0.012209
1167.032565	0.011264
1167.185698	0.000580
1167.338812	-0.002160
1167.491909	-0.003090
1167.644987	0.005963
1167.798046	0.008366
1167.951088	0.009826
1168.104111	0.002956
1168.257117	0.004773
1168.410103	0.009652
1168.563072	0.008460
1168.716023	0.006863
1168.868955	0.003003
1169.021869	0.003495
1169.174765	0.006017
1169.327642	0.005437
1169.480501	0.011866
1169.633343	0.016264
1169.786165	0.010924
1169.938970	0.007526
1170.091757	0.002154
1170.244525	0.006409
1170.397275	0.000851
1170.550007	-0.003590
1170.702720	-0.002723
1170.855415	-0.004000
1171.008092	0.001874
1171.160751	0.010320
1171.313392	0.021711
1171.466014	0.014327
1171.618619	0.065990
1171.771205	0.065990
1171.923772	0.065990
