sample name	sample
index	462
start time	 03-11-2021  11:55:36 AM


Wavelength (nm)	Absorbance
494.344910	0.455105
494.563924	0.455105
494.782919	0.455105
495.001897	NaN
495.220856	1.920659
495.439797	NaN
495.658719	0.865859
495.877624	NaN
496.096510	NaN
496.315378	0.824575
496.534227	0.491733
496.753059	0.317974
496.971872	0.224798
497.190667	0.055976
497.409444	0.045160
497.628203	0.047471
497.846943	0.047653
498.065665	0.046346
498.284369	0.045313
498.503055	0.044387
498.721723	0.044560
498.940372	0.045093
499.159003	0.045431
499.377616	0.045270
499.596210	0.045755
499.814787	0.044445
500.033345	0.044138
500.251885	0.044265
500.470406	0.044910
500.688910	0.044321
500.907395	0.044109
501.125862	0.044289
501.344311	0.044673
501.562742	0.043647
501.781154	0.043472
501.999548	0.044665
502.217924	0.045175
502.436282	0.044575
502.654621	0.044980
502.872942	0.045829
503.091245	0.045501
503.309530	0.045891
503.527797	0.045605
503.746045	0.046470
503.964275	0.045557
504.182487	0.045445
504.400681	0.045856
504.618856	0.046062
504.837013	0.045224
505.055152	0.045260
505.273273	0.043844
505.491376	0.044900
505.709460	0.043829
505.927526	0.044522
506.145574	0.045090
506.363604	0.044989
506.581615	0.045323
506.799608	0.045622
507.017583	0.044682
507.235540	0.045300
507.453478	0.044515
507.671399	0.045065
507.889301	0.044971
508.107185	0.043932
508.325050	0.043765
508.542898	0.043300
508.760727	0.042873
508.978538	0.043776
509.196330	0.044372
509.414105	0.043610
509.631861	0.043230
509.849599	0.043454
510.067319	0.044191
510.285021	0.044592
510.502704	0.044440
510.720369	0.044809
510.938016	0.043962
511.155645	0.043630
511.373255	0.044716
511.590848	0.045377
511.808422	0.044899
512.025977	0.044424
512.243515	0.044394
512.461034	0.044492
512.678536	0.044141
512.896018	0.044015
513.113483	0.043846
513.330930	0.043837
513.548358	0.043875
513.765768	0.044207
513.983160	0.044202
514.200533	0.043708
514.417889	0.044094
514.635226	0.043907
514.852545	0.043906
515.069845	0.044638
515.287128	0.044646
515.504392	0.044536
515.721638	0.043974
515.938866	0.043800
516.156075	0.043615
516.373267	0.043415
516.590440	0.043378
516.807594	0.044121
517.024731	0.043593
517.241850	0.043654
517.458950	0.043556
517.676032	0.043877
517.893095	0.044690
518.110141	0.045408
518.327168	0.045305
518.544177	0.045055
518.761168	0.044705
518.978141	0.044255
519.195095	0.043938
519.412031	0.043678
519.628949	0.043576
519.845849	0.042615
520.062731	0.041393
520.279594	0.041113
520.496439	0.041450
520.713266	0.041322
520.930074	0.041363
521.146865	0.041618
521.363637	0.041802
521.580391	0.041004
521.797127	0.041629
522.013844	0.042553
522.230543	0.043057
522.447224	0.042992
522.663887	0.043064
522.880532	0.043276
523.097158	0.043135
523.313766	0.043275
523.530356	0.044240
523.746928	0.043903
523.963481	0.044140
524.180017	0.043707
524.396534	0.044003
524.613032	0.045047
524.829513	0.045277
525.045975	0.045177
525.262420	0.045039
525.478845	0.044485
525.695253	0.044512
525.911643	0.044421
526.128014	0.044371
526.344367	0.044037
526.560702	0.043054
526.777018	0.042949
526.993316	0.042669
527.209597	0.042398
527.425858	0.042346
527.642102	0.043060
527.858328	0.042997
528.074535	0.043441
528.290724	0.043650
528.506894	0.043965
528.723047	0.044042
528.939181	0.044338
529.155297	0.044569
529.371395	0.044990
529.587475	0.044170
529.803536	0.044186
530.019579	0.044421
530.235604	0.044300
530.451611	0.043918
530.667600	0.043859
530.883570	0.043709
531.099522	0.043611
531.315456	0.043524
531.531372	0.043536
531.747269	0.043606
531.963148	0.042939
532.179009	0.042862
532.394852	0.042989
532.610676	0.042688
532.826482	0.043008
533.042271	0.042919
533.258040	0.043087
533.473792	0.043471
533.689525	0.042979
533.905240	0.043519
534.120937	0.043767
534.336616	0.044100
534.552277	0.045056
534.767919	0.045259
534.983543	0.045729
535.199149	0.045478
535.414736	0.045060
535.630306	0.045494
535.845857	0.045596
536.061390	0.045289
536.276904	0.044824
536.492401	0.044272
536.707879	0.044045
536.923339	0.044034
537.138781	0.044306
537.354204	0.044832
537.569610	0.044849
537.784997	0.044651
538.000366	0.045004
538.215716	0.045162
538.431049	0.045288
538.646363	0.045430
538.861659	0.045446
539.076937	0.045299
539.292196	0.045387
539.507438	0.045633
539.722661	0.045520
539.937866	0.045832
540.153052	0.045616
540.368221	0.045658
540.583371	0.045767
540.798503	0.045709
541.013617	0.045676
541.228712	0.045374
541.443789	0.045181
541.658848	0.044883
541.873889	0.044623
542.088912	0.045435
542.303916	0.045266
542.518902	0.044904
542.733870	0.044741
542.948820	0.045080
543.163752	0.045053
543.378665	0.045069
543.593560	0.045321
543.808437	0.045043
544.023295	0.044696
544.238136	0.044748
544.452958	0.044963
544.667762	0.045200
544.882548	0.044500
545.097315	0.044706
545.312064	0.044759
545.526795	0.044858
545.741508	0.045208
545.956203	0.045004
546.170879	0.045080
546.385537	0.045159
546.600177	0.044802
546.814799	0.045327
547.029402	0.045548
547.243988	0.045532
547.458555	0.045478
547.673103	0.045718
547.887634	0.045864
548.102146	0.045531
548.316640	0.045550
548.531116	0.046338
548.745574	0.046571
548.960013	0.046173
549.174435	0.046331
549.388838	0.046344
549.603222	0.046115
549.817589	0.046378
550.031937	0.046812
550.246267	0.046795
550.460579	0.045893
550.674873	0.046201
550.889148	0.046553
551.103405	0.046483
551.317644	0.046505
551.531865	0.046277
551.746068	0.046308
551.960252	0.046096
552.174418	0.045971
552.388566	0.046204
552.602696	0.045460
552.816807	0.045188
553.030900	0.044919
553.244975	0.044843
553.459032	0.044989
553.673070	0.044611
553.887091	0.045227
554.101093	0.045056
554.315077	0.045341
554.529042	0.045315
554.742990	0.045476
554.956919	0.045917
555.170830	0.046112
555.384722	0.046061
555.598597	0.046662
555.812453	0.046484
556.026291	0.046614
556.240111	0.046688
556.453913	0.047112
556.667696	0.047176
556.881461	0.047090
557.095208	0.047317
557.308937	0.047649
557.522647	0.047232
557.736339	0.046876
557.950013	0.046987
558.163669	0.046897
558.377307	0.046519
558.590926	0.046705
558.804527	0.046521
559.018110	0.046166
559.231675	0.046249
559.445221	0.046097
559.658749	0.046364
559.872259	0.046525
560.085751	0.046538
560.299225	0.046712
560.512680	0.046601
560.726117	0.046856
560.939536	0.046960
561.152937	0.046907
561.366319	0.046924
561.579683	0.046910
561.793029	0.047121
562.006357	0.047113
562.219667	0.047608
562.432958	0.047639
562.646231	0.047560
562.859486	0.047664
563.072723	0.047910
563.285941	0.048264
563.499141	0.048208
563.712323	0.047991
563.925487	0.047702
564.138632	0.047504
564.351760	0.047179
564.564869	0.047307
564.777960	0.047117
564.991032	0.046360
565.204087	0.046178
565.417123	0.046163
565.630141	0.046194
565.843140	0.046283
566.056122	0.045960
566.269085	0.046037
566.482030	0.045788
566.694957	0.045897
566.907866	0.046073
567.120756	0.046228
567.333628	0.046204
567.546482	0.046011
567.759318	0.046193
567.972135	0.046171
568.184935	0.046201
568.397716	0.046221
568.610478	0.046058
568.823223	0.046237
569.035949	0.046564
569.248657	0.046199
569.461347	0.046279
569.674019	0.046319
569.886672	0.046622
570.099308	0.046803
570.311925	0.046848
570.524523	0.047113
570.737104	0.047009
570.949666	0.046589
571.162210	0.047120
571.374736	0.046998
571.587244	0.047074
571.799733	0.046827
572.012205	0.046910
572.224658	0.046793
572.437092	0.046902
572.649509	0.047158
572.861907	0.046972
573.074287	0.046778
573.286649	0.047238
573.498993	0.046701
573.711318	0.046771
573.923625	0.046347
574.135914	0.046739
574.348185	0.046595
574.560438	0.046445
574.772672	0.046388
574.984888	0.046337
575.197086	0.046029
575.409266	0.046144
575.621427	0.046117
575.833570	0.046279
576.045695	0.045739
576.257802	0.045826
576.469890	0.045886
576.681961	0.046125
576.894013	0.046111
577.106046	0.046251
577.318062	0.046524
577.530059	0.046776
577.742039	0.046494
577.954000	0.046790
578.165942	0.046684
578.377867	0.046603
578.589773	0.046726
578.801661	0.047115
579.013531	0.047008
579.225382	0.047068
579.437216	0.046946
579.649031	0.047557
579.860828	0.047462
580.072606	0.047195
580.284367	0.047247
580.496109	0.046977
580.707833	0.046755
580.919539	0.046805
581.131227	0.046825
581.342896	0.046917
581.554547	0.046372
581.766180	0.046545
581.977795	0.046794
582.189391	0.046952
582.400969	0.047015
582.612529	0.047025
582.824071	0.047225
583.035595	0.047203
583.247100	0.047328
583.458587	0.047467
583.670056	0.047226
583.881506	0.047219
584.092939	0.047160
584.304353	0.047327
584.515749	0.047295
584.727127	0.047191
584.938486	0.047158
585.149828	0.047082
585.361151	0.047489
585.572456	0.047568
585.783742	0.047570
585.995011	0.047615
586.206261	0.047762
586.417493	0.047898
586.628706	0.047609
586.839902	0.047764
587.051079	0.047627
587.262238	0.047588
587.473379	0.047700
587.684502	0.047723
587.895606	0.047514
588.106692	0.047171
588.317760	0.046853
588.528810	0.046876
588.739841	0.046678
588.950855	0.046265
589.161850	0.046023
589.372827	0.045920
589.583785	0.046079
589.794726	0.046065
590.005648	0.046550
590.216552	0.046942
590.427437	0.047380
590.638305	0.047544
590.849154	0.047640
591.059985	0.047639
591.270798	0.047969
591.481592	0.048062
591.692369	0.048116
591.903127	0.047772
592.113867	0.047584
592.324588	0.047276
592.535292	0.047223
592.745977	0.047580
592.956644	0.047890
593.167293	0.047455
593.377923	0.047299
593.588536	0.047321
593.799130	0.047147
594.009706	0.047129
594.220263	0.047291
594.430803	0.047380
594.641324	0.047251
594.851827	0.047067
595.062312	0.047348
595.272778	0.047197
595.483227	0.047310
595.693657	0.047586
595.904069	0.047377
596.114462	0.047314
596.324838	0.047187
596.535195	0.047170
596.745534	0.047421
596.955855	0.047501
597.166157	0.047902
597.376441	0.048094
597.586707	0.048349
597.796955	0.048641
598.007185	0.048684
598.217396	0.048651
598.427589	0.048901
598.637764	0.048935
598.847921	0.048971
599.058060	0.048665
599.268180	0.048450
599.478282	0.047985
599.688366	0.047899
599.898431	0.047790
600.108479	0.048098
600.318508	0.047984
600.528519	0.048100
600.738511	0.048088
600.948486	0.048173
601.158442	0.048201
601.368380	0.048338
601.578300	0.048658
601.788202	0.048799
601.998085	0.048765
602.207950	0.048851
602.417797	0.048413
602.627626	0.048336
602.837436	0.048347
603.047228	0.048479
603.257002	0.048587
603.466758	0.048447
603.676496	0.048415
603.886215	0.048393
604.095916	0.048532
604.305599	0.048682
604.515264	0.048694
604.724910	0.048647
604.934538	0.048326
605.144148	0.048211
605.353740	0.048150
605.563314	0.048177
605.772869	0.048158
605.982406	0.048071
606.191925	0.048309
606.401425	0.048383
606.610908	0.048319
606.820372	0.048252
607.029818	0.048457
607.239246	0.048241
607.448655	0.048097
607.658047	0.047887
607.867420	0.047691
608.076775	0.047579
608.286111	0.047459
608.495430	0.047580
608.704730	0.047876
608.914012	0.047781
609.123275	0.047703
609.332521	0.047804
609.541748	0.047710
609.750957	0.047906
609.960148	0.047791
610.169321	0.048273
610.378475	0.048402
610.587611	0.048339
610.796729	0.048365
611.005829	0.048573
611.214910	0.048522
611.423974	0.048878
611.633019	0.048954
611.842045	0.049157
612.051054	0.048580
612.260044	0.048811
612.469017	0.048936
612.677970	0.049089
612.886906	0.049295
613.095824	0.049382
613.304723	0.049150
613.513604	0.049066
613.722467	0.048806
613.931311	0.049003
614.140138	0.048794
614.348946	0.048703
614.557736	0.048603
614.766507	0.048446
614.975261	0.048393
615.183996	0.048756
615.392713	0.048762
615.601412	0.049034
615.810092	0.049267
616.018754	0.049306
616.227399	0.049445
616.436024	0.049702
616.644632	0.049891
616.853222	0.050119
617.061793	0.050063
617.270346	0.050441
617.478880	0.050389
617.687397	0.050145
617.895895	0.049990
618.104375	0.049949
618.312837	0.049740
618.521281	0.049719
618.729706	0.049593
618.938113	0.049607
619.146502	0.049266
619.354873	0.049403
619.563226	0.049391
619.771560	0.049415
619.979876	0.049496
620.188174	0.049400
620.396453	0.049469
620.604715	0.049371
620.812958	0.049340
621.021183	0.049454
621.229390	0.049422
621.437578	0.049482
621.645748	0.049382
621.853900	0.049184
622.062034	0.049172
622.270150	0.049225
622.478247	0.049487
622.686326	0.049428
622.894387	0.049363
623.102430	0.049164
623.310454	0.049195
623.518461	0.049282
623.726449	0.049394
623.934418	0.049589
624.142370	0.049291
624.350303	0.049163
624.558218	0.049093
624.766115	0.048975
624.973994	0.049000
625.181855	0.049008
625.389697	0.049179
625.597521	0.049364
625.805327	0.049307
626.013114	0.049532
626.220883	0.049505
626.428634	0.049681
626.636367	0.049959
626.844082	0.049965
627.051778	0.049844
627.259457	0.049873
627.467117	0.049890
627.674758	0.049949
627.882382	0.050030
628.089987	0.049882
628.297574	0.049749
628.505143	0.049668
628.712694	0.049790
628.920226	0.049882
629.127740	0.049958
629.335236	0.049792
629.542714	0.049937
629.750174	0.049816
629.957615	0.050102
630.165038	0.050293
630.372443	0.050361
630.579829	0.050363
630.787198	0.050604
630.994548	0.050666
631.201880	0.050841
631.409194	0.050963
631.616489	0.051132
631.823766	0.051225
632.031025	0.051344
632.238266	0.051466
632.445489	0.051411
632.652693	0.051265
632.859879	0.051241
633.067047	0.050939
633.274197	0.050697
633.481329	0.050609
633.688442	0.050599
633.895537	0.050446
634.102614	0.050175
634.309672	0.050115
634.516713	0.050233
634.723735	0.050363
634.930739	0.050525
635.137724	0.050478
635.344692	0.050398
635.551641	0.050390
635.758572	0.050337
635.965485	0.050542
636.172379	0.050537
636.379256	0.050596
636.586114	0.050352
636.792954	0.050297
636.999775	0.050370
637.206579	0.050481
637.413364	0.050828
637.620131	0.051073
637.826880	0.051106
638.033610	0.051200
638.240323	0.050926
638.447017	0.050947
638.653692	0.051079
638.860350	0.051093
639.066990	0.051221
639.273611	0.050817
639.480214	0.050775
639.686798	0.050851
639.893365	0.050977
640.099913	0.051037
640.306443	0.050923
640.512955	0.050989
640.719449	0.051057
640.925924	0.050846
641.132381	0.050924
641.338820	0.050812
641.545241	0.050648
641.751644	0.050721
641.958028	0.050679
642.164394	0.051126
642.370742	0.051341
642.577071	0.051302
642.783383	0.051366
642.989676	0.051380
643.195951	0.051376
643.402207	0.051400
643.608446	0.051195
643.814666	0.051465
644.020868	0.051233
644.227052	0.051162
644.433218	0.051242
644.639365	0.051331
644.845494	0.051340
645.051605	0.051209
645.257698	0.051197
645.463772	0.051191
645.669828	0.051061
645.875866	0.050994
646.081886	0.051013
646.287888	0.051098
646.493871	0.051046
646.699836	0.051084
646.905783	0.051162
647.111712	0.051172
647.317622	0.051214
647.523514	0.051356
647.729388	0.051363
647.935244	0.051148
648.141082	0.051084
648.346901	0.051177
648.552702	0.051229
648.758485	0.051518
648.964250	0.051506
649.169996	0.051635
649.375724	0.051595
649.581434	0.051779
649.787126	0.051943
649.992800	0.051990
650.198455	0.051862
650.404092	0.051667
650.609711	0.051604
650.815311	0.051692
651.020894	0.051600
651.226458	0.051472
651.432004	0.051385
651.637532	0.051397
651.843041	0.051316
652.048532	0.051207
652.254006	0.051356
652.459460	0.051294
652.664897	0.051257
652.870315	0.051227
653.075716	0.051405
653.281097	0.051360
653.486461	0.051433
653.691807	0.051499
653.897134	0.051723
654.102443	0.051782
654.307734	0.051776
654.513006	0.051901
654.718261	0.052034
654.923497	0.051960
655.128715	0.052092
655.333915	0.051881
655.539096	0.051981
655.744259	0.051896
655.949404	0.051785
656.154531	0.051727
656.359640	0.051770
656.564730	0.051746
656.769802	0.051763
656.974856	0.051585
657.179892	0.051632
657.384909	0.051493
657.589908	0.051521
657.794889	0.051635
657.999852	0.051635
658.204797	0.051545
658.409723	0.051528
658.614631	0.051644
658.819521	0.051715
659.024393	0.051755
659.229246	0.051878
659.434081	0.052045
659.638898	0.051897
659.843697	0.052000
660.048478	0.052080
660.253240	0.052258
660.457984	0.052266
660.662710	0.052319
660.867417	0.052264
661.072107	0.052210
661.276778	0.051966
661.481431	0.052139
661.686066	0.052166
661.890682	0.052154
662.095281	0.052165
662.299861	0.052036
662.504422	0.052116
662.708966	0.052250
662.913491	0.052458
663.117999	0.052614
663.322488	0.052565
663.526958	0.052642
663.731411	0.052652
663.935845	0.052632
664.140261	0.052746
664.344659	0.052861
664.549038	0.052827
664.753400	0.052612
664.957743	0.052570
665.162068	0.052579
665.366375	0.052348
665.570663	0.052311
665.774933	0.052325
665.979185	0.052391
666.183419	0.052144
666.387635	0.052227
666.591832	0.052304
666.796011	0.052665
667.000172	0.052770
667.204315	0.053105
667.408439	0.053160
667.612545	0.053076
667.816634	0.052936
668.020703	0.053152
668.224755	0.053185
668.428788	0.053086
668.632803	0.052914
668.836800	0.052847
669.040779	0.052726
669.244739	0.052727
669.448681	0.052859
669.652605	0.052897
669.856511	0.052804
670.060399	0.052930
670.264268	0.053039
670.468119	0.053012
670.671952	0.053142
670.875767	0.053043
671.079563	0.053116
671.283341	0.053130
671.487101	0.053061
671.690843	0.053205
671.894567	0.053007
672.098272	0.053012
672.301959	0.053043
672.505628	0.052923
672.709278	0.052965
672.912911	0.052827
673.116525	0.052661
673.320121	0.052805
673.523699	0.052753
673.727258	0.052709
673.930799	0.052741
674.134322	0.052772
674.337827	0.052774
674.541314	0.052917
674.744782	0.052908
674.948232	0.053091
675.151664	0.053071
675.355078	0.053270
675.558474	0.053577
675.761851	0.053545
675.965210	0.053460
676.168551	0.053481
676.371873	0.053510
676.575178	0.053722
676.778464	0.053875
676.981732	0.054034
677.184981	0.053883
677.388213	0.053845
677.591426	0.053967
677.794621	0.054062
677.997798	0.054239
678.200956	0.054062
678.404097	0.053989
678.607219	0.053862
678.810323	0.053762
679.013408	0.053669
679.216476	0.053601
679.419525	0.053445
679.622556	0.053479
679.825569	0.053412
680.028563	0.053538
680.231540	0.053603
680.434498	0.053538
680.637438	0.053747
680.840359	0.053753
681.043263	0.053723
681.246148	0.053729
681.449015	0.053883
681.651864	0.053908
681.854694	0.054003
682.057506	0.054002
682.260301	0.053991
682.463076	0.053844
682.665834	0.053977
682.868573	0.054073
683.071295	0.054109
683.273998	0.054011
683.476682	0.054021
683.679349	0.054028
683.881997	0.054120
684.084627	0.054319
684.287239	0.054407
684.489833	0.054503
684.692408	0.054472
684.894965	0.054576
685.097504	0.054698
685.300025	0.054835
685.502527	0.054862
685.705012	0.054833
685.907478	0.054796
686.109925	0.054734
686.312355	0.054565
686.514766	0.054709
686.717159	0.054769
686.919534	0.054769
687.121891	0.054734
687.324230	0.054753
687.526550	0.054782
687.728852	0.054687
687.931136	0.054786
688.133401	0.055006
688.335649	0.054764
688.537878	0.054636
688.740089	0.054575
688.942281	0.054431
689.144456	0.054184
689.346612	0.053973
689.548750	0.054025
689.750870	0.053949
689.952971	0.053702
690.155055	0.053817
690.357120	0.053867
690.559167	0.053842
690.761195	0.053918
690.963206	0.054105
691.165198	0.054185
691.367172	0.054102
691.569128	0.054065
691.771065	0.054122
691.972984	0.054086
692.174885	0.054126
692.376768	0.054158
692.578633	0.054012
692.780479	0.053951
692.982308	0.054093
693.184118	0.054163
693.385909	0.054222
693.587683	0.054433
693.789438	0.054516
693.991175	0.054498
694.192894	0.054454
694.394595	0.054520
694.596277	0.054504
694.797941	0.054450
694.999587	0.054387
695.201215	0.054429
695.402824	0.054295
695.604416	0.054303
695.805989	0.054397
696.007543	0.054540
696.209080	0.054626
696.410598	0.054790
696.612099	0.054750
696.813580	0.054857
697.015044	0.054927
697.216490	0.054967
697.417917	0.054985
697.619326	0.054945
697.820717	0.054914
698.022089	0.055003
698.223444	0.055087
698.424780	0.055299
698.626098	0.055376
698.827397	0.055467
699.028679	0.055610
699.229942	0.055613
699.431187	0.055519
699.632414	0.055627
699.833622	0.055628
700.034813	0.055566
700.235985	0.055469
700.437139	0.055624
700.638274	0.055593
700.839392	0.055559
701.040491	0.055701
701.241572	0.055855
701.442635	0.055592
701.643679	0.055504
701.844706	0.055593
702.045714	0.055592
702.246704	0.055459
702.447675	0.055513
702.648629	0.055463
702.849564	0.055587
703.050481	0.055758
703.251380	0.056119
703.452260	0.056172
703.653122	0.056243
703.853966	0.056309
704.054792	0.056301
704.255600	0.056153
704.456389	0.056160
704.657160	0.055898
704.857913	0.055752
705.058648	0.055465
705.259365	0.055682
705.460063	0.055526
705.660743	0.055457
705.861405	0.055483
706.062048	0.055623
706.262674	0.055455
706.463281	0.055345
706.663870	0.055274
706.864441	0.055384
707.064993	0.055266
707.265527	0.055325
707.466043	0.055521
707.666541	0.055442
707.867021	0.055344
708.067482	0.055580
708.267925	0.055709
708.468350	0.055821
708.668757	0.055744
708.869145	0.055730
709.069516	0.055654
709.269868	0.055458
709.470201	0.055521
709.670517	0.055580
709.870814	0.055404
710.071093	0.055445
710.271354	0.055443
710.471597	0.055430
710.671821	0.055499
710.872028	0.055551
711.072216	0.055501
711.272385	0.055548
711.472537	0.055622
711.672670	0.055724
711.872785	0.055897
712.072882	0.055963
712.272961	0.055927
712.473021	0.055712
712.673063	0.055790
712.873087	0.055914
713.073093	0.055819
713.273081	0.055570
713.473050	0.055536
713.673001	0.055368
713.872934	0.055286
714.072849	0.055369
714.272745	0.055426
714.472623	0.055330
714.672483	0.055393
714.872325	0.055348
715.072148	0.055487
715.271954	0.055604
715.471741	0.055604
715.671509	0.055462
715.871260	0.055439
716.070992	0.055555
716.270707	0.055484
716.470403	0.055315
716.670080	0.055228
716.869740	0.055232
717.069381	0.055153
717.269004	0.054997
717.468609	0.055047
717.668195	0.055098
717.867764	0.055004
718.067314	0.055099
718.266846	0.055112
718.466360	0.055285
718.665855	0.055209
718.865332	0.055145
719.064791	0.055196
719.264232	0.055243
719.463655	0.055262
719.663059	0.055196
719.862445	0.055259
720.061813	0.055351
720.261163	0.055465
720.460494	0.055508
720.659807	0.055496
720.859102	0.055548
721.058379	0.055576
721.257638	0.055574
721.456878	0.055726
721.656100	0.055559
721.855304	0.055494
722.054490	0.055306
722.253657	0.055309
722.452806	0.055370
722.651937	0.055340
722.851050	0.055359
723.050145	0.055210
723.249221	0.055021
723.448279	0.054886
723.647319	0.054783
723.846340	0.054888
724.045344	0.054742
724.244329	0.054780
724.443296	0.054784
724.642245	0.054622
724.841175	0.054788
725.040088	0.054944
725.238982	0.055160
725.437857	0.055206
725.636715	0.054993
725.835554	0.055026
726.034376	0.054960
726.233179	0.054896
726.431963	0.054742
726.630730	0.054643
726.829478	0.054470
727.028208	0.054387
727.226920	0.054304
727.425614	0.054485
727.624289	0.054542
727.822946	0.054556
728.021585	0.054638
728.220206	0.054770
728.418808	0.054759
728.617392	0.054909
728.815958	0.054886
729.014506	0.054850
729.213036	0.054920
729.411547	0.054917
729.610040	0.054977
729.808515	0.055049
730.006972	0.055157
730.205410	0.055101
730.403831	0.055126
730.602233	0.055177
730.800616	0.055335
730.998982	0.055104
731.197329	0.055103
731.395658	0.054990
731.593969	0.054791
731.792262	0.054951
731.990536	0.054952
732.188793	0.054949
732.387031	0.054979
732.585250	0.054976
732.783452	0.055116
732.981635	0.055076
733.179800	0.055048
733.377947	0.055115
733.576076	0.054839
733.774186	0.054859
733.972278	0.054588
734.170352	0.054580
734.368408	0.054502
734.566446	0.054362
734.764465	0.054286
734.962466	0.054103
735.160449	0.054225
735.358413	0.054253
735.556360	0.054170
735.754288	0.054283
735.952198	0.054334
736.150090	0.054275
736.347963	0.054295
736.545818	0.054279
736.743655	0.054266
736.941474	0.054218
737.139275	0.054226
737.337057	0.054393
737.534821	0.054412
737.732567	0.054148
737.930295	0.054255
738.128005	0.054138
738.325696	0.054244
738.523369	0.054481
738.721024	0.054340
738.918660	0.054124
739.116279	0.053963
739.313879	0.053837
739.511461	0.054064
739.709024	0.053863
739.906570	0.053837
740.104097	0.053567
740.301606	0.053411
740.499097	0.053304
740.696569	0.053445
740.894024	0.053516
741.091460	0.053399
741.288878	0.053076
741.486277	0.053044
741.683659	0.053244
741.881022	0.053369
742.078367	0.053448
742.275694	0.053598
742.473002	0.053562
742.670293	0.053438
742.867565	0.053489
743.064819	0.053567
743.262054	0.053621
743.459272	0.053466
743.656471	0.053343
743.853652	0.053323
744.050815	0.053364
744.247959	0.053312
744.445085	0.053328
744.642194	0.053305
744.839283	0.053393
745.036355	0.053534
745.233408	0.053597
745.430444	0.053735
745.627461	0.053721
745.824459	0.053737
746.021440	0.053735
746.218402	0.053887
746.415346	0.054087
746.612272	0.054271
746.809180	0.054317
747.006069	0.054503
747.202940	0.054397
747.399793	0.054346
747.596628	0.054313
747.793444	0.054555
747.990243	0.054428
748.187023	0.054309
748.383784	0.054137
748.580528	0.053958
748.777253	0.053794
748.973960	0.053870
749.170649	0.053843
749.367320	0.053693
749.563973	0.053566
749.760607	0.053487
749.957223	0.053455
750.153821	0.053440
750.350400	0.053337
750.546962	0.053175
750.743505	0.053131
750.940030	0.053250
751.136536	0.053439
751.333025	0.053591
751.529495	0.053726
751.725947	0.053793
751.922381	0.053603
752.118796	0.053728
752.315194	0.053878
752.511573	0.054032
752.707934	0.054032
752.904276	0.053820
753.100601	0.053635
753.296907	0.053607
753.493195	0.053657
753.689465	0.053930
753.885716	0.054027
754.081949	0.054032
754.278164	0.054026
754.474361	0.054045
754.670540	0.054215
754.866700	0.054423
755.062843	0.054536
755.258967	0.054652
755.455072	0.054505
755.651160	0.054448
755.847229	0.054500
756.043280	0.054348
756.239313	0.054241
756.435328	0.054292
756.631324	0.054012
756.827302	0.053861
757.023262	0.053734
757.219204	0.053824
757.415127	0.053919
757.611033	0.053851
757.806920	0.054021
758.002788	0.053956
758.198639	0.053747
758.394471	0.053917
758.590286	0.053642
758.786081	0.053790
758.981859	0.053736
759.177619	0.053644
759.373360	0.053493
759.569083	0.053433
759.764788	0.053677
759.960474	0.053608
760.156143	0.053603
760.351793	0.053916
760.547425	0.053594
760.743038	0.053712
760.938634	0.053714
761.134211	0.054019
761.329770	0.054125
761.525311	0.053981
761.720833	0.054262
761.916338	0.054366
762.111824	0.054449
762.307292	0.054600
762.502741	0.054596
762.698173	0.054668
762.893586	0.054540
763.088981	0.054425
763.284358	0.054344
763.479716	0.054130
763.675057	0.053946
763.870379	0.053731
764.065683	0.053748
764.260968	0.053461
764.456236	0.053354
764.651485	0.053261
764.846716	0.053232
765.041929	0.053353
765.237123	0.053419
765.432299	0.053318
765.627457	0.053061
765.822597	0.052796
766.017719	0.052998
766.212822	0.052978
766.407907	0.052803
766.602974	0.052834
766.798023	0.052938
766.993054	0.052706
767.188066	0.052663
767.383060	0.052947
767.578036	0.053145
767.772993	0.053103
767.967933	0.053028
768.162854	0.053205
768.357757	0.053133
768.552642	0.052999
768.747508	0.053171
768.942356	0.053373
769.137186	0.053275
769.331998	0.053382
769.526792	0.053410
769.721567	0.053409
769.916324	0.053490
770.111063	0.053637
770.305784	0.053659
770.500486	0.053609
770.695171	0.053572
770.889837	0.053779
771.084484	0.053753
771.279114	0.053805
771.473725	0.054110
771.668318	0.054114
771.862893	0.054004
772.057450	0.053957
772.251988	0.054188
772.446509	0.054143
772.641011	0.053998
772.835494	0.053811
773.029960	0.053909
773.224407	0.053683
773.418836	0.053639
773.613247	0.053619
773.807640	0.053452
774.002014	0.053280
774.196370	0.053334
774.390708	0.053239
774.585028	0.053196
774.779330	0.052939
774.973613	0.052845
775.167878	0.052782
775.362125	0.052629
775.556354	0.052757
775.750564	0.052725
775.944756	0.052611
776.138930	0.052521
776.333086	0.052482
776.527223	0.052332
776.721343	0.052243
776.915444	0.052144
777.109526	0.052220
777.303591	0.052107
777.497637	0.052314
777.691666	0.052424
777.885676	0.052612
778.079667	0.052716
778.273641	0.052777
778.467596	0.053030
778.661533	0.053189
778.855452	0.053216
779.049352	0.053378
779.243235	0.053241
779.437099	0.053254
779.630945	0.053252
779.824773	0.053240
780.018582	0.053281
780.212373	0.053185
780.406146	0.053083
780.599901	0.053040
780.793638	0.053250
780.987356	0.053375
781.181056	0.053427
781.374738	0.053456
781.568402	0.053688
781.762047	0.053912
781.955674	0.054117
782.149283	0.054092
782.342874	0.054081
782.536447	0.053644
782.730001	0.053514
782.923537	0.053373
783.117055	0.053316
783.310555	0.053150
783.504036	0.052986
783.697499	0.052834
783.890944	0.052792
784.084371	0.052882
784.277780	0.052958
784.471170	0.052983
784.664542	0.052952
784.857896	0.052971
785.051231	0.052955
785.244549	0.052961
785.437848	0.053045
785.631129	0.053247
785.824392	0.053293
786.017636	0.053411
786.210863	0.053450
786.404071	0.053468
786.597260	0.053581
786.790432	0.053591
786.983585	0.053572
787.176721	0.053499
787.369838	0.053262
787.562936	0.053290
787.756017	0.053212
787.949079	0.053120
788.142123	0.053134
788.335149	0.053036
788.528156	0.053028
788.721146	0.053038
788.914117	0.053044
789.107070	0.053123
789.300005	0.053017
789.492921	0.053188
789.685819	0.053297
789.878699	0.053310
790.071561	0.053424
790.264405	0.053565
790.457230	0.053779
790.650037	0.053729
790.842826	0.053936
791.035597	0.053988
791.228349	0.053976
791.421084	0.053781
791.613800	0.053735
791.806497	0.053694
791.999177	0.053554
792.191838	0.053456
792.384481	0.053400
792.577106	0.053316
792.769713	0.053351
792.962301	0.053372
793.154871	0.053454
793.347423	0.053573
793.539957	0.053449
793.732473	0.053584
793.924970	0.053400
794.117449	0.053418
794.309910	0.053362
794.502353	0.053311
794.694777	0.053128
794.887183	0.053053
795.079571	0.052819
795.271941	0.052822
795.464293	0.052430
795.656626	0.052261
795.848941	0.052301
796.041238	0.052258
796.233516	0.052332
796.425777	0.052453
796.618019	0.052583
796.810243	0.052858
797.002449	0.052852
797.194636	0.053247
797.386805	0.053530
797.578956	0.053391
797.771089	0.053382
797.963204	0.053394
798.155300	0.053396
798.347378	0.053252
798.539438	0.053045
798.731480	0.053103
798.923503	0.052927
799.115509	0.052839
799.307496	0.053084
799.499465	0.053191
799.691415	0.052962
799.883348	0.052866
800.075262	0.052924
800.267158	0.052902
800.459035	0.052896
800.650895	0.052913
800.842736	0.052936
801.034559	0.052835
801.226364	0.052970
801.418150	0.053029
801.609919	0.053011
801.801669	0.053170
801.993401	0.053348
802.185114	0.053361
802.376810	0.053516
802.568487	0.053690
802.760146	0.053775
802.951787	0.053723
803.143409	0.053904
803.335014	0.053989
803.526600	0.053975
803.718168	0.054021
803.909717	0.054104
804.101249	0.053973
804.292762	0.054071
804.484257	0.054105
804.675734	0.054155
804.867192	0.054094
805.058632	0.053904
805.250054	0.054076
805.441458	0.054013
805.632844	0.054033
805.824211	0.054269
806.015561	0.054410
806.206891	0.054428
806.398204	0.054443
806.589499	0.054502
806.780775	0.054786
806.972033	0.054671
807.163273	0.054678
807.354495	0.054927
807.545698	0.054642
807.736883	0.054521
807.928050	0.054570
808.119199	0.054491
808.310329	0.054778
808.501441	0.054970
808.692535	0.054859
808.883611	0.055049
809.074669	0.055054
809.265708	0.055476
809.456729	0.055647
809.647732	0.055787
809.838717	0.056037
810.029683	0.056090
810.220632	0.055982
810.411562	0.056222
810.602474	0.056369
810.793367	0.056394
810.984242	0.056397
811.175100	0.056298
811.365938	0.056311
811.556759	0.056231
811.747562	0.055921
811.938346	0.055910
812.129112	0.055902
812.319860	0.055735
812.510589	0.055773
812.701300	0.055802
812.891994	0.055767
813.082668	0.055762
813.273325	0.055803
813.463964	0.055888
813.654584	0.056093
813.845186	0.055955
814.035769	0.056018
814.226335	0.055983
814.416882	0.055718
814.607411	0.055735
814.797922	0.055886
814.988415	0.055782
815.178889	0.055865
815.369345	0.055738
815.559783	0.055871
815.750203	0.055833
815.940605	0.055686
816.130988	0.055962
816.321353	0.055905
816.511700	0.055603
816.702028	0.055710
816.892339	0.055917
817.082631	0.055871
817.272905	0.055800
817.463161	0.055965
817.653398	0.055980
817.843617	0.055898
818.033819	0.055902
818.224001	0.055966
818.414166	0.055987
818.604312	0.055727
818.794440	0.055939
818.984550	0.055927
819.174642	0.055538
819.364716	0.055424
819.554771	0.055337
819.744808	0.055444
819.934827	0.055493
820.124827	0.055407
820.314810	0.055297
820.504774	0.055282
820.694720	0.055225
820.884647	0.055598
821.074557	0.055700
821.264448	0.055978
821.454321	0.056069
821.644176	0.056027
821.834012	0.056078
822.023831	0.056235
822.213631	0.055942
822.403413	0.056206
822.593176	0.056062
822.782922	0.056103
822.972649	0.055898
823.162358	0.055810
823.352049	0.055704
823.541721	0.055683
823.731376	0.055673
823.921012	0.055803
824.110629	0.055732
824.300229	0.055885
824.489811	0.055985
824.679374	0.055933
824.868919	0.055850
825.058445	0.056112
825.247954	0.056142
825.437444	0.056134
825.626916	0.056098
825.816370	0.055995
826.005806	0.056104
826.195223	0.056246
826.384622	0.056490
826.574003	0.056593
826.763366	0.056543
826.952711	0.056646
827.142037	0.056749
827.331345	0.056940
827.520635	0.057034
827.709906	0.056895
827.899160	0.056707
828.088395	0.056864
828.277612	0.056961
828.466810	0.057101
828.655991	0.057207
828.845153	0.057478
829.034297	0.057460
829.223423	0.057530
829.412531	0.057383
829.601620	0.057682
829.790691	0.057468
829.979744	0.057395
830.168779	0.057140
830.357795	0.056971
830.546793	0.056845
830.735773	0.056859
830.924735	0.056974
831.113679	0.056929
831.302604	0.056650
831.491511	0.056814
831.680400	0.056936
831.869271	0.057159
832.058123	0.057176
832.246957	0.057055
832.435773	0.057137
832.624571	0.057163
832.813351	0.057373
833.002112	0.057578
833.190855	0.057442
833.379580	0.057565
833.568287	0.057502
833.756975	0.057608
833.945645	0.057644
834.134297	0.057695
834.322931	0.057714
834.511547	0.057755
834.700144	0.057846
834.888723	0.057906
835.077284	0.058061
835.265826	0.058329
835.454351	0.058401
835.642857	0.058364
835.831345	0.058520
836.019815	0.058565
836.208266	0.058786
836.396699	0.058758
836.585114	0.058973
836.773511	0.058681
836.961890	0.058610
837.150250	0.058691
837.338592	0.059025
837.526916	0.058953
837.715222	0.058991
837.903510	0.059048
838.091779	0.059220
838.280030	0.059039
838.468263	0.059329
838.656477	0.059472
838.844674	0.059654
839.032852	0.059553
839.221012	0.059771
839.409153	0.059669
839.597277	0.059726
839.785382	0.059629
839.973469	0.059830
840.161538	0.059636
840.349589	0.059697
840.537621	0.059483
840.725635	0.059755
840.913631	0.059657
841.101609	0.059833
841.289568	0.059877
841.477509	0.059996
841.665432	0.060095
841.853337	0.060334
842.041224	0.060320
842.229092	0.060345
842.416942	0.060362
842.604774	0.060332
842.792588	0.060387
842.980383	0.060561
843.168160	0.060522
843.355919	0.060448
843.543660	0.060248
843.731382	0.060264
843.919087	0.060485
844.106773	0.060486
844.294441	0.060605
844.482090	0.060480
844.669722	0.060336
844.857335	0.060630
845.044930	0.060687
845.232507	0.060893
845.420065	0.061013
845.607605	0.061025
845.795127	0.061050
845.982631	0.061069
846.170117	0.061439
846.357584	0.061562
846.545033	0.061455
846.732464	0.061570
846.919877	0.061535
847.107272	0.061750
847.294648	0.061809
847.482006	0.061721
847.669346	0.061913
847.856667	0.061981
848.043971	0.062317
848.231256	0.062318
848.418523	0.062495
848.605771	0.062805
848.793002	0.062764
848.980214	0.062683
849.167408	0.062949
849.354584	0.062865
849.541742	0.063001
849.728881	0.062777
849.916002	0.062858
850.103105	0.062984
850.290190	0.063157
850.477256	0.063447
850.664304	0.063790
850.851334	0.063537
851.038346	0.063663
851.225340	0.063580
851.412315	0.063608
851.599272	0.063787
851.786211	0.063667
851.973132	0.063416
852.160034	0.063184
852.346918	0.063101
852.533784	0.063575
852.720632	0.063597
852.907462	0.063547
853.094273	0.063736
853.281066	0.063723
853.467841	0.064002
853.654598	0.063971
853.841336	0.064108
854.028056	0.064378
854.214758	0.064407
854.401442	0.064513
854.588107	0.064698
854.774755	0.064579
854.961384	0.064726
855.147995	0.064674
855.334587	0.065034
855.521162	0.065409
855.707718	0.065684
855.894256	0.065745
856.080775	0.065673
856.267277	0.065583
856.453760	0.065853
856.640225	0.066074
856.826672	0.065858
857.013101	0.065747
857.199511	0.065582
857.385903	0.065366
857.572277	0.065446
857.758633	0.065691
857.944970	0.065735
858.131290	0.065729
858.317591	0.065549
858.503873	0.065895
858.690138	0.065974
858.876384	0.065722
859.062612	0.065713
859.248822	0.065692
859.435014	0.065746
859.621188	0.065934
859.807343	0.066068
859.993480	0.066183
860.179599	0.066176
860.365699	0.066525
860.551781	0.066697
860.737846	0.066618
860.923891	0.066847
861.109919	0.066960
861.295929	0.067139
861.481920	0.067018
861.667893	0.066794
861.853848	0.066782
862.039784	0.066387
862.225702	0.066672
862.411603	0.066834
862.597484	0.066726
862.783348	0.066637
862.969193	0.066646
863.155021	0.066925
863.340830	0.067218
863.526620	0.067290
863.712393	0.067597
863.898147	0.067387
864.083883	0.067249
864.269601	0.067284
864.455301	0.067464
864.640982	0.067256
864.826645	0.067162
865.012290	0.067091
865.197917	0.067300
865.383526	0.067323
865.569116	0.067491
865.754688	0.067784
865.940242	0.067687
866.125777	0.067651
866.311295	0.067737
866.496794	0.067798
866.682275	0.067891
866.867737	0.067794
867.053182	0.067853
867.238608	0.067792
867.424016	0.067942
867.609406	0.068081
867.794778	0.068313
867.980131	0.068327
868.165466	0.068263
868.350783	0.068238
868.536082	0.068130
868.721362	0.068364
868.906625	0.068349
869.091869	0.068227
869.277094	0.068113
869.462302	0.068019
869.647491	0.068555
869.832662	0.068750
870.017815	0.068809
870.202950	0.068886
870.388066	0.068631
870.573165	0.069024
870.758245	0.069194
870.943306	0.069253
871.128350	0.068871
871.313375	0.068714
871.498382	0.068441
871.683371	0.068512
871.868342	0.068754
872.053294	0.068837
872.238229	0.068507
872.423144	0.068546
872.608042	0.068598
872.792922	0.068877
872.977783	0.068676
873.162626	0.068555
873.347451	0.068629
873.532258	0.068720
873.717046	0.068466
873.901816	0.068621
874.086568	0.068557
874.271302	0.068530
874.456017	0.068634
874.640715	0.068627
874.825394	0.068793
875.010055	0.068708
875.194697	0.068484
875.379322	0.068636
875.563928	0.068529
875.748516	0.068008
875.933085	0.067929
876.117637	0.067817
876.302170	0.067564
876.486685	0.067625
876.671182	0.067511
876.855661	0.067522
877.040121	0.067668
877.224563	0.067692
877.408987	0.068172
877.593393	0.068479
877.777780	0.068905
877.962150	0.069142
878.146501	0.069079
878.330833	0.069220
878.515148	0.069063
878.699444	0.069117
878.883722	0.069052
879.067982	0.068949
879.252224	0.068729
879.436447	0.068459
879.620653	0.068740
879.804840	0.069412
879.989008	0.069437
880.173159	0.069748
880.357291	0.069670
880.541405	0.069786
880.725501	0.069727
880.909579	0.069994
881.093638	0.070045
881.277680	0.069867
881.461703	0.069303
881.645707	0.069498
881.829694	0.069311
882.013662	0.069650
882.197612	0.069663
882.381544	0.069990
882.565458	0.069886
882.749353	0.069913
882.933230	0.069936
883.117089	0.070008
883.300930	0.069776
883.484753	0.069822
883.668557	0.069553
883.852343	0.069445
884.036111	0.069414
884.219861	0.069416
884.403592	0.069284
884.587305	0.069491
884.771000	0.069572
884.954677	0.069827
885.138335	0.070150
885.321976	0.070082
885.505598	0.070271
885.689201	0.070570
885.872787	0.070712
886.056354	0.070794
886.239904	0.070661
886.423434	0.070954
886.606947	0.070954
886.790442	0.070973
886.973918	0.071136
887.157376	0.071066
887.340816	0.070760
887.524237	0.070562
887.707641	0.070419
887.891026	0.070559
888.074393	0.070458
888.257741	0.070308
888.441072	0.070164
888.624384	0.070028
888.807678	0.069953
888.990954	0.070058
889.174211	0.070034
889.357451	0.070029
889.540672	0.070049
889.723875	0.069629
889.907059	0.069745
890.090226	0.069642
890.273374	0.069824
890.456504	0.069800
890.639616	0.069593
890.822709	0.069493
891.005785	0.069594
891.188842	0.069476
891.371881	0.069797
891.554901	0.070066
891.737904	0.070045
891.920888	0.069818
892.103854	0.069942
892.286802	0.069949
892.469731	0.070204
892.652643	0.070403
892.835536	0.070298
893.018410	0.069937
893.201267	0.069143
893.384106	0.069047
893.566926	0.069084
893.749728	0.069088
893.932511	0.069031
894.115277	0.068810
894.298024	0.068660
894.480753	0.068554
894.663464	0.068777
894.846157	0.069196
895.028831	0.069089
895.211487	0.069237
895.394125	0.068963
895.576745	0.068897
895.759346	0.069026
895.941930	0.068642
896.124495	0.068576
896.307041	0.068477
896.489570	0.068392
896.672080	0.068266
896.854573	0.068032
897.037046	0.068178
897.219502	0.068076
897.401940	0.067891
897.584359	0.068495
897.766760	0.068606
897.949143	0.068781
898.131507	0.068479
898.313854	0.068741
898.496182	0.068768
898.678492	0.068752
898.860783	0.069017
899.043057	0.069043
899.225312	0.068628
899.407549	0.068399
899.589768	0.068231
899.771968	0.068359
899.954151	0.068226
900.136315	0.067976
900.318461	0.067814
900.500588	0.067751
900.682698	0.067745
900.864789	0.067669
901.046862	0.067586
901.228917	0.067403
901.410953	0.067581
901.592971	0.067634
901.774972	0.067792
901.956953	0.068036
902.138917	0.067850
902.320862	0.067494
902.502790	0.067382
902.684699	0.067100
902.866589	0.067090
903.048462	0.066844
903.230316	0.066860
903.412152	0.066242
903.593970	0.066052
903.775770	0.066026
903.957551	0.066218
904.139314	0.066487
904.321059	0.066752
904.502786	0.066757
904.684494	0.066836
904.866185	0.066137
905.047857	0.066454
905.229510	0.066055
905.411146	0.066045
905.592763	0.065732
905.774363	0.065341
905.955943	0.065639
906.137506	0.065524
906.319051	0.065321
906.500577	0.065330
906.682085	0.065132
906.863575	0.065084
907.045046	0.064788
907.226500	0.064944
907.407935	0.064634
907.589352	0.064264
907.770750	0.063889
907.952131	0.063860
908.133493	0.064242
908.314837	0.064168
908.496163	0.064586
908.677470	0.064775
908.858760	0.064616
909.040031	0.064509
909.221284	0.064406
909.402518	0.064428
909.583735	0.064467
909.764933	0.064066
909.946113	0.064099
910.127275	0.063621
910.308418	0.063513
910.489544	0.063282
910.670651	0.063600
910.851740	0.063654
911.032810	0.063681
911.213863	0.063340
911.394897	0.063432
911.575913	0.063488
911.756911	0.063473
911.937890	0.063183
912.118851	0.063346
912.299794	0.063179
912.480719	0.062775
912.661626	0.062431
912.842514	0.062308
913.023384	0.062360
913.204236	0.061963
913.385070	0.061820
913.565886	0.061785
913.746683	0.061723
913.927462	0.061618
914.108223	0.061668
914.288965	0.061940
914.469690	0.061821
914.650396	0.061567
914.831084	0.061540
915.011754	0.061284
915.192405	0.061123
915.373038	0.061076
915.553653	0.060828
915.734250	0.060553
915.914829	0.060452
916.095389	0.060718
916.275931	0.060531
916.456455	0.060273
916.636961	0.060028
916.817448	0.059651
916.997917	0.059312
917.178368	0.059158
917.358801	0.059045
917.539216	0.058990
917.719612	0.058482
917.899990	0.058432
918.080350	0.058214
918.260692	0.058015
918.441015	0.058070
918.621320	0.058146
918.801607	0.058070
918.981876	0.057965
919.162127	0.057799
919.342359	0.057462
919.522573	0.057456
919.702769	0.057723
919.882947	0.057775
920.063106	0.057696
920.243247	0.057433
920.423370	0.057391
920.603475	0.057495
920.783562	0.057097
920.963630	0.057135
921.143680	0.056579
921.323712	0.056835
921.503725	0.056883
921.683721	0.056724
921.863698	0.056622
922.043657	0.056111
922.223598	0.055641
922.403520	0.055588
922.583424	0.055524
922.763311	0.055452
922.943178	0.054691
923.123028	0.054314
923.302859	0.054270
923.482673	0.054078
923.662467	0.054438
923.842244	0.054301
924.022003	0.054172
924.201743	0.053885
924.381465	0.053541
924.561169	0.053649
924.740854	0.053434
924.920522	0.053028
925.100171	0.052716
925.279802	0.052091
925.459414	0.051938
925.639009	0.051661
925.818585	0.051301
925.998143	0.051286
926.177683	0.050856
926.357205	0.050830
926.536708	0.050381
926.716193	0.049644
926.895660	0.049487
927.075109	0.049009
927.254539	0.048485
927.433951	0.048801
927.613345	0.048848
927.792721	0.048911
927.972079	0.048683
928.151418	0.049338
928.330739	0.050151
928.510042	0.049599
928.689327	0.049545
928.868593	0.049583
929.047841	0.048971
929.227071	0.048634
929.406283	0.047666
929.585476	0.048093
929.764652	0.047314
929.943809	0.046213
930.122948	0.046192
930.302068	0.046370
930.481171	0.046150
930.660255	0.045725
930.839321	0.045345
931.018369	0.045743
931.197398	0.044896
931.376409	0.044376
931.555402	0.044149
931.734377	0.044341
931.913334	0.043734
932.092272	0.043406
932.271192	0.043018
932.450094	0.042544
932.628978	0.041756
932.807844	0.041541
932.986691	0.041842
933.165520	0.042040
933.344331	0.041994
933.523123	0.041980
933.701898	0.041560
933.880654	0.041584
934.059392	0.042148
934.238111	0.042324
934.416813	0.042105
934.595496	0.042007
934.774161	0.041888
934.952808	0.041485
935.131437	0.041224
935.310047	0.041155
935.488639	0.041140
935.667213	0.040476
935.845769	0.040288
936.024306	0.039664
936.202825	0.038551
936.381326	0.037870
936.559809	0.037402
936.738274	0.036926
936.916720	0.035859
937.095148	0.035656
937.273558	0.035055
937.451950	0.034610
937.630323	0.034834
937.808678	0.034563
937.987015	0.034651
938.165334	0.034809
938.343635	0.034938
938.521917	0.035695
938.700181	0.034922
938.878427	0.035125
939.056655	0.034982
939.234864	0.034493
939.413055	0.034578
939.591228	0.034674
939.769383	0.034320
939.947519	0.033514
940.125638	0.033774
940.303738	0.033646
940.481820	0.033746
940.659883	0.034028
940.837929	0.033621
941.015956	0.033427
941.193965	0.032805
941.371955	0.033264
941.549928	0.032904
941.727882	0.032640
941.905818	0.032718
942.083736	0.032338
942.261636	0.032316
942.439517	0.032010
942.617380	0.031905
942.795225	0.031498
942.973052	0.030027
943.150860	0.030576
943.328651	0.029683
943.506423	0.029531
943.684176	0.029895
943.861912	0.029084
944.039629	0.029462
944.217328	0.029472
944.395009	0.029690
944.572672	0.030112
944.750317	0.030114
944.927943	0.030542
945.105551	0.029948
945.283141	0.029115
945.460712	0.029500
945.638265	0.029975
945.815801	0.028490
945.993317	0.028668
946.170816	0.028723
946.348297	0.029301
946.525759	0.029476
946.703203	0.029822
946.880629	0.030692
947.058036	0.030660
947.235425	0.029611
947.412797	0.030506
947.590149	0.029805
947.767484	0.029776
947.944800	0.029525
948.122099	0.028423
948.299379	0.028443
948.476640	0.026977
948.653884	0.026601
948.831109	0.027607
949.008316	0.027931
949.185505	0.028253
949.362676	0.027439
949.539828	0.026899
949.716962	0.027667
949.894078	0.027907
950.071176	0.028346
950.248256	0.028486
950.425317	0.027660
950.602360	0.028118
950.779385	0.027825
950.956391	0.028296
951.133380	0.027688
951.310350	0.026267
951.487302	0.026552
951.664235	0.025648
951.841151	0.027020
952.018048	0.027450
952.194927	0.026810
952.371788	0.025968
952.548631	0.025049
952.725455	0.025252
952.902261	0.027002
953.079049	0.026864
953.255819	0.028924
953.432570	0.025564
953.609303	0.023738
953.786018	0.023640
953.962715	0.024489
954.139394	0.025673
954.316054	0.024836
954.492696	0.025107
954.669320	0.024075
954.845926	0.022147
955.022513	0.024666
955.199083	0.026236
955.375634	0.026620
955.552166	0.026642
955.728681	0.025877
955.905177	0.026207
956.081655	0.024035
956.258115	0.025523
956.434557	0.027187
956.610980	0.026985
956.787385	0.025013
956.963772	0.026196
957.140141	0.025752
957.316492	0.026709
957.492824	0.028306
957.669138	0.030086
957.845434	0.028757
958.021712	0.027740
958.197971	0.027721
958.374212	0.030338
958.550435	0.030074
958.726640	0.031767
958.902826	0.030818
959.078995	0.028469
959.255145	0.029034
959.431277	0.029370
959.607390	0.030094
959.783486	0.029741
959.959563	0.029268
960.135622	0.028272
960.311662	0.028045
960.487685	0.030125
960.663689	0.032660
960.839675	0.032309
961.015643	0.034612
961.191593	0.033182
961.367524	0.033985
961.543437	0.034426
961.719332	0.034979
961.895209	0.035492
962.071067	0.035870
962.246907	0.034881
962.422730	0.034144
962.598533	0.034058
962.774319	0.035578
962.950086	0.036307
963.125835	0.037485
963.301566	0.039302
963.477279	0.037952
963.652973	0.037081
963.828650	0.038423
964.004308	0.039797
964.179947	0.038145
964.355569	0.038699
964.531172	0.036756
964.706757	0.037201
964.882324	0.035859
965.057873	0.036590
965.233403	0.035002
965.408916	0.034936
965.584410	0.035101
965.759885	0.035800
965.935343	0.037038
966.110782	0.038532
966.286203	0.037569
966.461606	0.036640
966.636991	0.037674
966.812357	0.040822
966.987705	0.040733
967.163035	0.041173
967.338347	0.040671
967.513641	0.038443
967.688916	0.037021
967.864173	0.036513
968.039412	0.038254
968.214632	0.038208
968.389835	0.038128
968.565019	0.037683
968.740185	0.036760
968.915333	0.037958
969.090462	0.040317
969.265573	0.042504
969.440667	0.042389
969.615741	0.042285
969.790798	0.043148
969.965836	0.040708
970.140856	0.042092
970.315858	0.041955
970.490842	0.041288
970.665808	0.041112
970.840755	0.039497
971.015684	0.041143
971.190595	0.042673
971.365487	0.042908
971.540362	0.046954
971.715218	0.044727
971.890056	0.046135
972.064875	0.048012
972.239677	0.045632
972.414460	0.046712
972.589225	0.045613
972.763972	0.045094
972.938700	0.043623
973.113411	0.042007
973.288103	0.041705
973.462777	0.039964
973.637432	0.039609
973.812070	0.039692
973.986689	0.039700
974.161290	0.038081
974.335873	0.035662
974.510437	0.037276
974.684984	0.036760
974.859512	0.039425
975.034022	0.041688
975.208513	0.041640
975.382987	0.043147
975.557442	0.041910
975.731879	0.045372
975.906298	0.046137
976.080698	0.044284
976.255080	0.043900
976.429445	0.042712
976.603790	0.043760
976.778118	0.044234
976.952427	0.045907
977.126719	0.046778
977.300992	0.044021
977.475246	0.044549
977.649483	0.046490
977.823701	0.047558
977.997901	0.048448
978.172083	0.046290
978.346247	0.044516
978.520392	0.041617
978.694519	0.040661
978.868628	0.041602
979.042719	0.039516
979.216791	0.039082
979.390845	0.038549
979.564882	0.038307
979.738899	0.038517
979.912899	0.040049
980.086880	0.042646
980.260843	0.044793
980.434788	0.045778
980.608715	0.047551
980.782623	0.048881
980.956514	0.048705
981.130386	0.049796
981.304240	0.050300
981.478075	0.047937
981.651892	0.044801
981.825692	0.045502
981.999472	0.046052
982.173235	0.047046
982.346980	0.045687
982.520706	0.045789
982.694414	0.044063
982.868104	0.043327
983.041775	0.045168
983.215428	0.046045
983.389064	0.044498
983.562680	0.043547
983.736279	0.044596
983.909860	0.044305
984.083422	0.044329
984.256966	0.045329
984.430491	0.045410
984.603999	0.043584
984.777488	0.045688
984.950959	0.046616
985.124412	0.047828
985.297847	0.046051
985.471263	0.046423
985.644661	0.046088
985.818041	0.044908
985.991403	0.045417
986.164747	0.046749
986.338072	0.044015
986.511379	0.043953
986.684668	0.042832
986.857938	0.041393
987.031191	0.040338
987.204425	0.041227
987.377641	0.041690
987.550839	0.040612
987.724018	0.040756
987.897179	0.041557
988.070322	0.039549
988.243447	0.039220
988.416554	0.041102
988.589642	0.042930
988.762712	0.042206
988.935764	0.042986
989.108798	0.043808
989.281813	0.044278
989.454811	0.044321
989.627790	0.045576
989.800751	0.045969
989.973693	0.045466
990.146617	0.043917
990.319524	0.044085
990.492412	0.043372
990.665281	0.043853
990.838133	0.043213
991.010966	0.043667
991.183781	0.044781
991.356578	0.045024
991.529356	0.045546
991.702117	0.044844
991.874859	0.045306
992.047583	0.046931
992.220288	0.045908
992.392976	0.045830
992.565645	0.044705
992.738296	0.045334
992.910929	0.044502
993.083543	0.045483
993.256139	0.047047
993.428718	0.047162
993.601277	0.045192
993.773819	0.046126
993.946342	0.047126
994.118848	0.047416
994.291335	0.045373
994.463803	0.045297
994.636254	0.043743
994.808686	0.044199
994.981100	0.044480
995.153496	0.045251
995.325874	0.045715
995.498233	0.045093
995.670574	0.046170
995.842897	0.047566
996.015202	0.048354
996.187488	0.047302
996.359757	0.045582
996.532007	0.044104
996.704239	0.044131
996.876452	0.043659
997.048648	0.043730
997.220825	0.042757
997.392984	0.042215
997.565124	0.041128
997.737247	0.040341
997.909351	0.040622
998.081437	0.040186
998.253505	0.039750
998.425554	0.039277
998.597586	0.040133
998.769599	0.040332
998.941594	0.039596
999.113571	0.040485
999.285529	0.043441
999.457469	0.043407
999.629391	0.044527
999.801295	0.044018
999.973181	0.044753
1000.145048	0.044350
1000.316897	0.043887
1000.488728	0.043386
1000.660541	0.043629
1000.832335	0.042790
1001.004111	0.042713
1001.175869	0.042289
1001.347609	0.042952
1001.519331	0.043322
1001.691034	0.042544
1001.862719	0.043318
1002.034386	0.043721
1002.206035	0.044100
1002.377665	0.043532
1002.549277	0.043625
1002.720871	0.045385
1002.892447	0.044749
1003.064004	0.042689
1003.235544	0.042088
1003.407065	0.041200
1003.578568	0.040339
1003.750052	0.039175
1003.921519	0.040423
1004.092967	0.040290
1004.264397	0.039082
1004.435809	0.039233
1004.607202	0.040471
1004.778577	0.040470
1004.949934	0.040603
1005.121273	0.041985
1005.292594	0.042123
1005.463896	0.041843
1005.635180	0.042115
1005.806446	0.042480
1005.977694	0.042052
1006.148923	0.040859
1006.320135	0.041571
1006.491328	0.042899
1006.662503	0.040556
1006.833659	0.040060
1007.004798	0.038385
1007.175918	0.038363
1007.347020	0.037950
1007.518103	0.037990
1007.689169	0.039657
1007.860216	0.039299
1008.031245	0.038090
1008.202256	0.040233
1008.373248	0.040598
1008.544223	0.040881
1008.715179	0.039493
1008.886117	0.039376
1009.057036	0.039633
1009.227938	0.038477
1009.398821	0.039131
1009.569686	0.039311
1009.740533	0.038795
1009.911361	0.039722
1010.082172	0.040865
1010.252964	0.042206
1010.423738	0.040790
1010.594493	0.040781
1010.765231	0.043081
1010.935950	0.042764
1011.106651	0.043992
1011.277334	0.044503
1011.447998	0.042392
1011.618645	0.040888
1011.789273	0.040846
1011.959882	0.041590
1012.130474	0.039995
1012.301048	0.038070
1012.471603	0.038404
1012.642140	0.039431
1012.812658	0.040060
1012.983159	0.040142
1013.153641	0.041762
1013.324105	0.042252
1013.494551	0.041096
1013.664979	0.043358
1013.835388	0.043554
1014.005779	0.042762
1014.176152	0.040504
1014.346507	0.037976
1014.516843	0.038409
1014.687162	0.038775
1014.857462	0.038168
1015.027744	0.039777
1015.198007	0.038403
1015.368252	0.037464
1015.538480	0.036870
1015.708689	0.036323
1015.878879	0.038142
1016.049052	0.038544
1016.219206	0.037793
1016.389342	0.038007
1016.559460	0.037500
1016.729559	0.038155
1016.899641	0.039334
1017.069704	0.039645
1017.239749	0.040339
1017.409775	0.039800
1017.579784	0.039912
1017.749774	0.040391
1017.919746	0.040973
1018.089700	0.040342
1018.259635	0.039971
1018.429553	0.039374
1018.599452	0.038454
1018.769333	0.037910
1018.939195	0.036733
1019.109040	0.037224
1019.278866	0.036862
1019.448674	0.037244
1019.618464	0.038555
1019.788235	0.038707
1019.957989	0.038315
1020.127724	0.039835
1020.297441	0.039654
1020.467139	0.042450
1020.636820	0.042670
1020.806482	0.042931
1020.976126	0.040828
1021.145752	0.039899
1021.315359	0.039556
1021.484948	0.040754
1021.654519	0.038843
1021.824072	0.038449
1021.993607	0.036060
1022.163123	0.035048
1022.332621	0.035642
1022.502101	0.035538
1022.671563	0.036301
1022.841007	0.035986
1023.010432	0.035031
1023.179839	0.036657
1023.349228	0.039213
1023.518598	0.040370
1023.687951	0.041361
1023.857285	0.041470
1024.026601	0.043736
1024.195899	0.044744
1024.365178	0.046395
1024.534439	0.046156
1024.703682	0.045516
1024.872907	0.043080
1025.042114	0.042302
1025.211302	0.040275
1025.380472	0.039721
1025.549624	0.037297
1025.718758	0.036012
1025.887873	0.034572
1026.056970	0.033950
1026.226049	0.033733
1026.395110	0.034074
1026.564153	0.034902
1026.733177	0.034901
1026.902183	0.033410
1027.071171	0.033513
1027.240141	0.035703
1027.409092	0.036454
1027.578026	0.037704
1027.746940	0.038225
1027.915837	0.038320
1028.084716	0.036571
1028.253576	0.037968
1028.422418	0.038349
1028.591242	0.038903
1028.760048	0.035540
1028.928835	0.036987
1029.097604	0.036449
1029.266355	0.036998
1029.435088	0.037193
1029.603803	0.038468
1029.772499	0.037652
1029.941177	0.037778
1030.109837	0.039264
1030.278478	0.039105
1030.447102	0.038020
1030.615707	0.038260
1030.784294	0.037625
1030.952863	0.037414
1031.121413	0.037255
1031.289945	0.038104
1031.458460	0.037343
1031.626955	0.037608
1031.795433	0.038737
1031.963892	0.038373
1032.132334	0.038753
1032.300756	0.038727
1032.469161	0.038379
1032.637548	0.038566
1032.805916	0.038583
1032.974266	0.039328
1033.142598	0.037951
1033.310911	0.039135
1033.479207	0.037482
1033.647484	0.036196
1033.815743	0.036818
1033.983983	0.037647
1034.152206	0.037473
1034.320410	0.036804
1034.488596	0.036543
1034.656764	0.035809
1034.824914	0.033968
1034.993045	0.036184
1035.161158	0.036439
1035.329253	0.036382
1035.497330	0.035254
1035.665388	0.035368
1035.833428	0.034688
1036.001450	0.034756
1036.169454	0.035830
1036.337440	0.036976
1036.505407	0.037266
1036.673356	0.038161
1036.841287	0.038207
1037.009200	0.037129
1037.177094	0.036344
1037.344970	0.037465
1037.512828	0.037344
1037.680668	0.037323
1037.848489	0.036470
1038.016293	0.033993
1038.184078	0.033131
1038.351845	0.032117
1038.519593	0.034062
1038.687324	0.034078
1038.855036	0.034212
1039.022730	0.034370
1039.190406	0.033280
1039.358063	0.034447
1039.525702	0.035033
1039.693323	0.035004
1039.860926	0.033318
1040.028511	0.032398
1040.196077	0.032896
1040.363625	0.033473
1040.531155	0.031880
1040.698667	0.033828
1040.866161	0.034015
1041.033636	0.034877
1041.201093	0.035623
1041.368532	0.037423
1041.535952	0.037577
1041.703355	0.037742
1041.870739	0.035473
1042.038105	0.037556
1042.205452	0.037939
1042.372782	0.036687
1042.540093	0.035768
1042.707386	0.035687
1042.874661	0.035388
1043.041918	0.034114
1043.209156	0.034641
1043.376376	0.035180
1043.543578	0.033795
1043.710762	0.032507
1043.877927	0.030923
1044.045074	0.030743
1044.212203	0.029374
1044.379314	0.029621
1044.546407	0.031104
1044.713481	0.030353
1044.880537	0.032145
1045.047575	0.033618
1045.214595	0.033235
1045.381596	0.033386
1045.548579	0.035387
1045.715544	0.036107
1045.882491	0.037650
1046.049420	0.037936
1046.216330	0.036539
1046.383222	0.034586
1046.550096	0.033791
1046.716951	0.032897
1046.883789	0.034281
1047.050608	0.034005
1047.217409	0.034717
1047.384192	0.035869
1047.550956	0.034202
1047.717703	0.035396
1047.884431	0.036881
1048.051140	0.037484
1048.217832	0.037320
1048.384505	0.037605
1048.551161	0.036547
1048.717798	0.036490
1048.884416	0.033757
1049.051017	0.035434
1049.217599	0.035672
1049.384163	0.034336
1049.550709	0.033173
1049.717237	0.033423
1049.883746	0.032511
1050.050237	0.032853
1050.216710	0.030827
1050.383165	0.031193
1050.549601	0.030770
1050.716019	0.028875
1050.882420	0.029274
1051.048801	0.030184
1051.215165	0.029540
1051.381510	0.029902
1051.547837	0.029047
1051.714146	0.029952
1051.880437	0.030421
1052.046709	0.032291
1052.212964	0.034105
1052.379200	0.033696
1052.545417	0.033896
1052.711617	0.034681
1052.877798	0.035371
1053.043961	0.034856
1053.210106	0.034374
1053.376233	0.034949
1053.542341	0.033713
1053.708432	0.034877
1053.874504	0.033478
1054.040557	0.032591
1054.206593	0.033000
1054.372610	0.032204
1054.538609	0.032627
1054.704590	0.032158
1054.870553	0.029713
1055.036497	0.030648
1055.202424	0.029598
1055.368331	0.031516
1055.534221	0.032804
1055.700093	0.031548
1055.865946	0.030152
1056.031781	0.030182
1056.197598	0.031577
1056.363397	0.033576
1056.529177	0.032418
1056.694939	0.032534
1056.860683	0.033093
1057.026409	0.030930
1057.192116	0.032111
1057.357806	0.033234
1057.523477	0.033328
1057.689130	0.032558
1057.854764	0.031014
1058.020381	0.029065
1058.185979	0.027804
1058.351559	0.027777
1058.517120	0.027946
1058.682664	0.028584
1058.848189	0.029011
1059.013696	0.030471
1059.179185	0.030819
1059.344656	0.032023
1059.510108	0.034801
1059.675542	0.035922
1059.840958	0.035236
1060.006356	0.035944
1060.171735	0.036356
1060.337096	0.038008
1060.502439	0.037291
1060.667764	0.037174
1060.833071	0.037481
1060.998359	0.036151
1061.163629	0.035026
1061.328881	0.034464
1061.494115	0.035533
1061.659330	0.033656
1061.824527	0.029257
1061.989706	0.028544
1062.154867	0.028958
1062.320010	0.028597
1062.485134	0.031503
1062.650240	0.032563
1062.815328	0.034319
1062.980398	0.034479
1063.145449	0.035493
1063.310482	0.037799
1063.475497	0.038140
1063.640494	0.038624
1063.805473	0.037525
1063.970433	0.035373
1064.135375	0.034697
1064.300299	0.032909
1064.465204	0.031713
1064.630092	0.031061
1064.794961	0.031842
1064.959812	0.031148
1065.124645	0.030512
1065.289459	0.030099
1065.454256	0.030048
1065.619034	0.031553
1065.783793	0.033831
1065.948535	0.034204
1066.113258	0.032021
1066.277964	0.032965
1066.442651	0.034451
1066.607319	0.033046
1066.771970	0.034550
1066.936602	0.034788
1067.101216	0.034243
1067.265812	0.031951
1067.430389	0.033944
1067.594949	0.035427
1067.759490	0.033403
1067.924013	0.032512
1068.088518	0.032734
1068.253004	0.031845
1068.417472	0.032718
1068.581922	0.031116
1068.746354	0.031074
1068.910768	0.028961
1069.075163	0.029400
1069.239540	0.028932
1069.403899	0.029348
1069.568240	0.028620
1069.732562	0.027889
1069.896866	0.027980
1070.061152	0.030081
1070.225420	0.030516
1070.389670	0.029897
1070.553901	0.031303
1070.718114	0.032642
1070.882309	0.033220
1071.046486	0.034443
1071.210644	0.036463
1071.374784	0.035038
1071.538906	0.036101
1071.703010	0.036207
1071.867096	0.037628
1072.031163	0.036274
1072.195212	0.036786
1072.359243	0.036413
1072.523256	0.036577
1072.687250	0.037359
1072.851226	0.037397
1073.015184	0.034254
1073.179124	0.037020
1073.343045	0.036904
1073.506949	0.037572
1073.670834	0.037382
1073.834701	0.036533
1073.998549	0.036821
1074.162380	0.035003
1074.326192	0.034356
1074.489986	0.036493
1074.653761	0.035797
1074.817519	0.034067
1074.981258	0.033916
1075.144979	0.033043
1075.308682	0.032786
1075.472367	0.034164
1075.636033	0.035081
1075.799681	0.036229
1075.963311	0.034559
1076.126923	0.031351
1076.290516	0.032808
1076.454092	0.032957
1076.617649	0.032653
1076.781187	0.030822
1076.944708	0.031849
1077.108210	0.031481
1077.271695	0.028969
1077.435160	0.031325
1077.598608	0.032767
1077.762038	0.032929
1077.925449	0.033327
1078.088842	0.034868
1078.252217	0.039481
1078.415573	0.035324
1078.578912	0.034576
1078.742232	0.038734
1078.905534	0.038011
1079.068817	0.036273
1079.232083	0.035667
1079.395330	0.033997
1079.558559	0.031452
1079.721770	0.030101
1079.884962	0.030836
1080.048136	0.031611
1080.211293	0.031099
1080.374430	0.028836
1080.537550	0.030711
1080.700651	0.031413
1080.863735	0.031791
1081.026800	0.032790
1081.189846	0.032557
1081.352875	0.033418
1081.515885	0.032952
1081.678877	0.033531
1081.841851	0.034065
1082.004807	0.031449
1082.167744	0.031584
1082.330663	0.030502
1082.493564	0.029580
1082.656447	0.029602
1082.819312	0.031410
1082.982158	0.031004
1083.144986	0.030657
1083.307796	0.030849
1083.470587	0.034198
1083.633361	0.033797
1083.796116	0.034429
1083.958853	0.035271
1084.121571	0.035353
1084.284272	0.035204
1084.446954	0.033210
1084.609618	0.032189
1084.772264	0.032584
1084.934892	0.033592
1085.097501	0.032919
1085.260092	0.033820
1085.422665	0.034830
1085.585220	0.033932
1085.747756	0.031971
1085.910274	0.033964
1086.072774	0.033281
1086.235256	0.032974
1086.397720	0.031384
1086.560165	0.033413
1086.722592	0.034546
1086.885001	0.033560
1087.047392	0.033015
1087.209764	0.035323
1087.372119	0.035119
1087.534455	0.033891
1087.696772	0.033015
1087.859072	0.030825
1088.021353	0.028428
1088.183616	0.026442
1088.345861	0.028355
1088.508088	0.029444
1088.670296	0.027470
1088.832486	0.027957
1088.994658	0.028157
1089.156812	0.030215
1089.318948	0.032734
1089.481065	0.032349
1089.643164	0.031656
1089.805245	0.028682
1089.967308	0.028189
1090.129352	0.028820
1090.291378	0.027389
1090.453386	0.028130
1090.615376	0.029166
1090.777347	0.028928
1090.939301	0.030019
1091.101236	0.032283
1091.263153	0.033886
1091.425051	0.033827
1091.586932	0.033377
1091.748794	0.034370
1091.910638	0.033720
1092.072463	0.031037
1092.234271	0.029550
1092.396060	0.027432
1092.557831	0.028422
1092.719584	0.028778
1092.881319	0.029837
1093.043035	0.028793
1093.204733	0.028553
1093.366413	0.029627
1093.528075	0.030222
1093.689718	0.029126
1093.851343	0.030711
1094.012950	0.028999
1094.174539	0.030174
1094.336110	0.027763
1094.497662	0.028333
1094.659196	0.029480
1094.820712	0.030262
1094.982210	0.031880
1095.143689	0.032520
1095.305151	0.032166
1095.466594	0.034630
1095.628018	0.030491
1095.789425	0.029854
1095.950813	0.030165
1096.112183	0.031008
1096.273535	0.028315
1096.434869	0.028141
1096.596184	0.032600
1096.757482	0.036404
1096.918761	0.035044
1097.080021	0.036819
1097.241264	0.038351
1097.402488	0.039914
1097.563694	0.037943
1097.724882	0.037633
1097.886052	0.036571
1098.047203	0.032891
1098.208336	0.032851
1098.369451	0.032754
1098.530548	0.035008
1098.691627	0.036180
1098.852687	0.035099
1099.013729	0.037756
1099.174753	0.040193
1099.335758	0.040821
1099.496746	0.040560
1099.657715	0.035779
1099.818666	0.035711
1099.979599	0.037094
1100.140513	0.035676
1100.301409	0.034650
1100.462287	0.034692
1100.623147	0.033138
1100.783989	0.030449
1100.944812	0.031144
1101.105617	0.035008
1101.266404	0.035682
1101.427173	0.033603
1101.587923	0.033844
1101.748656	0.034286
1101.909370	0.031393
1102.070066	0.033780
1102.230743	0.036534
1102.391403	0.038301
1102.552044	0.036058
1102.712667	0.034430
1102.873271	0.036411
1103.033858	0.040588
1103.194426	0.039176
1103.354976	0.039366
1103.515508	0.039091
1103.676021	0.039055
1103.836517	0.037564
1103.996994	0.038409
1104.157453	0.036905
1104.317893	0.031905
1104.478316	0.028510
1104.638720	0.031031
1104.799106	0.031966
1104.959474	0.028582
1105.119823	0.027012
1105.280155	0.030674
1105.440468	0.028063
1105.600763	0.028169
1105.761039	0.029392
1105.921298	0.026655
1106.081538	0.024315
1106.241760	0.023068
1106.401964	0.024215
1106.562149	0.022676
1106.722316	0.018554
1106.882465	0.020356
1107.042596	0.020977
1107.202709	0.022987
1107.362803	0.024214
1107.522879	0.026751
1107.682937	0.024819
1107.842977	0.026202
1108.002999	0.026363
1108.163002	0.030985
1108.322987	0.028944
1108.482954	0.029377
1108.642902	0.027845
1108.802833	0.027782
1108.962745	0.028343
1109.122639	0.031293
1109.282515	0.029790
1109.442372	0.034219
1109.602211	0.033360
1109.762032	0.035628
1109.921835	0.034212
1110.081620	0.036014
1110.241386	0.038664
1110.401134	0.040051
1110.560864	0.039353
1110.720576	0.042801
1110.880269	0.041933
1111.039945	0.037011
1111.199602	0.039198
1111.359240	0.039720
1111.518861	0.038605
1111.678463	0.040186
1111.838047	0.037362
1111.997613	0.034838
1112.157161	0.035241
1112.316690	0.030624
1112.476202	0.034510
1112.635695	0.031862
1112.795169	0.035902
1112.954626	0.036513
1113.114064	0.034456
1113.273484	0.034401
1113.432886	0.040666
1113.592270	0.038330
1113.751635	0.042040
1113.910983	0.039913
1114.070312	0.040149
1114.229622	0.034929
1114.388915	0.035111
1114.548189	0.034615
1114.707445	0.031770
1114.866683	0.029880
1115.025903	0.030364
1115.185104	0.029365
1115.344287	0.028056
1115.503452	0.027088
1115.662599	0.031243
1115.821727	0.028086
1115.980838	0.031001
1116.139930	0.032015
1116.299004	0.029161
1116.458059	0.026543
1116.617097	0.031173
1116.776116	0.032649
1116.935117	0.035521
1117.094099	0.031857
1117.253064	0.036142
1117.412010	0.031754
1117.570938	0.036177
1117.729848	0.037203
1117.888740	0.038283
1118.047613	0.034781
1118.206468	0.032633
1118.365305	0.027808
1118.524124	0.028114
1118.682924	0.026601
1118.841707	0.025161
1119.000471	0.021314
1119.159216	0.023733
1119.317944	0.025064
1119.476653	0.023714
1119.635344	0.026179
1119.794017	0.025355
1119.952672	0.028723
1120.111308	0.028208
1120.269927	0.031807
1120.428527	0.035185
1120.587108	0.034296
1120.745672	0.036709
1120.904217	0.034925
1121.062744	0.030660
1121.221253	0.033344
1121.379744	0.030966
1121.538216	0.031575
1121.696671	0.032449
1121.855107	0.028483
1122.013524	0.026372
1122.171924	0.024514
1122.330305	0.027291
1122.488668	0.031386
1122.647013	0.033869
1122.805340	0.034828
1122.963648	0.033354
1123.121938	0.029023
1123.280210	0.031372
1123.438464	0.032416
1123.596700	0.034935
1123.754917	0.038667
1123.913116	0.036156
1124.071297	0.030477
1124.229459	0.032666
1124.387604	0.034814
1124.545730	0.038968
1124.703838	0.040248
1124.861928	0.043582
1125.019999	0.039836
1125.178052	0.037231
1125.336088	0.035527
1125.494104	0.041143
1125.652103	0.037984
1125.810083	0.038105
1125.968045	0.034762
1126.125989	0.030194
1126.283915	0.029135
1126.441823	0.029256
1126.599712	0.026973
1126.757583	0.030342
1126.915436	0.034464
1127.073270	0.036457
1127.231087	0.035715
1127.388885	0.037652
1127.546665	0.044348
1127.704426	0.041268
1127.862170	0.041175
1128.019895	0.045110
1128.177602	0.046905
1128.335291	0.046775
1128.492961	0.046110
1128.650614	0.050482
1128.808248	0.051956
1128.965864	0.044653
1129.123461	0.052709
1129.281041	0.054662
1129.438602	0.048588
1129.596145	0.047413
1129.753670	0.042605
1129.911176	0.042290
1130.068665	0.038117
1130.226135	0.042195
1130.383587	0.044843
1130.541020	0.034524
1130.698436	0.037033
1130.855833	0.035026
1131.013212	0.032084
1131.170573	0.033319
1131.327915	0.033232
1131.485239	0.033402
1131.642545	0.030491
1131.799833	0.035760
1131.957103	0.038947
1132.114354	0.037875
1132.271588	0.046124
1132.428803	0.051632
1132.585999	0.051068
1132.743178	0.053547
1132.900338	0.052641
1133.057480	0.048280
1133.214604	0.043388
1133.371710	0.042578
1133.528797	0.038992
1133.685866	0.031691
1133.842917	0.029124
1133.999950	0.023404
1134.156964	0.023175
1134.313960	0.023790
1134.470938	0.025413
1134.627898	0.027773
1134.784840	0.033062
1134.941763	0.033108
1135.098668	0.033078
1135.255555	0.033479
1135.412424	0.033910
1135.569274	0.033005
1135.726107	0.031332
1135.882921	0.035308
1136.039716	0.033892
1136.196494	0.029211
1136.353253	0.033740
1136.509995	0.038865
1136.666717	0.036335
1136.823422	0.039238
1136.980109	0.035202
1137.136777	0.037412
1137.293427	0.030120
1137.450059	0.031453
1137.606672	0.036962
1137.763267	0.031189
1137.919844	0.037450
1138.076403	0.037925
1138.232944	0.039586
1138.389466	0.038096
1138.545971	0.040823
1138.702457	0.039738
1138.858924	0.038170
1139.015374	0.030573
1139.171805	0.028471
1139.328218	0.017722
1139.484613	0.020324
1139.640990	0.020368
1139.797348	0.026676
1139.953688	0.019660
1140.110010	0.019813
1140.266314	0.020657
1140.422600	0.017891
1140.578867	0.022634
1140.735116	0.027532
1140.891347	0.020949
1141.047559	0.017927
1141.203754	0.019043
1141.359930	0.021510
1141.516088	0.032364
1141.672228	0.027209
1141.828349	0.038340
1141.984452	0.032835
1142.140537	0.034897
1142.296604	0.042228
1142.452653	0.039095
1142.608683	0.035249
1142.764695	0.041946
1142.920689	0.034133
1143.076665	0.040212
1143.232622	0.035830
1143.388562	0.031639
1143.544483	0.027772
1143.700385	0.031126
1143.856270	0.037597
1144.012136	0.035839
1144.167985	0.024995
1144.323814	0.019791
1144.479626	0.016119
1144.635420	0.017639
1144.791195	0.022185
1144.946952	0.022629
1145.102691	0.023146
1145.258411	0.023080
1145.414113	0.033318
1145.569798	0.039714
1145.725463	0.050207
1145.881111	0.049234
1146.036741	0.050604
1146.192352	0.047865
1146.347945	0.048413
1146.503519	0.040433
1146.659076	0.042519
1146.814614	0.040874
1146.970134	0.041033
1147.125636	0.037497
1147.281120	0.045158
1147.436585	0.047366
1147.592032	0.057486
1147.747461	0.052954
1147.902872	0.053925
1148.058265	0.046641
1148.213639	0.038860
1148.368995	0.035822
1148.524333	0.038176
1148.679653	0.035229
1148.834954	0.026055
1148.990237	0.020925
1149.145502	0.022048
1149.300749	0.026293
1149.455977	0.028396
1149.611188	0.028962
1149.766380	0.030993
1149.921553	0.029907
1150.076709	0.027824
1150.231846	0.033747
1150.386966	0.034500
1150.542066	0.036904
1150.697149	0.032746
1150.852214	0.032578
1151.007260	0.032822
1151.162288	0.032977
1151.317298	0.032433
1151.472289	0.037064
1151.627263	0.038723
1151.782218	0.036590
1151.937155	0.033047
1152.092073	0.030190
1152.246974	0.035550
1152.401856	0.036118
1152.556720	0.036938
1152.711566	0.037247
1152.866393	0.034363
1153.021203	0.033339
1153.175994	0.038717
1153.330767	0.043706
1153.485521	0.048422
1153.640258	0.042691
1153.794976	0.039255
1153.949676	0.037540
1154.104358	0.032031
1154.259021	0.037153
1154.413667	0.038677
1154.568294	0.030942
1154.722903	0.029967
1154.877493	0.025293
1155.032066	0.035419
1155.186620	0.043855
1155.341156	0.049366
1155.495674	0.052193
1155.650173	0.043168
1155.804654	0.036893
1155.959118	0.047933
1156.113562	0.048999
1156.267989	0.053109
1156.422397	0.044064
1156.576788	0.040242
1156.731160	0.039772
1156.885513	0.040004
1157.039849	0.046687
1157.194166	0.042013
1157.348465	0.045920
1157.502746	0.053475
1157.657009	0.053418
1157.811253	0.055544
1157.965479	0.059278
1158.119687	0.055301
1158.273877	0.055025
1158.428048	0.050780
1158.582201	0.056938
1158.736337	0.045789
1158.890453	0.042606
1159.044552	0.039332
1159.198632	0.038389
1159.352694	0.026370
1159.506738	0.028416
1159.660764	0.034655
1159.814771	0.033742
1159.968761	0.035941
1160.122732	0.031929
1160.276685	0.029253
1160.430619	0.035457
1160.584535	0.036470
1160.738434	0.039091
1160.892313	0.038380
1161.046175	0.033306
1161.200019	0.032657
1161.353844	0.030090
1161.507651	0.035386
1161.661440	0.030131
1161.815210	0.025304
1161.968962	0.016753
1162.122697	0.021563
1162.276412	0.014565
1162.430110	0.010930
1162.583789	0.012124
1162.737451	0.002312
1162.891094	0.006946
1163.044718	0.012172
1163.198325	0.014376
1163.351913	0.013901
1163.505483	0.010990
1163.659035	0.011136
1163.812569	0.024342
1163.966084	0.013624
1164.119581	0.019774
1164.273060	0.012773
1164.426521	0.011017
1164.579964	0.010248
1164.733388	0.024748
1164.886794	0.029803
1165.040182	0.032525
1165.193551	0.023492
1165.346903	0.033538
1165.500236	0.032146
1165.653551	0.037068
1165.806848	0.040046
1165.960126	0.037878
1166.113386	0.040976
1166.266628	0.036878
1166.419852	0.044822
1166.573058	0.044852
1166.726245	0.046686
1166.879414	0.057670
1167.032565	0.061616
1167.185698	0.066793
1167.338812	0.069672
1167.491909	0.059150
1167.644987	0.061440
1167.798046	0.055100
1167.951088	0.050573
1168.104111	0.051811
1168.257117	0.045222
1168.410103	0.034542
1168.563072	0.028529
1168.716023	0.022984
1168.868955	0.031982
1169.021869	0.031643
1169.174765	0.028049
1169.327642	0.035179
1169.480501	0.030434
1169.633343	0.031005
1169.786165	0.041419
1169.938970	0.033700
1170.091757	0.038674
1170.244525	0.029176
1170.397275	0.027682
1170.550007	0.037455
1170.702720	0.023854
1170.855415	0.040497
1171.008092	0.039385
1171.160751	0.029259
1171.313392	0.032259
1171.466014	0.196797
1171.618619	0.011009
1171.771205	0.011009
1171.923772	0.011009
