sample name	sample
index	558
start time	 03-16-2021  02:01:29 PM
880	0.004672
Peak Time (s)	181.537
Peak Height 	0.004672
calc peak height	180,183
Baseline Time (s)	10.535
Baseline Value 	-0.006564
subtract baseline	10,4
Abs	0.002098
Peak Time (s)	180.036
Peak Height 	0.002098
calc peak height	180,183
Baseline Time (s)	11.539
Baseline Value 	0.004596
subtract baseline	10,3
PK_550	0.000929
Peak Time (s)	180.036
Peak Height 	9.2927E-4
calc peak height	180,183
Baseline Time (s)	10.034
Baseline Value 	2.3548E-4
subtract baseline	10,2
PK_880	-0.003230
Peak Time (s)	180.537
Peak Height 	-0.00323
calc peak height	180,183
Baseline Time (s)	8.537
Baseline Value 	0.001922
subtract baseline	10,1


Time (s)	A880-A510	A880-A775	A880-A975	A880	I510	I775	I975	I880	
0.034500	-0.001985	-0.000608	0.000085	0.000990	5528.648020	34142.055401	3524.588729	18422.469939
0.535000	-0.005146	0.000466	-0.008363	0.007492	5466.626727	33751.937572	3496.169002	18188.828437
1.035000	0.000363	-0.000487	-0.004959	0.003823	5525.504408	33946.549688	3509.492650	18320.243481
1.538000	0.003854	0.000513	-0.000058	0.000664	5568.946394	34246.886910	3524.944486	18434.282362
2.038500	-0.000064	0.000378	0.005783	0.000050	5547.280788	34281.682069	3537.526788	18456.547892
2.539000	-0.004747	-0.000281	-0.006090	0.006931	5472.727880	33738.698365	3501.481705	18208.850046
3.036500	-0.001335	-0.000758	-0.001310	-0.001855	5551.422451	34337.642890	3527.398396	18525.824483
3.536500	0.001344	-0.000103	0.000184	0.000809	5551.528136	34191.752816	3525.133597	18429.051401
4.037000	0.000701	0.000551	0.007093	0.001277	5544.264896	34205.264376	3537.689751	18412.100304
4.537000	-0.001365	0.000318	0.004647	0.001047	5532.306815	34205.059534	3533.349041	18420.425299
5.039000	0.000986	0.000710	0.006610	0.000930	5548.391984	34241.906460	3537.421457	18424.650094
5.535000	-0.001223	-0.000322	-0.000324	0.000111	5539.322321	34226.512764	3525.499940	18454.356068
6.035500	-0.002582	-0.001006	-0.005520	-0.000732	5535.964918	34237.994182	3517.114924	18484.953751
6.535500	-0.000854	0.000197	-0.002452	-0.000142	5543.376087	34282.510829	3521.878473	18463.521364
7.035500	-0.001223	-0.000486	0.000056	-0.000200	5541.346635	34237.142699	3526.839326	18465.623820
7.535500	0.002408	0.000069	0.004267	0.000142	5562.872415	34252.643146	3534.375497	18453.230961
8.036500	-0.003684	0.000425	-0.000269	0.000104	5523.375990	34281.227745	3525.618646	18454.586694
8.537000	0.000000	0.000402	0.002142	0.000057	5547.653525	34282.959734	3530.393849	18456.301441
9.036500	-0.001572	-0.000429	0.000971	-0.000025	5537.930584	34228.558836	3528.274886	18459.263300
9.537500	0.000031	0.000931	0.002064	0.000889	5542.423146	34260.913366	3528.622002	18426.131443
10.034500	0.000211	0.000000	-0.002890	0.000107	5548.705826	34250.159083	3520.555164	18454.499579
10.535000	-0.001646	0.000249	-0.004383	0.000000	5537.290102	34275.981351	3517.891712	18458.369093
11.035500	0.000911	-0.000288	-0.002238	-0.000276	5555.792332	34256.992646	3522.549328	18468.384229
11.538500	-0.000098	-0.000206	0.000000	-0.000251	5549.025103	34261.150800	3526.828809	18467.474076
12.036000	-0.000402	-0.000077	-0.004129	-0.000528	5548.848172	34290.629601	3519.391514	18477.535929
12.536000	-0.003334	0.000378	0.000805	0.000087	5525.754365	34278.991681	3527.735733	18455.207046
13.036500	0.000827	0.000418	-0.003684	-0.001859	5565.633557	34423.631978	3522.812974	18525.956836
13.537000	-0.000265	0.000923	0.000249	-0.000767	5551.309602	34380.837542	3528.314185	18486.217137
14.037000	-0.001301	0.000084	0.003632	-0.000009	5539.591153	34264.648451	3533.427329	18458.690264
14.537500	-0.002458	-0.000869	-0.002280	0.001782	5520.449775	34066.000607	3518.506227	18393.819646
15.038000	-0.000348	-0.000100	-0.004199	-0.001053	5552.636911	34327.169292	3520.267402	18496.625488
15.595500	0.001203	-0.000449	0.001656	-0.001344	5564.718265	34322.901512	3532.176077	18507.210735
16.036000	0.001611	-0.000020	0.001243	-0.001561	5568.833693	34369.958949	3531.794104	18515.122031
16.536000	0.000154	0.000555	0.002022	-0.001699	5560.156334	34421.926430	3533.584508	18520.131362
17.036000	0.001772	0.000270	0.000048	-0.000732	5564.437872	34330.752399	3527.856626	18484.970745
17.536500	-0.000211	-0.000175	0.000140	-0.002262	5561.461260	34409.812873	3531.010172	18540.675408
18.037000	-0.001150	-0.000684	0.003187	0.000344	5538.278666	34183.354990	3531.869379	18445.877242
18.537000	0.000935	0.000859	0.002810	0.001605	5543.652626	34203.799741	3528.681510	18400.244415
19.037500	0.000612	0.000253	-0.001369	0.001302	5543.522731	34181.842546	3521.182073	18411.210580
19.537500	-0.000441	-0.000011	0.003520	0.001147	5537.670201	34173.971408	3530.955242	18416.806147
20.035000	0.000795	0.000297	-0.005641	0.001289	5544.800236	34185.996818	3513.019664	18411.678271
20.535500	0.000248	0.000698	0.000721	0.001466	5540.080444	34202.204240	3524.899403	18405.260544
21.038500	-0.003283	-0.000019	0.002901	0.000630	5522.572164	34210.788890	3530.755011	18435.524753
21.536000	-0.000785	-0.000232	-0.001651	0.001122	5535.587931	34159.723283	3520.984700	18417.697076
22.036500	-0.000758	0.000039	0.001493	0.001025	5536.400898	34186.433015	3527.250684	18421.235461
22.537000	-0.000095	0.000801	0.001700	0.001350	5538.598883	34218.075991	3527.021069	18409.459195
23.036500	-0.002030	0.000585	-0.003320	0.001145	5527.349369	34217.214840	3517.733483	18416.859151
23.537500	0.000333	-0.000053	-0.001873	0.001393	5541.110018	34153.095110	3520.035997	18407.902944
24.037500	0.000811	0.001104	-0.001228	0.001547	5543.219462	34225.711086	3520.980947	18402.316611
24.535000	-0.000201	0.000928	0.002643	0.001371	5537.770006	34225.720516	3528.811783	18408.689161
25.035500	-0.002117	0.000314	0.003763	0.001380	5525.267741	34180.645302	3530.975004	18408.385795
25.538500	-0.002880	-0.000159	-0.001600	0.000732	5524.517770	34193.307246	3521.834148	18431.822487
26.035500	0.000683	-0.000925	0.001261	0.000540	5548.961515	34151.782931	3527.741965	18438.799449
26.535500	-0.000492	0.000377	0.002437	0.001352	5535.998763	34187.211255	3528.447987	18409.373104
27.036500	0.001004	-0.000024	0.003855	0.001184	5546.850193	34170.299458	3531.535949	18415.463680
27.536500	0.000234	0.000542	0.004413	-0.000837	5555.033814	34358.141603	3536.578085	18488.760843
28.037000	0.001460	0.000732	0.003902	-0.001277	5565.968447	34404.069582	3536.440599	18504.784824
28.537500	-0.002085	-0.000020	-0.000630	-0.001656	5545.227125	34376.933614	3528.334239	18518.590271
29.037500	0.002806	0.000204	0.007842	-0.000800	5571.690045	34330.885701	3543.258577	18487.436844
29.535000	-0.000651	0.000094	0.006783	-0.001559	5553.967678	34378.164458	3542.666527	18515.053902
30.035000	-0.002099	0.000103	0.000430	0.003542	5511.398640	34009.273539	3520.332625	18330.363962
30.538000	0.002557	0.000827	0.004448	-0.000838	5570.298061	34379.027422	3536.648869	18488.813787
31.058000	-0.000425	0.000288	0.001129	-0.001177	5552.941662	34364.374869	3530.822558	18501.127261
31.536000	-0.003553	-0.000209	0.001409	0.002842	5506.537392	34037.138363	3523.569261	18355.562923
32.036500	-0.004251	-0.000646	-0.009602	0.003467	5498.037804	33960.735281	3501.391247	18333.060298
32.553000	-0.003622	-0.000235	0.001714	-0.002086	5538.006376	34392.551726	3533.739724	18534.259569
33.037000	0.001478	0.000964	0.000003	-0.001186	5565.487901	34414.356137	3528.649871	18501.448645
33.537000	0.002515	-0.000613	0.001962	-0.001244	5572.698224	34303.751765	3532.579757	18503.579888
34.035000	-0.000854	0.000312	0.000441	0.003975	5516.646608	33993.126231	3519.521340	18314.791220
34.538000	0.000733	0.000357	0.004108	-0.002448	5568.889080	34462.201481	3539.145072	18547.450828
35.038000	-0.000606	0.000711	-0.000863	0.001798	5532.356125	34179.075729	3521.201232	18393.245136
35.536000	0.000109	-0.000380	0.001776	0.000797	5543.533058	34172.616198	3528.243023	18429.482997
36.036000	-0.000653	-0.000014	-0.000750	0.002859	5525.169468	34050.061967	3519.378139	18354.976865
36.536500	-0.000715	-0.000152	0.004801	0.000952	5537.151758	34177.861694	3533.835829	18423.866251
37.036500	-0.000122	0.000574	0.003496	0.001887	5534.928724	34162.759029	3529.467163	18390.043655
37.536500	-0.000965	-0.000507	-0.000132	0.000926	5535.692677	34154.017602	3524.293840	18424.799806
38.037000	0.000169	-0.000362	0.004768	0.001843	5537.109514	34098.279330	3532.030466	18391.646740
38.537500	0.000183	0.000719	-0.006010	0.001941	5536.561871	34169.297094	3511.072684	18388.085045
39.035000	0.000808	0.000631	0.001321	0.002214	5538.852743	34143.239974	3524.614206	18378.242123
39.535000	-0.002295	-0.000100	-0.000977	0.001446	5523.683459	34145.884695	3521.660065	18405.985845
40.035000	-0.003117	-0.000582	-0.004155	0.001130	5520.409556	34133.905227	3516.162314	18417.430561
40.536000	-0.000577	0.000720	0.006375	0.002023	5531.086377	34163.439582	3534.818116	18385.118039
41.036000	-0.002586	-0.001065	-0.002481	0.000701	5526.627165	34130.009172	3520.199407	18432.963748
41.536500	0.001359	0.000405	-0.001239	0.002036	5543.608900	34139.726392	3520.019696	18384.671643
42.037000	-0.003120	-0.000796	-0.000035	0.000825	5522.362228	34140.412128	3524.676038	18428.444072
42.537000	-0.000539	-0.000372	0.003189	0.001225	5536.521158	34142.200934	3530.158382	18413.980314
43.037500	-0.002001	-0.000758	0.005713	0.001113	5527.754073	34122.426738	3535.306315	18418.045528
43.534500	-0.002328	-0.000437	0.004109	0.000912	5526.931916	34160.067524	3532.560977	18425.298994
44.035000	-0.001969	0.000263	0.003058	0.001716	5524.048340	34152.606801	3528.947704	18396.216229
44.538500	-0.003505	-0.000219	0.001602	0.000981	5518.857933	34170.917480	3527.545952	18422.802604
45.036000	0.001580	-0.000755	0.004494	-0.004066	5585.159234	34499.145784	3543.095391	18606.599057
45.537000	0.000072	0.000568	0.002162	-0.000249	5550.118611	34317.218518	3531.026541	18467.389343
46.049500	-0.002528	-0.000877	0.001094	0.004620	5501.693536	33861.354697	3519.537641	18291.607265
46.537000	0.000842	0.000396	-0.003380	-0.001051	5560.422892	34363.111963	3521.841739	18496.558888
47.037000	0.000819	0.000158	-0.000248	-0.001373	5562.388163	34369.288009	3528.526362	18508.286602
47.536500	-0.002108	0.000669	0.001973	0.000107	5533.589508	34298.739510	3529.967774	18454.489925
48.037500	-0.002262	-0.000881	-0.002009	0.004066	5506.971396	33900.816516	3514.652150	18311.513393
48.538000	-0.002090	0.000224	0.000002	0.002097	5520.797363	34122.251578	3522.292533	18382.453170
49.035500	-0.001313	0.000323	0.005577	0.002593	5522.618015	34093.568889	3532.146469	18364.561963
49.535500	-0.000156	0.000250	0.001295	0.002020	5533.840602	34129.695968	3524.937876	18385.235147
50.035500	-0.003119	-0.000955	0.000249	0.004146	5500.941391	33889.729016	3518.824337	18308.626765
50.536000	0.002126	0.000002	0.003094	-0.000988	5568.451963	34329.865027	3534.291804	18494.266140
51.036500	0.001508	0.000222	0.003827	-0.002171	5572.167924	34432.082082	3538.047832	18537.352337
51.536500	-0.000852	0.000264	0.003239	0.001588	5532.122521	34161.915071	3529.547862	18400.832070
52.037000	-0.002314	0.000268	0.000794	0.003204	5512.195105	34045.474428	3521.685162	18342.522790
52.538000	0.003415	0.001146	0.005799	-0.012385	5653.182419	35255.604148	3562.330832	18914.265855
53.037500	0.003658	-0.004958	-0.000589	0.181291	4595.285552	23262.988495	3238.357358	13080.109527
53.535000	0.001872	-0.011317	0.006074	-0.060750	5988.239660	38058.634642	3666.343916	20824.513623
54.038000	-0.010160	-0.030258	-0.007013	-0.283515	8035.701208	59216.762331	4275.572499	32972.138944
54.535500	0.011482	-0.016793	0.013855	-0.233436	7698.144294	54649.772631	4172.088945	29675.024912
55.036000	-0.013273	-0.014168	-0.002523	-0.197786	7050.435359	50848.146254	4004.159068	27549.092961
55.539000	-0.008333	-0.009781	-0.011028	-0.231226	7451.486185	55227.144302	4082.133313	29538.120756
56.036500	-0.006994	-0.005195	-0.009591	-0.224762	7395.847673	55000.504521	4066.050058	29141.567058
56.536500	-0.002522	-0.004208	-0.002942	-0.210403	7290.392496	53415.716054	4041.744662	28281.635874
57.037000	0.000217	-0.000784	-0.010391	-0.190167	7109.510377	51491.154475	3957.934347	27116.922296
57.537500	-0.003698	-0.002182	-0.006736	-0.170874	6880.573350	49222.553741	3912.903865	26055.919535
58.035000	-0.005726	-0.003242	-0.007810	-0.149374	6660.644422	46869.150360	3850.693423	24927.777353
58.538000	0.001211	-0.002999	-0.002866	-0.131468	6562.104255	45109.988699	3816.402388	24029.870007
59.035500	0.001848	-0.003729	0.001226	-0.114250	6417.810329	43394.349048	3782.712562	23200.759081
59.535500	-0.001573	-0.002560	0.002367	-0.094205	6222.775604	41664.734413	3735.940047	22275.947565
60.036500	-0.005625	-0.003663	-0.006142	-0.065984	5971.194782	39122.733937	3650.686822	21044.258416
60.536000	-0.003488	-0.001972	-0.004542	-0.050861	5875.120047	38014.426512	3621.071357	20416.428728
61.036500	-0.001639	-0.002552	-0.004045	-0.037912	5795.250494	36932.227863	3594.605686	19895.965915
61.537000	-0.004154	-0.002469	-0.004474	-0.023891	5679.981810	35851.982376	3564.827793	19349.626873
62.037000	-0.009527	-0.002007	-0.005799	-0.007765	5536.536574	34678.688980	3530.160637	18742.681113
62.534500	-0.006003	-0.002617	-0.006790	-0.005183	5542.670732	34444.677595	3523.233042	18647.559608
63.035500	-0.009588	-0.002252	-0.002936	-0.009695	5548.718870	34802.863249	3539.543570	18814.119475
63.535000	-0.010966	-0.002471	-0.002314	-0.016268	5582.890249	35275.570057	3553.824475	19059.904973
64.035500	-0.012371	-0.003346	-0.006090	-0.016470	5574.939540	35225.226220	3546.702657	19067.527467
64.536000	-0.010905	-0.003345	-0.009302	-0.020201	5609.432272	35505.593541	3547.731524	19208.739202
65.048000	-0.006886	-0.002842	-0.003641	-0.022939	5654.898424	35751.130987	3564.586834	19313.163557
65.539500	-0.008026	-0.003089	-0.009713	-0.023376	5650.127148	35765.476469	3553.242495	19329.864202
66.045000	-0.006162	-0.002126	-0.003303	-0.022581	5657.375022	35778.342907	3564.545658	19299.464296
66.537000	-0.008099	-0.001916	-0.001991	-0.021869	5639.457245	35740.132751	3565.761983	19272.274357
67.037000	-0.004826	-0.001055	-0.002441	-0.019977	5648.784326	35661.818272	3561.021570	19200.211970
67.535500	-0.007570	-0.000974	-0.004807	-0.018696	5621.670499	35570.992693	3553.695165	19151.626044
68.038000	-0.009659	-0.001916	-0.011010	-0.013591	5573.841388	35116.932784	3531.359835	18959.358641
68.535500	-0.008328	-0.001258	-0.002904	-0.017954	5611.633913	35493.542332	3556.022019	19123.542952
69.035500	-0.006839	-0.001212	-0.010185	-0.017137	5616.128649	35435.428486	3539.924425	19092.685911
69.536000	-0.006531	-0.000738	-0.007132	-0.014849	5602.907590	35299.106383	3541.432627	19006.538753
70.036000	-0.009842	-0.001321	-0.012901	-0.009849	5548.072113	34883.137135	3520.449455	18819.868993
70.536500	-0.007384	-0.001441	-0.003752	-0.015374	5600.721216	35285.708789	3549.169183	19026.250137
71.037000	-0.005937	-0.000571	-0.003137	-0.014306	5603.242777	35270.840280	3548.267440	18986.131153
71.537000	-0.005788	-0.000797	-0.003510	-0.012940	5595.152637	35151.846249	3544.817353	18935.005005
72.037000	-0.006202	-0.000766	-0.010618	-0.011124	5580.379312	35018.861688	3527.323860	18867.265838
72.538000	-0.008617	-0.001340	-0.008915	-0.013663	5581.191142	35165.263802	3535.594904	18962.041802
73.035500	-0.003861	-0.000354	-0.001979	-0.012909	5607.775360	35182.615403	3547.794561	18933.848462
73.535500	-0.009761	-0.000570	-0.003511	-0.009705	5547.664642	34928.079816	3538.432663	18814.518794
74.036000	-0.012806	-0.000676	-0.008215	-0.006667	5508.189561	34695.846653	3523.347995	18702.169151
74.536500	-0.004825	0.000148	-0.010133	-0.010441	5584.964317	35036.026392	3526.940389	18841.853092
75.036500	-0.005425	0.000789	-0.003954	-0.009891	5577.363025	35042.843898	3537.927542	18821.416041
75.536500	-0.008370	0.000139	-0.007626	-0.008069	5546.056841	34859.427443	3527.201091	18753.915803
76.037500	-0.005675	-0.000353	-0.004933	-0.007425	5559.486108	34775.486075	3531.185752	18730.127833
76.537000	-0.005781	-0.000776	-0.007446	-0.009824	5574.569323	34921.619388	3530.963505	18818.919261
77.038000	-0.003866	0.000240	-0.002347	-0.008475	5578.303119	34896.914383	3538.302010	18768.921283
77.538000	-0.007305	0.000564	-0.004300	-0.007664	5550.370150	34860.864392	3532.887574	18738.946212
78.035500	-0.008487	0.000700	-0.010455	-0.003353	5514.673185	34553.503944	3512.691639	18580.524990
78.536000	-0.006340	-0.000170	-0.007264	-0.008229	5560.394680	34848.360451	3528.213880	18759.828154
79.036000	-0.002908	0.000656	-0.006856	-0.006838	5573.829036	34806.666523	3526.307989	18708.482295
79.536500	-0.002752	0.000893	-0.003632	-0.006114	5570.085407	34770.694554	3531.167264	18681.816480
80.037000	-0.005977	-0.000125	-0.002952	-0.004742	5539.969967	34594.881170	3529.818187	18631.391841
80.537000	-0.006395	0.000820	-0.004555	-0.006541	5548.980290	34796.800144	3530.200384	18697.511799
81.040000	-0.006816	-0.001094	-0.004129	-0.007343	5551.472107	34714.858887	3532.595611	18727.107019
81.537500	-0.004768	0.000019	0.003222	-0.005672	5553.937045	34673.741472	3543.755728	18665.534286
82.035000	-0.006747	0.000005	-0.008470	-0.003681	5528.055366	34526.594754	3517.110637	18592.495245
82.535000	-0.004890	-0.000160	-0.008204	-0.005836	5554.212991	34672.642629	3521.765482	18671.564518
83.035000	-0.005010	-0.000122	-0.000091	-0.005190	5549.204703	34627.951903	3536.283041	18647.834876
83.535500	-0.005464	0.001553	-0.009757	-0.004011	5538.543051	34664.398924	3515.278903	18604.589099
84.036000	-0.005750	0.000759	-0.006360	-0.002104	5524.298792	34466.479185	3518.134994	18534.917253
84.536000	-0.004572	-0.000181	0.002839	-0.004658	5548.585912	34584.596209	3540.998065	18628.311828
85.037000	-0.003369	0.001410	-0.003032	-0.003244	5547.207317	34597.538177	3526.754049	18576.527935
85.537000	-0.002494	0.000810	-0.003539	-0.003696	5555.890704	34586.739437	3526.647513	18593.072551
86.037500	-0.005674	-0.000089	-0.006717	-0.002492	5527.311966	34432.868580	3518.194124	18549.076506
86.537500	-0.006916	0.000177	-0.000800	-0.003765	5527.509946	34545.375230	3532.109046	18595.602180
87.038000	-0.007104	0.000393	-0.000528	-0.003786	5526.423553	34562.716834	3532.680664	18596.351310
87.535500	-0.007174	0.000316	-0.008040	-0.003658	5525.142590	34547.738168	3517.893141	18591.674643
88.035500	-0.007373	-0.000903	-0.003815	-0.003716	5524.232881	34462.787259	3526.151568	18593.806909
88.535500	-0.007264	0.000055	-0.000977	-0.003722	5524.971636	34533.266891	3531.677790	18594.001501
89.036500	-0.002759	0.000647	-0.007478	-0.002802	5548.308780	34509.288563	3517.329425	18560.385135
89.536500	-0.002816	0.001430	-0.001974	-0.002199	5543.997695	34522.486369	3526.778545	18538.370570
90.037000	-0.005854	0.000998	0.000036	-0.002278	5524.748359	34496.571394	3530.838412	18541.232650
90.537000	-0.005917	0.000241	-0.006921	-0.003181	5530.204485	34507.275212	3519.126215	18574.231338
91.037000	-0.002742	0.001629	-0.003167	-0.001371	5539.079874	34476.375411	3522.867525	18508.181348
91.537500	-0.005071	0.000334	-0.003691	-0.002256	5529.688513	34446.446205	3523.566851	18540.445799
92.035500	-0.003146	0.000672	-0.008972	-0.002153	5541.540415	34463.608382	3513.228760	18536.673840
92.535500	-0.005629	-0.000071	0.003777	-0.002906	5530.290901	34464.407460	3539.395412	18564.183780
93.036000	-0.005441	-0.000975	-0.006037	-0.003177	5533.266031	34418.160729	3520.818656	18574.072665
93.536000	-0.008196	-0.000772	-0.006417	-0.002272	5509.574678	34366.961582	3518.347240	18541.033216
94.036500	-0.003477	0.000391	-0.008264	-0.001905	5537.771489	34425.010937	3514.109537	18527.656843
94.536500	-0.007099	0.000612	-0.007577	-0.001897	5514.236118	34440.556319	3515.406405	18527.366652
95.037000	-0.006920	0.000183	-0.001760	-0.002399	5518.631544	34445.891794	3527.581567	18545.660460
95.540000	-0.006194	-0.000543	-0.002099	-0.002242	5522.318353	34381.499913	3526.621142	18539.946495
96.034500	-0.008288	0.000322	-0.006184	-0.000480	5497.451178	34316.152379	3515.359515	18475.781474
96.538000	-0.005790	0.000385	0.000082	-0.001776	5521.912611	34415.157888	3529.949665	18522.932166
97.035000	-0.005850	0.000492	-0.005305	-0.001689	5520.962634	34416.669581	3519.363490	18519.785042
97.535500	-0.003757	0.000530	-0.003702	-0.000810	5528.834933	34355.362170	3520.756892	18487.796279
98.036000	-0.007145	0.000127	-0.007021	-0.000439	5504.537239	34298.997288	3513.683014	18474.297475
98.536000	-0.007003	0.000012	-0.003307	-0.001875	5514.710242	34395.150927	3523.572032	18526.550417
99.036500	-0.005961	-0.000471	0.001031	-0.002054	5522.607689	34373.042119	3532.342637	18533.078905
99.536500	-0.005512	-0.000167	-0.007712	-0.001225	5520.149075	34334.756303	3513.863931	18502.877081
100.037000	-0.005845	0.000468	-0.007527	-0.000412	5512.743983	34321.811807	3512.666025	18473.326929
100.537500	-0.005054	-0.000163	-0.003608	-0.001787	5526.754738	34375.990138	3522.820497	18523.346408
101.037500	-0.005770	0.000845	-0.003288	-0.001219	5518.437714	34408.101245	3522.342574	18502.667962
101.535000	-0.004232	0.000487	-0.004678	-0.001123	5527.776702	34374.992572	3519.480096	18499.155477
102.035500	-0.004493	0.000718	-0.008316	-0.000528	5522.235544	34348.525073	3511.384787	18477.555390
102.536000	-0.005222	0.000202	-0.007233	-0.001463	5523.565620	34378.992522	3515.232770	18511.534711
103.036000	-0.004984	0.000741	-0.012334	-0.001237	5523.644031	34401.804533	3505.107682	18503.304674
103.536500	-0.002825	0.000387	-0.002128	-0.001331	5538.276245	34382.834011	3524.799477	18506.729961
104.036500	-0.005821	0.000183	-0.006436	-0.001540	5520.182920	34383.247045	3516.906654	18514.345474
104.537000	-0.007461	-0.000464	-0.001149	-0.002253	5514.196048	34388.056234	3528.485858	18540.343889
105.037500	-0.003221	0.000501	-0.000934	-0.000950	5533.225269	34363.422897	3526.374710	18492.884087
105.538000	-0.006061	0.000210	-0.001036	-0.001144	5516.074854	34356.369056	3526.553371	18499.951288
106.037500	-0.006025	0.000365	-0.001363	-0.000912	5514.813901	34350.752384	3525.469506	18491.513674
106.535000	-0.004560	0.000841	-0.004177	-0.000744	5523.196489	34373.160864	3519.715408	18485.392174
107.036000	-0.004519	0.000161	-0.001967	-0.001264	5526.830629	34361.510127	3524.980773	18504.293128
107.536000	-0.005690	0.000012	-0.006642	-0.001279	5519.349350	34351.756816	3516.014379	18504.865141
108.036500	-0.004038	0.000384	0.001332	-0.000278	5523.560333	34306.050726	3529.468368	18468.471794
108.536000	-0.006296	-0.000011	-0.000390	-0.001238	5515.160946	34347.058589	3527.986899	18503.341227
109.037000	-0.004404	-0.000318	-0.005088	-0.001922	5531.848206	34374.538541	3520.228120	18528.261431
109.537000	-0.004674	0.000640	-0.004703	-0.000843	5523.097524	34365.750697	3518.894587	18488.982388
110.037500	-0.007209	-0.000788	-0.005437	-0.001453	5510.660379	34306.182892	3518.656417	18511.184961
110.537500	-0.005366	0.000636	-0.003749	-0.000730	5517.886958	34357.231507	3520.511734	18484.871119
111.038000	-0.007464	0.000522	-0.000312	-0.001043	5506.374295	34371.719923	3527.760452	18496.266382
111.535500	-0.004970	0.000469	-0.000486	-0.000657	5519.984001	34339.773539	3526.674109	18482.237740
112.035500	-0.002973	0.000587	-0.002740	-0.000502	5531.927309	34337.073977	3522.015822	18476.601412
112.535500	-0.007233	0.000842	-0.000331	-0.000717	5505.761136	34371.229215	3527.091319	18484.398251
113.036000	-0.006392	-0.000491	-0.004146	-0.001358	5515.321622	34320.933572	3520.957347	18507.733660
113.536500	-0.006554	-0.000449	-0.007010	-0.000921	5511.456004	34292.190147	3514.625486	18491.830873
114.036500	-0.004847	0.000216	-0.003482	0.000115	5515.789273	34265.282348	3519.400826	18454.213817
114.537000	-0.003249	0.000878	-0.001872	-0.000759	5531.797364	34376.970657	3524.187752	18485.926404
115.035500	-0.006342	0.000728	-0.000200	-0.000277	5508.664327	34330.931312	3526.491539	18468.420202
115.535000	-0.003858	0.000000	-0.000246	-0.000629	5527.005239	34303.627399	3527.085087	18481.209134
116.035000	-0.005550	-0.000799	-0.004758	-0.001587	5522.244389	34315.135917	3520.220150	18516.070746
116.535500	-0.004649	0.000570	0.002144	-0.000648	5521.996506	34346.445236	3531.771330	18481.893168
117.036000	-0.003321	-0.000137	-0.006792	-0.001247	5534.500501	34338.555897	3515.664560	18503.672113
117.536000	-0.006847	0.000081	-0.003073	-0.000233	5505.130931	34280.656213	3520.855545	18466.816453
118.036500	-0.004974	0.001142	-0.002900	-0.000046	5516.006769	34344.325500	3520.830155	18460.055414
118.539500	-0.003027	0.000636	-0.000120	-0.000200	5529.610596	34318.584092	3526.497702	18465.614373
119.037000	-0.005137	0.000691	-0.004125	-0.000860	5520.212416	34370.737464	3520.038407	18489.620458
119.537000	-0.003327	0.000044	-0.011753	-0.000012	5526.442131	34261.951819	3503.893612	18458.803820
120.038000	-0.007310	-0.000124	-0.004213	-0.000853	5506.140445	34310.819852	3519.856130	18489.341073
120.535000	-0.004397	0.000451	0.001473	-0.000237	5520.964166	34307.879615	3529.661300	18466.954196
121.035500	-0.004928	0.000605	-0.004837	-0.000699	5520.522356	34352.749383	3518.361597	18483.762647
121.536000	-0.004241	-0.000434	-0.004601	-0.000299	5522.383127	34248.100999	3518.046344	18469.218212
122.036000	-0.005123	0.000577	-0.003482	-0.000471	5517.783200	34334.041454	3520.526090	18475.458410
122.536500	-0.004643	0.000981	-0.005683	-0.000216	5519.238823	34344.859824	3515.813477	18466.196192
123.036500	-0.002662	0.000121	0.000725	-0.001059	5537.574991	34343.712605	3529.807066	18496.861651
123.537000	-0.005727	0.000201	-0.000135	0.000565	5507.203962	34231.534303	3524.986780	18437.892067
124.040000	-0.003116	0.000425	-0.007180	-0.000191	5528.977970	34302.710876	3512.907121	18465.319224
124.540000	-0.005301	-0.000073	-0.000937	-0.001013	5520.139588	34326.192454	3526.489663	18495.162003
125.035000	-0.004264	0.000732	-0.008571	-0.001029	5526.966058	34386.014667	3511.852932	18495.752545
125.535500	-0.004570	0.000451	-0.003699	0.001025	5511.696524	34216.235804	3517.236711	18421.213564
126.035500	-0.004451	0.000533	-0.003836	-0.000100	5519.736465	34303.905886	3519.133135	18462.012641
126.536000	-0.004177	0.000959	-0.003254	-0.000612	5524.826375	34372.136949	3521.238276	18480.601415
127.036500	-0.005472	-0.000780	-0.005773	-0.001693	5523.437010	34324.246175	3518.472488	18519.927835
127.536500	-0.005781	-0.000807	-0.013110	0.001408	5501.433400	34097.549374	3498.671902	18407.370998
128.036500	-0.004648	0.000501	0.000964	-0.000546	5521.340411	34333.995019	3529.273405	18478.181309
128.537000	-0.004363	0.000549	-0.001837	-0.000445	5522.540296	34330.208187	3523.650028	18474.541794
129.037500	-0.003138	0.000056	-0.000662	-0.001307	5536.085326	34356.935442	3527.592911	18505.851816
129.537500	-0.004758	-0.000869	-0.006777	0.001536	5507.189584	34083.804903	3510.383944	18402.716984
130.035000	-0.005216	-0.000238	-0.002855	-0.000177	5515.284516	34253.445117	3521.167269	18464.781351
130.535500	-0.005967	0.000608	0.000613	-0.000723	5513.959777	34354.648860	3528.935447	18484.614983
131.036000	-0.002826	0.001217	0.000586	-0.000161	5530.663737	34358.078688	3527.792384	18464.219657
131.536000	-0.008935	0.000116	-0.007087	0.002857	5471.998216	34059.549535	3507.288478	18355.025502
132.036500	-0.005344	0.000838	0.002236	-0.000362	5515.653993	34345.074389	3531.391077	18471.493509
132.536500	-0.005321	0.000388	-0.003891	-0.000673	5517.814031	34335.037024	3520.128039	18482.802955
133.036500	-0.002717	0.000113	-0.007816	-0.001148	5537.786558	34349.557319	3513.518244	18500.075674
133.537000	-0.006434	-0.000116	-0.001842	0.003344	5484.838633	34007.698692	3516.351269	18337.476705
134.040000	-0.003832	0.001007	-0.005662	-0.000148	5524.053380	34341.843103	3515.723242	18463.744443
134.538000	-0.006629	0.000097	-0.005779	-0.001257	5513.141326	34356.382990	3517.624245	18504.061418
135.035500	-0.003148	0.000914	-0.005162	-0.000048	5527.840044	34327.799216	3516.490494	18460.117829
135.535500	-0.006429	0.000421	-0.004993	0.003727	5482.428736	34018.846105	3509.613232	18323.716862
136.036000	-0.004472	0.001351	-0.006133	-0.000087	5519.516350	34362.490810	3514.707371	18461.528431
136.536000	-0.003663	0.000431	-0.000227	-0.000896	5530.004332	34354.390734	3527.640920	18490.918168
137.037000	-0.005400	0.000511	-0.010170	-0.000908	5518.823693	34361.113444	3508.583625	18491.356774
137.536500	-0.010870	0.000534	-0.005504	0.004729	5447.901566	33954.884085	3506.743404	18287.709177
138.037000	-0.005658	0.000326	-0.000229	-0.000793	5516.410683	34339.222570	3527.435508	18487.168618
138.537000	-0.003937	0.000774	-0.004002	-0.000234	5523.926598	34331.127163	3519.070098	18466.847529
139.037000	-0.004422	-0.000020	-0.004344	-0.001374	5528.175873	34356.358564	3520.605652	18508.301762
139.535000	-0.004370	-0.000521	-0.007901	-0.000771	5524.609126	34276.052708	3512.638517	18486.388327
140.035000	-0.005690	0.000324	0.001448	-0.000700	5515.606561	34332.368591	3530.516015	18483.796611
140.535500	-0.005134	0.000254	0.001182	-0.000829	5520.030791	34336.618206	3530.247567	18488.472583
141.036000	-0.002200	0.000863	-0.002608	-0.000228	5535.168800	34337.201383	3521.743310	18466.654503
141.536000	-0.004176	0.000439	0.002125	-0.000405	5523.490025	34319.242728	3531.259754	18473.076202
142.036500	-0.006264	0.000196	-0.011771	-0.001198	5515.113909	34359.257511	3506.099213	18501.910141
142.537000	-0.002692	0.000713	-0.000524	-0.000266	5532.218028	34329.035187	3525.842322	18468.025275
143.037000	-0.004648	0.000767	-0.007867	-0.000657	5522.064097	34361.439576	3512.485401	18482.236418
143.540000	-0.008360	-0.000401	-0.004896	0.004918	5462.568168	33874.133005	3507.537389	18280.925967
144.038000	-0.003439	0.000551	0.000400	-0.000670	5529.985754	34346.596281	3528.418466	18482.683747
144.535500	-0.002530	0.000113	-0.007801	-0.000830	5536.941180	34326.407421	3512.940413	18488.517493
145.035500	-0.002632	0.000318	-0.004400	-0.000711	5535.498305	34332.695473	3519.223438	18484.199420
145.535500	-0.008692	-0.000100	-0.006169	0.003860	5467.176050	33971.751901	3507.129199	18318.925921
146.035500	-0.003896	0.001384	-0.000459	0.000235	5521.153153	34341.363858	3524.998658	18449.829083
146.536500	-0.001962	0.001100	0.000771	0.000075	5534.741466	34332.383935	3527.692234	18455.631155
147.036500	-0.006489	0.000154	-0.000444	-0.000652	5510.137292	34316.440241	3526.744960	18482.040712
147.537000	-0.007114	-0.000763	-0.005847	0.003983	5476.428722	33915.242968	3507.505836	18314.495468
148.040000	-0.004518	0.000473	0.000337	-0.000705	5523.216747	34343.549365	3528.364518	18483.968312
148.537500	-0.004874	0.000421	-0.001778	-0.000937	5522.410944	34356.604824	3524.713529	18492.397623
149.035000	-0.004463	0.001101	-0.001443	-0.000168	5520.096307	34350.140972	3523.874444	18464.467911
149.535500	-0.010083	0.000384	-0.009252	0.005559	5447.624879	33884.446733	3498.122231	18257.935855
150.035500	-0.001722	0.000520	0.000739	-0.000557	5540.422746	34336.182211	3528.858140	18478.591878
150.536000	-0.005732	0.000170	-0.004932	-0.000642	5514.952294	34316.880815	3518.068050	18481.667743
151.036000	-0.004599	-0.000075	-0.004925	-0.000396	5520.688961	34281.197203	3517.610938	18472.746370
151.536500	-0.003782	0.000781	-0.006154	-0.000456	5526.378048	34347.886268	3515.373269	18474.943099
152.037000	-0.006793	0.000147	0.000059	-0.001159	5511.443058	34352.807611	3528.705248	18500.469279
152.537000	-0.006055	-0.001083	0.003686	-0.002235	5523.169216	34341.637456	3537.894629	18539.672129
153.040000	-0.002564	0.000584	-0.001651	-0.000512	5534.645614	34337.548993	3524.137264	18476.942738
153.535000	-0.006179	0.001343	-0.003640	0.005959	5469.801220	33924.536242	3507.942807	18243.593260
154.035500	-0.004388	-0.000626	-0.001293	-0.001173	5527.090765	34297.626569	3526.110392	18500.991571
154.535500	-0.004449	0.000268	-0.003087	-0.001161	5526.616246	34361.784403	3522.617701	18500.538072
155.035500	-0.004212	-0.000029	-0.005486	-0.000364	5522.993865	34282.225805	3516.475311	18471.595157
155.536000	-0.007569	-0.000083	-0.000366	0.005608	5463.209342	33847.469471	3514.844944	18256.173822
156.036000	-0.004450	-0.000250	-0.000991	-0.001301	5527.524917	34334.269861	3526.943762	18505.651389
156.536500	-0.003274	0.000264	-0.003579	-0.000881	5532.426383	34341.105165	3521.128951	18490.362881
157.037000	-0.004429	0.000873	0.003686	0.000078	5518.723246	34315.642152	3533.363018	18455.525122
157.540000	-0.009570	0.000713	-0.002709	0.006157	5447.091267	33865.186444	3509.335315	18236.534721
158.035000	-0.005302	0.000095	-0.003124	-0.000577	5517.318366	34306.731114	3521.420690	18479.323739
158.535000	-0.003787	0.000918	0.003219	-0.000021	5523.517842	34326.117288	3532.644068	18459.117948
159.035500	-0.008116	0.000424	-0.004858	-0.000244	5497.042619	34306.424557	3517.446857	18467.207926
159.535500	-0.006234	-0.000004	-0.002285	0.006227	5467.754129	33808.839872	3510.006704	18234.019618
160.036000	-0.001786	0.000432	-0.002728	-0.000489	5539.561557	34324.817633	3522.013790	18476.121868
160.536500	-0.004327	0.000251	0.000130	-0.000875	5525.553421	34339.736075	3528.291566	18490.150930
161.036500	-0.004959	0.000589	0.001762	0.000074	5515.323648	34295.305708	3529.621037	18455.683435
161.536500	-0.005749	0.000051	-0.008617	0.005772	5473.724202	33845.331681	3498.912705	18250.294801
162.037000	-0.006624	0.000615	-0.003262	-0.000634	5509.152779	34348.691553	3521.265095	18481.402404
162.537000	-0.003401	-0.000402	0.000702	-0.000370	5528.291588	34255.608139	3528.423355	18471.810501
163.034500	-0.003369	0.001396	-0.005240	0.000358	5523.773629	34333.400965	3515.564634	18445.395377
163.535000	-0.007945	0.000608	-0.008183	0.006022	5458.202586	33867.297922	3499.259666	18241.357817
164.035500	-0.006575	0.001056	-0.003002	-0.000639	5509.493500	34381.176198	3521.774863	18481.560656
164.535500	-0.009001	-0.000366	-0.006365	-0.000998	5496.205937	34303.793880	3516.004532	18494.613423
165.036000	-0.006153	0.000403	0.000480	0.000203	5506.793032	34272.411611	3526.879520	18450.992393
165.536500	-0.004196	-0.000162	-0.002827	-0.000344	5522.966790	34271.127117	3521.543906	18470.855469
166.036500	-0.003426	0.000608	0.003492	-0.000037	5525.967760	34304.766928	3533.210573	18459.726484
166.537000	-0.003366	0.000318	-0.002487	-0.000455	5529.072192	34314.071462	3522.414320	18474.905377
167.039500	-0.004132	0.000442	0.001866	0.000791	5516.033894	34232.566733	3528.427331	18429.684148
167.537500	-0.005733	0.000657	-0.003244	0.000079	5510.295399	34299.879057	3519.926535	18455.486888
168.035000	-0.004284	0.000585	-0.002254	-0.000117	5520.924985	34308.909700	3522.211387	18462.630014
168.535000	-0.004491	0.001316	-0.004104	0.000505	5515.567380	34316.813303	3517.457530	18440.057962
169.035500	-0.008553	0.000686	0.001844	0.000555	5489.125557	34267.447165	3528.844989	18438.246775
169.538500	-0.008381	-0.000646	-0.006338	0.004494	5465.125303	33886.964799	3505.610617	18296.143246
170.036000	-0.004398	0.001662	0.000805	0.000476	5516.352579	34344.168376	3526.981185	18441.116920
170.536500	-0.002265	0.001091	0.001548	0.000264	5531.548642	34318.006537	3528.835074	18448.793405
171.037000	-0.003559	0.000201	-0.001861	0.000432	5522.061330	34241.155210	3521.909733	18442.701958
171.537000	-0.009145	-0.000902	-0.005526	0.004754	5458.633032	33849.968824	3506.653909	18286.787506
172.037500	-0.002363	0.000394	-0.008111	-0.000571	5536.339039	34328.018688	3511.856616	18479.110229
172.537000	-0.005999	-0.000181	-0.003592	-0.001081	5516.067097	34323.256245	3521.490113	18497.628523
173.034500	-0.003830	0.000468	-0.000963	0.000155	5522.104118	34280.669800	3524.179334	18452.752708
173.534500	-0.007841	-0.000105	-0.003229	0.004628	5467.693949	33916.122540	3511.251122	18291.302851
174.035500	-0.004003	0.000999	-0.008719	0.000116	5521.232306	34322.058177	3509.393326	18454.159728
174.535500	-0.006754	0.000512	0.003115	0.000001	5504.224286	34295.054467	3532.399288	18458.344035
175.036000	-0.004792	0.001280	0.003009	0.000359	5514.560732	34324.818182	3531.494395	18445.337201
175.536500	-0.006966	-0.000040	-0.004326	0.004613	5473.353984	33921.869475	3509.195574	18291.843940
176.037000	-0.005843	0.000883	-0.005980	-0.000061	5510.489031	34326.509851	3514.949225	18460.577285
176.540000	-0.003040	0.000852	0.004527	0.000182	5527.048768	34306.585801	3534.805859	18451.764741
177.037500	-0.005251	-0.000631	-0.003090	-0.001089	5520.958385	34291.200528	3522.474207	18497.954298
177.537500	-0.006278	0.000686	-0.003974	0.003405	5485.448629	34061.149613	3512.162625	18335.303257
178.035000	-0.002923	0.000266	-0.001683	-0.000037	5529.229459	34279.917433	3523.158214	18459.708131
178.535500	-0.002120	0.000646	0.000626	-0.000006	5534.249012	34305.289551	3527.569466	18458.598727
179.036000	-0.003469	0.000806	0.000607	0.001510	5515.678697	34206.844056	3524.594737	18403.687444
179.535500	-0.007592	-0.000473	-0.006160	0.004168	5472.208894	33922.808483	3506.563296	18307.851767
180.036500	-0.003807	0.000929	0.002098	0.000473	5520.190034	34291.030549	3529.497219	18441.209718
180.537000	-0.003230	0.000077	-0.001180	-0.000480	5530.111103	34298.331347	3524.986488	18475.786469
181.037500	-0.004371	-0.000707	-0.005145	0.000239	5518.061370	34189.303067	3515.972979	18449.699587
181.537500	-0.006796	0.000436	-0.012060	0.004672	5474.063440	33951.883240	3494.533143	18289.744644
182.037500	-0.004170	0.000023	0.000794	-0.000159	5521.930991	34271.097215	3528.191193	18464.127066
182.535000	-0.004904	-0.000056	-0.002863	-0.000776	5521.173065	34310.168212	3522.307561	18486.544715
183.035500	-0.006853	-0.000227	-0.006720	0.000381	5501.146584	34213.794936	3512.692018	18444.552220
183.535500	-0.006324	-0.000377	-0.003021	0.004363	5479.036104	33915.637454	3512.152194	18300.820784
184.035500	-0.004855	-0.000643	-0.001912	-0.000972	5522.762189	34281.796877	3524.523214	18493.683388
184.536500	-0.003347	0.000864	-0.003166	0.000165	5525.166799	34308.687519	3519.911060	18452.366503
185.036500	-0.005355	-0.000093	-0.003009	-0.000419	5515.951135	34281.545563	3521.337289	18473.568203
185.550500	-0.006251	0.000103	-0.008671	0.001969	5494.811185	34122.708906	3505.971934	18387.074517
186.050000	-0.005534	0.000684	-0.002328	-0.000300	5514.028059	34329.434597	3522.420483	18469.256416
186.534500	-0.006602	-0.000033	-0.000097	-0.000516	5508.528503	34293.004477	3527.155113	18477.103907
187.038000	-0.003549	0.000193	-0.002133	-0.000602	5528.832709	34315.664162	3523.380977	18480.229768
187.535500	-0.004676	0.000056	-0.005280	-0.000482	5520.750129	34296.998805	3517.095386	18475.867565
188.035500	-0.004992	0.000024	-0.001727	-0.000571	5519.285563	34301.153150	3524.106519	18479.114529
188.536000	-0.005304	-0.000428	0.003195	-0.000826	5518.915543	34286.839913	3534.171893	18488.380565
