sample name	sample
index	81
start time	 02-11-2021  04:22:59 PM
880	-0.030191
Peak Time (s)	90.037
Peak Height 	-0.03019
calc peak height	90,93
Baseline Time (s)	9.036
Baseline Value 	-0.001808
subtract baseline	10,4
Abs	0.002450
Peak Time (s)	91.043
Peak Height 	0.00245
calc peak height	90,93
Baseline Time (s)	10.037
Baseline Value 	0.001882
subtract baseline	10,3
PK_550	-0.005062
Peak Time (s)	92.535
Peak Height 	-0.005062
calc peak height	90,93
Baseline Time (s)	11.536
Baseline Value 	5.8568E-4
subtract baseline	10,2
PK_880	-0.005815
Peak Time (s)	91.538
Peak Height 	-0.005815
calc peak height	90,93
Baseline Time (s)	11.536
Baseline Value 	0.001915
subtract baseline	10,1


Time (s)	A880-A510	A880-A775	A880-A975	A880	I510	I775	I975	I880	
0.034000	0.001264	0.000464	0.009492	0.001774	4635.129566	20560.198363	3326.521449	11079.578755
0.537000	-0.002199	0.000010	0.003977	0.005756	4606.136488	20381.096710	3317.764151	11005.192550
1.035000	-0.003859	-0.001773	-0.000289	0.003034	4610.241392	20418.868069	3316.358646	11055.978036
1.535500	-0.003590	-0.000566	-0.003874	0.000878	4619.654937	20554.772433	3315.061709	11096.418702
2.035000	0.002313	0.000581	0.005932	0.001105	4641.890618	20592.140682	3323.835757	11092.154383
2.535500	-0.005750	-0.002280	-0.007012	0.003131	4602.563763	20394.524736	3310.207392	11054.153193
3.036000	0.003324	0.000128	-0.000108	-0.001782	4657.328141	20691.353999	3320.925356	11146.588345
3.536500	-0.000449	-0.000302	0.000208	-0.000206	4636.179890	20609.550091	3319.768987	11116.831656
4.036500	0.001457	0.000821	-0.001422	-0.000096	4643.249153	20650.824301	3318.176403	11114.746468
4.539500	-0.002288	-0.001650	-0.013633	0.003169	4615.808440	20418.372857	3304.295581	11053.444313
5.037000	0.000289	0.000076	0.007940	0.000393	4636.725656	20600.539552	3326.361723	11105.541014
5.534500	-0.001203	0.000831	-0.003504	0.000661	4629.817613	20620.356650	3315.593047	11100.493845
6.035000	-0.001364	-0.000826	0.001563	0.000049	4631.585942	20577.874979	3320.778695	11112.028021
6.535500	-0.006846	-0.000771	0.000965	0.003826	4595.678152	20427.328463	3316.778335	11041.170906
7.035000	0.003424	0.000069	0.005478	0.000520	4648.593270	20595.118932	3323.956426	11103.151948
7.536000	0.001152	0.000060	0.003498	-0.000109	4642.099863	20620.342661	3322.706448	11114.993431
8.036000	0.001531	0.000413	0.008817	-0.000031	4643.287099	20631.511772	3327.576240	11113.523721
8.536500	-0.000825	0.000261	-0.000563	-0.000098	4634.277517	20628.081120	3318.964019	11114.799320
9.036000	0.001475	-0.000146	0.004581	0.000000	4642.943661	20607.534433	3323.607589	11112.945629
9.537000	0.000320	0.000461	0.000198	0.000197	4637.617380	20624.185523	3319.390697	11109.229471
10.037000	0.000179	0.001100	0.000000	0.000345	4636.481035	20644.225572	3319.074153	11106.453298
10.537500	-0.001496	-0.000666	-0.001919	-0.001100	4635.578886	20631.144680	3318.640728	11133.704934
11.035000	-0.001989	-0.001190	-0.013507	-0.001052	4633.450222	20607.813451	3308.144253	11132.790152
11.535500	0.000000	0.000000	0.004018	0.000586	4634.830447	20589.616464	3322.545516	11101.909801
12.035500	-0.002214	0.000266	-0.005534	0.003464	4614.949869	20483.757909	3311.233557	11047.935740
12.536000	0.001738	0.000227	0.004691	0.000113	4643.537698	20618.106250	3323.604731	11110.819832
13.036500	-0.000247	0.000428	0.014666	-0.000846	4639.491097	20665.400443	3333.853121	11128.908097
13.536500	0.000376	-0.000051	-0.003031	-0.000358	4640.025548	20625.975868	3316.949871	11119.701680
14.039500	-0.002075	0.000271	0.015145	0.003315	4616.071441	20490.002601	3330.373271	11050.720573
14.537500	-0.002654	-0.001022	0.003692	0.000816	4623.541455	20538.789096	3322.032356	11097.587245
15.042500	0.000515	-0.000753	0.002301	-0.001115	4643.553459	20628.183531	3322.530557	11133.979812
15.535000	-0.003227	0.000176	-0.007379	-0.000647	4627.018180	20646.991253	3313.271977	11125.148472
16.035000	-0.003972	-0.000333	-0.007107	0.004757	4603.149500	20407.457696	3308.671235	11023.796156
16.535500	-0.003537	-0.000640	0.008204	0.005229	4603.005573	20376.130872	3322.123194	11014.994564
17.036000	0.004154	0.000256	-0.002513	-0.003250	4666.498794	20756.750165	3320.065683	11174.420990
17.536000	-0.002472	0.000580	-0.001033	0.001152	4622.943020	20590.186548	3317.394124	11091.268418
18.036500	0.000211	-0.001174	-0.005527	0.002530	4628.035895	20463.308360	3312.078115	11065.405425
18.537000	-0.002890	-0.000918	-0.006357	0.000147	4625.231076	20570.137930	3313.477612	11110.176468
19.037000	-0.003072	0.000105	-0.006238	0.000563	4622.900727	20594.851340	3313.209990	11102.352226
19.537500	-0.000969	-0.001396	-0.000137	0.000664	4630.723221	20529.783905	3318.657253	11100.444063
20.035000	-0.001720	0.000356	0.003739	0.002149	4621.986127	20540.602220	3320.848342	11072.548429
20.535000	-0.001013	-0.001136	0.007773	0.000709	4630.377065	20538.506087	3325.912116	11099.599700
21.035500	-0.001573	0.000556	0.003465	0.001638	4624.553686	20569.480174	3321.066303	11082.139516
21.535500	-0.002816	-0.001250	0.001069	0.000575	4623.850900	20539.308314	3319.842541	11102.121027
22.036000	-0.001244	0.000510	-0.011749	0.002971	4620.641723	20513.566668	3306.134907	11057.158670
22.536500	0.000552	0.000201	0.001457	0.001099	4634.981488	20576.909750	3319.717449	11092.253436
23.036500	-0.000995	-0.000254	0.001658	0.001195	4628.546136	20554.581965	3319.814449	11090.463580
23.539500	-0.003639	0.000142	0.003929	0.001006	4618.966183	20578.344794	3322.076458	11094.018118
24.037000	-0.002032	-0.001519	0.006229	-0.000148	4629.740932	20557.740978	3325.273503	11115.739971
24.537000	0.003101	0.000019	-0.000181	0.000775	4646.303583	20582.700118	3318.515101	11098.345456
25.034500	-0.001508	-0.000273	0.012617	0.001090	4626.948959	20558.069307	3330.088745	11092.436991
25.537500	0.002142	0.001095	0.002701	0.002103	4637.285948	20572.468037	3319.937062	11073.404317
26.035500	0.002877	0.000009	0.007560	0.001463	4642.702844	20554.360864	3325.012714	11085.423842
26.535000	0.000587	-0.001558	0.012023	0.000815	4636.238440	20517.135712	3329.788209	11097.603337
27.036000	0.001853	-0.000361	-0.002053	-0.001918	4652.028294	20676.966969	3319.265673	11149.169444
27.536500	0.002505	0.000538	0.008461	-0.001209	4651.799335	20684.710592	3328.344921	11135.752675
28.036500	0.001167	0.000969	0.008254	0.001077	4637.487436	20609.062020	3326.017465	11092.675499
28.536500	0.000887	0.000048	0.002888	0.004480	4623.060859	20433.944697	3317.933655	11028.951374
29.037500	0.000101	-0.000273	0.003502	-0.000376	4639.010254	20617.652950	3322.956564	11120.027303
29.534500	0.001130	0.000352	0.009741	0.000481	4639.689373	20608.218300	3327.961519	11103.887573
30.035000	-0.001163	-0.000908	0.010891	-0.001086	4636.830995	20620.675934	3330.511670	11133.430629
30.535500	-0.003671	0.000699	0.004420	0.003484	4609.229951	20500.461093	3320.247805	11047.561656
31.035500	0.000190	0.000590	-0.007286	0.002133	4629.510293	20550.742619	3310.856162	11072.849810
31.535500	-0.001324	-0.000818	0.006133	-0.000286	4633.053719	20591.791223	3325.312268	11118.332229
32.036000	-0.005666	-0.000198	0.005056	0.004827	4596.363941	20410.086048	3319.600016	11022.492672
32.536500	-0.004319	-0.000885	-0.000342	0.005296	4599.739082	20363.598440	3314.259892	11013.752296
33.039500	-0.002668	-0.000851	0.003696	-0.001957	4634.339722	20658.531906	3324.600617	11149.899532
33.536500	-0.001736	-0.000798	0.003338	0.000902	4626.792877	20544.391139	3321.627316	11095.972489
34.037000	-0.002646	-0.000219	-0.004038	0.002298	4617.803454	20511.292244	3313.629076	11069.761793
34.535000	-0.000320	-0.001377	0.003857	0.002649	4625.498376	20450.314407	3320.497852	11063.181385
35.034500	-0.000695	-0.000236	0.005513	0.001588	4628.176956	20539.355189	3323.000063	11083.068107
35.535500	-0.001138	-0.000628	0.001868	0.000779	4629.609209	20556.278852	3320.388235	11098.275914
36.035500	-0.003484	-0.000233	-0.002946	0.001950	4615.897276	20524.810175	3314.930076	11076.274639
36.536000	-0.000855	-0.000556	0.006037	0.001425	4628.190247	20532.989958	3323.636663	11086.139099
37.036000	0.000085	0.000378	0.004893	0.002555	4627.446057	20525.059182	3321.536858	11064.938995
37.539500	-0.002506	-0.000162	-0.001641	0.001579	4621.145145	20542.733986	3316.451739	11083.250425
38.037000	0.000698	-0.000209	0.009932	0.001476	4634.074843	20544.981237	3327.210189	11085.175948
38.534000	-0.000110	0.000433	0.003351	0.002505	4626.878453	20529.280746	3320.164938	11065.870260
39.034500	-0.003131	-0.000808	0.003572	0.000870	4621.474255	20545.286879	3321.872096	11096.576565
39.534500	0.000050	-0.000379	-0.002741	0.002102	4629.082712	20512.715038	3314.978911	11073.424649
40.035500	-0.000009	-0.000202	0.000593	0.001983	4629.319576	20524.755115	3318.118703	11075.666859
40.535500	-0.000680	-0.001162	0.006229	0.000656	4631.885406	20539.579349	3324.526012	11100.586795
41.036000	-0.002387	-0.000696	0.000423	0.000975	4623.963305	20545.572031	3318.884750	11094.594462
41.536500	-0.004499	-0.001924	0.008276	0.000225	4618.658813	20526.188237	3326.831968	11108.712746
42.036500	0.000815	0.000501	-0.000674	0.002532	4630.395396	20530.971499	3316.464132	11065.365779
42.536500	-0.001707	0.000203	0.010466	0.001546	4624.387773	20558.875764	3327.643856	11083.864825
43.037000	0.000422	0.000739	-0.002534	0.002493	4629.006425	20542.173899	3314.811886	11066.095623
43.538500	0.000868	-0.000578	0.006034	-0.003431	4654.121335	20729.978599	3328.153332	11177.857222
44.035000	-0.000942	-0.001353	-0.001334	0.003774	4618.687717	20405.947432	3314.738486	11042.125426
44.535000	0.002520	-0.000980	-0.004086	-0.000953	4650.847975	20612.350855	3316.531077	11130.927471
45.035500	0.003209	0.000277	0.000909	0.000302	4648.601422	20612.423567	3319.945927	11107.250858
45.536000	0.000279	-0.000564	-0.001729	-0.000416	4639.868874	20607.421218	3318.188952	11120.785093
46.036000	-0.004275	-0.000018	0.000339	0.004924	4601.339718	20413.399512	3315.212571	11020.681637
46.537000	0.001664	0.000405	-0.018542	0.003751	4628.947234	20477.749168	3299.487328	11042.561444
47.036500	0.000783	0.000464	0.010503	0.002550	4630.198404	20528.746330	3326.740013	11065.028035
47.536500	-0.003308	-0.001918	-0.004047	0.000997	4620.287019	20495.191902	3314.797168	11094.180403
48.037000	-0.002990	0.000383	0.005215	0.005699	4603.304692	20398.350111	3318.946737	11006.253646
48.537000	-0.004029	-0.001195	0.009873	0.000708	4618.606836	20536.141135	3327.872489	11099.612271
49.035000	-0.002060	-0.000843	0.009445	-0.001474	4634.833214	20639.200957	3329.516990	11140.779176
49.535000	0.000324	0.000072	0.003474	-0.005292	4659.361793	20833.172107	3327.499450	11213.273731
50.035000	-0.001258	-0.000535	-0.001000	0.004902	4613.080599	20393.499411	3314.020604	11021.086584
50.535500	-0.047950	-0.030771	0.012289	0.336756	3633.548205	10518.569364	3110.064424	6697.754034
51.036000	-0.021437	-0.024190	0.002305	-0.071538	4845.970401	22649.930264	3393.109578	12578.430324
51.536000	-0.016271	-0.018928	-0.001807	-0.157563	5293.805596	27261.975238	3490.974644	14692.267513
52.036500	-0.019646	-0.015844	-0.002222	-0.195917	5492.131320	29697.633427	3542.948058	15778.397282
52.537000	-0.020709	-0.015598	0.003657	-0.123683	5094.119213	25609.411113	3454.913862	13809.458719
53.037000	-0.023215	-0.012350	0.002485	-0.132033	5123.444562	26223.132942	3463.801366	14020.688346
53.535000	-0.034426	-0.014326	0.005657	-0.130195	5058.499869	26019.509738	3465.469914	13973.838432
54.035000	-0.034311	-0.013491	0.002751	-0.127383	5045.318979	25914.704011	3458.356960	13902.576973
54.535000	-0.027504	-0.009860	-0.001317	-0.140412	5144.209551	26813.381231	3469.546909	14236.773201
55.035500	-0.035389	-0.010892	0.000132	-0.131325	5059.321581	26263.424362	3459.995006	14002.631037
55.536000	-0.018120	-0.006152	0.001763	-0.103558	5008.447428	25058.642111	3428.550888	13316.760867
56.036500	-0.033233	-0.007827	-0.007536	-0.074819	4808.755412	23562.204957	3386.041260	12651.604819
56.539000	-0.028181	-0.007727	-0.006090	-0.074106	4827.626476	23533.143604	3386.826019	12635.655076
57.036500	-0.024915	-0.005457	0.002174	-0.053796	4754.567927	22694.994638	3374.099311	12192.160499
57.537000	-0.027137	-0.008675	0.003449	-0.055899	4754.069445	22644.320550	3377.633469	12237.136361
58.037000	-0.027081	-0.009274	-0.002882	-0.052949	4741.947378	22483.872205	3367.991108	12174.111912
58.535000	-0.023911	-0.009600	-0.003791	-0.042673	4712.533884	22012.428888	3356.643154	11957.933237
59.035000	-0.015765	-0.007568	-0.004333	-0.040972	4739.195673	22026.973353	3354.402627	11922.645925
59.535000	-0.014455	-0.009069	0.010528	-0.044969	4761.446226	22137.040178	3373.608012	12005.793984
60.035500	-0.030739	-0.006083	-0.007935	-0.054021	4731.189428	22676.763446	3363.919138	12196.981281
60.536000	-0.032165	-0.011250	-0.007536	-0.056179	4734.227950	22540.435190	3366.530450	12243.129266
61.036500	-0.023140	-0.013355	-0.007008	-0.054783	4766.216414	22383.002339	3365.642684	12213.246298
61.536000	-0.015830	-0.003107	0.000959	-0.047421	4765.993730	22512.667870	3366.261778	12057.184418
62.034000	-0.016498	-0.004878	-0.014115	-0.033241	4704.262119	21806.626494	3337.298096	11763.951031
62.537000	-0.015003	-0.004181	0.000853	-0.026040	4681.091531	21526.119590	3344.798359	11618.670592
63.048000	-0.010848	-0.004899	0.012321	-0.025861	4697.206691	21487.716861	3355.942467	11615.088321
63.541000	-0.013184	-0.005392	-0.000377	-0.025518	4686.332384	21452.037387	3343.094798	11608.227803
64.035500	-0.014324	-0.005449	-0.011614	-0.025037	4679.788136	21429.130087	3331.875328	11598.622816
64.536000	-0.009653	-0.005412	-0.015244	-0.025276	4699.691688	21440.894039	3328.684669	11603.399048
65.036000	-0.011000	-0.004747	0.009469	-0.025780	4696.255380	21490.758484	3353.018760	11613.466944
65.536000	-0.010796	-0.004487	-0.012611	-0.028035	4706.287272	21598.526275	3333.769720	11658.670758
66.039000	-0.011281	-0.005029	0.002106	-0.030599	4714.817394	21685.642111	3350.499490	11710.365008
66.536500	-0.013215	-0.004933	-0.007356	-0.032438	4714.427759	21769.387390	3343.037321	11747.633101
67.037500	-0.010419	-0.005637	-0.001717	-0.035492	4738.635776	21871.572109	3351.557655	11809.858943
67.534000	-0.010085	-0.004626	0.000290	-0.035652	4740.695466	21922.709805	3353.708929	11813.147685
68.038000	-0.014305	-0.005625	-0.018813	-0.032530	4710.327846	21743.372018	3332.153089	11749.500387
68.535000	-0.011726	-0.005302	0.000371	-0.038151	4744.278567	22002.606381	3356.282973	11864.411212
69.035500	-0.009638	-0.005496	-0.001169	-0.039643	4759.297551	22059.654069	3356.234585	11895.151718
69.535500	-0.010195	-0.004720	0.003190	-0.040259	4759.548842	22121.083685	3361.241348	11907.889272
70.036000	-0.010967	-0.005509	-0.010914	-0.035388	4735.918065	21872.621951	3342.447457	11807.734345
70.538500	-0.009099	-0.005685	-0.007131	-0.041002	4767.314566	22111.270224	3351.652176	11923.255630
71.036500	-0.011406	-0.005977	-0.005949	-0.042640	4764.485834	22170.780789	3354.454320	11957.245024
71.537000	-0.011748	-0.007210	0.002280	-0.043485	4766.614202	22153.595155	3363.592542	11974.827602
72.037000	-0.016681	-0.006105	0.005777	-0.037097	4719.338070	21921.251488	3360.660193	11842.756951
72.537000	-0.008968	-0.004253	-0.003179	-0.040632	4766.305399	22158.207469	3355.214135	11915.601822
73.037500	-0.011802	-0.005838	-0.001831	-0.041747	4759.048186	22137.404817	3357.680059	11938.699052
73.535500	-0.010466	-0.006172	-0.002697	-0.041408	4763.250474	22107.665254	3356.471257	11931.668940
74.035500	-0.016219	-0.006165	-0.003221	-0.035070	4712.897431	21830.189957	3349.654776	11801.242075
74.536500	-0.009674	-0.006551	-0.005322	-0.040023	4760.750160	22029.977641	3352.475700	11903.015546
75.036000	-0.011175	-0.005626	-0.009622	-0.039716	4753.141258	22057.164165	3347.929354	11896.671393
75.536000	-0.013989	-0.006728	-0.004473	-0.040073	4742.850762	22024.354945	3353.367752	11904.031038
76.036500	-0.010168	-0.004742	-0.001550	-0.032733	4728.217312	21790.454485	3348.999620	11753.623899
76.537000	-0.015428	-0.005351	-0.008055	-0.038095	4728.639409	21997.977021	3347.876164	11863.257860
77.037500	-0.014116	-0.006614	-0.004434	-0.039138	4738.422035	21988.326744	3352.478558	11884.743940
77.535000	-0.015747	-0.004764	-0.007277	-0.037650	4725.476725	22004.206387	3348.202760	11854.101317
78.038000	-0.015307	-0.004841	-0.001622	-0.037864	4728.184060	22010.241183	3354.006830	11858.514868
78.535500	-0.013163	-0.005494	0.000178	-0.037228	4734.442530	21953.698376	3355.167555	11845.442518
79.035500	-0.012828	-0.004082	0.004056	-0.036772	4733.939750	21995.632045	3358.597278	11836.088466
79.536000	-0.011809	-0.004924	-0.004948	-0.037143	4739.724096	21974.942462	3349.996401	11843.694295
80.039000	-0.013042	-0.004601	-0.000079	-0.037111	4734.457452	21987.689550	3354.793310	11843.028637
80.536500	-0.018045	-0.004765	-0.002808	-0.036676	4711.994195	21961.461206	3351.649921	11834.114336
81.037000	-0.015956	-0.005038	-0.000793	-0.037425	4723.682061	21982.327763	3354.395793	11849.489959
81.537000	-0.015720	-0.004994	-0.000606	-0.037118	4723.392182	21970.792566	3354.276261	11843.187103
82.039500	-0.013051	-0.003992	-0.009628	-0.035952	4729.611668	21963.624284	3344.244558	11819.286448
82.537000	-0.013178	-0.004417	-0.000196	-0.036649	4731.970922	21975.525895	3354.217200	11833.555888
83.035500	-0.012295	-0.005415	-0.003049	-0.036882	4736.614427	21942.039656	3351.615735	11838.344875
83.535500	-0.012153	-0.004987	-0.008235	-0.037099	4738.106760	21970.235079	3346.723099	11842.785768
84.036000	-0.014015	-0.005883	-0.004949	-0.032125	4709.857675	21714.689915	3345.073865	11741.273214
84.536000	-0.009740	-0.005517	-0.009402	-0.036246	4744.615582	21909.729420	3344.750952	11825.292199
85.036000	-0.011242	-0.003044	0.002773	-0.034907	4732.775786	21959.348667	3355.440135	11797.904988
85.536500	-0.010672	-0.004848	-0.000806	-0.036250	4740.739835	21939.131517	3353.212828	11825.377810
86.036500	-0.011416	-0.006566	-0.011599	-0.037381	4742.356826	21913.475547	3343.716973	11848.577071
86.534500	-0.010460	-0.004448	0.002742	-0.035606	4738.937711	21928.462288	3356.108287	11812.196418
87.037500	-0.015143	-0.007413	0.001255	-0.037879	4728.924891	21898.251316	3356.895525	11858.821359
87.535000	-0.010115	-0.005128	-0.012203	-0.036131	4742.571456	21921.722823	3341.919648	11822.951746
88.035000	-0.009685	-0.005687	-0.003188	-0.036281	4744.994249	21903.844057	3350.882738	11826.020601
88.535500	-0.010345	-0.005136	-0.009534	-0.035309	4738.184035	21885.485111	3343.711189	11806.135140
89.035500	-0.011845	-0.003942	0.007401	-0.034446	4728.362820	21899.889573	3359.623064	11788.497846
89.539000	-0.008895	-0.006076	-0.004153	-0.035623	4745.540558	21858.150235	3349.281444	11812.540661
90.036500	-0.012323	-0.006277	-0.002437	-0.030191	4708.863528	21614.273220	3345.637960	11702.117473
90.537000	-0.011746	-0.005370	0.002253	-0.034553	4729.219859	21842.282640	3354.568223	11790.682148
91.042500	-0.009794	-0.005399	0.002450	-0.033842	4734.368714	21810.104736	3354.056492	11776.185724
91.537500	-0.005815	-0.005176	-0.005459	-0.033246	4748.483375	21793.899346	3345.670116	11764.051199
92.035000	-0.009578	-0.005800	-0.004523	-0.032143	4728.213903	21719.049779	3345.507376	11741.641524
92.534500	-0.010057	-0.005062	-0.004628	-0.032401	4727.303157	21762.206437	3345.657274	11746.886561
93.085000	-0.008800	-0.005332	0.004211	-0.032258	4731.919340	21744.262484	3354.232606	11743.977494
93.626000	-0.004751	-0.005206	-0.001764	-0.030946	4743.317573	21692.967097	3347.034755	11717.387689
94.036500	-0.012036	-0.006786	0.001635	-0.027559	4699.282932	21479.667798	3347.046322	11649.113812
94.536500	-0.008629	-0.005329	0.005183	-0.031007	4727.444960	21690.335302	3353.955516	11718.633723
95.036500	-0.008146	-0.006616	-0.007657	-0.030980	4729.331275	21633.666353	3341.334518	11718.083607
95.537000	-0.005424	-0.004419	0.004587	-0.028995	4732.387929	21642.749017	3351.366892	11677.992806
96.037000	-0.011022	-0.005171	-0.010382	-0.024328	4690.266285	21410.751421	3332.369397	11584.472499
