sample name	sample
index	499
start time	 03-11-2021  02:41:36 PM


Wavelength (nm)	Absorbance
494.344910	NaN
494.563924	NaN
494.782919	NaN
495.001897	-0.273101
495.220856	0.119102
495.439797	0.070300
495.658719	0.072643
495.877624	-0.236737
496.096510	-0.226773
496.315378	-0.205774
496.534227	-0.176295
496.753059	0.003531
496.971872	0.003348
497.190667	0.025410
497.409444	0.023231
497.628203	0.023156
497.846943	0.026507
498.065665	0.026299
498.284369	0.026402
498.503055	0.027827
498.721723	0.026966
498.940372	0.026862
499.159003	0.026855
499.377616	0.026517
499.596210	0.026130
499.814787	0.025059
500.033345	0.024385
500.251885	0.024357
500.470406	0.024093
500.688910	0.023604
500.907395	0.023118
501.125862	0.022877
501.344311	0.023225
501.562742	0.023996
501.781154	0.025186
501.999548	0.026028
502.217924	0.025529
502.436282	0.024767
502.654621	0.025917
502.872942	0.026906
503.091245	0.025955
503.309530	0.026987
503.527797	0.026568
503.746045	0.026304
503.964275	0.026336
504.182487	0.025948
504.400681	0.025154
504.618856	0.024892
504.837013	0.024029
505.055152	0.025692
505.273273	0.024129
505.491376	0.024824
505.709460	0.023500
505.927526	0.024260
506.145574	0.024903
506.363604	0.024689
506.581615	0.025254
506.799608	0.024945
507.017583	0.023678
507.235540	0.023304
507.453478	0.022933
507.671399	0.023217
507.889301	0.022399
508.107185	0.022738
508.325050	0.023842
508.542898	0.023496
508.760727	0.024085
508.978538	0.024240
509.196330	0.024804
509.414105	0.023934
509.631861	0.024234
509.849599	0.023763
510.067319	0.024170
510.285021	0.023959
510.502704	0.023433
510.720369	0.023747
510.938016	0.024004
511.155645	0.023394
511.373255	0.024164
511.590848	0.024849
511.808422	0.024886
512.025977	0.024087
512.243515	0.024013
512.461034	0.024601
512.678536	0.024548
512.896018	0.024424
513.113483	0.024976
513.330930	0.024567
513.548358	0.024466
513.765768	0.024311
513.983160	0.024441
514.200533	0.024497
514.417889	0.023786
514.635226	0.023464
514.852545	0.023345
515.069845	0.022949
515.287128	0.023053
515.504392	0.022253
515.721638	0.022147
515.938866	0.022660
516.156075	0.022763
516.373267	0.022860
516.590440	0.022408
516.807594	0.022747
517.024731	0.023448
517.241850	0.024108
517.458950	0.024066
517.676032	0.023987
517.893095	0.022857
518.110141	0.022865
518.327168	0.022425
518.544177	0.022395
518.761168	0.021931
518.978141	0.021915
519.195095	0.021169
519.412031	0.021007
519.628949	0.021569
519.845849	0.021714
520.062731	0.021236
520.279594	0.022038
520.496439	0.022058
520.713266	0.022459
520.930074	0.022480
521.146865	0.021937
521.363637	0.022400
521.580391	0.022222
521.797127	0.022586
522.013844	0.022815
522.230543	0.022690
522.447224	0.022914
522.663887	0.022703
522.880532	0.022520
523.097158	0.023447
523.313766	0.023022
523.530356	0.022910
523.746928	0.022862
523.963481	0.022948
524.180017	0.023249
524.396534	0.023046
524.613032	0.022717
524.829513	0.022704
525.045975	0.021995
525.262420	0.022359
525.478845	0.022279
525.695253	0.022237
525.911643	0.022401
526.128014	0.021427
526.344367	0.021261
526.560702	0.021304
526.777018	0.021250
526.993316	0.021105
527.209597	0.021065
527.425858	0.021342
527.642102	0.021610
527.858328	0.021398
528.074535	0.021490
528.290724	0.022262
528.506894	0.022574
528.723047	0.022674
528.939181	0.023378
529.155297	0.023708
529.371395	0.023386
529.587475	0.022841
529.803536	0.022909
530.019579	0.023740
530.235604	0.023319
530.451611	0.023379
530.667600	0.023783
530.883570	0.023338
531.099522	0.022825
531.315456	0.023070
531.531372	0.022965
531.747269	0.023065
531.963148	0.022590
532.179009	0.022889
532.394852	0.022707
532.610676	0.021942
532.826482	0.021895
533.042271	0.021700
533.258040	0.021640
533.473792	0.021791
533.689525	0.021748
533.905240	0.021882
534.120937	0.021348
534.336616	0.021889
534.552277	0.022781
534.767919	0.023053
534.983543	0.023085
535.199149	0.023320
535.414736	0.023284
535.630306	0.023212
535.845857	0.023153
536.061390	0.023595
536.276904	0.023213
536.492401	0.022601
536.707879	0.022129
536.923339	0.023010
537.138781	0.023061
537.354204	0.023100
537.569610	0.023086
537.784997	0.022874
538.000366	0.022880
538.215716	0.023043
538.431049	0.022961
538.646363	0.023086
538.861659	0.022593
539.076937	0.022430
539.292196	0.022717
539.507438	0.022777
539.722661	0.022716
539.937866	0.022836
540.153052	0.022838
540.368221	0.022768
540.583371	0.022847
540.798503	0.022906
541.013617	0.023363
541.228712	0.023020
541.443789	0.023137
541.658848	0.023484
541.873889	0.023248
542.088912	0.022912
542.303916	0.023189
542.518902	0.023002
542.733870	0.023146
542.948820	0.022413
543.163752	0.022627
543.378665	0.022421
543.593560	0.022164
543.808437	0.022051
544.023295	0.022406
544.238136	0.022216
544.452958	0.022347
544.667762	0.021965
544.882548	0.022302
545.097315	0.022452
545.312064	0.022310
545.526795	0.022570
545.741508	0.022707
545.956203	0.022214
546.170879	0.022269
546.385537	0.022592
546.600177	0.023008
546.814799	0.022819
547.029402	0.022663
547.243988	0.022915
547.458555	0.022670
547.673103	0.022887
547.887634	0.023201
548.102146	0.023236
548.316640	0.023212
548.531116	0.022783
548.745574	0.022887
548.960013	0.022890
549.174435	0.022899
549.388838	0.023399
549.603222	0.022892
549.817589	0.022779
550.031937	0.022390
550.246267	0.022204
550.460579	0.022159
550.674873	0.022123
550.889148	0.022462
551.103405	0.022310
551.317644	0.021839
551.531865	0.022090
551.746068	0.022235
551.960252	0.022866
552.174418	0.023430
552.388566	0.023789
552.602696	0.023971
552.816807	0.023542
553.030900	0.023538
553.244975	0.023391
553.459032	0.023208
553.673070	0.023323
553.887091	0.022979
554.101093	0.022642
554.315077	0.022732
554.529042	0.022473
554.742990	0.022400
554.956919	0.022571
555.170830	0.022994
555.384722	0.023352
555.598597	0.023521
555.812453	0.023935
556.026291	0.024032
556.240111	0.023796
556.453913	0.024154
556.667696	0.024489
556.881461	0.024854
557.095208	0.024625
557.308937	0.024630
557.522647	0.024306
557.736339	0.023745
557.950013	0.023468
558.163669	0.023472
558.377307	0.023100
558.590926	0.023030
558.804527	0.022641
559.018110	0.022510
559.231675	0.022291
559.445221	0.022340
559.658749	0.022834
559.872259	0.022914
560.085751	0.023004
560.299225	0.023142
560.512680	0.023072
560.726117	0.023252
560.939536	0.023590
561.152937	0.023587
561.366319	0.023714
561.579683	0.023679
561.793029	0.023880
562.006357	0.023959
562.219667	0.023764
562.432958	0.023732
562.646231	0.023711
562.859486	0.023642
563.072723	0.023901
563.285941	0.024044
563.499141	0.024085
563.712323	0.023527
563.925487	0.023193
564.138632	0.023383
564.351760	0.023513
564.564869	0.023739
564.777960	0.023788
564.991032	0.023613
565.204087	0.023735
565.417123	0.023355
565.630141	0.023693
565.843140	0.024061
566.056122	0.024046
566.269085	0.023715
566.482030	0.023645
566.694957	0.023794
566.907866	0.023890
567.120756	0.023506
567.333628	0.023761
567.546482	0.024074
567.759318	0.024301
567.972135	0.024442
568.184935	0.024882
568.397716	0.024717
568.610478	0.024819
568.823223	0.024818
569.035949	0.025055
569.248657	0.025229
569.461347	0.025133
569.674019	0.024707
569.886672	0.024911
570.099308	0.025199
570.311925	0.025557
570.524523	0.025494
570.737104	0.025797
570.949666	0.025768
571.162210	0.025442
571.374736	0.025277
571.587244	0.025419
571.799733	0.025374
572.012205	0.024996
572.224658	0.024728
572.437092	0.024546
572.649509	0.024535
572.861907	0.024480
573.074287	0.024791
573.286649	0.024835
573.498993	0.024665
573.711318	0.024512
573.923625	0.024682
574.135914	0.024714
574.348185	0.024697
574.560438	0.024429
574.772672	0.024461
574.984888	0.024526
575.197086	0.024506
575.409266	0.024812
575.621427	0.024710
575.833570	0.024295
576.045695	0.023938
576.257802	0.023932
576.469890	0.023611
576.681961	0.023583
576.894013	0.023343
577.106046	0.023964
577.318062	0.023960
577.530059	0.023870
577.742039	0.024196
577.954000	0.024672
578.165942	0.024615
578.377867	0.024689
578.589773	0.024619
578.801661	0.024401
579.013531	0.023997
579.225382	0.024157
579.437216	0.024550
579.649031	0.024556
579.860828	0.024404
580.072606	0.024478
580.284367	0.025036
580.496109	0.024867
580.707833	0.025318
580.919539	0.025055
581.131227	0.025144
581.342896	0.025055
581.554547	0.025192
581.766180	0.025299
581.977795	0.025349
582.189391	0.025239
582.400969	0.025613
582.612529	0.025646
582.824071	0.026013
583.035595	0.026040
583.247100	0.026045
583.458587	0.026181
583.670056	0.026178
583.881506	0.026394
584.092939	0.026465
584.304353	0.026572
584.515749	0.026533
584.727127	0.026325
584.938486	0.026262
585.149828	0.026306
585.361151	0.025886
585.572456	0.026065
585.783742	0.026093
585.995011	0.026014
586.206261	0.025882
586.417493	0.025953
586.628706	0.026128
586.839902	0.025992
587.051079	0.025899
587.262238	0.026063
587.473379	0.025783
587.684502	0.025383
587.895606	0.025258
588.106692	0.025563
588.317760	0.025441
588.528810	0.025476
588.739841	0.025302
588.950855	0.025398
589.161850	0.025557
589.372827	0.025844
589.583785	0.026062
589.794726	0.026210
590.005648	0.025869
590.216552	0.026202
590.427437	0.025998
590.638305	0.026343
590.849154	0.026398
591.059985	0.026521
591.270798	0.026553
591.481592	0.026782
591.692369	0.026801
591.903127	0.026804
592.113867	0.026444
592.324588	0.026708
592.535292	0.026468
592.745977	0.026281
592.956644	0.026033
593.167293	0.026023
593.377923	0.026097
593.588536	0.026092
593.799130	0.026195
594.009706	0.026319
594.220263	0.026327
594.430803	0.026770
594.641324	0.027255
594.851827	0.027526
595.062312	0.027222
595.272778	0.027031
595.483227	0.027222
595.693657	0.027296
595.904069	0.027185
596.114462	0.027158
596.324838	0.026963
596.535195	0.026630
596.745534	0.026512
596.955855	0.026544
597.166157	0.026564
597.376441	0.026457
597.586707	0.026622
597.796955	0.026906
598.007185	0.026930
598.217396	0.027035
598.427589	0.027281
598.637764	0.027205
598.847921	0.027460
599.058060	0.027488
599.268180	0.027320
599.478282	0.027229
599.688366	0.027296
599.898431	0.027428
600.108479	0.027388
600.318508	0.027307
600.528519	0.027431
600.738511	0.027454
600.948486	0.027561
601.158442	0.027412
601.368380	0.027315
601.578300	0.027312
601.788202	0.027247
601.998085	0.027216
602.207950	0.027218
602.417797	0.027331
602.627626	0.027369
602.837436	0.027451
603.047228	0.027856
603.257002	0.027908
603.466758	0.027962
603.676496	0.027935
603.886215	0.028076
604.095916	0.028280
604.305599	0.028374
604.515264	0.028461
604.724910	0.028583
604.934538	0.028667
605.144148	0.028850
605.353740	0.029016
605.563314	0.029080
605.772869	0.028934
605.982406	0.028790
606.191925	0.028712
606.401425	0.028662
606.610908	0.028478
606.820372	0.028567
607.029818	0.028493
607.239246	0.028496
607.448655	0.028536
607.658047	0.028705
607.867420	0.028712
608.076775	0.028810
608.286111	0.028613
608.495430	0.028665
608.704730	0.028282
608.914012	0.028437
609.123275	0.027963
609.332521	0.027969
609.541748	0.027738
609.750957	0.027579
609.960148	0.027396
610.169321	0.027702
610.378475	0.027816
610.587611	0.027962
610.796729	0.027985
611.005829	0.028133
611.214910	0.028235
611.423974	0.028221
611.633019	0.028471
611.842045	0.028613
612.051054	0.028617
612.260044	0.028469
612.469017	0.028651
612.677970	0.028634
612.886906	0.028883
613.095824	0.028796
613.304723	0.029057
613.513604	0.028941
613.722467	0.028974
613.931311	0.028752
614.140138	0.028912
614.348946	0.028888
614.557736	0.028893
614.766507	0.028872
614.975261	0.028913
615.183996	0.028771
615.392713	0.028737
615.601412	0.028522
615.810092	0.028632
616.018754	0.028481
616.227399	0.028410
616.436024	0.028431
616.644632	0.028510
616.853222	0.028403
617.061793	0.028597
617.270346	0.028795
617.478880	0.029131
617.687397	0.029243
617.895895	0.029358
618.104375	0.029659
618.312837	0.029513
618.521281	0.029346
618.729706	0.029721
618.938113	0.029564
619.146502	0.029465
619.354873	0.029361
619.563226	0.029574
619.771560	0.029831
619.979876	0.029785
620.188174	0.029862
620.396453	0.030059
620.604715	0.029958
620.812958	0.030409
621.021183	0.030573
621.229390	0.030684
621.437578	0.030545
621.645748	0.030400
621.853900	0.030308
622.062034	0.030506
622.270150	0.030599
622.478247	0.030582
622.686326	0.030241
622.894387	0.030198
623.102430	0.030394
623.310454	0.030434
623.518461	0.030501
623.726449	0.030530
623.934418	0.030234
624.142370	0.029808
624.350303	0.029670
624.558218	0.029724
624.766115	0.029688
624.973994	0.029493
625.181855	0.029590
625.389697	0.029467
625.597521	0.029385
625.805327	0.029470
626.013114	0.029969
626.220883	0.030066
626.428634	0.030276
626.636367	0.030459
626.844082	0.030624
627.051778	0.030578
627.259457	0.030691
627.467117	0.030795
627.674758	0.030906
627.882382	0.030875
628.089987	0.030924
628.297574	0.030809
628.505143	0.030726
628.712694	0.030607
628.920226	0.030624
629.127740	0.030597
629.335236	0.030730
629.542714	0.030746
629.750174	0.030626
629.957615	0.030640
630.165038	0.030729
630.372443	0.030762
630.579829	0.030742
630.787198	0.030754
630.994548	0.030957
631.201880	0.030898
631.409194	0.030954
631.616489	0.030948
631.823766	0.031038
632.031025	0.030936
632.238266	0.031039
632.445489	0.030892
632.652693	0.030878
632.859879	0.030783
633.067047	0.030838
633.274197	0.030816
633.481329	0.030983
633.688442	0.030996
633.895537	0.030962
634.102614	0.031068
634.309672	0.031076
634.516713	0.031082
634.723735	0.031128
634.930739	0.031270
635.137724	0.031306
635.344692	0.031322
635.551641	0.031468
635.758572	0.031707
635.965485	0.031688
636.172379	0.031992
636.379256	0.031984
636.586114	0.032027
636.792954	0.031994
636.999775	0.032125
637.206579	0.032227
637.413364	0.032139
637.620131	0.032079
637.826880	0.031998
638.033610	0.031887
638.240323	0.031876
638.447017	0.031742
638.653692	0.031564
638.860350	0.031657
639.066990	0.031659
639.273611	0.031703
639.480214	0.031712
639.686798	0.031775
639.893365	0.031747
640.099913	0.031834
640.306443	0.031991
640.512955	0.032172
640.719449	0.031944
640.925924	0.031951
641.132381	0.031857
641.338820	0.031843
641.545241	0.031804
641.751644	0.031909
641.958028	0.031984
642.164394	0.032018
642.370742	0.031865
642.577071	0.032038
642.783383	0.031942
642.989676	0.031980
643.195951	0.031916
643.402207	0.031955
643.608446	0.032050
643.814666	0.031997
644.020868	0.032031
644.227052	0.032006
644.433218	0.031972
644.639365	0.032120
644.845494	0.032201
645.051605	0.032359
645.257698	0.032445
645.463772	0.032595
645.669828	0.032693
645.875866	0.032776
646.081886	0.033088
646.287888	0.033000
646.493871	0.032960
646.699836	0.032938
646.905783	0.032900
647.111712	0.032760
647.317622	0.032520
647.523514	0.032461
647.729388	0.032361
647.935244	0.032364
648.141082	0.032422
648.346901	0.032393
648.552702	0.032668
648.758485	0.032879
648.964250	0.033227
649.169996	0.033292
649.375724	0.033380
649.581434	0.033426
649.787126	0.033331
649.992800	0.033391
650.198455	0.033542
650.404092	0.033291
650.609711	0.033183
650.815311	0.032937
651.020894	0.032901
651.226458	0.032939
651.432004	0.032993
651.637532	0.032938
651.843041	0.032994
652.048532	0.032818
652.254006	0.032959
652.459460	0.032939
652.664897	0.032917
652.870315	0.032997
653.075716	0.033137
653.281097	0.033153
653.486461	0.033288
653.691807	0.033291
653.897134	0.033358
654.102443	0.033366
654.307734	0.033404
654.513006	0.033449
654.718261	0.033653
654.923497	0.033598
655.128715	0.033632
655.333915	0.033574
655.539096	0.033647
655.744259	0.033680
655.949404	0.033831
656.154531	0.033937
656.359640	0.033978
656.564730	0.033932
656.769802	0.034013
656.974856	0.034007
657.179892	0.034087
657.384909	0.034282
657.589908	0.034344
657.794889	0.034165
657.999852	0.034168
658.204797	0.034240
658.409723	0.034288
658.614631	0.034228
658.819521	0.034271
659.024393	0.034488
659.229246	0.034274
659.434081	0.034398
659.638898	0.034530
659.843697	0.034513
660.048478	0.034702
660.253240	0.034799
660.457984	0.034649
660.662710	0.034715
660.867417	0.034743
661.072107	0.034751
661.276778	0.034674
661.481431	0.034675
661.686066	0.034678
661.890682	0.034624
662.095281	0.034525
662.299861	0.034628
662.504422	0.034513
662.708966	0.034421
662.913491	0.034634
663.117999	0.034627
663.322488	0.034675
663.526958	0.034843
663.731411	0.034908
663.935845	0.034896
664.140261	0.035119
664.344659	0.035066
664.549038	0.035102
664.753400	0.034991
664.957743	0.035052
665.162068	0.035104
665.366375	0.035048
665.570663	0.034966
665.774933	0.035118
665.979185	0.034967
666.183419	0.035215
666.387635	0.035229
666.591832	0.035209
666.796011	0.035252
667.000172	0.035165
667.204315	0.035153
667.408439	0.035176
667.612545	0.034992
667.816634	0.035114
668.020703	0.034955
668.224755	0.034910
668.428788	0.035119
668.632803	0.035172
668.836800	0.035211
669.040779	0.035375
669.244739	0.035475
669.448681	0.035680
669.652605	0.035635
669.856511	0.035743
670.060399	0.035915
670.264268	0.035918
670.468119	0.035916
670.671952	0.035926
670.875767	0.035769
671.079563	0.035814
671.283341	0.035830
671.487101	0.035880
671.690843	0.036047
671.894567	0.035942
672.098272	0.035843
672.301959	0.035974
672.505628	0.035984
672.709278	0.036085
672.912911	0.036231
673.116525	0.036095
673.320121	0.036144
673.523699	0.036217
673.727258	0.036261
673.930799	0.036474
674.134322	0.036484
674.337827	0.036605
674.541314	0.036422
674.744782	0.036309
674.948232	0.036439
675.151664	0.036466
675.355078	0.036275
675.558474	0.036297
675.761851	0.036307
675.965210	0.036261
676.168551	0.036399
676.371873	0.036682
676.575178	0.036562
676.778464	0.036647
676.981732	0.036797
677.184981	0.036969
677.388213	0.036996
677.591426	0.036992
677.794621	0.037024
677.997798	0.036799
678.200956	0.036775
678.404097	0.036823
678.607219	0.036782
678.810323	0.036654
679.013408	0.036763
679.216476	0.036885
679.419525	0.036878
679.622556	0.036967
679.825569	0.037168
680.028563	0.037368
680.231540	0.037538
680.434498	0.037675
680.637438	0.037835
680.840359	0.037991
681.043263	0.038095
681.246148	0.038233
681.449015	0.038149
681.651864	0.038116
681.854694	0.038068
682.057506	0.038184
682.260301	0.038113
682.463076	0.037998
682.665834	0.037896
682.868573	0.037915
683.071295	0.037833
683.273998	0.038001
683.476682	0.038189
683.679349	0.038169
683.881997	0.038284
684.084627	0.038343
684.287239	0.038422
684.489833	0.038411
684.692408	0.038374
684.894965	0.038440
685.097504	0.038532
685.300025	0.038445
685.502527	0.038304
685.705012	0.038201
685.907478	0.038228
686.109925	0.038356
686.312355	0.038427
686.514766	0.038488
686.717159	0.038602
686.919534	0.038620
687.121891	0.038770
687.324230	0.039031
687.526550	0.039158
687.728852	0.039358
687.931136	0.039434
688.133401	0.039381
688.335649	0.039408
688.537878	0.039448
688.740089	0.039468
688.942281	0.039478
689.144456	0.039538
689.346612	0.039339
689.548750	0.039222
689.750870	0.039047
689.952971	0.039107
690.155055	0.038956
690.357120	0.038869
690.559167	0.038717
690.761195	0.038592
690.963206	0.038518
691.165198	0.038567
691.367172	0.038620
691.569128	0.038701
691.771065	0.038704
691.972984	0.038904
692.174885	0.038852
692.376768	0.039070
692.578633	0.039102
692.780479	0.039225
692.982308	0.039252
693.184118	0.039242
693.385909	0.039246
693.587683	0.039295
693.789438	0.039252
693.991175	0.039274
694.192894	0.039287
694.394595	0.039327
694.596277	0.039206
694.797941	0.039298
694.999587	0.039316
695.201215	0.039328
695.402824	0.039269
695.604416	0.039356
695.805989	0.039529
696.007543	0.039554
696.209080	0.039571
696.410598	0.039583
696.612099	0.039591
696.813580	0.039669
697.015044	0.039676
697.216490	0.039609
697.417917	0.039571
697.619326	0.039453
697.820717	0.039272
698.022089	0.039432
698.223444	0.039574
698.424780	0.039687
698.626098	0.039712
698.827397	0.039834
699.028679	0.040020
699.229942	0.040213
699.431187	0.040394
699.632414	0.040426
699.833622	0.040180
700.034813	0.040206
700.235985	0.040100
700.437139	0.040052
700.638274	0.040031
700.839392	0.040114
701.040491	0.040223
701.241572	0.040246
701.442635	0.040473
701.643679	0.040619
701.844706	0.040753
702.045714	0.040765
702.246704	0.040894
702.447675	0.041067
702.648629	0.040955
702.849564	0.040699
703.050481	0.040690
703.251380	0.040623
703.452260	0.040723
703.653122	0.040486
703.853966	0.040593
704.054792	0.040532
704.255600	0.040295
704.456389	0.040321
704.657160	0.040289
704.857913	0.040234
705.058648	0.040108
705.259365	0.040162
705.460063	0.040233
705.660743	0.040156
705.861405	0.040144
706.062048	0.040351
706.262674	0.040317
706.463281	0.040382
706.663870	0.040320
706.864441	0.040350
707.064993	0.040203
707.265527	0.040073
707.466043	0.040069
707.666541	0.039962
707.867021	0.039934
708.067482	0.040033
708.267925	0.040142
708.468350	0.040249
708.668757	0.040300
708.869145	0.040380
709.069516	0.040675
709.269868	0.040637
709.470201	0.040628
709.670517	0.040616
709.870814	0.040490
710.071093	0.040437
710.271354	0.040494
710.471597	0.040619
710.671821	0.040480
710.872028	0.040325
711.072216	0.040356
711.272385	0.040311
711.472537	0.040144
711.672670	0.040092
711.872785	0.040046
712.072882	0.039927
712.272961	0.039744
712.473021	0.039864
712.673063	0.039814
712.873087	0.039831
713.073093	0.039851
713.273081	0.039925
713.473050	0.039985
713.673001	0.039958
713.872934	0.039932
714.072849	0.040100
714.272745	0.040094
714.472623	0.040156
714.672483	0.040100
714.872325	0.040364
715.072148	0.040470
715.271954	0.040568
715.471741	0.040685
715.671509	0.040619
715.871260	0.040458
716.070992	0.040365
716.270707	0.040332
716.470403	0.040332
716.670080	0.040291
716.869740	0.040430
717.069381	0.040435
717.269004	0.040184
717.468609	0.040350
717.668195	0.040438
717.867764	0.040640
718.067314	0.040702
718.266846	0.040861
718.466360	0.040582
718.665855	0.040366
718.865332	0.040338
719.064791	0.040529
719.264232	0.040340
719.463655	0.040286
719.663059	0.039980
719.862445	0.039906
720.061813	0.039793
720.261163	0.039918
720.460494	0.039991
720.659807	0.039950
720.859102	0.039915
721.058379	0.039920
721.257638	0.039802
721.456878	0.039754
721.656100	0.039862
721.855304	0.039914
722.054490	0.040016
722.253657	0.039811
722.452806	0.039794
722.651937	0.039705
722.851050	0.039718
723.050145	0.039805
723.249221	0.040077
723.448279	0.039911
723.647319	0.039908
723.846340	0.039780
724.045344	0.039781
724.244329	0.039863
724.443296	0.039965
724.642245	0.040062
724.841175	0.039983
725.040088	0.039964
725.238982	0.040100
725.437857	0.040128
725.636715	0.040155
725.835554	0.040319
726.034376	0.040258
726.233179	0.040200
726.431963	0.040017
726.630730	0.040285
726.829478	0.040318
727.028208	0.040106
727.226920	0.039977
727.425614	0.039920
727.624289	0.039717
727.822946	0.039505
728.021585	0.039466
728.220206	0.039492
728.418808	0.039263
728.617392	0.039117
728.815958	0.039214
729.014506	0.039309
729.213036	0.039422
729.411547	0.039642
729.610040	0.039882
729.808515	0.039993
730.006972	0.040221
730.205410	0.040310
730.403831	0.040239
730.602233	0.040273
730.800616	0.040170
730.998982	0.040197
731.197329	0.040081
731.395658	0.039910
731.593969	0.039772
731.792262	0.039406
731.990536	0.039403
732.188793	0.039590
732.387031	0.039473
732.585250	0.039389
732.783452	0.039055
732.981635	0.038874
733.179800	0.038797
733.377947	0.038764
733.576076	0.038819
733.774186	0.038553
733.972278	0.038473
734.170352	0.038267
734.368408	0.038175
734.566446	0.038413
734.764465	0.038471
734.962466	0.038310
735.160449	0.038221
735.358413	0.038544
735.556360	0.038673
735.754288	0.038438
735.952198	0.038607
736.150090	0.038574
736.347963	0.038569
736.545818	0.038542
736.743655	0.038541
736.941474	0.038669
737.139275	0.038514
737.337057	0.038489
737.534821	0.038337
737.732567	0.038311
737.930295	0.038369
738.128005	0.038227
738.325696	0.038103
738.523369	0.038310
738.721024	0.038083
738.918660	0.037958
739.116279	0.037926
739.313879	0.037989
739.511461	0.037997
739.709024	0.037929
739.906570	0.037971
740.104097	0.038088
740.301606	0.038142
740.499097	0.038249
740.696569	0.038293
740.894024	0.038233
741.091460	0.038593
741.288878	0.038449
741.486277	0.038526
741.683659	0.038649
741.881022	0.038598
742.078367	0.038507
742.275694	0.038362
742.473002	0.038207
742.670293	0.038342
742.867565	0.037960
743.064819	0.038053
743.262054	0.038017
743.459272	0.037732
743.656471	0.037798
743.853652	0.037616
744.050815	0.037761
744.247959	0.037700
744.445085	0.037458
744.642194	0.037508
744.839283	0.037442
745.036355	0.037360
745.233408	0.037383
745.430444	0.037240
745.627461	0.037542
745.824459	0.037409
746.021440	0.037343
746.218402	0.037515
746.415346	0.037569
746.612272	0.037688
746.809180	0.037958
747.006069	0.038104
747.202940	0.038132
747.399793	0.038095
747.596628	0.038286
747.793444	0.038456
747.990243	0.038405
748.187023	0.038481
748.383784	0.038448
748.580528	0.038172
748.777253	0.038165
748.973960	0.038071
749.170649	0.038016
749.367320	0.037774
749.563973	0.037913
749.760607	0.038006
749.957223	0.038033
750.153821	0.038081
750.350400	0.038183
750.546962	0.038094
750.743505	0.038300
750.940030	0.038125
751.136536	0.038295
751.333025	0.038190
751.529495	0.038180
751.725947	0.038016
751.922381	0.037974
752.118796	0.037959
752.315194	0.037943
752.511573	0.037755
752.707934	0.037802
752.904276	0.037820
753.100601	0.037789
753.296907	0.037721
753.493195	0.037721
753.689465	0.037523
753.885716	0.037367
754.081949	0.037057
754.278164	0.037128
754.474361	0.037206
754.670540	0.036972
754.866700	0.036845
755.062843	0.036671
755.258967	0.036747
755.455072	0.036962
755.651160	0.036904
755.847229	0.037301
756.043280	0.037346
756.239313	0.037044
756.435328	0.037102
756.631324	0.037095
756.827302	0.037114
757.023262	0.037017
757.219204	0.036876
757.415127	0.036831
757.611033	0.036577
757.806920	0.036309
758.002788	0.036411
758.198639	0.036349
758.394471	0.036321
758.590286	0.036443
758.786081	0.036481
758.981859	0.036265
759.177619	0.036507
759.373360	0.036459
759.569083	0.036566
759.764788	0.036750
759.960474	0.036964
760.156143	0.037010
760.351793	0.036939
760.547425	0.036994
760.743038	0.037259
760.938634	0.037322
761.134211	0.037542
761.329770	0.037613
761.525311	0.037622
761.720833	0.037606
761.916338	0.037547
762.111824	0.037699
762.307292	0.037649
762.502741	0.037685
762.698173	0.037436
762.893586	0.037340
763.088981	0.037386
763.284358	0.037142
763.479716	0.036890
763.675057	0.036886
763.870379	0.036645
764.065683	0.036595
764.260968	0.036484
764.456236	0.036469
764.651485	0.036417
764.846716	0.036200
765.041929	0.036359
765.237123	0.036423
765.432299	0.036345
765.627457	0.036101
765.822597	0.035907
766.017719	0.035945
766.212822	0.036094
766.407907	0.036214
766.602974	0.036379
766.798023	0.036297
766.993054	0.036449
767.188066	0.036644
767.383060	0.036908
767.578036	0.037025
767.772993	0.036959
767.967933	0.036980
768.162854	0.036865
768.357757	0.036978
768.552642	0.036822
768.747508	0.036750
768.942356	0.036693
769.137186	0.036645
769.331998	0.036594
769.526792	0.036635
769.721567	0.036408
769.916324	0.036487
770.111063	0.036177
770.305784	0.036252
770.500486	0.036088
770.695171	0.036020
770.889837	0.035880
771.084484	0.036003
771.279114	0.035826
771.473725	0.035929
771.668318	0.035676
771.862893	0.035781
772.057450	0.035809
772.251988	0.035909
772.446509	0.035878
772.641011	0.035980
772.835494	0.035788
773.029960	0.035650
773.224407	0.035686
773.418836	0.035983
773.613247	0.035959
773.807640	0.035876
774.002014	0.035906
774.196370	0.035940
774.390708	0.036123
774.585028	0.036223
774.779330	0.036409
774.973613	0.036390
775.167878	0.036333
775.362125	0.036251
775.556354	0.036380
775.750564	0.036413
775.944756	0.036374
776.138930	0.036243
776.333086	0.036294
776.527223	0.036292
776.721343	0.036394
776.915444	0.036238
777.109526	0.036415
777.303591	0.036502
777.497637	0.036574
777.691666	0.036661
777.885676	0.036684
778.079667	0.036728
778.273641	0.036749
778.467596	0.036735
778.661533	0.036862
778.855452	0.036711
779.049352	0.036491
779.243235	0.036417
779.437099	0.036373
779.630945	0.036341
779.824773	0.036381
780.018582	0.036461
780.212373	0.036444
780.406146	0.036437
780.599901	0.036560
780.793638	0.036753
780.987356	0.036381
781.181056	0.036213
781.374738	0.036216
781.568402	0.036174
781.762047	0.036178
781.955674	0.036183
782.149283	0.036138
782.342874	0.036070
782.536447	0.036075
782.730001	0.036323
782.923537	0.036537
783.117055	0.036554
783.310555	0.036487
783.504036	0.036440
783.697499	0.036417
783.890944	0.036538
784.084371	0.036682
784.277780	0.036628
784.471170	0.036576
784.664542	0.036459
784.857896	0.036446
785.051231	0.036576
785.244549	0.036694
785.437848	0.036602
785.631129	0.036422
785.824392	0.036286
786.017636	0.036361
786.210863	0.036233
786.404071	0.036240
786.597260	0.036379
786.790432	0.036287
786.983585	0.036244
787.176721	0.036307
787.369838	0.036314
787.562936	0.036358
787.756017	0.036338
787.949079	0.036492
788.142123	0.036749
788.335149	0.036704
788.528156	0.036839
788.721146	0.036856
788.914117	0.036967
789.107070	0.036945
789.300005	0.037038
789.492921	0.036891
789.685819	0.037020
789.878699	0.036840
790.071561	0.036871
790.264405	0.036674
790.457230	0.036737
790.650037	0.036661
790.842826	0.036865
791.035597	0.036786
791.228349	0.037014
791.421084	0.036744
791.613800	0.036676
791.806497	0.036765
791.999177	0.036967
792.191838	0.036696
792.384481	0.036672
792.577106	0.036661
792.769713	0.036700
792.962301	0.036575
793.154871	0.036833
793.347423	0.036878
793.539957	0.036735
793.732473	0.036543
793.924970	0.036845
794.117449	0.036942
794.309910	0.036854
794.502353	0.036921
794.694777	0.037022
794.887183	0.036988
795.079571	0.036997
795.271941	0.036991
795.464293	0.037278
795.656626	0.037205
795.848941	0.037230
796.041238	0.037399
796.233516	0.037386
796.425777	0.037409
796.618019	0.037543
796.810243	0.037668
797.002449	0.037875
797.194636	0.037892
797.386805	0.037794
797.578956	0.037742
797.771089	0.037689
797.963204	0.037535
798.155300	0.037405
798.347378	0.037410
798.539438	0.037442
798.731480	0.037349
798.923503	0.037093
799.115509	0.037196
799.307496	0.037111
799.499465	0.037135
799.691415	0.037360
799.883348	0.037518
800.075262	0.037318
800.267158	0.037408
800.459035	0.037506
800.650895	0.037565
800.842736	0.037550
801.034559	0.037507
801.226364	0.037634
801.418150	0.037601
801.609919	0.037641
801.801669	0.037945
801.993401	0.037705
802.185114	0.037644
802.376810	0.037754
802.568487	0.037977
802.760146	0.038271
802.951787	0.038245
803.143409	0.038338
803.335014	0.038276
803.526600	0.038136
803.718168	0.038268
803.909717	0.038318
804.101249	0.038217
804.292762	0.038175
804.484257	0.038074
804.675734	0.038053
804.867192	0.038009
805.058632	0.038111
805.250054	0.038423
805.441458	0.038617
805.632844	0.038622
805.824211	0.039028
806.015561	0.038916
806.206891	0.038893
806.398204	0.039153
806.589499	0.039262
806.780775	0.039220
806.972033	0.038977
807.163273	0.038958
807.354495	0.038802
807.545698	0.038691
807.736883	0.038741
807.928050	0.038992
808.119199	0.038904
808.310329	0.038897
808.501441	0.038980
808.692535	0.039151
808.883611	0.039160
809.074669	0.039525
809.265708	0.039496
809.456729	0.039573
809.647732	0.039614
809.838717	0.039490
810.029683	0.039589
810.220632	0.039669
810.411562	0.039581
810.602474	0.039699
810.793367	0.039480
810.984242	0.039607
811.175100	0.039822
811.365938	0.039817
811.556759	0.039842
811.747562	0.039899
811.938346	0.039940
812.129112	0.040080
812.319860	0.040248
812.510589	0.040443
812.701300	0.040443
812.891994	0.040366
813.082668	0.040278
813.273325	0.040408
813.463964	0.040273
813.654584	0.040212
813.845186	0.040231
814.035769	0.040057
814.226335	0.040190
814.416882	0.040094
814.607411	0.040284
814.797922	0.040288
814.988415	0.040439
815.178889	0.040407
815.369345	0.040447
815.559783	0.040480
815.750203	0.040426
815.940605	0.040461
816.130988	0.040550
816.321353	0.040456
816.511700	0.040653
816.702028	0.040638
816.892339	0.040934
817.082631	0.041116
817.272905	0.041067
817.463161	0.041227
817.653398	0.041128
817.843617	0.041202
818.033819	0.041031
818.224001	0.040952
818.414166	0.040908
818.604312	0.040877
818.794440	0.040738
818.984550	0.040866
819.174642	0.040728
819.364716	0.040805
819.554771	0.040651
819.744808	0.040769
819.934827	0.040861
820.124827	0.040994
820.314810	0.041177
820.504774	0.041362
820.694720	0.041370
820.884647	0.041564
821.074557	0.041470
821.264448	0.041588
821.454321	0.041824
821.644176	0.041819
821.834012	0.041833
822.023831	0.041559
822.213631	0.041646
822.403413	0.041801
822.593176	0.041810
822.782922	0.041970
822.972649	0.042049
823.162358	0.041757
823.352049	0.041703
823.541721	0.041680
823.731376	0.041952
823.921012	0.041834
824.110629	0.041760
824.300229	0.042019
824.489811	0.041970
824.679374	0.042035
824.868919	0.042162
825.058445	0.042354
825.247954	0.042398
825.437444	0.042477
825.626916	0.042712
825.816370	0.042760
826.005806	0.042652
826.195223	0.042754
826.384622	0.043063
826.574003	0.043178
826.763366	0.043347
826.952711	0.043461
827.142037	0.043380
827.331345	0.043265
827.520635	0.043444
827.709906	0.043317
827.899160	0.043435
828.088395	0.043365
828.277612	0.043346
828.466810	0.043426
828.655991	0.043303
828.845153	0.043480
829.034297	0.043568
829.223423	0.043313
829.412531	0.043407
829.601620	0.043460
829.790691	0.043529
829.979744	0.043549
830.168779	0.043590
830.357795	0.043697
830.546793	0.043628
830.735773	0.043533
830.924735	0.043684
831.113679	0.043675
831.302604	0.043592
831.491511	0.043422
831.680400	0.043626
831.869271	0.043411
832.058123	0.043522
832.246957	0.043494
832.435773	0.043804
832.624571	0.044124
832.813351	0.044413
833.002112	0.044381
833.190855	0.044416
833.379580	0.044271
833.568287	0.044389
833.756975	0.044104
833.945645	0.044194
834.134297	0.044138
834.322931	0.043936
834.511547	0.043767
834.700144	0.044053
834.888723	0.044013
835.077284	0.044013
835.265826	0.044037
835.454351	0.044148
835.642857	0.044349
835.831345	0.044193
836.019815	0.044471
836.208266	0.044689
836.396699	0.044630
836.585114	0.044971
836.773511	0.045397
836.961890	0.045262
837.150250	0.045457
837.338592	0.045360
837.526916	0.045439
837.715222	0.045199
837.903510	0.045226
838.091779	0.045214
838.280030	0.045157
838.468263	0.045026
838.656477	0.045401
838.844674	0.045502
839.032852	0.045372
839.221012	0.045550
839.409153	0.045739
839.597277	0.045766
839.785382	0.045707
839.973469	0.045773
840.161538	0.045821
840.349589	0.045827
840.537621	0.045950
840.725635	0.046310
840.913631	0.046319
841.101609	0.046446
841.289568	0.046583
841.477509	0.046746
841.665432	0.046823
841.853337	0.046911
842.041224	0.047121
842.229092	0.047455
842.416942	0.047409
842.604774	0.047679
842.792588	0.047662
842.980383	0.047497
843.168160	0.047602
843.355919	0.047617
843.543660	0.047749
843.731382	0.047830
843.919087	0.047692
844.106773	0.048083
844.294441	0.048067
844.482090	0.048105
844.669722	0.048230
844.857335	0.048592
845.044930	0.048463
845.232507	0.048433
845.420065	0.048311
845.607605	0.048313
845.795127	0.048064
845.982631	0.048309
846.170117	0.048378
846.357584	0.048475
846.545033	0.048358
846.732464	0.048587
846.919877	0.048756
847.107272	0.048682
847.294648	0.048630
847.482006	0.048844
847.669346	0.048690
847.856667	0.049009
848.043971	0.049379
848.231256	0.049578
848.418523	0.049772
848.605771	0.049940
848.793002	0.050311
848.980214	0.050587
849.167408	0.050764
849.354584	0.051063
849.541742	0.051301
849.728881	0.051264
849.916002	0.051362
850.103105	0.051474
850.290190	0.051486
850.477256	0.051516
850.664304	0.051635
850.851334	0.051868
851.038346	0.051918
851.225340	0.051897
851.412315	0.052058
851.599272	0.052081
851.786211	0.052115
851.973132	0.052163
852.160034	0.052278
852.346918	0.052195
852.533784	0.051992
852.720632	0.051802
852.907462	0.051690
853.094273	0.051852
853.281066	0.051693
853.467841	0.051947
853.654598	0.052143
853.841336	0.052213
854.028056	0.052453
854.214758	0.052620
854.401442	0.052769
854.588107	0.052795
854.774755	0.052604
854.961384	0.052873
855.147995	0.052672
855.334587	0.052717
855.521162	0.052794
855.707718	0.052602
855.894256	0.052451
856.080775	0.052607
856.267277	0.052521
856.453760	0.052582
856.640225	0.052627
856.826672	0.052814
857.013101	0.052745
857.199511	0.052597
857.385903	0.053159
857.572277	0.053084
857.758633	0.053122
857.944970	0.053610
858.131290	0.053550
858.317591	0.053544
858.503873	0.053613
858.690138	0.053813
858.876384	0.054049
859.062612	0.053808
859.248822	0.054290
859.435014	0.054320
859.621188	0.054162
859.807343	0.054265
859.993480	0.054332
860.179599	0.054602
860.365699	0.054755
860.551781	0.054935
860.737846	0.054904
860.923891	0.054823
861.109919	0.054904
861.295929	0.055059
861.481920	0.055739
861.667893	0.056087
861.853848	0.055947
862.039784	0.056033
862.225702	0.056167
862.411603	0.056372
862.597484	0.056592
862.783348	0.056736
862.969193	0.056819
863.155021	0.056546
863.340830	0.056645
863.526620	0.056595
863.712393	0.056547
863.898147	0.056438
864.083883	0.056741
864.269601	0.056899
864.455301	0.056907
864.640982	0.057193
864.826645	0.057235
865.012290	0.057335
865.197917	0.057679
865.383526	0.057584
865.569116	0.057674
865.754688	0.057614
865.940242	0.057660
866.125777	0.057994
866.311295	0.057676
866.496794	0.057849
866.682275	0.057923
866.867737	0.058026
867.053182	0.058242
867.238608	0.058512
867.424016	0.058674
867.609406	0.058829
867.794778	0.058489
867.980131	0.058668
868.165466	0.058884
868.350783	0.059001
868.536082	0.058699
868.721362	0.058892
868.906625	0.058790
869.091869	0.058624
869.277094	0.058470
869.462302	0.058738
869.647491	0.058856
869.832662	0.058956
870.017815	0.058939
870.202950	0.059257
870.388066	0.059167
870.573165	0.059230
870.758245	0.059570
870.943306	0.059328
871.128350	0.059290
871.313375	0.059692
871.498382	0.059182
871.683371	0.059138
871.868342	0.059342
872.053294	0.059277
872.238229	0.059293
872.423144	0.059127
872.608042	0.059386
872.792922	0.059614
872.977783	0.059491
873.162626	0.059819
873.347451	0.059478
873.532258	0.059333
873.717046	0.059664
873.901816	0.059706
874.086568	0.059838
874.271302	0.059835
874.456017	0.059972
874.640715	0.059712
874.825394	0.059772
875.010055	0.060000
875.194697	0.060360
875.379322	0.060521
875.563928	0.060640
875.748516	0.060800
875.933085	0.061079
876.117637	0.061015
876.302170	0.061178
876.486685	0.061070
876.671182	0.061335
876.855661	0.061312
877.040121	0.061338
877.224563	0.061256
877.408987	0.061112
877.593393	0.060950
877.777780	0.060748
877.962150	0.060791
878.146501	0.060948
878.330833	0.060944
878.515148	0.060866
878.699444	0.060789
878.883722	0.061063
879.067982	0.061068
879.252224	0.061294
879.436447	0.061624
879.620653	0.061671
879.804840	0.061864
879.989008	0.061696
880.173159	0.061587
880.357291	0.061932
880.541405	0.061800
880.725501	0.062129
880.909579	0.062273
881.093638	0.062483
881.277680	0.062644
881.461703	0.062633
881.645707	0.062841
881.829694	0.063012
882.013662	0.062675
882.197612	0.062879
882.381544	0.062604
882.565458	0.062326
882.749353	0.062077
882.933230	0.061980
883.117089	0.061813
883.300930	0.061758
883.484753	0.061806
883.668557	0.061886
883.852343	0.061492
884.036111	0.061596
884.219861	0.061757
884.403592	0.061658
884.587305	0.061667
884.771000	0.061844
884.954677	0.062122
885.138335	0.061816
885.321976	0.061409
885.505598	0.061594
885.689201	0.061741
885.872787	0.061633
886.056354	0.061551
886.239904	0.061908
886.423434	0.061761
886.606947	0.061260
886.790442	0.061143
886.973918	0.061393
887.157376	0.061445
887.340816	0.061234
887.524237	0.061224
887.707641	0.061430
887.891026	0.061154
888.074393	0.061139
888.257741	0.061446
888.441072	0.061913
888.624384	0.061742
888.807678	0.062006
888.990954	0.062182
889.174211	0.062139
889.357451	0.062214
889.540672	0.062161
889.723875	0.062338
889.907059	0.062293
890.090226	0.062475
890.273374	0.062745
890.456504	0.062530
890.639616	0.062320
890.822709	0.062683
891.005785	0.062373
891.188842	0.062479
891.371881	0.062250
891.554901	0.062223
891.737904	0.062029
891.920888	0.062213
892.103854	0.062199
892.286802	0.062164
892.469731	0.061823
892.652643	0.062157
892.835536	0.061989
893.018410	0.062049
893.201267	0.062013
893.384106	0.061978
893.566926	0.061940
893.749728	0.062267
893.932511	0.062473
894.115277	0.062336
894.298024	0.062124
894.480753	0.062155
894.663464	0.062291
894.846157	0.062315
895.028831	0.062572
895.211487	0.062735
895.394125	0.062078
895.576745	0.061866
895.759346	0.062157
895.941930	0.062504
896.124495	0.062426
896.307041	0.062338
896.489570	0.062238
896.672080	0.062061
896.854573	0.061819
897.037046	0.062400
897.219502	0.062218
897.401940	0.062143
897.584359	0.061890
897.766760	0.062199
897.949143	0.062084
898.131507	0.062319
898.313854	0.062174
898.496182	0.061755
898.678492	0.061579
898.860783	0.061923
899.043057	0.061843
899.225312	0.061812
899.407549	0.061585
899.589768	0.061607
899.771968	0.061466
899.954151	0.061113
900.136315	0.061178
900.318461	0.060474
900.500588	0.060273
900.682698	0.060238
900.864789	0.060291
901.046862	0.060075
901.228917	0.060084
901.410953	0.060165
901.592971	0.060605
901.774972	0.060790
901.956953	0.061103
902.138917	0.061188
902.320862	0.060993
902.502790	0.061033
902.684699	0.060770
902.866589	0.060686
903.048462	0.060664
903.230316	0.060402
903.412152	0.060309
903.593970	0.060486
903.775770	0.060399
903.957551	0.060448
904.139314	0.060131
904.321059	0.060384
904.502786	0.060079
904.684494	0.059774
904.866185	0.059626
905.047857	0.059575
905.229510	0.059413
905.411146	0.059111
905.592763	0.058993
905.774363	0.058795
905.955943	0.058738
906.137506	0.058912
906.319051	0.058788
906.500577	0.058815
906.682085	0.058752
906.863575	0.058747
907.045046	0.058681
907.226500	0.058855
907.407935	0.058959
907.589352	0.058362
907.770750	0.058723
907.952131	0.058555
908.133493	0.058251
908.314837	0.057998
908.496163	0.057647
908.677470	0.057642
908.858760	0.057173
909.040031	0.056931
909.221284	0.057110
909.402518	0.056756
909.583735	0.056480
909.764933	0.056857
909.946113	0.057043
910.127275	0.056989
910.308418	0.056696
910.489544	0.057083
910.670651	0.056867
910.851740	0.056859
911.032810	0.056630
911.213863	0.057066
911.394897	0.056784
911.575913	0.056811
911.756911	0.057115
911.937890	0.057268
912.118851	0.057034
912.299794	0.057207
912.480719	0.057042
912.661626	0.056616
912.842514	0.056157
913.023384	0.055801
913.204236	0.055580
913.385070	0.055085
913.565886	0.055145
913.746683	0.054690
913.927462	0.054468
914.108223	0.054650
914.288965	0.054830
914.469690	0.054750
914.650396	0.054906
914.831084	0.054529
915.011754	0.054461
915.192405	0.054344
915.373038	0.054381
915.553653	0.054490
915.734250	0.054383
915.914829	0.054283
916.095389	0.054424
916.275931	0.054162
916.456455	0.054445
916.636961	0.054508
916.817448	0.054211
916.997917	0.054091
917.178368	0.053921
917.358801	0.053784
917.539216	0.053891
917.719612	0.053556
917.899990	0.053248
918.080350	0.052888
918.260692	0.052878
918.441015	0.052569
918.621320	0.052287
918.801607	0.052235
918.981876	0.052049
919.162127	0.051777
919.342359	0.052089
919.522573	0.052430
919.702769	0.052077
919.882947	0.051832
920.063106	0.051508
920.243247	0.051595
920.423370	0.051232
920.603475	0.050952
920.783562	0.050391
920.963630	0.049791
921.143680	0.049402
921.323712	0.049207
921.503725	0.048914
921.683721	0.048993
921.863698	0.048925
922.043657	0.048925
922.223598	0.048826
922.403520	0.048789
922.583424	0.048316
922.763311	0.047984
922.943178	0.047954
923.123028	0.048071
923.302859	0.047959
923.482673	0.047155
923.662467	0.047443
923.842244	0.047189
924.022003	0.046927
924.201743	0.047021
924.381465	0.047110
924.561169	0.046973
924.740854	0.046346
924.920522	0.046271
925.100171	0.046236
925.279802	0.045355
925.459414	0.045029
925.639009	0.044854
925.818585	0.044302
925.998143	0.043584
926.177683	0.043307
926.357205	0.043247
926.536708	0.043042
926.716193	0.043099
926.895660	0.043209
927.075109	0.043388
927.254539	0.043556
927.433951	0.043914
927.613345	0.043986
927.792721	0.043914
927.972079	0.043659
928.151418	0.043152
928.330739	0.042963
928.510042	0.042358
928.689327	0.041856
928.868593	0.041445
929.047841	0.041140
929.227071	0.040707
929.406283	0.040221
929.585476	0.040377
929.764652	0.040808
929.943809	0.040770
930.122948	0.040084
930.302068	0.039450
930.481171	0.038971
930.660255	0.038646
930.839321	0.038395
931.018369	0.038389
931.197398	0.037109
931.376409	0.036488
931.555402	0.035817
931.734377	0.036041
931.913334	0.035969
932.092272	0.036007
932.271192	0.035883
932.450094	0.035677
932.628978	0.034981
932.807844	0.036339
932.986691	0.036177
933.165520	0.036103
933.344331	0.036122
933.523123	0.036036
933.701898	0.036088
933.880654	0.035877
934.059392	0.035666
934.238111	0.036228
934.416813	0.034726
934.595496	0.034232
934.774161	0.034387
934.952808	0.034100
935.131437	0.034302
935.310047	0.033604
935.488639	0.032850
935.667213	0.033010
935.845769	0.032329
936.024306	0.032701
936.202825	0.032436
936.381326	0.032097
936.559809	0.031744
936.738274	0.030982
936.916720	0.030494
937.095148	0.030809
937.273558	0.030527
937.451950	0.029989
937.630323	0.029833
937.808678	0.030001
937.987015	0.029829
938.165334	0.029673
938.343635	0.029797
938.521917	0.030074
938.700181	0.029792
938.878427	0.029847
939.056655	0.030230
939.234864	0.028926
939.413055	0.028221
939.591228	0.027329
939.769383	0.027276
939.947519	0.026947
940.125638	0.025896
940.303738	0.025438
940.481820	0.024743
940.659883	0.024197
940.837929	0.024630
941.015956	0.024584
941.193965	0.024506
941.371955	0.024718
941.549928	0.024414
941.727882	0.025626
941.905818	0.025940
942.083736	0.025249
942.261636	0.024701
942.439517	0.024911
942.617380	0.024738
942.795225	0.024724
942.973052	0.023512
943.150860	0.024164
943.328651	0.023290
943.506423	0.023290
943.684176	0.023815
943.861912	0.024043
944.039629	0.023925
944.217328	0.024078
944.395009	0.023857
944.572672	0.024870
944.750317	0.023736
944.927943	0.023938
945.105551	0.023248
945.283141	0.023020
945.460712	0.022642
945.638265	0.022290
945.815801	0.021340
945.993317	0.021345
946.170816	0.020620
946.348297	0.021279
946.525759	0.020372
946.703203	0.020457
946.880629	0.020849
947.058036	0.021320
947.235425	0.021432
947.412797	0.022126
947.590149	0.022411
947.767484	0.022111
947.944800	0.021285
948.122099	0.021689
948.299379	0.022232
948.476640	0.021489
948.653884	0.021635
948.831109	0.020803
949.008316	0.021487
949.185505	0.020828
949.362676	0.021143
949.539828	0.021377
949.716962	0.020745
949.894078	0.019075
950.071176	0.018464
950.248256	0.017217
950.425317	0.017907
950.602360	0.017211
950.779385	0.017233
950.956391	0.017136
951.133380	0.017435
951.310350	0.019082
951.487302	0.020167
951.664235	0.021096
951.841151	0.021635
952.018048	0.020524
952.194927	0.021599
952.371788	0.020881
952.548631	0.020775
952.725455	0.019779
952.902261	0.017359
953.079049	0.017156
953.255819	0.016562
953.432570	0.015449
953.609303	0.016231
953.786018	0.013577
953.962715	0.013766
954.139394	0.013618
954.316054	0.015213
954.492696	0.016417
954.669320	0.016509
954.845926	0.014797
955.022513	0.015910
955.199083	0.016061
955.375634	0.017147
955.552166	0.016116
955.728681	0.016493
955.905177	0.016359
956.081655	0.015703
956.258115	0.016091
956.434557	0.016971
956.610980	0.016188
956.787385	0.014337
956.963772	0.014776
957.140141	0.017618
957.316492	0.017041
957.492824	0.015907
957.669138	0.016647
957.845434	0.016778
958.021712	0.018491
958.197971	0.020571
958.374212	0.021382
958.550435	0.022449
958.726640	0.021513
958.902826	0.022270
959.078995	0.022277
959.255145	0.023746
959.431277	0.023975
959.607390	0.022993
959.783486	0.021652
959.959563	0.023583
960.135622	0.022391
960.311662	0.023082
960.487685	0.022778
960.663689	0.023604
960.839675	0.022319
961.015643	0.021831
961.191593	0.021909
961.367524	0.022517
961.543437	0.021282
961.719332	0.020732
961.895209	0.019358
962.071067	0.020339
962.246907	0.019128
962.422730	0.019567
962.598533	0.018285
962.774319	0.019465
962.950086	0.018554
963.125835	0.019923
963.301566	0.021344
963.477279	0.025504
963.652973	0.024421
963.828650	0.025570
964.004308	0.025971
964.179947	0.028670
964.355569	0.029068
964.531172	0.032409
964.706757	0.032543
964.882324	0.032322
965.057873	0.027911
965.233403	0.029141
965.408916	0.028901
965.584410	0.028123
965.759885	0.026762
965.935343	0.025946
966.110782	0.023658
966.286203	0.023357
966.461606	0.023572
966.636991	0.026595
966.812357	0.025109
966.987705	0.024372
967.163035	0.024814
967.338347	0.025485
967.513641	0.024340
967.688916	0.024330
967.864173	0.025248
968.039412	0.024353
968.214632	0.023940
968.389835	0.023071
968.565019	0.025898
968.740185	0.026006
968.915333	0.023427
969.090462	0.023452
969.265573	0.024379
969.440667	0.024502
969.615741	0.024472
969.790798	0.025422
969.965836	0.025357
970.140856	0.024300
970.315858	0.023038
970.490842	0.025726
970.665808	0.025927
970.840755	0.025455
971.015684	0.025582
971.190595	0.029475
971.365487	0.027982
971.540362	0.030031
971.715218	0.030066
971.890056	0.031806
972.064875	0.031247
972.239677	0.032118
972.414460	0.030846
972.589225	0.028593
972.763972	0.025539
972.938700	0.026045
973.113411	0.025477
973.288103	0.024453
973.462777	0.024074
973.637432	0.024896
973.812070	0.024234
973.986689	0.024072
974.161290	0.025106
974.335873	0.024746
974.510437	0.023876
974.684984	0.021759
974.859512	0.020567
975.034022	0.019638
975.208513	0.018198
975.382987	0.020052
975.557442	0.021515
975.731879	0.021237
975.906298	0.022545
976.080698	0.021170
976.255080	0.023015
976.429445	0.026191
976.603790	0.026367
976.778118	0.028723
976.952427	0.027402
977.126719	0.025444
977.300992	0.026321
977.475246	0.023600
977.649483	0.025419
977.823701	0.026812
977.997901	0.025967
978.172083	0.026324
978.346247	0.025182
978.520392	0.026165
978.694519	0.029139
978.868628	0.028569
979.042719	0.028529
979.216791	0.028940
979.390845	0.027369
979.564882	0.026927
979.738899	0.026280
979.912899	0.026339
980.086880	0.025999
980.260843	0.025389
980.434788	0.026104
980.608715	0.027133
980.782623	0.025835
980.956514	0.026408
981.130386	0.025854
981.304240	0.027356
981.478075	0.027332
981.651892	0.026194
981.825692	0.025029
981.999472	0.024767
982.173235	0.025715
982.346980	0.024448
982.520706	0.023382
982.694414	0.023512
982.868104	0.022703
983.041775	0.023890
983.215428	0.025536
983.389064	0.024638
983.562680	0.023858
983.736279	0.022905
983.909860	0.026361
984.083422	0.028529
984.256966	0.029606
984.430491	0.029867
984.603999	0.028260
984.777488	0.027259
984.950959	0.028299
985.124412	0.025985
985.297847	0.025264
985.471263	0.024742
985.644661	0.023947
985.818041	0.024566
985.991403	0.024206
986.164747	0.024407
986.338072	0.025399
986.511379	0.025558
986.684668	0.028217
986.857938	0.029560
987.031191	0.029237
987.204425	0.027466
987.377641	0.026607
987.550839	0.026375
987.724018	0.025888
987.897179	0.025121
988.070322	0.024737
988.243447	0.025692
988.416554	0.024628
988.589642	0.024963
988.762712	0.026349
988.935764	0.027317
989.108798	0.027331
989.281813	0.027093
989.454811	0.027430
989.627790	0.028502
989.800751	0.026849
989.973693	0.027217
990.146617	0.025592
990.319524	0.024837
990.492412	0.022853
990.665281	0.024941
990.838133	0.025976
991.010966	0.026852
991.183781	0.025810
991.356578	0.025893
991.529356	0.025600
991.702117	0.025546
991.874859	0.026427
992.047583	0.026330
992.220288	0.024583
992.392976	0.023029
992.565645	0.021261
992.738296	0.021289
992.910929	0.022031
993.083543	0.022277
993.256139	0.023011
993.428718	0.022182
993.601277	0.022555
993.773819	0.022885
993.946342	0.025028
994.118848	0.026700
994.291335	0.026593
994.463803	0.025028
994.636254	0.025911
994.808686	0.025443
994.981100	0.027127
995.153496	0.027037
995.325874	0.027279
995.498233	0.026942
995.670574	0.026372
995.842897	0.026106
996.015202	0.027388
996.187488	0.025911
996.359757	0.025310
996.532007	0.024649
996.704239	0.024801
996.876452	0.025581
997.048648	0.025006
997.220825	0.022595
997.392984	0.022805
997.565124	0.022081
997.737247	0.022782
997.909351	0.022573
998.081437	0.022939
998.253505	0.023903
998.425554	0.022800
998.597586	0.022627
998.769599	0.025272
998.941594	0.025836
999.113571	0.026412
999.285529	0.025805
999.457469	0.026592
999.629391	0.025984
999.801295	0.023875
999.973181	0.025197
1000.145048	0.024178
1000.316897	0.023364
1000.488728	0.023607
1000.660541	0.024331
1000.832335	0.026002
1001.004111	0.026250
1001.175869	0.025504
1001.347609	0.025465
1001.519331	0.024755
1001.691034	0.026996
1001.862719	0.026750
1002.034386	0.025798
1002.206035	0.025848
1002.377665	0.024141
1002.549277	0.025086
1002.720871	0.025581
1002.892447	0.026144
1003.064004	0.025756
1003.235544	0.023826
1003.407065	0.023814
1003.578568	0.024557
1003.750052	0.024915
1003.921519	0.025861
1004.092967	0.024296
1004.264397	0.025523
1004.435809	0.025878
1004.607202	0.025602
1004.778577	0.026939
1004.949934	0.026960
1005.121273	0.027537
1005.292594	0.026346
1005.463896	0.025486
1005.635180	0.026232
1005.806446	0.026038
1005.977694	0.024975
1006.148923	0.023247
1006.320135	0.021174
1006.491328	0.021036
1006.662503	0.020337
1006.833659	0.020626
1007.004798	0.020744
1007.175918	0.018530
1007.347020	0.016997
1007.518103	0.018219
1007.689169	0.018303
1007.860216	0.020353
1008.031245	0.020343
1008.202256	0.020429
1008.373248	0.019554
1008.544223	0.020530
1008.715179	0.023184
1008.886117	0.023718
1009.057036	0.022039
1009.227938	0.022337
1009.398821	0.022502
1009.569686	0.021530
1009.740533	0.019932
1009.911361	0.020020
1010.082172	0.018356
1010.252964	0.018942
1010.423738	0.018216
1010.594493	0.018436
1010.765231	0.020165
1010.935950	0.018847
1011.106651	0.020625
1011.277334	0.022604
1011.447998	0.024891
1011.618645	0.026034
1011.789273	0.026068
1011.959882	0.025508
1012.130474	0.028271
1012.301048	0.027568
1012.471603	0.027132
1012.642140	0.026247
1012.812658	0.024435
1012.983159	0.023432
1013.153641	0.021678
1013.324105	0.020078
1013.494551	0.021676
1013.664979	0.019615
1013.835388	0.018934
1014.005779	0.020253
1014.176152	0.019452
1014.346507	0.020360
1014.516843	0.019236
1014.687162	0.020279
1014.857462	0.019720
1015.027744	0.018318
1015.198007	0.019100
1015.368252	0.020369
1015.538480	0.019998
1015.708689	0.021098
1015.878879	0.020053
1016.049052	0.020450
1016.219206	0.021170
1016.389342	0.021678
1016.559460	0.021875
1016.729559	0.022096
1016.899641	0.021835
1017.069704	0.021275
1017.239749	0.022222
1017.409775	0.022971
1017.579784	0.023334
1017.749774	0.024701
1017.919746	0.023838
1018.089700	0.024522
1018.259635	0.023850
1018.429553	0.022954
1018.599452	0.023094
1018.769333	0.022131
1018.939195	0.021451
1019.109040	0.019264
1019.278866	0.017199
1019.448674	0.019775
1019.618464	0.019982
1019.788235	0.018555
1019.957989	0.018618
1020.127724	0.018975
1020.297441	0.018260
1020.467139	0.017901
1020.636820	0.018334
1020.806482	0.017971
1020.976126	0.016391
1021.145752	0.016090
1021.315359	0.016800
1021.484948	0.019038
1021.654519	0.018529
1021.824072	0.020671
1021.993607	0.022881
1022.163123	0.022488
1022.332621	0.023197
1022.502101	0.024695
1022.671563	0.024771
1022.841007	0.024531
1023.010432	0.023444
1023.179839	0.023517
1023.349228	0.022643
1023.518598	0.021311
1023.687951	0.022232
1023.857285	0.022863
1024.026601	0.021756
1024.195899	0.022034
1024.365178	0.023948
1024.534439	0.022974
1024.703682	0.024138
1024.872907	0.023325
1025.042114	0.024696
1025.211302	0.024645
1025.380472	0.024638
1025.549624	0.025437
1025.718758	0.024808
1025.887873	0.023397
1026.056970	0.023608
1026.226049	0.022835
1026.395110	0.022949
1026.564153	0.021745
1026.733177	0.024477
1026.902183	0.023780
1027.071171	0.022264
1027.240141	0.023764
1027.409092	0.024997
1027.578026	0.024468
1027.746940	0.024738
1027.915837	0.024189
1028.084716	0.024040
1028.253576	0.021198
1028.422418	0.021172
1028.591242	0.021198
1028.760048	0.019359
1028.928835	0.017159
1029.097604	0.018156
1029.266355	0.018094
1029.435088	0.018278
1029.603803	0.018547
1029.772499	0.018049
1029.941177	0.018213
1030.109837	0.017190
1030.278478	0.018628
1030.447102	0.020720
1030.615707	0.019518
1030.784294	0.018278
1030.952863	0.016745
1031.121413	0.016558
1031.289945	0.018451
1031.458460	0.019589
1031.626955	0.019213
1031.795433	0.017489
1031.963892	0.016355
1032.132334	0.016409
1032.300756	0.017373
1032.469161	0.018548
1032.637548	0.018404
1032.805916	0.017992
1032.974266	0.016237
1033.142598	0.016418
1033.310911	0.017308
1033.479207	0.017329
1033.647484	0.017914
1033.815743	0.018280
1033.983983	0.019235
1034.152206	0.020317
1034.320410	0.020909
1034.488596	0.019805
1034.656764	0.020877
1034.824914	0.020345
1034.993045	0.020295
1035.161158	0.019404
1035.329253	0.016791
1035.497330	0.015915
1035.665388	0.014972
1035.833428	0.013019
1036.001450	0.014540
1036.169454	0.014236
1036.337440	0.015346
1036.505407	0.015619
1036.673356	0.015845
1036.841287	0.017389
1037.009200	0.018959
1037.177094	0.018757
1037.344970	0.019051
1037.512828	0.018592
1037.680668	0.020006
1037.848489	0.020066
1038.016293	0.020169
1038.184078	0.020361
1038.351845	0.020735
1038.519593	0.021058
1038.687324	0.021618
1038.855036	0.023249
1039.022730	0.023585
1039.190406	0.023510
1039.358063	0.021552
1039.525702	0.021373
1039.693323	0.022167
1039.860926	0.021668
1040.028511	0.020218
1040.196077	0.018908
1040.363625	0.019101
1040.531155	0.016404
1040.698667	0.014783
1040.866161	0.014548
1041.033636	0.014605
1041.201093	0.014813
1041.368532	0.016069
1041.535952	0.014831
1041.703355	0.015104
1041.870739	0.014579
1042.038105	0.018470
1042.205452	0.019284
1042.372782	0.020955
1042.540093	0.019244
1042.707386	0.018689
1042.874661	0.018448
1043.041918	0.020816
1043.209156	0.021767
1043.376376	0.020178
1043.543578	0.020166
1043.710762	0.019398
1043.877927	0.018076
1044.045074	0.019145
1044.212203	0.018780
1044.379314	0.018296
1044.546407	0.017592
1044.713481	0.017454
1044.880537	0.018149
1045.047575	0.015838
1045.214595	0.016993
1045.381596	0.017017
1045.548579	0.018494
1045.715544	0.018184
1045.882491	0.017326
1046.049420	0.016856
1046.216330	0.015835
1046.383222	0.016888
1046.550096	0.017823
1046.716951	0.016990
1046.883789	0.016580
1047.050608	0.014827
1047.217409	0.016338
1047.384192	0.016604
1047.550956	0.016488
1047.717703	0.016978
1047.884431	0.016073
1048.051140	0.016133
1048.217832	0.017498
1048.384505	0.018217
1048.551161	0.018732
1048.717798	0.016173
1048.884416	0.016322
1049.051017	0.016954
1049.217599	0.017190
1049.384163	0.017189
1049.550709	0.018192
1049.717237	0.017562
1049.883746	0.018013
1050.050237	0.017861
1050.216710	0.019489
1050.383165	0.019313
1050.549601	0.018735
1050.716019	0.019204
1050.882420	0.018363
1051.048801	0.017135
1051.215165	0.016922
1051.381510	0.016644
1051.547837	0.016682
1051.714146	0.016721
1051.880437	0.016669
1052.046709	0.017518
1052.212964	0.018294
1052.379200	0.018798
1052.545417	0.018124
1052.711617	0.017844
1052.877798	0.017886
1053.043961	0.017723
1053.210106	0.016817
1053.376233	0.017474
1053.542341	0.016141
1053.708432	0.015680
1053.874504	0.015436
1054.040557	0.015659
1054.206593	0.017900
1054.372610	0.018516
1054.538609	0.018610
1054.704590	0.019444
1054.870553	0.020421
1055.036497	0.018358
1055.202424	0.017749
1055.368331	0.017670
1055.534221	0.017886
1055.700093	0.015754
1055.865946	0.014020
1056.031781	0.014140
1056.197598	0.014797
1056.363397	0.013889
1056.529177	0.016015
1056.694939	0.014707
1056.860683	0.014783
1057.026409	0.014985
1057.192116	0.015372
1057.357806	0.017688
1057.523477	0.018495
1057.689130	0.017585
1057.854764	0.017234
1058.020381	0.018434
1058.185979	0.018512
1058.351559	0.017400
1058.517120	0.017040
1058.682664	0.017107
1058.848189	0.015684
1059.013696	0.015213
1059.179185	0.014344
1059.344656	0.014528
1059.510108	0.013265
1059.675542	0.014049
1059.840958	0.015568
1060.006356	0.016747
1060.171735	0.015039
1060.337096	0.016220
1060.502439	0.016952
1060.667764	0.016706
1060.833071	0.017109
1060.998359	0.016456
1061.163629	0.016657
1061.328881	0.016658
1061.494115	0.016053
1061.659330	0.016288
1061.824527	0.016832
1061.989706	0.016807
1062.154867	0.018317
1062.320010	0.018679
1062.485134	0.020291
1062.650240	0.018715
1062.815328	0.019122
1062.980398	0.020742
1063.145449	0.021504
1063.310482	0.021005
1063.475497	0.019883
1063.640494	0.019354
1063.805473	0.020224
1063.970433	0.018041
1064.135375	0.018545
1064.300299	0.017911
1064.465204	0.016807
1064.630092	0.016118
1064.794961	0.014289
1064.959812	0.016729
1065.124645	0.016425
1065.289459	0.014158
1065.454256	0.015122
1065.619034	0.016878
1065.783793	0.016426
1065.948535	0.015206
1066.113258	0.015796
1066.277964	0.016283
1066.442651	0.015368
1066.607319	0.014591
1066.771970	0.014207
1066.936602	0.013828
1067.101216	0.013368
1067.265812	0.014724
1067.430389	0.015860
1067.594949	0.014202
1067.759490	0.015825
1067.924013	0.015957
1068.088518	0.018156
1068.253004	0.019014
1068.417472	0.018935
1068.581922	0.020012
1068.746354	0.021511
1068.910768	0.020351
1069.075163	0.021949
1069.239540	0.021357
1069.403899	0.020653
1069.568240	0.019834
1069.732562	0.018909
1069.896866	0.020921
1070.061152	0.020755
1070.225420	0.018703
1070.389670	0.018524
1070.553901	0.018033
1070.718114	0.016514
1070.882309	0.015383
1071.046486	0.014914
1071.210644	0.014892
1071.374784	0.012354
1071.538906	0.009863
1071.703010	0.010922
1071.867096	0.012896
1072.031163	0.013597
1072.195212	0.014144
1072.359243	0.014160
1072.523256	0.016832
1072.687250	0.018349
1072.851226	0.017860
1073.015184	0.018316
1073.179124	0.016628
1073.343045	0.015693
1073.506949	0.017169
1073.670834	0.015462
1073.834701	0.016318
1073.998549	0.013535
1074.162380	0.014102
1074.326192	0.015706
1074.489986	0.017554
1074.653761	0.018920
1074.817519	0.019120
1074.981258	0.019432
1075.144979	0.021907
1075.308682	0.021519
1075.472367	0.021745
1075.636033	0.019439
1075.799681	0.020355
1075.963311	0.020441
1076.126923	0.020193
1076.290516	0.018737
1076.454092	0.015842
1076.617649	0.014563
1076.781187	0.015249
1076.944708	0.015578
1077.108210	0.019183
1077.271695	0.019365
1077.435160	0.018726
1077.598608	0.018472
1077.762038	0.017446
1077.925449	0.018684
1078.088842	0.018772
1078.252217	0.016057
1078.415573	0.016906
1078.578912	0.013569
1078.742232	0.011818
1078.905534	0.011555
1079.068817	0.012179
1079.232083	0.014552
1079.395330	0.013845
1079.558559	0.015839
1079.721770	0.018872
1079.884962	0.020426
1080.048136	0.020373
1080.211293	0.022154
1080.374430	0.021688
1080.537550	0.019420
1080.700651	0.019596
1080.863735	0.020332
1081.026800	0.019490
1081.189846	0.017705
1081.352875	0.016562
1081.515885	0.015884
1081.678877	0.014981
1081.841851	0.015390
1082.004807	0.016316
1082.167744	0.017243
1082.330663	0.018820
1082.493564	0.019053
1082.656447	0.020231
1082.819312	0.018383
1082.982158	0.019545
1083.144986	0.019479
1083.307796	0.019403
1083.470587	0.019414
1083.633361	0.018156
1083.796116	0.017927
1083.958853	0.016747
1084.121571	0.016667
1084.284272	0.016629
1084.446954	0.017591
1084.609618	0.017076
1084.772264	0.016342
1084.934892	0.017273
1085.097501	0.016862
1085.260092	0.016892
1085.422665	0.018979
1085.585220	0.019897
1085.747756	0.019579
1085.910274	0.019422
1086.072774	0.019929
1086.235256	0.020440
1086.397720	0.018506
1086.560165	0.018369
1086.722592	0.016125
1086.885001	0.013660
1087.047392	0.011673
1087.209764	0.011871
1087.372119	0.009093
1087.534455	0.008583
1087.696772	0.007066
1087.859072	0.005932
1088.021353	0.005859
1088.183616	0.007547
1088.345861	0.010332
1088.508088	0.011097
1088.670296	0.010592
1088.832486	0.015223
1088.994658	0.016853
1089.156812	0.019513
1089.318948	0.022658
1089.481065	0.021721
1089.643164	0.017693
1089.805245	0.015433
1089.967308	0.015375
1090.129352	0.015284
1090.291378	0.013279
1090.453386	0.011703
1090.615376	0.010293
1090.777347	0.010275
1090.939301	0.012388
1091.101236	0.016095
1091.263153	0.017854
1091.425051	0.017250
1091.586932	0.018825
1091.748794	0.018879
1091.910638	0.021435
1092.072463	0.022680
1092.234271	0.021944
1092.396060	0.021529
1092.557831	0.021293
1092.719584	0.018160
1092.881319	0.019124
1093.043035	0.017673
1093.204733	0.018219
1093.366413	0.016179
1093.528075	0.013988
1093.689718	0.014955
1093.851343	0.015074
1094.012950	0.014200
1094.174539	0.014043
1094.336110	0.013552
1094.497662	0.014107
1094.659196	0.013791
1094.820712	0.014250
1094.982210	0.015216
1095.143689	0.012907
1095.305151	0.010688
1095.466594	0.014395
1095.628018	0.015675
1095.789425	0.017460
1095.950813	0.017469
1096.112183	0.015928
1096.273535	0.016773
1096.434869	0.014923
1096.596184	0.017465
1096.757482	0.020997
1096.918761	0.017885
1097.080021	0.020151
1097.241264	0.020578
1097.402488	0.018497
1097.563694	0.020437
1097.724882	0.020636
1097.886052	0.024080
1098.047203	0.022562
1098.208336	0.017027
1098.369451	0.017955
1098.530548	0.017225
1098.691627	0.016830
1098.852687	0.019894
1099.013729	0.016777
1099.174753	0.017496
1099.335758	0.017936
1099.496746	0.018931
1099.657715	0.024320
1099.818666	0.023890
1099.979599	0.022468
1100.140513	0.023041
1100.301409	0.023315
1100.462287	0.024598
1100.623147	0.021244
1100.783989	0.020338
1100.944812	0.015945
1101.105617	0.014238
1101.266404	0.012936
1101.427173	0.015057
1101.587923	0.011552
1101.748656	0.007426
1101.909370	0.008909
1102.070066	0.009817
1102.230743	0.008362
1102.391403	0.011344
1102.552044	0.011449
1102.712667	0.011593
1102.873271	0.008085
1103.033858	0.008804
1103.194426	0.013095
1103.354976	0.013300
1103.515508	0.014234
1103.676021	0.015575
1103.836517	0.016347
1103.996994	0.016982
1104.157453	0.016012
1104.317893	0.019872
1104.478316	0.020141
1104.638720	0.020299
1104.799106	0.018313
1104.959474	0.018507
1105.119823	0.018851
1105.280155	0.017793
1105.440468	0.018812
1105.600763	0.018571
1105.761039	0.020066
1105.921298	0.019653
1106.081538	0.016341
1106.241760	0.016656
1106.401964	0.014896
1106.562149	0.012999
1106.722316	0.012512
1106.882465	0.010055
1107.042596	0.015069
1107.202709	0.012413
1107.362803	0.012560
1107.522879	0.015539
1107.682937	0.014948
1107.842977	0.017734
1108.002999	0.022023
1108.163002	0.025603
1108.322987	0.024558
1108.482954	0.020345
1108.642902	0.017321
1108.802833	0.018435
1108.962745	0.018803
1109.122639	0.022975
1109.282515	0.021997
1109.442372	0.018699
1109.602211	0.015618
1109.762032	0.018014
1109.921835	0.015144
1110.081620	0.015776
1110.241386	0.015272
1110.401134	0.011738
1110.560864	0.007450
1110.720576	0.008175
1110.880269	0.010249
1111.039945	0.010890
1111.199602	0.011728
1111.359240	0.014012
1111.518861	0.015954
1111.678463	0.017160
1111.838047	0.022098
1111.997613	0.023593
1112.157161	0.021791
1112.316690	0.025854
1112.476202	0.026489
1112.635695	0.026134
1112.795169	0.024500
1112.954626	0.021470
1113.114064	0.020834
1113.273484	0.019614
1113.432886	0.019644
1113.592270	0.018465
1113.751635	0.009515
1113.910983	0.007987
1114.070312	0.009620
1114.229622	0.013485
1114.388915	0.020589
1114.548189	0.018910
1114.707445	0.017104
1114.866683	0.020364
1115.025903	0.022182
1115.185104	0.025092
1115.344287	0.028965
1115.503452	0.025047
1115.662599	0.026241
1115.821727	0.021175
1115.980838	0.020753
1116.139930	0.022929
1116.299004	0.020348
1116.458059	0.023021
1116.617097	0.024665
1116.776116	0.023358
1116.935117	0.023577
1117.094099	0.021733
1117.253064	0.024434
1117.412010	0.025845
1117.570938	0.021416
1117.729848	0.020252
1117.888740	0.017060
1118.047613	0.013540
1118.206468	0.012224
1118.365305	0.013789
1118.524124	0.013496
1118.682924	0.007713
1118.841707	0.007655
1119.000471	0.010632
1119.159216	0.008824
1119.317944	0.008580
1119.476653	0.009695
1119.635344	0.012215
1119.794017	0.011140
1119.952672	0.013165
1120.111308	0.016597
1120.269927	0.018055
1120.428527	0.018182
1120.587108	0.019729
1120.745672	0.018123
1120.904217	0.021654
1121.062744	0.021547
1121.221253	0.022625
1121.379744	0.022759
1121.538216	0.023086
1121.696671	0.023668
1121.855107	0.023568
1122.013524	0.025055
1122.171924	0.022367
1122.330305	0.020143
1122.488668	0.017397
1122.647013	0.014885
1122.805340	0.016477
1122.963648	0.016473
1123.121938	0.014160
1123.280210	0.014754
1123.438464	0.016654
1123.596700	0.022720
1123.754917	0.022993
1123.913116	0.024410
1124.071297	0.027254
1124.229459	0.021804
1124.387604	0.023026
1124.545730	0.022100
1124.703838	0.019821
1124.861928	0.017110
1125.019999	0.012138
1125.178052	0.009503
1125.336088	0.009725
1125.494104	0.007317
1125.652103	0.006361
1125.810083	0.007241
1125.968045	0.008480
1126.125989	0.008366
1126.283915	0.010827
1126.441823	0.011562
1126.599712	0.015536
1126.757583	0.012612
1126.915436	0.015470
1127.073270	0.016220
1127.231087	0.013150
1127.388885	0.013637
1127.546665	0.014893
1127.704426	0.011568
1127.862170	0.015217
1128.019895	0.010774
1128.177602	0.012054
1128.335291	0.016523
1128.492961	0.018345
1128.650614	0.017803
1128.808248	0.018428
1128.965864	0.019426
1129.123461	0.023840
1129.281041	0.027191
1129.438602	0.028440
1129.596145	0.024895
1129.753670	0.018143
1129.911176	0.021900
1130.068665	0.020125
1130.226135	0.014887
1130.383587	0.014655
1130.541020	0.013283
1130.698436	0.010558
1130.855833	0.012413
1131.013212	0.016069
1131.170573	0.016915
1131.327915	0.008689
1131.485239	0.011259
1131.642545	0.014319
1131.799833	0.013937
1131.957103	0.015139
1132.114354	0.015388
1132.271588	0.008614
1132.428803	0.005470
1132.585999	0.003985
1132.743178	0.008792
1132.900338	0.006012
1133.057480	0.008607
1133.214604	0.009998
1133.371710	0.008955
1133.528797	0.006080
1133.685866	0.015072
1133.842917	0.016778
1133.999950	0.014950
1134.156964	0.017596
1134.313960	0.019258
1134.470938	0.021931
1134.627898	0.017061
1134.784840	0.020684
1134.941763	0.019864
1135.098668	0.016007
1135.255555	0.018329
1135.412424	0.019828
1135.569274	0.020084
1135.726107	0.019073
1135.882921	0.012861
1136.039716	0.019809
1136.196494	0.018127
1136.353253	0.015479
1136.509995	0.014814
1136.666717	0.011256
1136.823422	0.011443
1136.980109	0.007629
1137.136777	0.014528
1137.293427	0.014372
1137.450059	0.012669
1137.606672	0.007548
1137.763267	0.014197
1137.919844	0.020556
1138.076403	0.021893
1138.232944	0.023508
1138.389466	0.021004
1138.545971	0.016145
1138.702457	0.014494
1138.858924	0.016298
1139.015374	0.020599
1139.171805	0.020067
1139.328218	0.015549
1139.484613	0.018226
1139.640990	0.017759
1139.797348	0.022514
1139.953688	0.023515
1140.110010	0.029263
1140.266314	0.025266
1140.422600	0.023980
1140.578867	0.024848
1140.735116	0.020737
1140.891347	0.020377
1141.047559	0.020746
1141.203754	0.016161
1141.359930	0.019160
1141.516088	0.019147
1141.672228	0.017234
1141.828349	0.017550
1141.984452	0.018126
1142.140537	0.024082
1142.296604	0.024519
1142.452653	0.023985
1142.608683	0.034620
1142.764695	0.036978
1142.920689	0.033699
1143.076665	0.031601
1143.232622	0.032562
1143.388562	0.033461
1143.544483	0.028154
1143.700385	0.025373
1143.856270	0.025836
1144.012136	0.019535
1144.167985	0.009276
1144.323814	0.015755
1144.479626	0.015452
1144.635420	0.008909
1144.791195	0.005402
1144.946952	0.009131
1145.102691	0.009936
1145.258411	0.014919
1145.414113	0.009668
1145.569798	0.014074
1145.725463	0.006507
1145.881111	0.012598
1146.036741	0.014180
1146.192352	0.018004
1146.347945	0.014537
1146.503519	0.014127
1146.659076	0.011066
1146.814614	0.014060
1146.970134	0.010591
1147.125636	0.013829
1147.281120	0.014325
1147.436585	0.015050
1147.592032	0.009414
1147.747461	0.011233
1147.902872	0.011922
1148.058265	0.009393
1148.213639	0.006024
1148.368995	0.010452
1148.524333	0.008457
1148.679653	0.003470
1148.834954	0.003270
1148.990237	0.001150
1149.145502	0.001722
1149.300749	-0.001048
1149.455977	0.004328
1149.611188	0.010112
1149.766380	-0.001182
1149.921553	0.002209
1150.076709	-0.003963
1150.231846	-0.007465
1150.386966	-0.011573
1150.542066	-0.009182
1150.697149	-0.005500
1150.852214	-0.006469
1151.007260	-0.000709
1151.162288	0.010991
1151.317298	0.006974
1151.472289	0.014652
1151.627263	0.019148
1151.782218	0.025798
1151.937155	0.024125
1152.092073	0.025765
1152.246974	0.020639
1152.401856	0.013236
1152.556720	0.009682
1152.711566	0.007843
1152.866393	0.013484
1153.021203	0.012438
1153.175994	0.021161
1153.330767	0.020254
1153.485521	0.013848
1153.640258	0.014393
1153.794976	0.009680
1153.949676	0.008269
1154.104358	0.013498
1154.259021	0.006570
1154.413667	0.005518
1154.568294	-0.000612
1154.722903	-0.005698
1154.877493	0.001552
1155.032066	0.007229
1155.186620	0.003430
1155.341156	0.011450
1155.495674	0.015573
1155.650173	0.017581
1155.804654	0.020275
1155.959118	0.021477
1156.113562	0.025632
1156.267989	0.023413
1156.422397	0.019317
1156.576788	0.034065
1156.731160	0.035673
1156.885513	0.019483
1157.039849	0.018343
1157.194166	0.019863
1157.348465	0.014829
1157.502746	0.017367
1157.657009	0.016391
1157.811253	0.020901
1157.965479	0.014742
1158.119687	0.011760
1158.273877	0.026598
1158.428048	0.037410
1158.582201	0.036529
1158.736337	0.039944
1158.890453	0.042413
1159.044552	0.052510
1159.198632	0.048018
1159.352694	0.042056
1159.506738	0.044159
1159.660764	0.036911
1159.814771	0.030803
1159.968761	0.029363
1160.122732	0.033172
1160.276685	0.040352
1160.430619	0.030767
1160.584535	0.029969
1160.738434	0.036056
1160.892313	0.035429
1161.046175	0.044297
1161.200019	0.038546
1161.353844	0.040796
1161.507651	0.046232
1161.661440	0.030288
1161.815210	0.031916
1161.968962	0.026253
1162.122697	0.031775
1162.276412	0.023680
1162.430110	0.014950
1162.583789	0.014591
1162.737451	0.018486
1162.891094	0.010869
1163.044718	0.010161
1163.198325	0.005326
1163.351913	0.012636
1163.505483	0.009959
1163.659035	0.019097
1163.812569	0.021838
1163.966084	0.016932
1164.119581	0.004066
1164.273060	-0.001179
1164.426521	0.000100
1164.579964	0.003900
1164.733388	0.001621
1164.886794	0.001179
1165.040182	-0.002271
1165.193551	-0.001378
1165.346903	0.016979
1165.500236	0.032076
1165.653551	0.029851
1165.806848	0.031694
1165.960126	0.028670
1166.113386	0.024387
1166.266628	0.032595
1166.419852	0.036665
1166.573058	0.029072
1166.726245	0.022468
1166.879414	0.018345
1167.032565	0.021925
1167.185698	0.023681
1167.338812	0.024182
1167.491909	0.011820
1167.644987	0.007070
1167.798046	-0.003108
1167.951088	0.000191
1168.104111	-0.002220
1168.257117	-0.000391
1168.410103	0.007411
1168.563072	0.007173
1168.716023	-0.001921
1168.868955	0.026551
1169.021869	0.017873
1169.174765	0.032677
1169.327642	0.025514
1169.480501	0.022752
1169.633343	0.007906
1169.786165	-0.005971
1169.938970	-0.002108
1170.091757	0.006160
1170.244525	-0.012227
1170.397275	-0.012762
1170.550007	-0.029625
1170.702720	-0.019920
1170.855415	-0.011019
1171.008092	0.003269
1171.160751	0.017743
1171.313392	0.021160
1171.466014	0.084540
1171.618619	0.070743
1171.771205	0.070743
1171.923772	0.070743
