sample name	sample
index	680
start time	 03-22-2021  11:53:42 AM
880	0.003824
Peak Time (s)	91.54
Peak Height 	0.003824
calc peak height	90,93
Baseline Time (s)	11.537
Baseline Value 	-0.003305
subtract baseline	10,4
Abs	-0.006350
Peak Time (s)	90.539
Peak Height 	-0.00635
calc peak height	90,93
Baseline Time (s)	9.036
Baseline Value 	0.004146
subtract baseline	10,3
PK_550	-0.002363
Peak Time (s)	91.54
Peak Height 	-0.002363
calc peak height	90,93
Baseline Time (s)	9.537
Baseline Value 	3.1013E-5
subtract baseline	10,2
PK_880	-0.006693
Peak Time (s)	91.037
Peak Height 	-0.006693
calc peak height	90,93
Baseline Time (s)	8.536
Baseline Value 	0.001313
subtract baseline	10,1


Time (s)	A880-A510	A880-A775	A880-A975	A880	I510	I775	I975	I880	
0.036500	-0.003880	-0.000465	-0.004735	0.007163	7288.028697	45234.069216	3939.149700	23955.094985
0.537000	-0.003097	0.000455	-0.005033	0.006090	7307.024666	45428.841130	3941.135911	24007.296244
1.037000	-0.001243	0.000267	-0.002889	0.004746	7339.946703	45542.266865	3950.128385	24072.887052
1.537000	-0.000780	0.000037	-0.001381	0.001770	7375.613429	45812.896531	3961.795120	24218.825955
2.035000	-0.005016	-0.000024	-0.005480	0.007116	7276.920985	45281.775235	3937.363806	23957.409539
2.538000	-0.000511	-0.000300	0.001279	0.001008	7386.370539	45854.923384	3970.779847	24256.362640
3.035500	0.001165	-0.000110	-0.004007	-0.001797	7433.386831	46152.316304	3964.259237	24395.081559
3.536000	-0.001337	-0.000544	-0.003547	0.000351	7384.604286	45895.773244	3959.842872	24288.778758
4.036500	-0.002780	0.000403	-0.002901	0.002484	7347.447005	45778.530062	3955.968431	24183.740063
4.536500	-0.000593	0.000730	-0.002260	0.001227	7383.224900	45935.270238	3960.917269	24245.562761
5.036500	-0.000216	-0.001224	-0.003716	-0.000623	7406.529335	45924.953819	3961.947858	24336.925658
5.537000	-0.002283	0.000567	0.000079	0.000242	7375.882953	46016.853081	3969.635803	24294.158378
6.037500	-0.000435	0.001070	-0.004987	0.001166	7385.506088	45975.014884	3953.971789	24248.559393
6.535000	0.001090	-0.000146	-0.003228	0.000331	7410.222568	45937.288184	3960.728227	24289.780472
7.040500	0.000400	0.000777	-0.004168	0.000644	7399.707313	45997.817703	3957.460641	24274.336928
7.535500	-0.000099	-0.000023	0.001835	0.000108	7400.080347	45971.548782	3974.621220	24300.758606
8.035500	-0.000998	0.000538	0.000611	0.000223	7389.480850	46015.813785	3971.088111	24295.097585
8.535500	0.000000	0.000357	0.001335	0.000483	7397.194399	45971.975256	3972.310444	24282.238204
9.036000	0.001798	-0.000154	0.000000	0.000073	7420.363405	45962.019044	3969.872096	24302.496183
9.536500	-0.002100	0.000000	0.001580	-0.000066	7381.000235	45991.106216	3974.408303	24309.379866
10.037000	-0.000298	-0.000140	-0.000602	-0.000457	7403.929413	46016.076873	3969.684191	24328.726193
10.537500	0.000455	0.000550	0.000786	0.000363	7403.217981	46003.106595	3971.178346	24288.182107
11.037500	-0.000076	-0.000037	-0.001686	-0.000017	7401.638442	45982.604257	3965.678116	24306.971132
11.537500	0.000778	0.000134	-0.000036	0.000000	7410.409875	45997.793221	3969.970146	24306.111876
12.035000	0.000281	0.000506	-0.000710	0.000336	7401.687208	46001.468614	3967.314888	24289.534021
12.535500	-0.000496	0.000729	0.000512	-0.000415	7401.410472	46098.236576	3972.511656	24326.649453
13.035500	0.001059	0.000273	-0.004250	-0.000726	7420.995340	46083.822666	3960.819220	24342.006608
13.536000	0.000191	0.000360	0.004894	-0.000146	7405.782576	46034.778942	3983.418042	24313.319884
14.036500	-0.000671	0.000816	-0.000258	0.003335	7360.484067	45735.290310	3960.641006	24141.973291
14.536500	-0.001903	0.000874	-0.002859	0.002627	7355.053239	45810.951260	3955.705405	24176.723424
15.045000	-0.000120	0.000396	-0.004279	-0.000065	7401.682465	46030.282627	3959.017696	24309.321002
15.537500	0.000357	0.001140	-0.003547	0.000381	7402.014737	46059.965701	3959.765634	24287.318764
16.037500	0.000675	0.000039	-0.003103	0.000239	7406.831715	45964.692019	3961.297590	24294.323428
16.534500	-0.000726	0.000337	-0.003564	0.000288	7391.644150	45989.441226	3959.961888	24291.884915
17.035500	0.002681	0.001302	-0.000091	-0.002152	7453.168246	46328.661779	3975.507781	24412.705739
17.536000	-0.000666	0.000497	0.003233	0.001158	7383.188486	45918.967545	3975.545049	24248.984222
18.036000	-0.000209	0.000867	0.004321	0.002149	7377.621586	45857.516176	3975.800880	24200.209838
18.536000	-0.000836	-0.000365	-0.002971	0.000976	7383.313094	45851.664834	3959.715369	24257.963350
19.036000	0.000291	0.000264	-0.002723	0.001717	7387.341069	45840.566274	3958.430447	24221.455515
19.537000	-0.000330	-0.000031	-0.000178	0.001743	7380.590936	45808.811236	3965.015300	24220.142766
20.037000	0.000507	0.000335	-0.005630	0.001627	7390.542885	45856.502478	3951.108932	24225.872556
20.540000	-0.000726	0.000208	-0.000253	0.001512	7378.869446	45855.310453	3965.426950	24231.551716
21.035000	0.000196	0.000167	-0.002351	0.001309	7390.618727	45871.434196	3960.464513	24241.550308
21.535000	0.000568	0.000889	-0.000756	0.002285	7384.299189	45846.223046	3962.081523	24193.493373
22.035500	-0.000654	0.000834	-0.002524	0.001937	7375.188270	45875.213794	3958.373573	24210.615057
22.535500	0.000274	-0.000073	-0.005459	0.001061	7394.011556	45872.133902	3953.018886	24253.736722
23.036000	0.000278	0.001021	-0.001899	0.001975	7384.512435	45889.988443	3959.906288	24208.771806
23.536500	0.000727	0.001392	0.001533	0.002246	7386.371280	45899.809577	3968.188520	24195.407554
24.036500	0.001194	0.001370	-0.002460	0.001850	7395.384123	45936.875517	3958.766598	24214.887411
24.537000	-0.001703	0.000615	0.003789	0.001795	7365.760445	45867.574360	3975.330101	24217.614970
25.040000	-0.000176	-0.000771	-0.003397	0.000941	7390.568973	45814.917225	3958.693491	24259.660500
25.537500	0.000517	0.000596	-0.003297	0.001607	7390.848624	45884.340972	3957.220216	24226.850837
26.037000	-0.000495	0.000016	-0.000443	0.000964	7386.998372	45890.574476	3966.363551	24258.531934
26.535000	-0.000686	0.000105	-0.000225	0.001485	7379.567687	45847.732048	3965.569033	24232.847860
27.035500	0.003575	0.000958	-0.001175	-0.000237	7442.361432	46103.262454	3967.595730	24317.824521
27.536000	0.000362	0.000178	0.000295	-0.001184	7418.483118	46119.951759	3973.966890	24364.680094
28.036000	0.000550	0.000471	-0.000841	0.000581	7401.927877	45973.675988	3966.325457	24277.425877
28.536500	0.000215	0.001341	0.000207	0.000929	7394.780401	46025.434380	3968.164112	24260.256725
29.037000	0.001367	0.001119	0.003897	0.001046	7405.620714	45991.769759	3977.599409	24254.499325
29.540000	-0.000130	0.000835	0.001715	0.000075	7400.113352	46060.022080	3974.393189	24302.401552
30.037000	-0.001885	0.000574	-0.001936	0.000576	7376.555500	45984.350180	3963.467799	24277.685740
30.537500	-0.002094	0.000931	-0.001627	0.003073	7348.446686	45772.523793	3957.752604	24154.829632
31.035000	0.001531	0.000507	-0.003244	0.002844	7388.518077	45753.212527	3954.140312	24166.053767
31.535500	0.001388	0.000932	0.001687	0.000445	7412.144310	46032.905137	3973.342168	24284.149048
32.036000	-0.000573	0.000832	-0.001975	0.001843	7377.009564	45884.263609	3960.051141	24215.225423
32.536000	0.001443	0.001077	0.006234	0.000554	7411.572061	46036.438732	3985.124236	24278.742567
33.036500	0.000508	0.001264	-0.001711	0.000615	7401.135514	46048.972263	3963.954880	24275.746086
33.536000	0.002744	0.001405	0.004560	-0.001264	7444.439798	46250.264005	3985.508155	24368.656391
34.039500	-0.000207	0.000298	-0.001868	0.002439	7374.619183	45772.602895	3958.777047	24185.950118
34.537500	-0.000237	0.000691	-0.005453	0.003007	7368.401179	45755.306848	3947.997096	24158.074098
35.037500	-0.000117	0.001138	-0.001963	0.002964	7370.100731	45803.770544	3957.159968	24160.178930
35.534500	0.001948	0.001478	-0.003305	0.003179	7389.373486	45816.007918	3953.111823	24149.598611
36.035000	-0.001715	0.000768	-0.000733	0.002657	7356.680407	45797.493643	3961.169485	24175.233925
36.535500	0.001164	0.000789	-0.000636	0.003273	7380.218989	45738.766995	3959.814538	24145.003254
37.035500	-0.001833	0.000449	-0.002281	0.002671	7355.318265	45764.596935	3957.093627	24174.541558
37.536000	-0.001432	0.001074	0.001840	0.002941	7356.674330	45799.665675	3967.169500	24161.305627
38.036500	-0.000854	0.001311	0.000480	0.003228	7359.693334	45794.726076	3962.848775	24147.226393
38.539500	0.000481	0.001428	0.000157	0.003208	7373.772668	45808.182081	3962.055151	24148.176820
39.037000	0.000025	0.001125	0.000101	0.003069	7370.482609	45792.085292	3962.274162	24155.009995
39.540000	-0.001663	0.001037	0.000858	0.002806	7355.677613	45809.303464	3964.946100	24167.916119
40.034500	-0.000548	0.001254	-0.001480	0.002951	7365.748439	45816.430547	3958.451414	24160.780363
40.535000	-0.000148	0.001959	-0.002504	0.003983	7359.175386	45784.101800	3953.102201	24110.193409
41.035500	-0.001502	0.000456	-0.004092	0.002886	7356.525610	45744.087968	3951.830740	24164.003291
41.535500	-0.000314	0.000731	0.001021	0.003098	7366.652663	45750.295508	3964.605750	24153.583904
42.036000	0.000247	0.001974	0.004627	0.004219	7360.836350	45762.286952	3971.139580	24098.664496
42.536000	0.001089	0.000865	-0.000382	0.003016	7382.107380	45771.515533	3961.147177	24157.594853
43.039500	-0.001614	0.001166	-0.000005	0.003449	7349.518998	45758.518431	3961.001789	24136.355431
43.537000	0.001021	0.000794	0.003433	0.002767	7384.010742	45789.249627	3971.821934	24169.855536
44.034000	0.001942	0.000933	0.000848	-0.001150	7434.761177	46191.685306	3975.338966	24362.986763
44.537500	0.001326	0.001339	0.001101	0.001639	7398.980169	45954.775706	3968.649695	24225.296541
45.035000	0.000035	0.000149	-0.002212	0.000376	7398.690042	45962.080477	3963.269669	24287.548641
45.535000	0.000712	0.000080	0.006385	0.001504	7393.966693	45843.425395	3982.993998	24231.933827
46.041000	0.000738	0.000653	0.001564	0.001886	7390.235564	45862.259868	3969.216561	24213.105223
46.536000	-0.002338	-0.000417	0.002898	0.000992	7367.513457	45844.939175	3975.098765	24257.174306
47.036500	0.000716	0.000851	-0.000104	0.001060	7398.649330	45963.723439	3967.002630	24253.784458
47.538500	-0.001654	0.000014	0.001491	0.003970	7343.719730	45593.768083	3963.554798	24110.856776
48.036500	-0.001192	0.000570	0.001482	0.002247	7366.379681	45818.468508	3968.053668	24195.397809
48.537000	-0.002553	0.000338	0.003231	0.001642	7358.527937	45855.403142	3974.260368	24225.157268
49.037000	0.001209	0.001696	-0.000354	0.001316	7401.137193	46022.199195	3965.674364	24241.173788
49.537500	-0.000901	0.001526	0.000066	0.003232	7359.164960	45815.624237	3961.756200	24147.030175
50.035500	0.001778	0.000084	-0.000614	-0.000170	7422.701068	46009.684395	3968.895146	24314.496942
50.535500	0.001525	0.000835	-0.002682	0.002100	7396.236468	45859.182997	3957.538637	24202.598209
51.035500	-0.063103	-0.018957	0.000969	0.209290	5282.482612	28365.855836	3534.191052	16100.712776
51.536000	-0.043869	-0.012935	-0.011929	0.083814	6243.345182	37377.066331	3743.732807	20540.078156
52.039000	-0.063391	-0.078019	-0.016674	-0.234814	9604.128396	64725.446345	4716.503433	39695.104184
52.536500	-0.129674	-0.269901	-0.077846	-0.432344	11986.349845	65535.000000	5413.794305	60915.407650
53.034000	-0.052622	-0.167689	-0.004462	-0.330132	11472.231235	65535.000000	5247.599989	48738.285258
53.537000	-0.064316	-0.147983	-0.003446	-0.310426	10871.020050	65535.000000	5145.599022	46702.534432
54.037500	-0.053763	-0.111389	-0.007371	-0.273833	10404.363990	65535.000000	4938.984142	43158.811498
54.535000	-0.034776	-0.121416	-0.008595	-0.283859	10926.113290	65535.000000	4982.250814	44100.320893
55.035000	-0.012826	-0.112707	-0.005050	-0.275151	11176.060817	65535.000000	4956.762162	43281.331099
55.535500	-0.009897	-0.077742	-0.002717	-0.240046	10581.678078	65514.872518	4801.900548	40141.665270
56.036000	-0.012051	-0.043833	-0.000237	-0.192328	9743.184037	63554.822591	4606.447885	36261.156201
56.538500	-0.009526	-0.024099	0.000978	-0.151119	9155.954950	60627.707770	4449.820638	33236.499951
57.036000	-0.015376	-0.014191	-0.005696	-0.100872	8392.148999	55505.677004	4250.360110	29916.382424
57.538000	-0.021956	-0.013281	-0.007645	-0.071373	7950.551374	52153.261850	4150.871132	28138.866743
58.036000	-0.016486	-0.009748	-0.004873	-0.059053	7870.765024	51166.343346	4122.064697	27431.490101
58.534000	-0.017817	-0.007705	-0.008145	-0.038692	7626.289830	49172.218016	4053.427854	26305.590098
59.037500	-0.009136	-0.005205	-0.012000	-0.025718	7579.331246	48069.203421	4006.778418	25615.196404
59.535000	-0.018994	-0.006709	-0.012046	-0.002931	7237.057752	45611.227883	3946.305705	24451.414876
60.038000	-0.023217	-0.008104	-0.008578	0.006426	7102.075442	44566.428483	3931.216838	23990.955637
60.535500	-0.018666	-0.007106	-0.010461	0.012906	7083.238668	44043.531391	3910.138990	23677.820027
61.038500	-0.020578	-0.007157	-0.013986	0.018725	7008.596034	43490.882084	3887.065550	23400.589230
61.536500	-0.023634	-0.006345	-0.016978	0.025975	6911.133021	42893.382546	3862.337315	23060.334045
62.039500	-0.012620	-0.004091	-0.009378	0.014725	7124.626448	44157.081749	3908.305534	23590.766243
62.536500	-0.014473	-0.004008	-0.015063	0.012112	7132.096018	44413.999464	3900.674687	23715.923127
63.034500	-0.014256	-0.003875	-0.015837	0.008995	7165.084757	44725.932217	3906.490032	23866.238583
63.536500	-0.016041	-0.004270	-0.017398	0.011355	7124.118233	44461.378070	3896.779745	23752.344360
64.043500	-0.012017	-0.004360	-0.013492	0.007471	7202.605485	44826.173421	3916.157561	23940.123316
64.535500	-0.012527	-0.004393	-0.010371	0.005188	7220.416343	45044.100487	3929.807495	24051.320838
65.035000	-0.010590	-0.003699	-0.008322	0.005678	7234.985067	45063.873823	3933.773513	24027.377259
65.539000	-0.013668	-0.003911	-0.017128	0.010705	7153.963556	44558.194482	3899.049346	23783.672016
66.036000	-0.012538	-0.004498	-0.010525	0.006177	7210.365824	44937.977307	3926.904754	24003.073887
66.536500	-0.013322	-0.003740	-0.010700	0.005693	7207.350821	45058.493523	3927.688910	24026.655985
67.037000	-0.011760	-0.003591	-0.010345	0.005132	7228.700807	45127.488049	3930.016590	24054.057333
67.536500	-0.013990	-0.003505	-0.013943	0.010913	7148.710301	44577.043385	3906.429543	23773.613621
68.037000	-0.012536	-0.003901	-0.015793	0.005956	7212.602248	45017.311379	3914.187135	24013.866815
68.537500	-0.010763	-0.003950	-0.012342	0.004971	7240.370095	45108.236660	3925.357322	24061.891321
69.035000	-0.010665	-0.003300	-0.013999	0.005187	7239.185675	45150.453650	3920.628476	24051.363281
69.535500	-0.013531	-0.004222	-0.013667	0.010060	7161.710159	44590.199662	3909.241309	23814.756430
70.038500	-0.011589	-0.003755	-0.009154	0.006281	7218.845649	44999.911877	3930.119976	23997.998833
70.536000	-0.009086	-0.003407	-0.010201	0.004831	7258.774595	45174.689737	3931.146589	24068.744018
71.036000	-0.009234	-0.002819	-0.008657	0.004847	7257.112297	45230.402943	3935.042804	24067.968302
71.536500	-0.011560	-0.002690	-0.014323	0.010662	7175.310923	44679.573113	3906.109849	23785.732718
72.037000	-0.008223	-0.002393	-0.008863	0.006644	7249.143949	45096.935273	3929.938750	23980.331279
72.537000	-0.008872	-0.002902	-0.009546	0.005174	7257.469520	45190.515821	3931.940504	24051.997831
73.034500	-0.005211	-0.002452	-0.008660	0.004749	7299.098562	45275.768527	3935.283608	24072.727685
73.535000	-0.010168	-0.002596	-0.008425	0.010258	7193.222969	44727.484577	3921.894308	23805.194191
74.035000	-0.006837	-0.002666	-0.009577	0.005186	7278.028229	45212.261418	3931.831042	24051.407380
74.535000	-0.006100	-0.002174	-0.014009	0.004917	7288.293675	45286.541908	3921.284527	24064.558871
75.036000	-0.005229	-0.001860	-0.007933	0.004108	7305.489150	45396.381662	3938.784114	24104.114595
75.539000	-0.010654	-0.002625	-0.012222	0.009077	7200.179728	44838.681372	3915.314499	23862.284306
76.036500	-0.005661	-0.002836	-0.010644	0.003024	7312.177177	45406.838506	3934.622668	24157.223870
76.536500	-0.006101	-0.001794	-0.011574	0.003490	7302.890315	45463.321510	3931.066424	24134.384791
77.037000	-0.003091	-0.001419	-0.008124	0.003602	7332.676250	45489.076963	3939.590889	24128.867519
77.537500	-0.009012	-0.001168	-0.012611	0.009759	7209.806125	44913.641243	3912.634143	23829.335340
78.034500	-0.003925	-0.001677	-0.007404	0.003602	7324.078833	45463.805956	3941.437118	24128.871132
78.535000	-0.003675	-0.001796	-0.006115	0.002774	7335.187434	45533.289194	3946.887686	24169.470026
79.038000	-0.005129	-0.001628	-0.009851	0.002886	7319.064073	45538.899440	3937.002041	24163.990269
79.535500	-0.009267	-0.002120	-0.015992	0.008268	7222.223606	44965.811717	3907.912509	23901.465465
80.035500	-0.004434	-0.001733	-0.011396	0.002235	7332.933272	45592.620169	3934.717413	24195.991786
80.536500	-0.003444	-0.001025	-0.008976	0.003075	7334.474174	45579.621070	3938.757432	24154.726967
81.036500	-0.004715	-0.001279	-0.007277	0.003199	7320.098439	45542.452938	3942.802135	24148.647848
81.537000	-0.006440	-0.001739	-0.010971	0.002088	7313.783100	45606.418638	3936.179189	24203.190438
82.037000	-0.007206	-0.001527	-0.009439	0.003674	7289.690847	45471.500927	3936.041392	24125.356782
82.537000	-0.006581	-0.001292	-0.013450	0.002486	7308.249600	45611.176961	3928.847311	24183.628103
83.037500	-0.004486	-0.000788	-0.007745	0.002668	7327.922662	45642.954246	3942.962843	24174.700048
83.537500	-0.005482	-0.002429	-0.013341	0.000998	7334.881349	45645.785315	3932.910552	24256.861225
84.035500	-0.005220	-0.000951	-0.006735	0.003626	7310.523575	45532.750732	3943.096490	24127.726716
84.538500	-0.005981	-0.002252	-0.009848	0.001066	7329.024125	45656.470860	3941.673635	24253.505913
85.036000	-0.005377	-0.001190	-0.010662	0.001577	7329.982352	45710.741989	3938.276446	24228.325901
85.536000	-0.006228	-0.001733	-0.005950	0.001062	7326.527714	45708.074691	3951.744327	24253.728298
86.036500	-0.006774	-0.001971	-0.006297	0.002307	7308.114270	45562.034946	3947.624435	24192.438027
86.537000	-0.007397	-0.001974	-0.008617	0.000884	7316.325165	45701.817382	3945.308925	24262.457997
87.037000	-0.006136	-0.002413	-0.007156	0.000333	7334.987330	45712.902210	3950.506450	24289.661501
87.534500	-0.008993	-0.002205	-0.011243	0.005664	7251.274590	45210.662200	3926.386861	24028.084604
88.040500	-0.006680	-0.002368	-0.012053	0.002008	7312.143875	45552.360425	3933.618451	24207.111026
88.535000	-0.005587	-0.002288	-0.006333	0.000469	7339.257060	45711.836620	3952.289487	24282.973409
89.035500	-0.007156	-0.002961	-0.008206	-0.000462	7332.668295	45737.318144	3949.847008	24328.968460
89.535500	-0.011303	-0.003604	-0.011572	0.003651	7248.266109	45270.517061	3930.658974	24126.460229
90.036000	-0.006871	-0.002392	-0.009305	0.001228	7318.204316	45626.855076	3942.655387	24245.544713
90.539000	-0.007765	-0.002982	-0.006350	-0.000662	7328.449159	45754.831832	3955.179920	24338.830758
91.036500	-0.006693	-0.002956	-0.010473	-0.000554	7338.396810	45746.793847	3944.233409	24333.478932
91.539500	-0.013214	-0.002363	-0.010717	0.003824	7227.221863	45374.852058	3932.396343	24117.995151
92.037000	-0.008734	-0.003254	-0.013065	0.000757	7303.911489	45588.330343	3934.230780	24268.764764
92.540500	-0.008634	-0.003087	-0.007998	-0.000740	7320.306003	45752.219960	3951.105335	24342.715761
93.035000	-0.006396	-0.002374	-0.011771	-0.000563	7341.557913	45805.222013	3940.919982	24333.967259
93.538500	-0.011837	-0.003672	-0.013918	0.002446	7255.066738	45381.642591	3927.761862	24185.603889
94.036000	-0.009294	-0.003670	-0.007381	0.000290	7302.953804	45593.345528	3950.037392	24291.804086
94.538500	-0.007528	-0.002973	-0.003133	-0.001026	7334.647251	45791.731383	3964.527685	24356.851880
95.036500	-0.005965	-0.002838	-0.003897	-0.000521	7345.582033	45755.134691	3961.206530	24331.853041
95.542000	-0.009219	-0.003621	-0.012370	0.001273	7293.653306	45501.499348	3934.686463	24243.287251
96.036500	-0.008225	-0.003385	-0.006255	-0.001004	7327.233711	45748.867605	3956.316442	24355.758599
