sample name	sample
index	1058
start time	 04-22-2021  09:56:13 AM
880	0.118958
Peak Time (s)	101.036
Peak Height 	0.119
calc peak height	100,103
Baseline Time (s)	11.537
Baseline Value 	-0.003508
subtract baseline	10,4
Abs	0.029345
Peak Time (s)	102.037
Peak Height 	0.02934
calc peak height	100,103
Baseline Time (s)	9.536
Baseline Value 	0.001628
subtract baseline	10,3
PK_550	0.031258
Peak Time (s)	100.536
Peak Height 	0.03126
calc peak height	100,103
Baseline Time (s)	10.036
Baseline Value 	4.6362E-4
subtract baseline	10,2
PK_880	0.019864
Peak Time (s)	102.037
Peak Height 	0.01986
calc peak height	100,103
Baseline Time (s)	9.536
Baseline Value 	0.001696
subtract baseline	10,1


Time (s)	A880-A510	A880-A775	A880-A975	A880	I510	I775	I975	I880	
0.038500	-0.003202	-0.000323	-0.001706	0.004268	6174.883497	43226.565116	3783.984333	22648.698101
0.536000	-0.003568	-0.000489	0.000185	0.005984	6158.414326	43051.595029	3784.416571	22570.148317
1.036000	-0.001261	0.000168	-0.002205	0.004250	6190.450717	43274.053732	3782.796634	22649.519873
1.539500	-0.001652	-0.000010	-0.002454	0.000675	6215.908965	43592.193163	3791.032821	22814.200600
2.036500	-0.003942	-0.000162	0.000472	0.003557	6174.648807	43307.898989	3791.142438	22681.340997
2.537000	-0.001323	-0.000356	0.004529	0.001846	6209.155027	43449.741139	3805.580591	22760.103091
3.037000	0.001348	0.000749	-0.000053	-0.000585	6250.266713	43782.481231	3800.174056	22872.562617
3.537500	-0.001584	-0.000126	-0.002523	0.000159	6220.605535	43629.877272	3792.147567	22838.106609
4.035000	-0.002583	-0.000516	0.000081	0.003165	6188.566377	43311.441519	3791.146569	22699.354299
4.535500	-0.002118	0.000096	-0.000212	0.000952	6209.953122	43576.159455	3795.932135	22801.423041
5.036000	0.000529	0.000515	0.000707	0.000412	6235.576543	43666.321620	3799.579750	22826.381332
5.536000	-0.000480	-0.000044	0.001305	0.000224	6228.957540	43631.399494	3801.549797	22835.061066
6.036500	-0.002731	-0.000783	0.002041	-0.000135	6213.754658	43595.609863	3804.303931	22851.700885
6.537000	-0.001023	-0.000331	-0.001406	0.000425	6222.970619	43585.469519	3794.266978	22825.773522
7.036500	-0.000335	-0.000505	-0.001632	0.000038	6231.633946	43605.565397	3794.668558	22843.717008
7.537000	-0.001250	-0.000230	0.001345	0.000409	6221.270919	43596.458178	3801.187206	22826.501564
8.037500	-0.002345	-0.000618	0.004035	0.000156	6214.514214	43583.874439	3808.599335	22838.247386
8.537000	-0.001548	-0.000460	-0.003252	-0.000045	6222.528364	43617.602617	3790.839734	22847.537787
9.035500	0.001758	0.000519	0.004260	0.000582	6244.134630	43650.715776	3808.089566	22818.492475
9.535500	0.000000	-0.000758	0.000000	-0.000120	6235.606781	43596.657801	3799.143002	22851.036555
10.036000	-0.001160	0.000000	-0.000328	0.000151	6224.078060	43642.474305	3797.644113	22838.481472
10.535500	-0.001948	-0.000715	0.001247	-0.000552	6223.393111	43641.318370	3803.355091	22871.043966
11.036000	0.000214	0.000502	0.000065	0.000470	6232.566333	43659.651918	3797.827354	22823.677473
11.537000	0.000207	0.000338	-0.000528	0.000000	6236.302600	43688.505538	3797.520897	22845.457143
12.037000	-0.002511	0.000349	-0.001000	0.000058	6213.972351	43684.063019	3796.195626	22842.781528
12.537500	-0.001958	-0.000470	0.005782	-0.000332	6221.539206	43643.646628	3814.258706	22860.825364
13.034500	-0.002563	-0.000661	0.003445	-0.001398	6225.242123	43726.060391	3811.036116	22910.308811
13.535500	0.000391	-0.000590	0.000445	-0.001526	6250.131828	43744.819132	3803.786795	22916.259542
14.052000	-0.001157	0.000320	0.001985	-0.000356	6228.181135	43720.421984	3804.719420	22861.968757
14.535500	-0.000375	0.000787	-0.000320	0.003070	6206.946667	43442.172091	3790.385325	22703.713736
15.035500	-0.000657	-0.000375	-0.002118	0.000309	6226.852888	43592.297718	3792.780776	22831.149231
15.544500	0.001497	0.000331	0.000275	-0.000218	6248.494778	43708.351273	3800.075180	22855.544171
16.036500	0.000332	-0.000451	0.000850	-0.001206	6247.059462	43727.817740	3804.001830	22901.382443
16.537000	-0.001854	-0.000491	-0.002163	-0.001238	6229.670257	43727.005497	3796.526956	22902.884216
17.037500	-0.001136	-0.000060	0.004186	-0.000697	6231.088773	43716.687320	3811.135887	22877.754711
17.537500	0.001777	-0.000198	0.003644	-0.002593	6270.071844	43882.837793	3814.573356	22965.951656
18.035000	-0.002265	0.000405	0.001899	0.000167	6215.069318	43679.066639	3803.187016	22837.729280
18.535000	-0.002889	-0.000272	0.000215	0.001138	6202.294022	43524.058452	3796.533429	22792.817697
19.035500	-0.002176	0.000214	-0.002318	0.001604	6204.271793	43525.989203	3789.065769	22771.308155
19.535500	-0.001902	-0.000228	-0.001301	0.000932	6211.846009	43547.553304	3793.265533	22802.338036
20.036500	-0.001389	-0.000741	-0.002097	0.000962	6215.718891	43496.629495	3791.209761	22800.950056
20.536500	-0.003513	0.000169	0.000719	0.000953	6198.784391	43582.882879	3798.255994	22801.343333
21.037000	-0.002125	0.000048	-0.002200	0.000935	6210.030891	43573.205686	3791.018774	22802.194762
21.537000	-0.002995	-0.000280	0.002615	0.001143	6201.411290	43522.859230	3802.533512	22792.594922
22.040000	-0.003024	0.000200	-0.000344	0.001430	6198.881330	43540.890580	3794.406048	22779.296094
22.535000	-0.001429	-0.000370	0.001391	0.000911	6215.805109	43536.207166	3800.044143	22803.310482
23.038000	-0.001341	-0.000239	0.002090	0.001462	6212.093002	43496.848216	3800.415823	22777.862060
23.535000	-0.000646	0.000096	0.001936	0.000963	6221.679279	43575.117687	3801.281658	22800.893714
24.036000	-0.003318	0.000248	-0.000560	0.000847	6201.189298	43600.305343	3795.324851	22806.254201
24.535500	-0.001710	-0.000542	-0.000813	0.000791	6214.516091	43531.286336	3794.833397	22808.843725
25.039000	-0.000366	0.000264	-0.000696	0.001640	6218.493571	43527.270090	3793.007378	22769.637866
25.536500	-0.002452	-0.000783	-0.004378	0.000634	6209.826735	43523.461835	3786.363104	22816.105127
26.037000	-0.002402	-0.000125	-0.001473	0.001381	6204.245655	43515.039454	3791.718480	22781.575363
26.537500	-0.002547	0.000120	0.001038	0.001262	6204.034879	43549.197805	3798.280248	22787.067064
27.037500	-0.002012	0.000107	0.001974	0.001590	6205.699746	43517.280296	3799.805078	22771.947669
27.535000	-0.001888	0.000071	0.002049	0.001364	6208.497104	43535.074046	3800.556545	22782.354783
28.035500	-0.002646	0.000357	-0.000837	0.004175	6180.032006	43298.672512	3786.363775	22652.971746
28.535500	-0.000439	0.000588	0.004387	-0.000471	6234.893669	43756.501766	3811.075484	22867.304344
29.046500	0.000207	0.000527	-0.000385	0.000226	6234.482788	43685.016584	3797.311354	22834.978885
29.536000	-0.001311	-0.000679	0.002320	-0.000584	6228.771319	43647.714509	3806.135889	22872.510697
30.036500	-0.004044	0.000421	0.000982	0.004813	6163.906322	43245.162686	3789.291545	22623.732714
30.536500	-0.002439	0.000514	0.002085	-0.000532	6219.287960	43755.285387	3805.414925	22870.130926
31.037000	0.000291	0.000429	0.001954	-0.000164	6238.307595	43712.521787	3804.159077	22853.068983
31.540500	-0.002476	-0.000219	-0.001499	0.002016	6198.577518	43446.755583	3790.075856	22752.281432
32.037500	-0.005799	-0.000413	-0.002827	0.004471	6152.747374	43199.259994	3780.720344	22639.402164
32.535000	-0.000758	-0.000047	0.002044	-0.000606	6233.408500	43709.345141	3805.498395	22873.553562
33.038000	-0.001653	0.000675	0.005577	0.000006	6221.269387	43719.724658	3812.879642	22845.164820
33.535500	0.000125	0.000047	0.003053	-0.000671	6241.066118	43724.312600	3808.207154	22876.578347
34.036000	-0.001782	0.000440	0.000816	0.005447	6176.789873	43187.782293	3787.306315	22594.673770
34.539000	-0.001527	-0.000030	0.006882	-0.000667	6227.701577	43716.655441	3817.908645	22876.362790
35.036000	-0.001258	0.000459	0.008751	-0.000641	6229.661907	43760.348784	3822.616301	22875.167959
35.537000	-0.003067	0.000010	0.000367	0.002139	6192.879241	43456.572414	3794.413485	22746.589639
36.037500	-0.001302	-0.000484	-0.000348	0.002523	6203.912346	43374.419322	3791.674447	22728.907466
36.537500	-0.003795	0.000160	0.002823	0.001980	6188.351401	43485.566128	3800.953701	22753.924079
37.035000	-0.002285	-0.000181	0.000618	0.002291	6197.909812	43424.551212	3794.660072	22739.603473
37.535000	-0.001268	-0.000585	-0.002815	0.001770	6210.214295	43435.501749	3787.420752	22763.635367
38.038500	-0.003491	0.000286	-0.001854	0.002867	6183.714369	43414.302341	3787.083173	22713.068057
38.535500	-0.004475	-0.000855	-0.002502	0.000553	6194.300278	43524.270196	3791.218316	22819.850408
39.036500	-0.002994	-0.000860	-0.001944	0.000857	6203.706708	43495.275786	3791.849511	22805.805910
39.536000	-0.002143	-0.000393	-0.000119	0.001175	6207.967347	43509.229933	3795.605091	22791.094197
40.039500	-0.001029	0.000231	0.004632	0.001844	6211.528758	43505.038381	3805.845579	22760.210897
40.537000	-0.002253	-0.000592	-0.001414	0.000511	6212.410995	43552.956493	3794.033766	22821.814853
41.036500	-0.001847	-0.000352	0.000490	0.001009	6211.667052	43528.618836	3797.542069	22798.749777
41.537000	-0.002419	-0.000018	0.000604	0.001043	6206.814598	43556.886312	3797.744108	22797.212177
42.034500	-0.002029	0.000733	0.002130	0.001764	6204.169221	43559.653074	3799.759238	22763.902272
42.535500	-0.002615	-0.000528	-0.000389	0.000771	6207.418666	43534.439324	3795.938900	22809.758744
43.036000	-0.001697	0.000205	0.002499	0.001442	6209.405528	43540.365813	3801.492854	22778.774497
43.536000	-0.000919	-0.000210	-0.000626	0.001734	6213.292096	43473.956517	3792.948093	22765.274372
44.036500	-0.002360	0.000670	0.004384	0.002562	6195.145903	43478.844571	3803.411810	22727.111348
44.536500	-0.002441	-0.000535	0.005220	0.001455	6203.344396	43469.682054	3808.309558	22778.172827
45.036500	-0.001302	-0.000712	0.000976	0.001415	6212.776272	43456.827170	3797.741182	22779.994174
45.538000	0.000900	0.000928	0.004295	0.000343	6239.134050	43711.754771	3808.783711	22829.578269
46.036500	-0.003771	-0.000731	-0.001615	0.004330	6169.874172	43182.775220	3784.055477	22645.837702
46.568500	0.000157	0.000365	0.004443	-0.000551	6240.354439	43743.039462	3811.418313	22870.994001
47.035500	-0.001689	0.000266	0.003438	-0.000169	6222.390810	43697.625775	3807.909700	22853.267607
47.535000	0.000494	-0.000342	0.001368	-0.000205	6240.281660	43643.765372	3802.786710	22854.962412
48.036000	-0.002888	0.000132	0.004370	0.002597	6190.658924	43425.184212	3803.291073	22725.511088
48.538000	0.000336	-0.000440	0.004108	-0.001436	6248.965097	43750.531093	3812.813076	22912.095658
49.036500	-0.005318	-0.000417	0.002357	0.001107	6183.177002	43513.342530	3801.975356	22794.235791
49.536500	-0.000406	-0.000273	0.002974	0.001742	6217.342947	43467.275921	3801.929292	22764.909553
50.040500	-0.003661	-0.000828	0.002999	0.001976	6189.449949	43393.477185	3801.408403	22754.146014
50.539500	-0.001844	-0.000252	0.002545	-0.001667	6233.205728	43790.145935	3809.439246	22922.826324
51.034000	-0.000450	0.000499	0.002522	-0.000513	6235.145355	43752.068494	3806.467375	22869.230220
51.537500	0.000576	0.000238	0.001433	-0.000638	6244.445508	43739.233807	3804.041198	22875.043817
52.035000	-0.000719	0.000844	0.000750	0.002762	6206.667164	43476.414597	3793.814532	22717.918106
52.535000	0.001744	0.002029	0.007999	0.020126	6089.422389	41987.355072	3768.894106	21934.356796
53.043500	0.018195	-0.009869	0.021561	0.197846	5047.597301	28108.439283	3436.017946	15483.677819
53.536500	0.009547	-0.010884	0.005976	0.199055	4995.601625	27978.901176	3408.528657	15448.193809
54.035500	-0.019024	-0.024939	-0.031215	-0.128155	7235.609936	54629.448346	4070.810078	29751.304449
54.536500	-0.031816	-0.052566	-0.027742	-0.217338	8101.972617	62528.266065	4394.112697	35911.873457
55.036500	-0.017680	-0.051844	-0.012412	-0.221951	8338.932588	63267.153007	4473.191240	36266.285428
55.534000	-0.011834	-0.041512	-0.005503	-0.201570	8154.338905	61883.027073	4419.375952	34728.634933
56.034500	-0.012580	-0.028334	-0.004968	-0.163936	7695.612210	58645.586536	4279.530254	32072.222183
56.535000	-0.010789	-0.024662	-0.005500	-0.145065	7504.142205	56723.460093	4211.008520	30824.376402
57.035000	-0.007222	-0.018975	-0.006651	-0.130348	7383.139671	55612.856161	4157.200824	29888.104192
57.535000	-0.008074	-0.014122	-0.011311	-0.125523	7322.720002	55616.339951	4125.964460	29588.007309
58.035500	-0.007115	-0.010124	-0.013766	-0.118971	7263.963075	55306.413280	4096.932025	29185.816979
58.535500	-0.004183	-0.008413	-0.014082	-0.130541	7417.895256	56938.186252	4133.305736	29900.199947
59.037000	0.001634	-0.006818	-0.009356	-0.136208	7543.497124	57851.761296	4167.745756	30257.113938
59.537000	0.004944	-0.005139	-0.002904	-0.128689	7497.076698	57115.937180	4164.172452	29784.589746
60.037000	0.004288	-0.004671	-0.005645	-0.126166	7462.311033	56859.230862	4146.665584	29627.806567
60.534500	0.008462	0.000569	-0.001009	-0.087717	7103.245731	52876.435355	4039.155075	27348.524689
61.037000	0.007185	0.003558	-0.000922	-0.048527	6714.223886	48868.104711	3924.827259	25223.961774
61.534500	0.008154	0.004068	-0.003334	-0.024346	6506.903354	46421.971842	3852.749194	24005.518028
62.035000	0.008645	0.007217	0.003854	-0.017341	6450.691951	46036.072207	3853.231696	23665.045781
62.536000	0.006798	0.007305	0.003567	0.004910	6249.900103	43882.789325	3795.483148	22619.258131
63.036500	0.007902	0.007142	0.009973	0.016668	6164.617310	42769.306533	3782.203844	22087.898250
63.536500	0.007333	0.008755	0.010565	0.029277	6061.994275	41768.958868	3752.980491	21533.873306
64.036500	0.010395	0.008714	0.010125	0.051603	5917.450442	39810.582244	3699.782645	20591.421396
64.539500	0.007921	0.007463	0.016937	0.075664	5728.576258	37712.650034	3661.292828	19628.554363
65.037500	0.008625	0.006009	0.020041	0.108103	5517.326469	35088.385393	3599.246174	18412.038217
65.537500	0.010829	0.007498	0.018544	0.146704	5293.304743	32440.301232	3520.937964	17078.011467
66.035500	0.002817	0.008069	0.011750	0.156871	5188.255210	31791.612325	3489.929923	16745.932618
66.562500	0.005428	0.010751	0.017290	0.164229	5161.541838	31480.688125	3486.677967	16510.416009
67.036000	0.003427	0.011168	0.018928	0.172278	5105.935689	30980.275943	3475.316706	16257.293360
67.548500	0.002327	0.011674	0.024481	0.172919	5096.428169	30971.464771	3484.004289	16237.314200
68.044000	0.006351	0.014062	0.024272	0.175302	5105.387057	30971.790207	3479.406405	16163.381250
68.539000	0.009022	0.016471	0.020986	0.173954	5127.459542	31216.925311	3475.987269	16205.152834
69.036500	0.006442	0.015731	0.026865	0.171294	5127.907430	31343.074991	3491.171414	16287.974551
69.537500	0.007957	0.016720	0.014464	0.167719	5156.165655	31645.086981	3475.482905	16400.075514
70.037500	0.007896	0.017085	0.022009	0.166559	5162.314636	31746.721775	3490.953385	16436.655120
70.535000	0.007265	0.017075	0.021470	0.162359	5182.380347	32027.785891	3497.555055	16569.897895
71.035000	0.007250	0.018573	0.018232	0.159844	5196.531273	32299.520222	3496.246774	16650.298086
71.535500	0.007058	0.020940	0.021216	0.156221	5216.083384	32709.783185	3508.277598	16766.922726
72.038500	0.010408	0.020942	0.020961	0.153344	5251.978229	32909.019517	3513.104115	16860.250732
72.535500	0.007632	0.021032	0.021085	0.145569	5281.165234	33460.012696	3527.818755	17115.562801
73.036500	0.012010	0.022900	0.023266	0.142628	5324.516111	33801.895365	3537.505150	17213.338559
73.536500	0.009823	0.023930	0.019567	0.135865	5351.988001	34363.969654	3543.355198	17440.712728
74.039500	0.007530	0.022287	0.019718	0.129328	5377.734103	34722.255175	3556.267780	17663.885657
74.540000	0.011827	0.023459	0.017821	0.123059	5442.918328	35274.552276	3564.816672	17881.049624
75.037500	0.011517	0.023375	0.019253	0.118189	5471.544943	35634.895880	3577.291525	18051.950302
75.535000	0.009506	0.024932	0.015081	0.111406	5501.831534	36272.465774	3582.514528	18293.221211
76.035000	0.008768	0.024064	0.014400	0.104926	5538.709261	36708.302291	3594.224539	18527.229548
76.535500	0.010342	0.024221	0.013404	0.098054	5593.848995	37262.244790	3606.250784	18779.229734
77.036000	0.005301	0.022910	0.016445	0.092613	5596.493582	37591.993997	3623.901078	18981.618397
77.536000	0.007594	0.023390	0.016928	0.086607	5651.781047	38116.128836	3637.637339	19207.979121
78.037000	0.006477	0.024115	0.016470	0.083288	5666.623297	38446.904155	3643.759898	19334.415039
78.537500	0.006667	0.024495	0.011608	0.078048	5703.561599	38911.739001	3644.571320	19536.016943
79.037500	0.005402	0.023805	0.013476	0.076711	5704.064379	38965.774344	3651.485627	19587.878198
79.537500	0.003221	0.024321	0.017093	0.072753	5716.247466	39340.608946	3668.025615	19742.233389
80.035000	0.004598	0.024438	0.017359	0.071267	5736.000471	39475.974829	3671.893894	19800.560602
80.535500	0.007627	0.023428	0.013874	0.069717	5767.853556	39521.610735	3667.624930	19861.617895
81.035500	0.005065	0.024681	0.014036	0.072066	5733.699223	39428.975035	3662.820722	19769.184973
81.535500	0.007688	0.024916	0.016051	0.071455	5756.147805	39500.461480	3668.590158	19793.173851
82.036000	0.008882	0.024895	0.012387	0.073079	5753.150886	39361.540450	3657.005618	19729.459472
82.536500	0.008068	0.024248	0.014188	0.072495	5751.547730	39356.246375	3662.212680	19752.336273
83.036500	0.006088	0.024082	0.016690	0.075136	5719.584068	39120.446164	3661.908392	19649.128554
83.540000	0.008709	0.025438	0.017748	0.075404	5735.820081	39211.734198	3663.640648	19638.698276
84.037000	0.007237	0.023982	0.013234	0.074547	5731.569521	39161.465380	3655.654509	19672.108891
84.535000	0.010041	0.025131	0.012498	0.076885	5734.790162	39061.871751	3648.994829	19581.117129
85.035500	0.010303	0.024277	0.024525	0.077328	5733.537114	38953.598787	3674.341106	19563.925927
85.535000	0.008375	0.024346	0.021601	0.078688	5710.882746	38846.119188	3664.888303	19511.263141
86.035500	0.012709	0.025629	0.021478	0.082177	5716.695699	38663.388871	3656.992467	19376.989354
86.536000	0.014347	0.025028	0.021066	0.083227	5720.741757	38527.139296	3653.812412	19336.775557
87.036000	0.013186	0.024540	0.023033	0.083907	5708.086326	38430.968903	3656.609443	19310.773139
87.536500	0.014529	0.024732	0.019788	0.085827	5704.134885	38289.324544	3645.434143	19237.614767
88.039500	0.013687	0.026166	0.025708	0.088693	5678.858756	38172.338737	3652.025606	19129.005830
88.537500	0.012558	0.025270	0.025793	0.089298	5667.107154	38050.154821	3650.899068	19106.161672
89.037500	0.014070	0.025248	0.021748	0.091891	5659.808636	37838.265683	3636.647771	19008.655499
89.537500	0.016737	0.026255	0.024385	0.092639	5672.784135	37859.265669	3640.683435	18980.659966
90.035500	0.014113	0.025794	0.027788	0.093747	5647.607169	37732.615045	3645.605903	18939.219481
90.535500	0.016286	0.026423	0.024252	0.094623	5656.335815	37712.847038	3636.164598	18906.582207
91.035500	0.014540	0.026621	0.020328	0.096091	5634.758403	37610.626962	3624.750818	18851.945291
91.535500	0.014786	0.026787	0.016790	0.096556	5633.295863	37586.660591	3616.370914	18834.695164
92.036000	0.014960	0.027321	0.022302	0.098898	5618.841717	37442.046332	3623.001813	18748.080431
92.537000	0.015524	0.026679	0.030148	0.098840	5622.981750	37395.421998	3639.745182	18750.223619
93.037000	0.018737	0.028285	0.029458	0.100894	5630.712542	37359.687995	3633.897991	18674.617073
93.537500	0.011336	0.026903	0.023633	0.100951	5581.331462	37245.193190	3621.486915	18672.495789
94.034500	0.014045	0.028147	0.020502	0.103151	5584.680910	37169.413258	3610.384722	18591.944289
94.535000	0.016068	0.028697	0.024338	0.103865	5593.294681	37156.384661	3616.870320	18565.874943
95.038000	0.011660	0.027851	0.023380	0.105695	5552.470503	36945.134693	3611.076096	18499.275769
95.535500	0.015576	0.029242	0.026426	0.105564	5578.889104	37065.086812	3617.680624	18504.014851
96.035500	0.014599	0.028474	0.025007	0.105639	5571.993314	36998.564576	3614.566980	18501.285910
96.536000	0.015340	0.029162	0.024967	0.107363	5565.569573	36916.950934	3610.906144	18438.793315
97.036000	0.012046	0.028516	0.023193	0.109355	5531.278823	36710.168534	3603.142166	18366.912284
97.540000	0.014063	0.029141	0.024386	0.109888	5540.861345	36717.319733	3604.495461	18347.708512
98.037000	0.015944	0.029374	0.026534	0.110596	5548.462440	36680.174215	3607.462444	18322.253232
98.536500	0.015994	0.029722	0.019007	0.111482	5543.047867	36638.229284	3590.271138	18290.487999
99.035000	0.014836	0.030393	0.023106	0.115121	5512.148512	36407.384346	3591.201129	18160.603033
99.534500	0.016231	0.030396	0.023465	0.114823	5523.014123	36430.755162	3592.533303	18171.189792
100.040500	0.018940	0.030703	0.026610	0.115537	5535.872672	36399.224284	3597.479353	18145.820962
100.536000	0.018424	0.031258	0.025719	0.116821	5524.274186	36342.833034	3593.054415	18100.314988
101.036000	0.015650	0.030229	0.028466	0.118958	5492.858366	36098.873200	3594.292757	18024.851448
101.536000	0.017644	0.029308	0.027170	0.117358	5515.816052	36151.070243	3594.912900	18081.329752
102.037000	0.019864	0.030526	0.029345	0.117685	5527.977992	36219.610261	3598.679221	18069.767270
102.536500	0.018451	0.030950	0.026695	0.118328	5514.770767	36202.777914	3591.977247	18047.067014
103.037000	0.016777	0.029819	0.029358	0.119869	5494.229005	35997.580541	3594.253010	17992.776442
103.537500	0.020641	0.031580	0.025159	0.120335	5515.943625	36096.867284	3584.820639	17976.418146
104.034500	0.018038	0.031530	0.024656	0.119189	5506.609775	36181.075402	3586.113823	18016.697009
104.535000	0.021859	0.032184	0.032379	0.119262	5530.672779	36225.830069	3601.661989	18014.154655
105.035500	0.019399	0.031316	0.033292	0.118609	5519.045241	36209.283936	3604.876609	18037.150243
105.535500	0.018984	0.031003	0.028988	0.120072	5507.015419	36072.789712	3593.092062	17985.674528
106.036000	0.023276	0.032275	0.023422	0.119416	5538.830559	36220.986675	3583.177723	18008.729492
106.536000	0.019844	0.031714	0.032362	0.118785	5520.775228	36226.417366	3602.605648	18030.951137
107.039000	0.021833	0.032545	0.026440	0.119138	5531.305800	36263.218003	3589.820189	18018.505699
107.536500	0.020424	0.032000	0.033242	0.118876	5523.921904	36241.465759	3604.226479	18027.751763
108.046000	0.021611	0.031333	0.029623	0.117936	5537.631663	36262.475486	3598.734822	18060.894480
108.534500	0.022814	0.032757	0.030991	0.118774	5539.989582	36307.738788	3599.817861	18031.335806
109.059500	0.023775	0.031732	0.027176	0.118375	5548.804692	36259.444794	3592.857800	18045.413993
109.540000	0.024188	0.031890	0.030428	0.118003	5553.900878	36300.249683	3600.242576	18058.522591
110.035500	0.021372	0.032414	0.030248	0.118650	5531.481595	36290.789123	3598.552476	18035.712689
110.536000	0.020154	0.031044	0.026055	0.117941	5528.196081	36239.813220	3591.462813	18060.711437
111.060500	0.020954	0.030951	0.033684	0.117802	5534.253706	36243.411818	3607.348248	18065.641742
111.537000	0.019986	0.031633	0.028057	0.121916	5501.639928	35979.782470	3587.474779	17921.002803
