sample name	sample
index	42
start time	 02-11-2021  02:00:06 PM


Wavelength (nm)	Absorbance
494.344910	0.160057
494.563924	0.160057
494.782919	0.160057
495.001897	-0.520411
495.220856	-0.164231
495.439797	-0.207192
495.658719	-0.300847
495.877624	-0.283967
496.096510	-0.214859
496.315378	-0.070124
496.534227	-0.055066
496.753059	-0.098989
496.971872	0.054112
497.190667	0.046699
497.409444	0.032541
497.628203	0.032407
497.846943	0.023937
498.065665	0.025594
498.284369	0.022304
498.503055	0.021118
498.721723	0.021902
498.940372	0.022026
499.159003	0.020694
499.377616	0.021209
499.596210	0.022397
499.814787	0.022901
500.033345	0.022828
500.251885	0.021857
500.470406	0.024474
500.688910	0.023280
500.907395	0.020470
501.125862	0.021982
501.344311	0.020564
501.562742	0.018563
501.781154	0.019253
501.999548	0.018666
502.217924	0.018155
502.436282	0.017131
502.654621	0.018916
502.872942	0.021022
503.091245	0.019321
503.309530	0.020431
503.527797	0.022448
503.746045	0.022406
503.964275	0.021421
504.182487	0.022693
504.400681	0.021483
504.618856	0.021488
504.837013	0.021331
505.055152	0.021625
505.273273	0.022206
505.491376	0.020745
505.709460	0.021416
505.927526	0.022362
506.145574	0.022322
506.363604	0.023233
506.581615	0.022227
506.799608	0.021653
507.017583	0.022470
507.235540	0.022198
507.453478	0.022451
507.671399	0.020513
507.889301	0.020616
508.107185	0.020539
508.325050	0.020167
508.542898	0.021101
508.760727	0.019903
508.978538	0.018821
509.196330	0.017968
509.414105	0.017374
509.631861	0.018449
509.849599	0.019175
510.067319	0.020811
510.285021	0.021591
510.502704	0.021403
510.720369	0.022732
510.938016	0.024102
511.155645	0.026359
511.373255	0.026825
511.590848	0.027182
511.808422	0.024711
512.025977	0.024250
512.243515	0.023431
512.461034	0.023424
512.678536	0.023804
512.896018	0.023548
513.113483	0.021944
513.330930	0.022032
513.548358	0.022911
513.765768	0.023349
513.983160	0.021437
514.200533	0.022180
514.417889	0.022283
514.635226	0.021026
514.852545	0.021251
515.069845	0.021496
515.287128	0.021394
515.504392	0.021063
515.721638	0.021610
515.938866	0.021893
516.156075	0.020990
516.373267	0.019820
516.590440	0.019967
516.807594	0.019637
517.024731	0.019177
517.241850	0.019276
517.458950	0.018611
517.676032	0.019228
517.893095	0.019448
518.110141	0.019369
518.327168	0.019860
518.544177	0.020622
518.761168	0.020960
518.978141	0.020763
519.195095	0.018940
519.412031	0.019060
519.628949	0.018610
519.845849	0.018683
520.062731	0.019399
520.279594	0.019170
520.496439	0.017980
520.713266	0.016318
520.930074	0.016811
521.146865	0.017579
521.363637	0.016744
521.580391	0.016514
521.797127	0.017127
522.013844	0.016863
522.230543	0.016697
522.447224	0.017052
522.663887	0.018315
522.880532	0.018056
523.097158	0.018798
523.313766	0.019307
523.530356	0.019532
523.746928	0.019211
523.963481	0.018946
524.180017	0.019593
524.396534	0.019845
524.613032	0.019157
524.829513	0.019055
525.045975	0.019611
525.262420	0.020016
525.478845	0.020652
525.695253	0.020264
525.911643	0.020378
526.128014	0.019598
526.344367	0.019812
526.560702	0.019699
526.777018	0.019878
526.993316	0.019071
527.209597	0.019288
527.425858	0.018999
527.642102	0.018916
527.858328	0.019048
528.074535	0.018888
528.290724	0.018516
528.506894	0.019070
528.723047	0.018283
528.939181	0.018682
529.155297	0.018468
529.371395	0.018375
529.587475	0.018467
529.803536	0.018832
530.019579	0.019379
530.235604	0.018980
530.451611	0.018316
530.667600	0.018776
530.883570	0.018241
531.099522	0.017901
531.315456	0.017873
531.531372	0.017550
531.747269	0.016954
531.963148	0.016431
532.179009	0.017334
532.394852	0.017272
532.610676	0.017852
532.826482	0.017762
533.042271	0.016921
533.258040	0.016406
533.473792	0.017691
533.689525	0.017720
533.905240	0.018032
534.120937	0.017948
534.336616	0.019406
534.552277	0.019006
534.767919	0.019803
534.983543	0.020599
535.199149	0.020367
535.414736	0.019396
535.630306	0.019690
535.845857	0.020132
536.061390	0.019820
536.276904	0.018796
536.492401	0.018780
536.707879	0.018621
536.923339	0.018656
537.138781	0.018999
537.354204	0.019979
537.569610	0.019975
537.784997	0.020048
538.000366	0.021276
538.215716	0.021474
538.431049	0.021426
538.646363	0.021833
538.861659	0.021586
539.076937	0.022219
539.292196	0.022059
539.507438	0.021396
539.722661	0.020848
539.937866	0.019305
540.153052	0.018974
540.368221	0.018916
540.583371	0.018019
540.798503	0.018035
541.013617	0.016884
541.228712	0.016414
541.443789	0.016650
541.658848	0.016863
541.873889	0.018029
542.088912	0.018117
542.303916	0.018276
542.518902	0.018248
542.733870	0.018755
542.948820	0.019219
543.163752	0.019082
543.378665	0.019301
543.593560	0.019660
543.808437	0.018516
544.023295	0.018860
544.238136	0.018584
544.452958	0.018695
544.667762	0.018533
544.882548	0.018448
545.097315	0.018308
545.312064	0.018366
545.526795	0.018213
545.741508	0.018578
545.956203	0.018153
546.170879	0.018542
546.385537	0.019132
546.600177	0.019098
546.814799	0.019444
547.029402	0.019962
547.243988	0.020530
547.458555	0.020638
547.673103	0.020769
547.887634	0.021061
548.102146	0.021067
548.316640	0.020817
548.531116	0.020744
548.745574	0.020521
548.960013	0.020768
549.174435	0.020376
549.388838	0.020302
549.603222	0.020292
549.817589	0.019848
550.031937	0.019711
550.246267	0.019921
550.460579	0.020226
550.674873	0.020852
550.889148	0.020487
551.103405	0.020155
551.317644	0.019920
551.531865	0.020065
551.746068	0.020551
551.960252	0.020393
552.174418	0.020572
552.388566	0.020449
552.602696	0.019698
552.816807	0.019416
553.030900	0.019438
553.244975	0.019469
553.459032	0.019279
553.673070	0.019434
553.887091	0.019880
554.101093	0.019501
554.315077	0.019538
554.529042	0.020257
554.742990	0.021113
554.956919	0.021207
555.170830	0.021212
555.384722	0.021602
555.598597	0.021838
555.812453	0.022049
556.026291	0.021899
556.240111	0.021562
556.453913	0.021051
556.667696	0.020747
556.881461	0.021062
557.095208	0.020970
557.308937	0.020377
557.522647	0.019735
557.736339	0.018874
557.950013	0.019058
558.163669	0.019441
558.377307	0.019452
558.590926	0.019258
558.804527	0.019201
559.018110	0.019399
559.231675	0.019748
559.445221	0.019639
559.658749	0.019831
559.872259	0.019734
560.085751	0.019318
560.299225	0.019510
560.512680	0.019388
560.726117	0.019419
560.939536	0.018963
561.152937	0.019433
561.366319	0.019542
561.579683	0.019877
561.793029	0.020164
562.006357	0.020168
562.219667	0.020893
562.432958	0.020950
562.646231	0.020822
562.859486	0.020773
563.072723	0.020216
563.285941	0.020131
563.499141	0.020340
563.712323	0.019738
563.925487	0.019839
564.138632	0.019003
564.351760	0.018674
564.564869	0.018426
564.777960	0.018688
564.991032	0.018582
565.204087	0.018960
565.417123	0.018479
565.630141	0.018623
565.843140	0.018553
566.056122	0.018538
566.269085	0.018755
566.482030	0.018549
566.694957	0.018421
566.907866	0.018426
567.120756	0.018045
567.333628	0.017975
567.546482	0.017734
567.759318	0.017531
567.972135	0.017287
568.184935	0.017474
568.397716	0.017338
568.610478	0.017040
568.823223	0.017272
569.035949	0.017132
569.248657	0.016694
569.461347	0.016689
569.674019	0.016834
569.886672	0.016810
570.099308	0.016441
570.311925	0.016728
570.524523	0.017027
570.737104	0.016501
570.949666	0.016383
571.162210	0.016683
571.374736	0.016913
571.587244	0.016597
571.799733	0.016919
572.012205	0.016806
572.224658	0.016599
572.437092	0.016373
572.649509	0.016244
572.861907	0.016315
573.074287	0.016348
573.286649	0.016542
573.498993	0.016509
573.711318	0.016548
573.923625	0.016440
574.135914	0.016262
574.348185	0.016290
574.560438	0.016422
574.772672	0.016087
574.984888	0.016283
575.197086	0.016044
575.409266	0.016321
575.621427	0.016248
575.833570	0.016284
576.045695	0.016576
576.257802	0.016856
576.469890	0.016911
576.681961	0.017660
576.894013	0.017500
577.106046	0.017161
577.318062	0.017073
577.530059	0.016909
577.742039	0.017034
577.954000	0.017502
578.165942	0.017659
578.377867	0.017631
578.589773	0.017356
578.801661	0.017777
579.013531	0.018098
579.225382	0.017911
579.437216	0.017890
579.649031	0.017992
579.860828	0.017547
580.072606	0.017595
580.284367	0.017690
580.496109	0.017936
580.707833	0.017453
580.919539	0.017199
581.131227	0.017643
581.342896	0.017588
581.554547	0.017738
581.766180	0.017707
581.977795	0.017557
582.189391	0.017790
582.400969	0.018007
582.612529	0.017779
582.824071	0.018134
583.035595	0.017442
583.247100	0.017668
583.458587	0.017656
583.670056	0.017411
583.881506	0.017149
584.092939	0.016775
584.304353	0.016263
584.515749	0.016288
584.727127	0.015981
584.938486	0.016938
585.149828	0.016871
585.361151	0.016500
585.572456	0.016789
585.783742	0.016713
585.995011	0.016983
586.206261	0.017087
586.417493	0.017108
586.628706	0.017327
586.839902	0.016811
587.051079	0.016457
587.262238	0.016291
587.473379	0.016221
587.684502	0.016176
587.895606	0.016296
588.106692	0.016043
588.317760	0.016024
588.528810	0.015650
588.739841	0.015154
588.950855	0.014818
589.161850	0.015293
589.372827	0.014760
589.583785	0.015158
589.794726	0.014780
590.005648	0.014515
590.216552	0.014660
590.427437	0.014927
590.638305	0.015455
590.849154	0.016017
591.059985	0.015360
591.270798	0.015863
591.481592	0.015310
591.692369	0.015473
591.903127	0.015754
592.113867	0.015693
592.324588	0.015392
592.535292	0.015191
592.745977	0.015002
592.956644	0.015166
593.167293	0.014888
593.377923	0.014746
593.588536	0.014303
593.799130	0.013923
594.009706	0.013829
594.220263	0.014052
594.430803	0.014201
594.641324	0.014168
594.851827	0.014160
595.062312	0.014248
595.272778	0.014485
595.483227	0.015011
595.693657	0.015592
595.904069	0.015821
596.114462	0.015794
596.324838	0.015980
596.535195	0.016283
596.745534	0.016731
596.955855	0.016730
597.166157	0.016807
597.376441	0.016512
597.586707	0.016666
597.796955	0.016631
598.007185	0.016638
598.217396	0.016346
598.427589	0.016319
598.637764	0.015892
598.847921	0.016135
599.058060	0.016206
599.268180	0.016320
599.478282	0.015765
599.688366	0.015240
599.898431	0.015322
600.108479	0.015258
600.318508	0.014792
600.528519	0.015164
600.738511	0.014950
600.948486	0.014641
601.158442	0.014483
601.368380	0.014969
601.578300	0.014813
601.788202	0.014444
601.998085	0.014229
602.207950	0.014324
602.417797	0.013951
602.627626	0.013737
602.837436	0.013717
603.047228	0.013680
603.257002	0.013184
603.466758	0.013657
603.676496	0.013754
603.886215	0.013770
604.095916	0.013689
604.305599	0.013944
604.515264	0.014294
604.724910	0.014700
604.934538	0.014637
605.144148	0.014940
605.353740	0.014801
605.563314	0.015212
605.772869	0.015258
605.982406	0.015909
606.191925	0.016122
606.401425	0.016057
606.610908	0.016207
606.820372	0.016321
607.029818	0.016274
607.239246	0.016623
607.448655	0.016137
607.658047	0.016384
607.867420	0.015977
608.076775	0.015499
608.286111	0.015526
608.495430	0.015187
608.704730	0.015079
608.914012	0.015340
609.123275	0.015473
609.332521	0.015813
609.541748	0.015745
609.750957	0.015347
609.960148	0.015578
610.169321	0.015637
610.378475	0.015542
610.587611	0.015556
610.796729	0.015183
611.005829	0.014682
611.214910	0.014310
611.423974	0.014135
611.633019	0.014124
611.842045	0.014041
612.051054	0.013766
612.260044	0.013625
612.469017	0.013876
612.677970	0.013893
612.886906	0.014351
613.095824	0.014152
613.304723	0.014424
613.513604	0.014686
613.722467	0.014699
613.931311	0.014752
614.140138	0.014818
614.348946	0.014460
614.557736	0.014555
614.766507	0.014239
614.975261	0.014520
615.183996	0.014374
615.392713	0.014289
615.601412	0.014184
615.810092	0.014259
616.018754	0.014288
616.227399	0.014132
616.436024	0.014224
616.644632	0.014061
616.853222	0.014049
617.061793	0.013925
617.270346	0.013735
617.478880	0.013828
617.687397	0.013910
617.895895	0.013751
618.104375	0.013875
618.312837	0.013287
618.521281	0.013191
618.729706	0.013684
618.938113	0.014053
619.146502	0.014433
619.354873	0.014598
619.563226	0.014199
619.771560	0.014701
619.979876	0.014975
620.188174	0.015619
620.396453	0.016254
620.604715	0.016118
620.812958	0.016142
621.021183	0.016085
621.229390	0.015869
621.437578	0.016018
621.645748	0.015995
621.853900	0.016018
622.062034	0.015752
622.270150	0.015510
622.478247	0.015477
622.686326	0.015430
622.894387	0.015563
623.102430	0.015695
623.310454	0.016134
623.518461	0.016316
623.726449	0.016444
623.934418	0.016673
624.142370	0.016385
624.350303	0.016302
624.558218	0.016238
624.766115	0.015982
624.973994	0.015752
625.181855	0.015287
625.389697	0.014906
625.597521	0.014692
625.805327	0.014403
626.013114	0.014692
626.220883	0.014557
626.428634	0.014553
626.636367	0.014704
626.844082	0.014800
627.051778	0.014997
627.259457	0.014836
627.467117	0.014556
627.674758	0.014275
627.882382	0.014172
628.089987	0.014466
628.297574	0.014477
628.505143	0.014420
628.712694	0.014459
628.920226	0.013990
629.127740	0.014054
629.335236	0.014146
629.542714	0.014569
629.750174	0.014371
629.957615	0.013939
630.165038	0.013737
630.372443	0.013357
630.579829	0.013130
630.787198	0.013499
630.994548	0.013585
631.201880	0.013318
631.409194	0.013039
631.616489	0.013235
631.823766	0.013434
632.031025	0.013198
632.238266	0.013664
632.445489	0.013804
632.652693	0.013807
632.859879	0.013769
633.067047	0.014540
633.274197	0.014944
633.481329	0.015152
633.688442	0.015051
633.895537	0.015088
634.102614	0.014834
634.309672	0.014894
634.516713	0.014939
634.723735	0.014765
634.930739	0.014447
635.137724	0.014173
635.344692	0.014517
635.551641	0.014547
635.758572	0.014718
635.965485	0.014840
636.172379	0.014811
636.379256	0.015073
636.586114	0.015453
636.792954	0.015406
636.999775	0.015670
637.206579	0.015235
637.413364	0.015309
637.620131	0.015680
637.826880	0.015678
638.033610	0.015632
638.240323	0.015489
638.447017	0.015132
638.653692	0.014994
638.860350	0.014791
639.066990	0.014838
639.273611	0.014739
639.480214	0.014187
639.686798	0.014230
639.893365	0.014405
640.099913	0.014215
640.306443	0.014375
640.512955	0.014776
640.719449	0.014697
640.925924	0.014608
641.132381	0.014738
641.338820	0.015109
641.545241	0.014968
641.751644	0.014911
641.958028	0.014928
642.164394	0.015016
642.370742	0.014795
642.577071	0.014963
642.783383	0.015021
642.989676	0.014912
643.195951	0.014738
643.402207	0.014923
643.608446	0.014603
643.814666	0.014568
644.020868	0.014590
644.227052	0.014815
644.433218	0.014944
644.639365	0.014774
644.845494	0.014810
645.051605	0.015134
645.257698	0.015022
645.463772	0.015441
645.669828	0.015570
645.875866	0.015752
646.081886	0.015433
646.287888	0.015583
646.493871	0.015913
646.699836	0.015898
646.905783	0.015982
647.111712	0.016106
647.317622	0.016028
647.523514	0.016063
647.729388	0.015876
647.935244	0.015843
648.141082	0.015513
648.346901	0.015141
648.552702	0.015321
648.758485	0.014833
648.964250	0.014761
649.169996	0.014520
649.375724	0.014513
649.581434	0.014508
649.787126	0.014500
649.992800	0.014458
650.198455	0.014520
650.404092	0.014264
650.609711	0.014379
650.815311	0.014526
651.020894	0.014475
651.226458	0.014288
651.432004	0.014053
651.637532	0.014128
651.843041	0.014163
652.048532	0.013819
652.254006	0.014007
652.459460	0.013730
652.664897	0.013622
652.870315	0.013853
653.075716	0.013801
653.281097	0.013600
653.486461	0.013681
653.691807	0.013672
653.897134	0.014099
654.102443	0.014174
654.307734	0.014400
654.513006	0.014204
654.718261	0.014076
654.923497	0.014343
655.128715	0.014644
655.333915	0.014723
655.539096	0.014877
655.744259	0.014986
655.949404	0.014797
656.154531	0.014813
656.359640	0.015054
656.564730	0.015174
656.769802	0.015100
656.974856	0.015126
657.179892	0.015066
657.384909	0.014834
657.589908	0.014628
657.794889	0.014480
657.999852	0.014281
658.204797	0.014245
658.409723	0.014122
658.614631	0.013946
658.819521	0.013768
659.024393	0.013727
659.229246	0.013675
659.434081	0.013622
659.638898	0.013673
659.843697	0.013609
660.048478	0.013350
660.253240	0.013343
660.457984	0.013430
660.662710	0.013688
660.867417	0.013463
661.072107	0.013658
661.276778	0.013574
661.481431	0.013629
661.686066	0.013763
661.890682	0.013725
662.095281	0.013775
662.299861	0.014011
662.504422	0.014111
662.708966	0.014521
662.913491	0.014538
663.117999	0.014403
663.322488	0.014350
663.526958	0.014708
663.731411	0.015152
663.935845	0.015330
664.140261	0.015410
664.344659	0.015047
664.549038	0.015040
664.753400	0.015132
664.957743	0.015562
665.162068	0.015431
665.366375	0.014873
665.570663	0.014768
665.774933	0.014796
665.979185	0.014295
666.183419	0.014552
666.387635	0.014460
666.591832	0.014555
666.796011	0.014514
667.000172	0.014848
667.204315	0.015130
667.408439	0.015229
667.612545	0.015123
667.816634	0.015357
668.020703	0.015564
668.224755	0.015522
668.428788	0.015327
668.632803	0.015185
668.836800	0.015133
669.040779	0.015097
669.244739	0.014961
669.448681	0.014996
669.652605	0.014859
669.856511	0.014533
670.060399	0.014269
670.264268	0.014332
670.468119	0.014420
670.671952	0.014773
670.875767	0.015020
671.079563	0.015028
671.283341	0.015040
671.487101	0.015230
671.690843	0.015332
671.894567	0.015819
672.098272	0.015571
672.301959	0.015727
672.505628	0.015417
672.709278	0.015157
672.912911	0.014969
673.116525	0.014785
673.320121	0.015041
673.523699	0.014783
673.727258	0.014562
673.930799	0.014347
674.134322	0.014267
674.337827	0.014127
674.541314	0.014194
674.744782	0.014146
674.948232	0.014188
675.151664	0.013871
675.355078	0.013863
675.558474	0.013484
675.761851	0.013796
675.965210	0.013561
676.168551	0.013821
676.371873	0.013852
676.575178	0.014079
676.778464	0.014098
676.981732	0.014140
677.184981	0.014175
677.388213	0.014367
677.591426	0.014708
677.794621	0.014891
677.997798	0.014810
678.200956	0.015007
678.404097	0.015123
678.607219	0.015243
678.810323	0.015286
679.013408	0.015477
679.216476	0.015680
679.419525	0.015555
679.622556	0.015681
679.825569	0.015971
680.028563	0.015943
680.231540	0.015893
680.434498	0.015828
680.637438	0.015696
680.840359	0.015387
681.043263	0.015256
681.246148	0.014912
681.449015	0.014841
681.651864	0.014454
681.854694	0.014237
682.057506	0.014213
682.260301	0.014188
682.463076	0.014200
682.665834	0.014346
682.868573	0.014122
683.071295	0.014305
683.273998	0.013937
683.476682	0.013753
683.679349	0.013827
683.881997	0.013929
684.084627	0.014243
684.287239	0.014221
684.489833	0.014448
684.692408	0.014785
684.894965	0.014621
685.097504	0.015005
685.300025	0.015227
685.502527	0.015202
685.705012	0.014959
685.907478	0.014554
686.109925	0.014746
686.312355	0.014798
686.514766	0.014628
686.717159	0.015025
686.919534	0.015160
687.121891	0.015131
687.324230	0.015344
687.526550	0.015254
687.728852	0.015255
687.931136	0.015215
688.133401	0.015211
688.335649	0.015310
688.537878	0.015038
688.740089	0.014712
688.942281	0.014931
689.144456	0.014904
689.346612	0.014936
689.548750	0.015235
689.750870	0.015540
689.952971	0.015562
690.155055	0.015567
690.357120	0.015679
690.559167	0.015318
690.761195	0.015058
690.963206	0.014925
691.165198	0.015002
691.367172	0.014879
691.569128	0.014533
691.771065	0.014409
691.972984	0.014274
692.174885	0.014063
692.376768	0.014248
692.578633	0.014384
692.780479	0.014365
692.982308	0.014349
693.184118	0.014188
693.385909	0.014118
693.587683	0.014089
693.789438	0.014122
693.991175	0.014081
694.192894	0.014423
694.394595	0.014071
694.596277	0.014091
694.797941	0.014181
694.999587	0.014345
695.201215	0.014555
695.402824	0.014607
695.604416	0.014763
695.805989	0.014859
696.007543	0.014956
696.209080	0.015407
696.410598	0.015459
696.612099	0.015628
696.813580	0.015707
697.015044	0.015751
697.216490	0.016095
697.417917	0.016227
697.619326	0.016756
697.820717	0.016841
698.022089	0.016722
698.223444	0.016635
698.424780	0.016585
698.626098	0.016463
698.827397	0.016368
699.028679	0.016085
699.229942	0.015996
699.431187	0.015566
699.632414	0.015222
699.833622	0.015121
700.034813	0.015269
700.235985	0.015490
700.437139	0.015600
700.638274	0.015579
700.839392	0.015493
701.040491	0.015450
701.241572	0.015601
701.442635	0.015856
701.643679	0.015705
701.844706	0.015838
702.045714	0.015195
702.246704	0.015149
702.447675	0.015178
702.648629	0.015081
702.849564	0.014828
703.050481	0.014695
703.251380	0.014520
703.452260	0.014875
703.653122	0.014470
703.853966	0.014901
704.054792	0.014468
704.255600	0.014451
704.456389	0.014581
704.657160	0.014781
704.857913	0.014797
705.058648	0.014705
705.259365	0.014585
705.460063	0.014558
705.660743	0.014204
705.861405	0.014699
706.062048	0.014494
706.262674	0.014264
706.463281	0.014229
706.663870	0.014053
706.864441	0.014306
707.064993	0.014175
707.265527	0.014457
707.466043	0.014366
707.666541	0.014261
707.867021	0.014465
708.067482	0.014668
708.267925	0.014691
708.468350	0.014925
708.668757	0.014561
708.869145	0.014542
709.069516	0.014195
709.269868	0.014471
709.470201	0.014403
709.670517	0.014174
709.870814	0.014158
710.071093	0.013902
710.271354	0.013726
710.471597	0.013850
710.671821	0.013710
710.872028	0.014109
711.072216	0.013921
711.272385	0.013944
711.472537	0.014271
711.672670	0.014202
711.872785	0.014513
712.072882	0.014417
712.272961	0.014288
712.473021	0.014668
712.673063	0.014511
712.873087	0.014640
713.073093	0.014518
713.273081	0.014027
713.473050	0.014171
713.673001	0.014163
713.872934	0.014267
714.072849	0.014657
714.272745	0.014566
714.472623	0.014614
714.672483	0.014663
714.872325	0.014734
715.072148	0.015182
715.271954	0.015185
715.471741	0.015239
715.671509	0.015423
715.871260	0.015262
716.070992	0.015236
716.270707	0.014947
716.470403	0.014967
716.670080	0.015076
716.869740	0.014854
717.069381	0.014622
717.269004	0.014476
717.468609	0.014172
717.668195	0.014301
717.867764	0.014265
718.067314	0.014357
718.266846	0.014362
718.466360	0.014237
718.665855	0.014102
718.865332	0.014272
719.064791	0.014475
719.264232	0.014393
719.463655	0.014130
719.663059	0.014061
719.862445	0.014395
720.061813	0.014374
720.261163	0.014297
720.460494	0.014328
720.659807	0.014070
720.859102	0.013808
721.058379	0.013981
721.257638	0.013932
721.456878	0.013892
721.656100	0.013476
721.855304	0.013068
722.054490	0.012775
722.253657	0.012861
722.452806	0.012773
722.651937	0.012401
722.851050	0.012215
723.050145	0.012106
723.249221	0.012301
723.448279	0.012327
723.647319	0.012523
723.846340	0.012529
724.045344	0.012399
724.244329	0.012453
724.443296	0.012905
724.642245	0.012770
724.841175	0.012396
725.040088	0.011997
725.238982	0.012200
725.437857	0.012272
725.636715	0.012468
725.835554	0.012547
726.034376	0.012602
726.233179	0.012509
726.431963	0.012663
726.630730	0.013002
726.829478	0.012974
727.028208	0.012862
727.226920	0.012776
727.425614	0.012606
727.624289	0.012331
727.822946	0.012219
728.021585	0.011935
728.220206	0.011826
728.418808	0.011619
728.617392	0.011541
728.815958	0.011294
729.014506	0.010969
729.213036	0.010969
729.411547	0.011153
729.610040	0.011246
729.808515	0.011227
730.006972	0.011029
730.205410	0.010903
730.403831	0.010913
730.602233	0.011003
730.800616	0.010991
730.998982	0.010875
731.197329	0.010534
731.395658	0.010372
731.593969	0.010155
731.792262	0.010101
731.990536	0.010408
732.188793	0.010369
732.387031	0.010342
732.585250	0.010403
732.783452	0.010465
732.981635	0.010421
733.179800	0.010327
733.377947	0.010381
733.576076	0.010668
733.774186	0.010432
733.972278	0.010395
734.170352	0.010194
734.368408	0.010002
734.566446	0.009960
734.764465	0.009929
734.962466	0.009949
735.160449	0.010039
735.358413	0.009638
735.556360	0.009469
735.754288	0.009538
735.952198	0.009598
736.150090	0.010013
736.347963	0.009765
736.545818	0.009741
736.743655	0.009612
736.941474	0.009353
737.139275	0.009434
737.337057	0.009678
737.534821	0.009355
737.732567	0.009141
737.930295	0.008787
738.128005	0.008784
738.325696	0.008707
738.523369	0.008731
738.721024	0.009072
738.918660	0.008965
739.116279	0.008930
739.313879	0.009061
739.511461	0.008920
739.709024	0.008875
739.906570	0.009135
740.104097	0.009487
740.301606	0.009421
740.499097	0.009250
740.696569	0.009291
740.894024	0.009231
741.091460	0.009371
741.288878	0.009466
741.486277	0.009539
741.683659	0.009210
741.881022	0.008998
742.078367	0.008759
742.275694	0.008599
742.473002	0.008503
742.670293	0.008548
742.867565	0.008470
743.064819	0.008578
743.262054	0.008505
743.459272	0.008742
743.656471	0.008805
743.853652	0.008941
744.050815	0.008998
744.247959	0.008948
744.445085	0.008761
744.642194	0.008707
744.839283	0.008497
745.036355	0.008315
745.233408	0.008066
745.430444	0.008038
745.627461	0.007971
745.824459	0.007991
746.021440	0.008411
746.218402	0.008263
746.415346	0.008166
746.612272	0.008402
746.809180	0.008674
747.006069	0.009079
747.202940	0.008991
747.399793	0.008888
747.596628	0.008947
747.793444	0.008757
747.990243	0.008936
748.187023	0.008803
748.383784	0.008870
748.580528	0.008947
748.777253	0.008665
748.973960	0.008688
749.170649	0.008809
749.367320	0.008589
749.563973	0.008472
749.760607	0.008624
749.957223	0.008567
750.153821	0.008298
750.350400	0.008317
750.546962	0.008599
750.743505	0.008602
750.940030	0.008809
751.136536	0.008966
751.333025	0.009099
751.529495	0.008832
751.725947	0.008805
751.922381	0.008781
752.118796	0.008457
752.315194	0.008044
752.511573	0.007816
752.707934	0.007582
752.904276	0.007244
753.100601	0.007284
753.296907	0.007320
753.493195	0.007699
753.689465	0.007775
753.885716	0.007674
754.081949	0.007648
754.278164	0.007786
754.474361	0.008087
754.670540	0.008349
754.866700	0.008159
755.062843	0.008243
755.258967	0.007843
755.455072	0.007835
755.651160	0.008101
755.847229	0.008418
756.043280	0.008106
756.239313	0.007922
756.435328	0.007836
756.631324	0.007865
756.827302	0.007751
757.023262	0.007839
757.219204	0.007708
757.415127	0.007666
757.611033	0.007372
757.806920	0.007802
758.002788	0.007944
758.198639	0.008124
758.394471	0.008001
758.590286	0.008033
758.786081	0.008240
758.981859	0.008342
759.177619	0.008194
759.373360	0.008223
759.569083	0.008141
759.764788	0.008020
759.960474	0.007980
760.156143	0.007891
760.351793	0.007833
760.547425	0.007870
760.743038	0.007782
760.938634	0.007966
761.134211	0.008136
761.329770	0.007853
761.525311	0.007916
761.720833	0.007990
761.916338	0.008413
762.111824	0.008564
762.307292	0.008704
762.502741	0.008870
762.698173	0.008624
762.893586	0.008449
763.088981	0.008770
763.284358	0.008729
763.479716	0.008641
763.675057	0.008592
763.870379	0.008743
764.065683	0.008491
764.260968	0.008590
764.456236	0.008759
764.651485	0.008750
764.846716	0.008643
765.041929	0.008596
765.237123	0.008655
765.432299	0.008313
765.627457	0.007936
765.822597	0.008056
766.017719	0.007902
766.212822	0.007949
766.407907	0.008026
766.602974	0.007998
766.798023	0.008325
766.993054	0.008380
767.188066	0.008744
767.383060	0.008840
767.578036	0.008728
767.772993	0.008949
767.967933	0.009137
768.162854	0.009353
768.357757	0.009425
768.552642	0.009483
768.747508	0.009465
768.942356	0.009468
769.137186	0.009575
769.331998	0.009620
769.526792	0.009423
769.721567	0.008977
769.916324	0.008994
770.111063	0.008719
770.305784	0.008029
770.500486	0.007833
770.695171	0.007695
770.889837	0.007683
771.084484	0.007765
771.279114	0.007770
771.473725	0.008011
771.668318	0.007780
771.862893	0.007770
772.057450	0.007881
772.251988	0.007933
772.446509	0.007815
772.641011	0.007487
772.835494	0.007283
773.029960	0.007307
773.224407	0.007102
773.418836	0.007167
773.613247	0.007542
773.807640	0.007700
774.002014	0.008066
774.196370	0.008330
774.390708	0.008508
774.585028	0.008604
774.779330	0.008655
774.973613	0.008918
775.167878	0.008930
775.362125	0.009019
775.556354	0.009269
775.750564	0.009437
775.944756	0.009534
776.138930	0.009717
776.333086	0.010315
776.527223	0.010569
776.721343	0.010647
776.915444	0.010518
777.109526	0.010293
777.303591	0.009796
777.497637	0.009140
777.691666	0.008707
777.885676	0.008836
778.079667	0.008354
778.273641	0.008011
778.467596	0.008076
778.661533	0.008565
778.855452	0.008509
779.049352	0.008818
779.243235	0.009084
779.437099	0.009264
779.630945	0.009039
779.824773	0.008898
780.018582	0.008982
780.212373	0.008934
780.406146	0.008625
780.599901	0.009007
780.793638	0.009067
780.987356	0.009033
781.181056	0.008943
781.374738	0.008961
781.568402	0.008956
781.762047	0.009031
781.955674	0.008819
782.149283	0.008800
782.342874	0.008616
782.536447	0.008491
782.730001	0.008805
782.923537	0.008778
783.117055	0.008983
783.310555	0.009108
783.504036	0.009034
783.697499	0.009284
783.890944	0.009199
784.084371	0.009239
784.277780	0.009507
784.471170	0.009442
784.664542	0.009721
784.857896	0.009648
785.051231	0.009811
785.244549	0.009704
785.437848	0.009717
785.631129	0.009835
785.824392	0.009962
786.017636	0.010113
786.210863	0.010018
786.404071	0.010422
786.597260	0.010408
786.790432	0.010430
786.983585	0.010687
787.176721	0.010391
787.369838	0.010763
787.562936	0.010860
787.756017	0.010670
787.949079	0.010457
788.142123	0.010313
788.335149	0.010542
788.528156	0.010400
788.721146	0.010067
788.914117	0.010299
789.107070	0.010079
789.300005	0.009974
789.492921	0.009752
789.685819	0.009861
789.878699	0.009909
790.071561	0.009818
790.264405	0.009906
790.457230	0.010095
790.650037	0.010155
790.842826	0.009860
791.035597	0.009884
791.228349	0.010010
791.421084	0.010047
791.613800	0.009787
791.806497	0.009658
791.999177	0.009397
792.191838	0.009214
792.384481	0.009261
792.577106	0.009398
792.769713	0.009388
792.962301	0.009542
793.154871	0.009511
793.347423	0.009465
793.539957	0.009536
793.732473	0.010078
793.924970	0.009936
794.117449	0.009533
794.309910	0.009576
794.502353	0.009106
794.694777	0.008850
794.887183	0.008806
795.079571	0.008621
795.271941	0.008570
795.464293	0.007957
795.656626	0.008322
795.848941	0.008727
796.041238	0.008701
796.233516	0.009120
796.425777	0.009193
796.618019	0.009124
796.810243	0.009390
797.002449	0.009259
797.194636	0.009406
797.386805	0.009366
797.578956	0.009203
797.771089	0.008889
797.963204	0.008864
798.155300	0.008924
798.347378	0.008985
798.539438	0.008850
798.731480	0.008934
798.923503	0.008899
799.115509	0.008423
799.307496	0.008649
799.499465	0.008934
799.691415	0.008941
799.883348	0.008878
800.075262	0.008772
800.267158	0.008703
800.459035	0.008761
800.650895	0.008792
800.842736	0.008858
801.034559	0.008913
801.226364	0.009142
801.418150	0.008975
801.609919	0.008946
801.801669	0.009246
801.993401	0.009395
802.185114	0.009470
802.376810	0.009576
802.568487	0.010173
802.760146	0.010143
802.951787	0.009994
803.143409	0.009971
803.335014	0.010171
803.526600	0.010118
803.718168	0.010213
803.909717	0.010267
804.101249	0.010295
804.292762	0.010313
804.484257	0.010062
804.675734	0.010157
804.867192	0.010152
805.058632	0.009938
805.250054	0.009779
805.441458	0.009627
805.632844	0.009590
805.824211	0.009566
806.015561	0.009355
806.206891	0.009462
806.398204	0.009544
806.589499	0.009721
806.780775	0.010063
806.972033	0.010146
807.163273	0.010234
807.354495	0.010112
807.545698	0.010280
807.736883	0.010647
807.928050	0.010803
808.119199	0.010504
808.310329	0.010606
808.501441	0.010681
808.692535	0.010878
808.883611	0.010716
809.074669	0.010699
809.265708	0.010638
809.456729	0.010416
809.647732	0.010259
809.838717	0.010634
810.029683	0.010669
810.220632	0.010512
810.411562	0.010299
810.602474	0.010399
810.793367	0.010538
810.984242	0.010439
811.175100	0.010372
811.365938	0.010325
811.556759	0.010059
811.747562	0.010007
811.938346	0.009735
812.129112	0.009866
812.319860	0.009832
812.510589	0.009819
812.701300	0.010022
812.891994	0.010163
813.082668	0.010240
813.273325	0.010279
813.463964	0.010442
813.654584	0.010820
813.845186	0.010542
814.035769	0.010662
814.226335	0.010852
814.416882	0.010533
814.607411	0.010297
814.797922	0.010552
814.988415	0.010582
815.178889	0.010061
815.369345	0.010165
815.559783	0.010719
815.750203	0.010707
815.940605	0.010716
816.130988	0.010927
816.321353	0.010947
816.511700	0.010852
816.702028	0.010784
816.892339	0.011298
817.082631	0.010836
817.272905	0.010335
817.463161	0.010119
817.653398	0.010241
817.843617	0.010272
818.033819	0.010284
818.224001	0.010156
818.414166	0.010125
818.604312	0.009771
818.794440	0.009891
818.984550	0.010012
819.174642	0.010071
819.364716	0.009709
819.554771	0.009847
819.744808	0.009964
819.934827	0.009723
820.124827	0.009559
820.314810	0.010002
820.504774	0.010314
820.694720	0.010273
820.884647	0.010817
821.074557	0.011126
821.264448	0.011122
821.454321	0.011175
821.644176	0.011474
821.834012	0.011827
822.023831	0.011801
822.213631	0.012148
822.403413	0.012659
822.593176	0.012619
822.782922	0.012642
822.972649	0.012540
823.162358	0.012886
823.352049	0.012994
823.541721	0.013184
823.731376	0.012905
823.921012	0.012529
824.110629	0.012252
824.300229	0.012085
824.489811	0.012147
824.679374	0.012272
824.868919	0.011685
825.058445	0.011576
825.247954	0.011496
825.437444	0.011962
825.626916	0.011648
825.816370	0.011468
826.005806	0.011469
826.195223	0.011048
826.384622	0.011091
826.574003	0.011358
826.763366	0.011582
826.952711	0.011709
827.142037	0.011407
827.331345	0.011787
827.520635	0.012155
827.709906	0.012143
827.899160	0.012203
828.088395	0.011948
828.277612	0.011543
828.466810	0.011033
828.655991	0.010913
828.845153	0.010747
829.034297	0.010643
829.223423	0.010674
829.412531	0.010419
829.601620	0.010434
829.790691	0.010346
829.979744	0.010855
830.168779	0.011023
830.357795	0.010834
830.546793	0.010857
830.735773	0.010862
830.924735	0.010639
831.113679	0.010761
831.302604	0.011087
831.491511	0.011303
831.680400	0.011155
831.869271	0.011476
832.058123	0.011684
832.246957	0.012307
832.435773	0.012105
832.624571	0.012415
832.813351	0.012569
833.002112	0.012544
833.190855	0.012548
833.379580	0.012869
833.568287	0.012605
833.756975	0.012184
833.945645	0.011746
834.134297	0.011916
834.322931	0.011572
834.511547	0.011621
834.700144	0.011602
834.888723	0.011266
835.077284	0.011191
835.265826	0.011185
835.454351	0.011548
835.642857	0.011311
835.831345	0.011383
836.019815	0.011298
836.208266	0.011427
836.396699	0.011538
836.585114	0.011846
836.773511	0.011727
836.961890	0.011907
837.150250	0.012049
837.338592	0.012525
837.526916	0.012921
837.715222	0.013251
837.903510	0.013034
838.091779	0.013083
838.280030	0.013145
838.468263	0.012956
838.656477	0.013068
838.844674	0.012824
839.032852	0.012501
839.221012	0.011973
839.409153	0.012034
839.597277	0.012107
839.785382	0.012302
839.973469	0.012186
840.161538	0.012316
840.349589	0.011927
840.537621	0.011827
840.725635	0.011538
840.913631	0.011533
841.101609	0.011368
841.289568	0.011225
841.477509	0.011065
841.665432	0.011153
841.853337	0.010949
842.041224	0.011294
842.229092	0.011401
842.416942	0.011733
842.604774	0.011605
842.792588	0.011384
842.980383	0.011519
843.168160	0.011157
843.355919	0.011110
843.543660	0.011242
843.731382	0.011034
843.919087	0.011098
844.106773	0.011397
844.294441	0.011820
844.482090	0.012191
844.669722	0.012086
844.857335	0.011953
845.044930	0.012153
845.232507	0.012636
845.420065	0.012592
845.607605	0.012681
845.795127	0.012294
845.982631	0.011899
846.170117	0.011484
846.357584	0.011767
846.545033	0.012040
846.732464	0.011850
846.919877	0.011439
847.107272	0.011601
847.294648	0.011254
847.482006	0.011378
847.669346	0.011573
847.856667	0.012006
848.043971	0.011675
848.231256	0.011582
848.418523	0.011702
848.605771	0.011675
848.793002	0.011728
848.980214	0.011990
849.167408	0.012037
849.354584	0.012291
849.541742	0.012211
849.728881	0.012544
849.916002	0.012923
850.103105	0.012983
850.290190	0.013588
850.477256	0.013468
850.664304	0.013338
850.851334	0.013409
851.038346	0.013242
851.225340	0.013243
851.412315	0.012949
851.599272	0.012887
851.786211	0.012709
851.973132	0.012675
852.160034	0.013073
852.346918	0.013226
852.533784	0.013091
852.720632	0.012971
852.907462	0.013061
853.094273	0.013269
853.281066	0.013379
853.467841	0.013563
853.654598	0.013544
853.841336	0.013311
854.028056	0.013541
854.214758	0.013738
854.401442	0.014092
854.588107	0.013869
854.774755	0.014016
854.961384	0.013698
855.147995	0.013720
855.334587	0.013685
855.521162	0.013648
855.707718	0.013487
855.894256	0.013564
856.080775	0.013305
856.267277	0.013744
856.453760	0.013513
856.640225	0.013651
856.826672	0.013877
857.013101	0.013773
857.199511	0.013890
857.385903	0.013828
857.572277	0.013815
857.758633	0.013702
857.944970	0.013358
858.131290	0.013317
858.317591	0.013106
858.503873	0.013050
858.690138	0.012724
858.876384	0.013006
859.062612	0.013485
859.248822	0.013358
859.435014	0.013991
859.621188	0.014352
859.807343	0.015090
859.993480	0.015372
860.179599	0.015211
860.365699	0.015642
860.551781	0.015269
860.737846	0.014866
860.923891	0.014916
861.109919	0.014408
861.295929	0.014695
861.481920	0.014123
861.667893	0.014324
861.853848	0.014529
862.039784	0.014710
862.225702	0.014914
862.411603	0.015061
862.597484	0.015254
862.783348	0.015399
862.969193	0.015463
863.155021	0.015297
863.340830	0.015300
863.526620	0.015579
863.712393	0.015636
863.898147	0.015952
864.083883	0.016139
864.269601	0.016293
864.455301	0.016440
864.640982	0.015932
864.826645	0.015942
865.012290	0.015469
865.197917	0.015044
865.383526	0.014794
865.569116	0.014199
865.754688	0.014492
865.940242	0.014252
866.125777	0.013893
866.311295	0.013759
866.496794	0.014159
866.682275	0.014123
866.867737	0.013812
867.053182	0.013481
867.238608	0.014016
867.424016	0.013708
867.609406	0.013587
867.794778	0.013838
867.980131	0.013947
868.165466	0.014130
868.350783	0.014662
868.536082	0.014961
868.721362	0.015090
868.906625	0.014762
869.091869	0.014256
869.277094	0.014380
869.462302	0.014297
869.647491	0.014038
869.832662	0.014077
870.017815	0.013945
870.202950	0.013947
870.388066	0.013898
870.573165	0.014281
870.758245	0.015109
870.943306	0.015548
871.128350	0.015909
871.313375	0.016521
871.498382	0.016415
871.683371	0.016260
871.868342	0.016558
872.053294	0.016985
872.238229	0.016912
872.423144	0.016743
872.608042	0.016112
872.792922	0.015966
872.977783	0.016076
873.162626	0.015786
873.347451	0.015688
873.532258	0.015715
873.717046	0.015316
873.901816	0.015491
874.086568	0.015365
874.271302	0.015628
874.456017	0.015791
874.640715	0.015216
874.825394	0.015389
875.010055	0.015578
875.194697	0.015052
875.379322	0.015054
875.563928	0.014831
875.748516	0.014770
875.933085	0.014768
876.117637	0.014540
876.302170	0.014731
876.486685	0.014375
876.671182	0.014148
876.855661	0.014209
877.040121	0.014344
877.224563	0.014268
877.408987	0.014733
877.593393	0.014144
877.777780	0.014552
877.962150	0.014807
878.146501	0.014970
878.330833	0.015047
878.515148	0.015371
878.699444	0.015492
878.883722	0.015309
879.067982	0.014332
879.252224	0.014881
879.436447	0.014245
879.620653	0.014537
879.804840	0.014440
879.989008	0.014881
880.173159	0.014964
880.357291	0.015342
880.541405	0.015664
880.725501	0.016320
880.909579	0.016805
881.093638	0.017276
881.277680	0.017121
881.461703	0.017516
881.645707	0.017616
881.829694	0.017530
882.013662	0.017293
882.197612	0.017104
882.381544	0.016865
882.565458	0.016753
882.749353	0.016518
882.933230	0.016316
883.117089	0.016193
883.300930	0.016574
883.484753	0.016507
883.668557	0.015971
883.852343	0.016393
884.036111	0.016743
884.219861	0.016626
884.403592	0.017213
884.587305	0.016923
884.771000	0.017280
884.954677	0.016689
885.138335	0.016738
885.321976	0.016780
885.505598	0.016462
885.689201	0.016537
885.872787	0.016420
886.056354	0.015789
886.239904	0.016143
886.423434	0.015699
886.606947	0.015885
886.790442	0.015684
886.973918	0.016231
887.157376	0.015645
887.340816	0.015297
887.524237	0.015298
887.707641	0.015317
887.891026	0.014348
888.074393	0.014349
888.257741	0.014481
888.441072	0.015054
888.624384	0.014785
888.807678	0.014793
888.990954	0.014900
889.174211	0.014615
889.357451	0.014797
889.540672	0.015793
889.723875	0.016171
889.907059	0.015629
890.090226	0.015436
890.273374	0.015673
890.456504	0.016129
890.639616	0.015761
890.822709	0.016512
891.005785	0.016809
891.188842	0.016527
891.371881	0.016146
891.554901	0.016303
891.737904	0.016248
891.920888	0.015772
892.103854	0.015935
892.286802	0.016120
892.469731	0.016131
892.652643	0.015692
892.835536	0.015643
893.018410	0.016370
893.201267	0.016161
893.384106	0.016155
893.566926	0.016119
893.749728	0.016228
893.932511	0.016569
894.115277	0.016365
894.298024	0.016721
894.480753	0.016937
894.663464	0.016230
894.846157	0.016163
895.028831	0.016182
895.211487	0.016828
895.394125	0.016977
895.576745	0.016805
895.759346	0.016712
895.941930	0.016511
896.124495	0.016600
896.307041	0.017027
896.489570	0.017059
896.672080	0.017193
896.854573	0.017351
897.037046	0.016597
897.219502	0.016682
897.401940	0.016759
897.584359	0.016636
897.766760	0.016367
897.949143	0.016190
898.131507	0.016641
898.313854	0.016185
898.496182	0.015943
898.678492	0.016744
898.860783	0.016783
899.043057	0.016466
899.225312	0.016783
899.407549	0.017031
899.589768	0.017179
899.771968	0.016986
899.954151	0.017166
900.136315	0.017225
900.318461	0.017232
900.500588	0.017391
900.682698	0.017816
900.864789	0.017433
901.046862	0.017551
901.228917	0.017653
901.410953	0.017587
901.592971	0.018232
901.774972	0.018173
901.956953	0.018586
902.138917	0.018808
902.320862	0.018812
902.502790	0.019321
902.684699	0.018507
902.866589	0.017989
903.048462	0.018169
903.230316	0.017443
903.412152	0.016732
903.593970	0.015760
903.775770	0.015055
903.957551	0.014455
904.139314	0.013421
904.321059	0.013737
904.502786	0.013922
904.684494	0.013665
904.866185	0.014001
905.047857	0.014663
905.229510	0.014842
905.411146	0.014755
905.592763	0.014882
905.774363	0.015447
905.955943	0.015758
906.137506	0.015526
906.319051	0.015869
906.500577	0.015357
906.682085	0.014905
906.863575	0.014706
907.045046	0.014816
907.226500	0.014705
907.407935	0.014752
907.589352	0.014986
907.770750	0.015150
907.952131	0.014611
908.133493	0.014764
908.314837	0.014758
908.496163	0.014559
908.677470	0.014656
908.858760	0.014653
909.040031	0.014860
909.221284	0.014567
909.402518	0.014619
909.583735	0.014825
909.764933	0.015215
909.946113	0.015500
910.127275	0.014960
910.308418	0.014846
910.489544	0.014693
910.670651	0.014060
910.851740	0.013400
911.032810	0.013156
911.213863	0.012938
911.394897	0.012448
911.575913	0.012066
911.756911	0.012854
911.937890	0.012933
912.118851	0.012274
912.299794	0.012781
912.480719	0.013100
912.661626	0.012440
912.842514	0.012408
913.023384	0.012300
913.204236	0.012231
913.385070	0.011835
913.565886	0.011986
913.746683	0.012680
913.927462	0.012714
914.108223	0.012920
914.288965	0.013883
914.469690	0.013646
914.650396	0.014100
914.831084	0.014649
915.011754	0.015077
915.192405	0.014531
915.373038	0.014737
915.553653	0.014281
915.734250	0.013708
915.914829	0.012973
916.095389	0.013924
916.275931	0.013469
916.456455	0.013135
916.636961	0.013182
916.817448	0.013321
916.997917	0.012970
917.178368	0.013128
917.358801	0.013215
917.539216	0.013151
917.719612	0.012412
917.899990	0.012209
918.080350	0.012054
918.260692	0.011697
918.441015	0.011338
918.621320	0.010764
918.801607	0.010291
918.981876	0.010490
919.162127	0.010695
919.342359	0.010155
919.522573	0.009431
919.702769	0.009315
919.882947	0.008738
920.063106	0.008934
920.243247	0.009082
920.423370	0.009807
920.603475	0.009438
920.783562	0.008887
920.963630	0.009089
921.143680	0.009517
921.323712	0.009420
921.503725	0.009372
921.683721	0.009466
921.863698	0.010118
922.043657	0.008986
922.223598	0.009115
922.403520	0.010130
922.583424	0.009661
922.763311	0.009443
922.943178	0.009000
923.123028	0.009669
923.302859	0.009302
923.482673	0.009311
923.662467	0.010419
923.842244	0.010567
924.022003	0.009929
924.201743	0.010246
924.381465	0.010113
924.561169	0.010359
924.740854	0.010286
924.920522	0.009840
925.100171	0.008897
925.279802	0.007634
925.459414	0.007290
925.639009	0.006834
925.818585	0.006763
925.998143	0.006424
926.177683	0.005808
926.357205	0.005520
926.536708	0.005165
926.716193	0.004577
926.895660	0.004713
927.075109	0.004334
927.254539	0.004459
927.433951	0.004625
927.613345	0.004918
927.792721	0.004885
927.972079	0.004090
928.151418	0.004420
928.330739	0.004532
928.510042	0.005000
928.689327	0.004555
928.868593	0.004204
929.047841	0.002989
929.227071	0.002671
929.406283	0.002350
929.585476	0.002439
929.764652	0.002483
929.943809	0.003201
930.122948	0.002246
930.302068	0.002614
930.481171	0.001777
930.660255	0.001988
930.839321	0.002095
931.018369	0.002074
931.197398	0.002298
931.376409	0.002199
931.555402	0.001964
931.734377	0.002113
931.913334	0.001558
932.092272	0.001878
932.271192	0.002242
932.450094	0.001660
932.628978	0.001576
932.807844	0.000731
932.986691	0.000256
933.165520	-0.000792
933.344331	-0.001934
933.523123	-0.002663
933.701898	-0.003692
933.880654	-0.005102
934.059392	-0.003855
934.238111	-0.003688
934.416813	-0.003482
934.595496	-0.003602
934.774161	-0.003624
934.952808	-0.003165
935.131437	-0.002260
935.310047	-0.000990
935.488639	-0.000577
935.667213	-0.001244
935.845769	-0.001341
936.024306	-0.000494
936.202825	-0.000849
936.381326	-0.000126
936.559809	-0.000201
936.738274	-0.000680
936.916720	-0.001459
937.095148	-0.000460
937.273558	-0.001877
937.451950	-0.001616
937.630323	-0.002813
937.808678	-0.002756
937.987015	-0.004582
938.165334	-0.005205
938.343635	-0.005955
938.521917	-0.006574
938.700181	-0.007275
938.878427	-0.007320
939.056655	-0.008434
939.234864	-0.008805
939.413055	-0.009188
939.591228	-0.008372
939.769383	-0.007698
939.947519	-0.006686
940.125638	-0.005129
940.303738	-0.006955
940.481820	-0.006537
940.659883	-0.006109
940.837929	-0.005388
941.015956	-0.005746
941.193965	-0.004844
941.371955	-0.005271
941.549928	-0.005829
941.727882	-0.007493
941.905818	-0.005077
942.083736	-0.006438
942.261636	-0.007819
942.439517	-0.007353
942.617380	-0.006702
942.795225	-0.008162
942.973052	-0.007168
943.150860	-0.007060
943.328651	-0.005449
943.506423	-0.007379
943.684176	-0.006121
943.861912	-0.004141
944.039629	-0.004649
944.217328	-0.006155
944.395009	-0.004692
944.572672	-0.005053
944.750317	-0.004297
944.927943	-0.005709
945.105551	-0.004244
945.283141	-0.002139
945.460712	-0.002678
945.638265	-0.003798
945.815801	-0.003102
945.993317	-0.002536
946.170816	-0.003622
946.348297	-0.005545
946.525759	-0.005022
946.703203	-0.005666
946.880629	-0.007954
947.058036	-0.008500
947.235425	-0.008725
947.412797	-0.008376
947.590149	-0.011092
947.767484	-0.010908
947.944800	-0.010877
948.122099	-0.011565
948.299379	-0.012637
948.476640	-0.012672
948.653884	-0.014088
948.831109	-0.013481
949.008316	-0.012330
949.185505	-0.011635
949.362676	-0.011851
949.539828	-0.012496
949.716962	-0.011596
949.894078	-0.010744
950.071176	-0.008828
950.248256	-0.008657
950.425317	-0.010334
950.602360	-0.012278
950.779385	-0.012855
950.956391	-0.012489
951.133380	-0.010128
951.310350	-0.009903
951.487302	-0.008577
951.664235	-0.007702
951.841151	-0.006289
952.018048	-0.001767
952.194927	0.001405
952.371788	0.003692
952.548631	0.004017
952.725455	0.002284
952.902261	0.000054
953.079049	-0.000659
953.255819	-0.002887
953.432570	-0.001797
953.609303	-0.004602
953.786018	-0.005894
953.962715	-0.005444
954.139394	-0.003987
954.316054	-0.003801
954.492696	-0.001663
954.669320	-0.000672
954.845926	0.000995
955.022513	0.002627
955.199083	0.000815
955.375634	0.000454
955.552166	-0.000600
955.728681	-0.005106
955.905177	-0.005553
956.081655	-0.005069
956.258115	-0.003447
956.434557	-0.004419
956.610980	-0.003519
956.787385	-0.002551
956.963772	-0.003322
957.140141	-0.007548
957.316492	-0.004924
957.492824	-0.000394
957.669138	-0.003140
957.845434	-0.004032
958.021712	-0.002830
958.197971	-0.003906
958.374212	-0.002494
958.550435	-0.001651
958.726640	0.004942
958.902826	0.006925
959.078995	0.003049
959.255145	0.005166
959.431277	0.004735
959.607390	0.002717
959.783486	0.002056
959.959563	0.003220
960.135622	0.003427
960.311662	0.001903
960.487685	-0.001701
960.663689	-0.000859
960.839675	-0.000592
961.015643	0.000633
961.191593	0.001372
961.367524	0.001362
961.543437	-0.001645
961.719332	0.000952
961.895209	0.000172
962.071067	0.003514
962.246907	0.010450
962.422730	0.012715
962.598533	0.009726
962.774319	0.005013
962.950086	0.003003
963.125835	0.001619
963.301566	-0.001012
963.477279	0.002254
963.652973	0.001386
963.828650	-0.004165
964.004308	-0.003761
964.179947	-0.003288
964.355569	0.001627
964.531172	0.004613
964.706757	0.010489
964.882324	0.011240
965.057873	0.009573
965.233403	0.009986
965.408916	0.010754
965.584410	0.010422
965.759885	0.011806
965.935343	0.008789
966.110782	0.005771
966.286203	-0.001543
966.461606	-0.002589
966.636991	-0.004312
966.812357	-0.005264
966.987705	-0.007503
967.163035	-0.008439
967.338347	-0.009474
967.513641	-0.007658
967.688916	-0.001294
967.864173	0.000250
968.039412	0.001336
968.214632	0.001656
968.389835	0.001903
968.565019	0.002889
968.740185	0.003002
968.915333	0.003361
969.090462	0.008176
969.265573	0.004998
969.440667	0.010355
969.615741	0.010959
969.790798	0.011297
969.965836	0.015847
970.140856	0.016192
970.315858	0.021526
970.490842	0.018783
970.665808	0.017434
970.840755	0.016760
971.015684	0.016291
971.190595	0.018065
971.365487	0.024122
971.540362	0.021281
971.715218	0.014649
971.890056	0.008386
972.064875	0.010303
972.239677	0.006388
972.414460	0.007647
972.589225	0.003174
972.763972	0.001244
972.938700	-0.004174
973.113411	0.001641
973.288103	0.013335
973.462777	0.012895
973.637432	0.019616
973.812070	0.018179
973.986689	0.015877
974.161290	0.018381
974.335873	0.018590
974.510437	0.020195
974.684984	0.018844
974.859512	0.012661
975.034022	0.016837
975.208513	0.010041
975.382987	0.013256
975.557442	0.012249
975.731879	0.009308
975.906298	0.009392
976.080698	0.004649
976.255080	-0.000821
976.429445	0.002062
976.603790	-0.000264
976.778118	-0.000135
976.952427	0.000191
977.126719	-0.000243
977.300992	0.000591
977.475246	-0.000034
977.649483	0.002614
977.823701	0.002745
977.997901	0.005616
978.172083	0.002475
978.346247	0.003256
978.520392	0.003841
978.694519	0.007652
978.868628	0.011802
979.042719	0.012398
979.216791	0.016591
979.390845	0.014068
979.564882	0.013378
979.738899	0.016074
979.912899	0.013022
980.086880	0.013768
980.260843	0.011859
980.434788	0.010085
980.608715	0.014021
980.782623	0.012493
980.956514	0.015764
981.130386	0.014652
981.304240	0.014857
981.478075	0.019692
981.651892	0.017923
981.825692	0.018124
981.999472	0.020009
982.173235	0.013038
982.346980	0.009295
982.520706	0.011278
982.694414	0.009810
982.868104	0.009255
983.041775	0.006904
983.215428	0.006889
983.389064	0.007266
983.562680	0.003331
983.736279	0.005920
983.909860	0.005873
984.083422	0.002119
984.256966	0.000139
984.430491	-0.001564
984.603999	-0.001265
984.777488	-0.001115
984.950959	0.000024
985.124412	0.003104
985.297847	0.005159
985.471263	0.007209
985.644661	0.006920
985.818041	0.009093
985.991403	0.012101
986.164747	0.014531
986.338072	0.012559
986.511379	0.013800
986.684668	0.010054
986.857938	0.009447
987.031191	0.009621
987.204425	0.013137
987.377641	0.015137
987.550839	0.015595
987.724018	0.011254
987.897179	0.014960
988.070322	0.011163
988.243447	0.016074
988.416554	0.013538
988.589642	0.010018
988.762712	0.008295
988.935764	0.005270
989.108798	0.004605
989.281813	0.007327
989.454811	0.006022
989.627790	0.005154
989.800751	0.005095
989.973693	0.006137
990.146617	0.008664
990.319524	0.010748
990.492412	0.010666
990.665281	0.009574
990.838133	0.013715
991.010966	0.013527
991.183781	0.017134
991.356578	0.014713
991.529356	0.015804
991.702117	0.017775
991.874859	0.013733
992.047583	0.013930
992.220288	0.012517
992.392976	0.009038
992.565645	0.008931
992.738296	0.006698
992.910929	0.006957
993.083543	0.003906
993.256139	0.005400
993.428718	0.006429
993.601277	0.007029
993.773819	0.010592
993.946342	0.012064
994.118848	0.014409
994.291335	0.016018
994.463803	0.016076
994.636254	0.017421
994.808686	0.015586
994.981100	0.010691
995.153496	0.011419
995.325874	0.008109
995.498233	0.002982
995.670574	0.002689
995.842897	0.003133
996.015202	0.009250
996.187488	0.011049
996.359757	0.008672
996.532007	0.014140
996.704239	0.013849
996.876452	0.015808
997.048648	0.023822
997.220825	0.020064
997.392984	0.021660
997.565124	0.015513
997.737247	0.014978
997.909351	0.015365
998.081437	0.015321
998.253505	0.014689
998.425554	0.014715
998.597586	0.011324
998.769599	0.012146
998.941594	0.008243
999.113571	0.008977
999.285529	0.004984
999.457469	0.006888
999.629391	0.005408
999.801295	0.005779
999.973181	0.005076
1000.145048	0.002164
1000.316897	0.001164
1000.488728	0.001674
1000.660541	0.000854
1000.832335	0.002685
1001.004111	0.001341
1001.175869	0.003564
1001.347609	0.007086
1001.519331	0.006719
1001.691034	0.008609
1001.862719	0.009042
1002.034386	0.013696
1002.206035	0.013815
1002.377665	0.018796
1002.549277	0.019420
1002.720871	0.019860
1002.892447	0.018278
1003.064004	0.017566
1003.235544	0.021038
1003.407065	0.021949
1003.578568	0.018476
1003.750052	0.017987
1003.921519	0.015334
1004.092967	0.015744
1004.264397	0.015680
1004.435809	0.015191
1004.607202	0.014385
1004.778577	0.011303
1004.949934	0.012094
1005.121273	0.013139
1005.292594	0.015000
1005.463896	0.014265
1005.635180	0.016230
1005.806446	0.016435
1005.977694	0.012612
1006.148923	0.014880
1006.320135	0.015320
1006.491328	0.014020
1006.662503	0.013478
1006.833659	0.015543
1007.004798	0.018328
1007.175918	0.015696
1007.347020	0.015901
1007.518103	0.019260
1007.689169	0.018481
1007.860216	0.013265
1008.031245	0.013109
1008.202256	0.009472
1008.373248	0.011871
1008.544223	0.011079
1008.715179	0.010354
1008.886117	0.010905
1009.057036	0.010928
1009.227938	0.009413
1009.398821	0.012869
1009.569686	0.012851
1009.740533	0.017670
1009.911361	0.013696
1010.082172	0.013804
1010.252964	0.017505
1010.423738	0.015029
1010.594493	0.012305
1010.765231	0.014303
1010.935950	0.016355
1011.106651	0.021123
1011.277334	0.022275
1011.447998	0.021528
1011.618645	0.019026
1011.789273	0.015389
1011.959882	0.018110
1012.130474	0.016296
1012.301048	0.017185
1012.471603	0.015899
1012.642140	0.014468
1012.812658	0.012452
1012.983159	0.010858
1013.153641	0.012036
1013.324105	0.013246
1013.494551	0.011001
1013.664979	0.014321
1013.835388	0.016263
1014.005779	0.017327
1014.176152	0.013126
1014.346507	0.012051
1014.516843	0.014357
1014.687162	0.015416
1014.857462	0.015659
1015.027744	0.012888
1015.198007	0.011033
1015.368252	0.008069
1015.538480	0.008813
1015.708689	0.010552
1015.878879	0.006964
1016.049052	0.006038
1016.219206	0.005961
1016.389342	0.005786
1016.559460	0.006224
1016.729559	0.007450
1016.899641	0.008008
1017.069704	0.006899
1017.239749	0.006762
1017.409775	0.009411
1017.579784	0.010151
1017.749774	0.007606
1017.919746	0.009887
1018.089700	0.010820
1018.259635	0.010529
1018.429553	0.010373
1018.599452	0.009470
1018.769333	0.010406
1018.939195	0.012330
1019.109040	0.010495
1019.278866	0.011048
1019.448674	0.010145
1019.618464	0.011953
1019.788235	0.011614
1019.957989	0.014607
1020.127724	0.014615
1020.297441	0.012507
1020.467139	0.008221
1020.636820	0.009105
1020.806482	0.008360
1020.976126	0.006256
1021.145752	0.010125
1021.315359	0.011451
1021.484948	0.007180
1021.654519	0.007844
1021.824072	0.009403
1021.993607	0.013202
1022.163123	0.015107
1022.332621	0.015343
1022.502101	0.017269
1022.671563	0.012622
1022.841007	0.013935
1023.010432	0.015718
1023.179839	0.015373
1023.349228	0.014916
1023.518598	0.013317
1023.687951	0.017209
1023.857285	0.019338
1024.026601	0.018039
1024.195899	0.018392
1024.365178	0.014717
1024.534439	0.015774
1024.703682	0.015838
1024.872907	0.015822
1025.042114	0.018652
1025.211302	0.011264
1025.380472	0.008848
1025.549624	0.005953
1025.718758	0.006215
1025.887873	0.010941
1026.056970	0.009222
1026.226049	0.007488
1026.395110	0.004423
1026.564153	0.004511
1026.733177	0.003755
1026.902183	0.003155
1027.071171	0.006902
1027.240141	0.006889
1027.409092	0.004185
1027.578026	0.003552
1027.746940	0.005956
1027.915837	0.009934
1028.084716	0.007362
1028.253576	0.008819
1028.422418	0.010420
1028.591242	0.012109
1028.760048	0.010119
1028.928835	0.009193
1029.097604	0.010284
1029.266355	0.008421
1029.435088	0.008750
1029.603803	0.008824
1029.772499	0.007009
1029.941177	0.005860
1030.109837	0.003905
1030.278478	0.002740
1030.447102	0.001556
1030.615707	0.001151
1030.784294	-0.000628
1030.952863	0.000696
1031.121413	0.001011
1031.289945	-0.000577
1031.458460	-0.000193
1031.626955	-0.002469
1031.795433	0.001344
1031.963892	0.004712
1032.132334	0.004381
1032.300756	0.006566
1032.469161	0.003705
1032.637548	0.002128
1032.805916	0.006780
1032.974266	0.008164
1033.142598	0.006668
1033.310911	0.006593
1033.479207	0.004432
1033.647484	0.004176
1033.815743	0.004991
1033.983983	0.004844
1034.152206	0.006237
1034.320410	0.004925
1034.488596	0.003724
1034.656764	0.005973
1034.824914	0.004202
1034.993045	0.006151
1035.161158	0.006577
1035.329253	0.005942
1035.497330	0.007497
1035.665388	0.008178
1035.833428	0.010460
1036.001450	0.010699
1036.169454	0.010251
1036.337440	0.012065
1036.505407	0.013254
1036.673356	0.009860
1036.841287	0.010004
1037.009200	0.010020
1037.177094	0.008389
1037.344970	0.008001
1037.512828	0.010349
1037.680668	0.012085
1037.848489	0.011470
1038.016293	0.006200
1038.184078	0.008567
1038.351845	0.007539
1038.519593	0.005122
1038.687324	0.003129
1038.855036	0.000625
1039.022730	-0.002812
1039.190406	-0.002749
1039.358063	-0.003803
1039.525702	-0.001681
1039.693323	-0.004140
1039.860926	-0.007977
1040.028511	-0.007293
1040.196077	-0.007022
1040.363625	-0.006822
1040.531155	-0.006098
1040.698667	-0.008272
1040.866161	-0.004765
1041.033636	-0.006048
1041.201093	-0.000974
1041.368532	0.002759
1041.535952	0.003047
1041.703355	0.005130
1041.870739	0.006292
1042.038105	0.006092
1042.205452	0.008543
1042.372782	0.005450
1042.540093	0.004018
1042.707386	0.001189
1042.874661	0.004280
1043.041918	0.005180
1043.209156	0.004841
1043.376376	0.003377
1043.543578	0.001719
1043.710762	0.000856
1043.877927	0.003329
1044.045074	0.006347
1044.212203	0.009293
1044.379314	0.005761
1044.546407	0.004382
1044.713481	0.003566
1044.880537	0.003810
1045.047575	0.004185
1045.214595	0.003553
1045.381596	-0.001848
1045.548579	-0.001418
1045.715544	-0.001448
1045.882491	-0.000198
1046.049420	-0.001463
1046.216330	-0.000639
1046.383222	-0.001129
1046.550096	0.000486
1046.716951	0.000996
1046.883789	0.001748
1047.050608	-0.000458
1047.217409	-0.000574
1047.384192	0.000299
1047.550956	0.002199
1047.717703	0.002990
1047.884431	0.001846
1048.051140	0.002908
1048.217832	0.004941
1048.384505	0.008173
1048.551161	0.009952
1048.717798	0.007024
1048.884416	0.005731
1049.051017	0.003040
1049.217599	0.005414
1049.384163	0.005851
1049.550709	0.007482
1049.717237	0.006938
1049.883746	0.005315
1050.050237	0.002284
1050.216710	0.003196
1050.383165	0.002226
1050.549601	0.006417
1050.716019	0.002444
1050.882420	0.003068
1051.048801	0.001817
1051.215165	-0.003718
1051.381510	-0.001451
1051.547837	0.003643
1051.714146	0.005744
1051.880437	0.006010
1052.046709	0.004738
1052.212964	0.008155
1052.379200	0.007907
1052.545417	0.007556
1052.711617	0.011706
1052.877798	0.010931
1053.043961	0.010390
1053.210106	0.010491
1053.376233	0.013767
1053.542341	0.011430
1053.708432	0.008174
1053.874504	0.008337
1054.040557	0.011681
1054.206593	0.010735
1054.372610	0.009847
1054.538609	0.009784
1054.704590	0.007218
1054.870553	0.005793
1055.036497	0.006656
1055.202424	0.007845
1055.368331	0.009334
1055.534221	0.002444
1055.700093	0.000883
1055.865946	-0.000009
1056.031781	-0.003525
1056.197598	-0.001705
1056.363397	0.000196
1056.529177	0.002348
1056.694939	0.002027
1056.860683	0.002106
1057.026409	0.001761
1057.192116	0.005576
1057.357806	0.006180
1057.523477	0.010707
1057.689130	0.009309
1057.854764	0.005095
1058.020381	0.006039
1058.185979	0.006651
1058.351559	0.007046
1058.517120	0.012327
1058.682664	0.007768
1058.848189	0.008200
1059.013696	0.004334
1059.179185	0.009508
1059.344656	0.009415
1059.510108	0.007653
1059.675542	0.006038
1059.840958	0.003568
1060.006356	-0.001220
1060.171735	0.001085
1060.337096	-0.000408
1060.502439	-0.002207
1060.667764	-0.009247
1060.833071	-0.006807
1060.998359	-0.006803
1061.163629	-0.005067
1061.328881	-0.001274
1061.494115	-0.002659
1061.659330	0.000203
1061.824527	0.005566
1061.989706	0.010807
1062.154867	0.010492
1062.320010	0.010556
1062.485134	0.010733
1062.650240	0.007370
1062.815328	0.007644
1062.980398	0.012769
1063.145449	0.012044
1063.310482	0.007108
1063.475497	0.005851
1063.640494	0.005745
1063.805473	0.006591
1063.970433	0.007506
1064.135375	0.011274
1064.300299	0.010288
1064.465204	0.007738
1064.630092	0.004801
1064.794961	0.008164
1064.959812	0.006620
1065.124645	0.009488
1065.289459	0.009818
1065.454256	0.008488
1065.619034	0.007859
1065.783793	0.005764
1065.948535	0.006532
1066.113258	0.007601
1066.277964	0.006080
1066.442651	0.005683
1066.607319	0.003981
1066.771970	0.001305
1066.936602	-0.003291
1067.101216	-0.005972
1067.265812	-0.002531
1067.430389	-0.001878
1067.594949	-0.002037
1067.759490	0.000210
1067.924013	0.002537
1068.088518	0.003073
1068.253004	0.002783
1068.417472	0.006944
1068.581922	0.009238
1068.746354	0.008815
1068.910768	0.008318
1069.075163	0.011297
1069.239540	0.009784
1069.403899	0.010446
1069.568240	0.009052
1069.732562	0.013286
1069.896866	0.014113
1070.061152	0.015834
1070.225420	0.012374
1070.389670	0.009311
1070.553901	0.003870
1070.718114	0.000921
1070.882309	-0.005018
1071.046486	-0.002498
1071.210644	-0.005421
1071.374784	-0.008406
1071.538906	-0.012792
1071.703010	-0.008154
1071.867096	-0.003565
1072.031163	-0.001222
1072.195212	0.000357
1072.359243	0.001736
1072.523256	0.002238
1072.687250	-0.003238
1072.851226	-0.000747
1073.015184	-0.000703
1073.179124	-0.009144
1073.343045	-0.007718
1073.506949	-0.004561
1073.670834	-0.003411
1073.834701	-0.000894
1073.998549	-0.000011
1074.162380	0.005685
1074.326192	0.008149
1074.489986	0.013590
1074.653761	0.019678
1074.817519	0.020994
1074.981258	0.020028
1075.144979	0.019292
1075.308682	0.024267
1075.472367	0.024827
1075.636033	0.018352
1075.799681	0.013967
1075.963311	0.012909
1076.126923	0.007469
1076.290516	0.003039
1076.454092	0.002147
1076.617649	-0.001848
1076.781187	-0.003806
1076.944708	-0.010738
1077.108210	-0.004111
1077.271695	-0.003670
1077.435160	-0.007799
1077.598608	-0.006879
1077.762038	-0.008087
1077.925449	-0.008607
1078.088842	-0.003912
1078.252217	-0.006908
1078.415573	-0.007335
1078.578912	-0.012113
1078.742232	-0.005441
1078.905534	-0.003358
1079.068817	-0.000019
1079.232083	-0.000162
1079.395330	-0.000551
1079.558559	-0.004779
1079.721770	-0.005288
1079.884962	0.002873
1080.048136	0.007003
1080.211293	0.001390
1080.374430	-0.001595
1080.537550	0.000539
1080.700651	0.004118
1080.863735	0.002603
1081.026800	-0.001693
1081.189846	0.000256
1081.352875	-0.004488
1081.515885	-0.002115
1081.678877	-0.003014
1081.841851	-0.000870
1082.004807	-0.007817
1082.167744	-0.006472
1082.330663	-0.003498
1082.493564	0.002298
1082.656447	-0.003363
1082.819312	-0.003016
1082.982158	-0.005500
1083.144986	-0.008002
1083.307796	-0.000254
1083.470587	0.005410
1083.633361	0.005597
1083.796116	0.005622
1083.958853	0.007353
1084.121571	0.005801
1084.284272	0.008209
1084.446954	0.012764
1084.609618	0.018095
1084.772264	0.012395
1084.934892	0.012326
1085.097501	0.007909
1085.260092	0.003624
1085.422665	0.002603
1085.585220	0.010944
1085.747756	0.007499
1085.910274	0.004319
1086.072774	-0.004426
1086.235256	-0.003739
1086.397720	-0.004907
1086.560165	-0.002018
1086.722592	0.001310
1086.885001	0.002504
1087.047392	0.002933
1087.209764	0.005380
1087.372119	0.008805
1087.534455	0.012596
1087.696772	0.014051
1087.859072	0.011532
1088.021353	0.007632
1088.183616	-0.000227
1088.345861	-0.002875
1088.508088	-0.005163
1088.670296	-0.005269
1088.832486	-0.014464
1088.994658	-0.013076
1089.156812	-0.014527
1089.318948	-0.001956
1089.481065	-0.002295
1089.643164	0.003738
1089.805245	0.006337
1089.967308	0.009058
1090.129352	0.016075
1090.291378	0.014702
1090.453386	0.018891
1090.615376	0.018945
1090.777347	0.016196
1090.939301	0.020105
1091.101236	0.020015
1091.263153	0.015285
1091.425051	0.008849
1091.586932	0.000301
1091.748794	0.009254
1091.910638	0.002748
1092.072463	0.000650
1092.234271	-0.010779
1092.396060	-0.014286
1092.557831	-0.015560
1092.719584	-0.010621
1092.881319	-0.009997
1093.043035	-0.015429
1093.204733	-0.019631
1093.366413	-0.014607
1093.528075	-0.019508
1093.689718	-0.013611
1093.851343	-0.007212
1094.012950	-0.007569
1094.174539	-0.010037
1094.336110	-0.011941
1094.497662	-0.007430
1094.659196	-0.003605
1094.820712	-0.007625
1094.982210	-0.009912
1095.143689	-0.010033
1095.305151	-0.017865
1095.466594	-0.019291
1095.628018	-0.021777
1095.789425	-0.021698
1095.950813	-0.022310
1096.112183	-0.028588
1096.273535	-0.023896
1096.434869	-0.012510
1096.596184	-0.018540
1096.757482	-0.016230
1096.918761	-0.013320
1097.080021	-0.005918
1097.241264	0.003655
1097.402488	0.001280
1097.563694	0.008402
1097.724882	0.009104
1097.886052	0.000029
1098.047203	0.008132
1098.208336	0.000524
1098.369451	-0.006235
1098.530548	-0.008835
1098.691627	-0.015684
1098.852687	-0.012343
1099.013729	-0.016182
1099.174753	-0.018382
1099.335758	-0.015518
1099.496746	-0.018222
1099.657715	-0.007646
1099.818666	0.006057
1099.979599	0.002566
1100.140513	0.010922
1100.301409	0.016496
1100.462287	0.017948
1100.623147	0.012571
1100.783989	0.012141
1100.944812	0.008176
1101.105617	0.004711
1101.266404	-0.001688
1101.427173	0.009107
1101.587923	-0.000173
1101.748656	-0.004912
1101.909370	-0.006069
1102.070066	-0.003476
1102.230743	0.007039
1102.391403	0.009042
1102.552044	0.005587
1102.712667	0.003392
1102.873271	-0.005926
1103.033858	-0.000075
1103.194426	-0.002015
1103.354976	0.000891
1103.515508	0.007133
1103.676021	-0.001767
1103.836517	-0.001648
1103.996994	0.006845
1104.157453	0.004992
1104.317893	0.008925
1104.478316	0.002720
1104.638720	0.000675
1104.799106	0.003387
1104.959474	-0.002080
1105.119823	-0.001536
1105.280155	-0.008819
1105.440468	-0.012713
1105.600763	-0.012869
1105.761039	-0.017681
1105.921298	-0.017253
1106.081538	-0.012376
1106.241760	-0.026715
1106.401964	-0.019682
1106.562149	-0.014285
1106.722316	-0.001487
1106.882465	0.004859
1107.042596	0.005816
1107.202709	0.013026
1107.362803	0.014032
1107.522879	0.006049
1107.682937	0.022561
1107.842977	0.015569
1108.002999	0.004970
1108.163002	0.006658
1108.322987	0.005644
1108.482954	0.008020
1108.642902	-0.003257
1108.802833	-0.008095
1108.962745	-0.003706
1109.122639	-0.015005
1109.282515	-0.015058
1109.442372	-0.008173
1109.602211	-0.016995
1109.762032	-0.018556
1109.921835	-0.017104
1110.081620	-0.007303
1110.241386	-0.001910
1110.401134	0.000944
1110.560864	0.002510
1110.720576	-0.002121
1110.880269	-0.007217
1111.039945	-0.007261
1111.199602	-0.011630
1111.359240	-0.007178
1111.518861	-0.016597
1111.678463	-0.017561
1111.838047	-0.013316
1111.997613	-0.005141
1112.157161	0.002785
1112.316690	0.005139
1112.476202	0.002772
1112.635695	0.000498
1112.795169	-0.005372
1112.954626	-0.002770
1113.114064	0.018685
1113.273484	0.017326
1113.432886	0.021050
1113.592270	0.022020
1113.751635	0.027986
1113.910983	0.035341
1114.070312	0.036879
1114.229622	0.038172
1114.388915	0.050306
1114.548189	0.026677
1114.707445	0.026780
1114.866683	0.011696
1115.025903	0.012519
1115.185104	0.005447
1115.344287	-0.004250
1115.503452	-0.006577
1115.662599	0.002362
1115.821727	-0.015150
1115.980838	-0.013638
1116.139930	-0.010885
1116.299004	-0.015687
1116.458059	-0.024029
1116.617097	-0.011090
1116.776116	0.004685
1116.935117	0.008719
1117.094099	0.004286
1117.253064	0.006534
1117.412010	0.012834
1117.570938	0.019695
1117.729848	0.039717
1117.888740	0.040405
1118.047613	0.036907
1118.206468	0.029983
1118.365305	0.027494
1118.524124	0.020326
1118.682924	0.044507
1118.841707	0.048366
1119.000471	0.028066
1119.159216	0.023642
1119.317944	0.022965
1119.476653	0.021971
1119.635344	0.020172
1119.794017	0.028055
1119.952672	0.021101
1120.111308	0.007715
1120.269927	-0.004638
1120.428527	0.000622
1120.587108	0.000015
1120.745672	0.002101
1120.904217	-0.015580
1121.062744	-0.015272
1121.221253	-0.014945
1121.379744	-0.019270
1121.538216	-0.023139
1121.696671	-0.016218
1121.855107	-0.011931
1122.013524	-0.015278
1122.171924	-0.013028
1122.330305	0.006195
1122.488668	0.004726
1122.647013	-0.000819
1122.805340	0.017698
1122.963648	0.018797
1123.121938	0.017542
1123.280210	0.010604
1123.438464	0.015180
1123.596700	0.012327
1123.754917	0.004944
1123.913116	0.000669
1124.071297	-0.000478
1124.229459	-0.008787
1124.387604	-0.019469
1124.545730	-0.025963
1124.703838	-0.036712
1124.861928	-0.037372
1125.019999	-0.017664
1125.178052	-0.018420
1125.336088	-0.007861
1125.494104	-0.011319
1125.652103	-0.006532
1125.810083	0.005032
1125.968045	0.002566
1126.125989	0.020096
1126.283915	0.007312
1126.441823	-0.022034
1126.599712	-0.017804
1126.757583	-0.025099
1126.915436	-0.013912
1127.073270	-0.012902
1127.231087	-0.014665
1127.388885	-0.031487
1127.546665	-0.034868
1127.704426	-0.037024
1127.862170	-0.023888
1128.019895	-0.026297
1128.177602	-0.016460
1128.335291	-0.020421
1128.492961	-0.021992
1128.650614	-0.015050
1128.808248	0.011042
1128.965864	0.000652
1129.123461	0.016118
1129.281041	0.010061
1129.438602	0.006290
1129.596145	0.006650
1129.753670	-0.000028
1129.911176	-0.006320
1130.068665	-0.017888
1130.226135	-0.000686
1130.383587	0.026542
1130.541020	0.022673
1130.698436	0.030672
1130.855833	0.049344
1131.013212	0.028010
1131.170573	0.032285
1131.327915	0.042649
1131.485239	0.055226
1131.642545	0.033879
1131.799833	0.013412
1131.957103	0.033742
1132.114354	0.029261
1132.271588	0.028954
1132.428803	0.043171
1132.585999	0.051094
1132.743178	0.039190
1132.900338	0.044329
1133.057480	0.045914
1133.214604	0.058938
1133.371710	0.020810
1133.528797	0.016307
1133.685866	-0.004806
1133.842917	-0.006177
1133.999950	-0.007230
1134.156964	0.004217
1134.313960	0.007632
1134.470938	0.014345
1134.627898	0.002271
1134.784840	0.011043
1134.941763	0.019249
1135.098668	0.043592
1135.255555	0.069516
1135.412424	0.070612
1135.569274	0.062827
1135.726107	0.050731
1135.882921	0.052507
1136.039716	0.050451
1136.196494	0.061071
1136.353253	0.054371
1136.509995	0.041171
1136.666717	0.020493
1136.823422	-0.000681
1136.980109	-0.016619
1137.136777	0.001379
1137.293427	-0.012859
1137.450059	-0.009141
1137.606672	-0.010904
1137.763267	-0.000258
1137.919844	0.002623
1138.076403	-0.002063
1138.232944	0.007233
1138.389466	0.014609
1138.545971	-0.027138
1138.702457	-0.031768
1138.858924	-0.031218
1139.015374	-0.034801
1139.171805	-0.045261
1139.328218	-0.047797
1139.484613	-0.060801
1139.640990	-0.060847
1139.797348	-0.053194
1139.953688	-0.040101
1140.110010	-0.032287
1140.266314	-0.036035
1140.422600	-0.029013
1140.578867	-0.031288
1140.735116	-0.044481
1140.891347	-0.034805
1141.047559	-0.030413
1141.203754	-0.009321
1141.359930	-0.006741
1141.516088	-0.008522
1141.672228	-0.009035
1141.828349	-0.007358
1141.984452	-0.002978
1142.140537	-0.010841
1142.296604	-0.006889
1142.452653	-0.022824
1142.608683	-0.040641
1142.764695	-0.044915
1142.920689	-0.038331
1143.076665	-0.030876
1143.232622	-0.033757
1143.388562	-0.021264
1143.544483	-0.006976
1143.700385	-0.004315
1143.856270	0.006372
1144.012136	0.012778
1144.167985	0.021967
1144.323814	0.023138
1144.479626	0.018604
1144.635420	0.007456
1144.791195	-0.008199
1144.946952	-0.014084
1145.102691	-0.000575
1145.258411	-0.007856
1145.414113	-0.017530
1145.569798	-0.025140
1145.725463	-0.024934
1145.881111	-0.022540
1146.036741	-0.010739
1146.192352	-0.017022
1146.347945	-0.001882
1146.503519	-0.010712
1146.659076	0.025325
1146.814614	0.021030
1146.970134	0.028908
1147.125636	0.022953
1147.281120	0.021469
1147.436585	0.015635
1147.592032	0.025253
1147.747461	0.028863
1147.902872	0.025336
1148.058265	0.000105
1148.213639	0.022374
1148.368995	0.023230
1148.524333	0.004541
1148.679653	0.005508
1148.834954	0.020575
1148.990237	0.026058
1149.145502	0.020226
1149.300749	0.020910
1149.455977	0.026468
1149.611188	0.018104
1149.766380	0.006452
1149.921553	0.019406
1150.076709	0.010300
1150.231846	0.005885
1150.386966	-0.014136
1150.542066	-0.034936
1150.697149	-0.046727
1150.852214	-0.039903
1151.007260	-0.043281
1151.162288	-0.030544
1151.317298	-0.025832
1151.472289	-0.006406
1151.627263	-0.018953
1151.782218	0.005839
1151.937155	0.010383
1152.092073	0.003971
1152.246974	-0.004750
1152.401856	-0.005366
1152.556720	-0.001932
1152.711566	0.033837
1152.866393	0.033086
1153.021203	0.035137
1153.175994	0.035334
1153.330767	0.061055
1153.485521	0.084903
1153.640258	0.116180
1153.794976	0.105938
1153.949676	0.101104
1154.104358	0.056323
1154.259021	0.050787
1154.413667	0.096188
1154.568294	0.097817
1154.722903	0.088686
1154.877493	0.089343
1155.032066	0.072197
1155.186620	0.088876
1155.341156	0.067285
1155.495674	0.088185
1155.650173	0.038089
1155.804654	-0.023970
1155.959118	-0.017636
1156.113562	-0.020328
1156.267989	-0.014430
1156.422397	-0.033363
1156.576788	-0.046622
1156.731160	-0.047765
1156.885513	-0.069178
1157.039849	-0.042430
1157.194166	-0.005862
1157.348465	-0.031205
1157.502746	-0.029988
1157.657009	-0.047128
1157.811253	-0.058526
1157.965479	-0.052310
1158.119687	-0.037059
1158.273877	-0.049628
1158.428048	-0.035943
1158.582201	-0.060231
1158.736337	-0.066995
1158.890453	-0.080060
1159.044552	-0.077662
1159.198632	-0.079718
1159.352694	-0.057371
1159.506738	-0.053883
1159.660764	-0.020730
1159.814771	-0.013163
1159.968761	0.001338
1160.122732	0.032284
1160.276685	0.050705
1160.430619	0.066924
1160.584535	0.077090
1160.738434	0.046608
1160.892313	0.070389
1161.046175	0.075940
1161.200019	0.062649
1161.353844	0.047932
1161.507651	0.033712
1161.661440	0.039515
1161.815210	0.031124
1161.968962	0.026772
1162.122697	0.023090
1162.276412	0.019407
1162.430110	-0.009549
1162.583789	-0.014807
1162.737451	-0.013531
1162.891094	-0.004270
1163.044718	-0.023266
1163.198325	-0.028237
1163.351913	-0.040548
1163.505483	-0.038537
1163.659035	-0.043821
1163.812569	-0.038573
1163.966084	-0.042710
1164.119581	-0.050288
1164.273060	-0.071225
1164.426521	-0.074341
1164.579964	-0.073831
1164.733388	-0.066773
1164.886794	-0.066419
1165.040182	-0.064576
1165.193551	-0.057970
1165.346903	-0.047440
1165.500236	-0.035778
1165.653551	-0.005117
1165.806848	-0.011867
1165.960126	-0.019283
1166.113386	-0.008404
1166.266628	-0.010620
1166.419852	-0.022889
1166.573058	-0.005466
1166.726245	-0.010774
1166.879414	0.007431
1167.032565	-0.020072
1167.185698	0.018953
1167.338812	0.013214
1167.491909	0.028965
1167.644987	0.039368
1167.798046	0.034327
1167.951088	0.018749
1168.104111	0.019483
1168.257117	0.014135
1168.410103	0.042749
1168.563072	0.008712
1168.716023	0.055080
1168.868955	0.024514
1169.021869	0.010270
1169.174765	0.006391
1169.327642	0.004956
1169.480501	-0.019348
1169.633343	-0.034171
1169.786165	-0.055594
1169.938970	-0.077145
1170.091757	-0.103811
1170.244525	-0.077732
1170.397275	-0.066253
1170.550007	-0.050504
1170.702720	-0.053404
1170.855415	-0.001244
1171.008092	0.049464
1171.160751	0.107714
1171.313392	0.214400
1171.466014	0.250679
1171.618619	0.881912
1171.771205	0.881912
1171.923772	0.881912
