sample name	sample
index	315
start time	 02-25-2021  03:03:25 PM
880	-0.010096
Peak Time (s)	92.536
Peak Height 	-0.0101
calc peak height	90,93
Baseline Time (s)	10.036
Baseline Value 	-0.00417
subtract baseline	10,4
Abs	-0.005002
Peak Time (s)	90.038
Peak Height 	-0.005002
calc peak height	90,93
Baseline Time (s)	11.036
Baseline Value 	0.002317
subtract baseline	10,3
PK_550	-0.002684
Peak Time (s)	91.535
Peak Height 	-0.002684
calc peak height	90,93
Baseline Time (s)	10.036
Baseline Value 	7.4148E-4
subtract baseline	10,2
PK_880	-0.007722
Peak Time (s)	91.535
Peak Height 	-0.007722
calc peak height	90,93
Baseline Time (s)	11.036
Baseline Value 	0.002311
subtract baseline	10,1


Time (s)	A880-A510	A880-A775	A880-A975	A880	I510	I775	I975	I880	
0.035500	-0.000921	0.000116	-0.001037	0.002236	6847.861693	45051.967048	4006.826806	23864.997216
0.535500	-0.001960	-0.000526	-0.002548	0.004461	6818.921533	44775.442807	3997.773706	23758.233638
1.035500	-0.005326	-0.002184	-0.006975	0.005797	6777.621008	44488.483587	3983.957504	23694.386547
1.536500	-0.002163	-0.000525	0.000519	0.000963	6848.134576	45113.172504	4013.735690	23926.306680
2.036500	-0.001982	-0.000846	-0.000959	0.000684	6852.234539	45109.130624	4010.802068	23939.764692
2.536000	-0.001316	-0.000607	-0.002313	0.000976	6855.566694	45103.971004	4006.786836	23925.662232
3.037000	-0.002309	-0.001017	-0.007997	0.002896	6829.679729	44878.797102	3988.441708	23833.244617
3.537000	-0.001623	-0.000347	-0.001337	0.000627	6855.935479	45163.071776	4010.016260	23942.513399
4.037500	0.001147	0.000105	0.001479	0.001316	6874.542604	45139.983970	4015.221601	23909.259173
4.537500	-0.000441	-0.000224	-0.000129	0.000882	6864.209616	45150.191514	4012.345661	23930.198512
5.035000	-0.001567	-0.000420	-0.003558	0.000190	6860.345826	45198.369912	4005.671418	23963.640197
5.535500	-0.000247	-0.000355	-0.000825	0.000254	6871.568956	45198.452200	4012.180685	23960.537263
6.035500	-0.001450	-0.000345	0.000770	0.000332	6860.117460	45191.852153	4015.898755	23956.765602
6.536000	-0.001302	-0.000818	-0.001913	-0.000360	6867.627051	45213.205224	4011.022955	23990.239595
7.036500	-0.000064	-0.000192	-0.000718	-0.000196	6877.241392	45258.080064	4013.544859	23982.298580
7.537000	-0.000776	-0.000282	-0.001226	-0.000460	6873.228833	45275.041245	4012.948384	23995.087268
8.037000	-0.001259	-0.000469	-0.002441	-0.000472	6869.009252	45257.950882	4010.004537	23995.625354
8.537500	-0.001795	-0.000111	-0.001674	0.000041	6859.631083	45242.881505	4010.625575	23970.815240
9.037500	-0.002001	0.000352	0.000295	0.000090	6857.361259	45283.179078	4015.325124	23968.454662
9.535000	0.000752	0.000143	0.001439	0.000171	6881.266106	45254.898034	4017.936057	23964.523726
10.035500	-0.001111	0.000000	-0.001414	0.000000	6866.111348	45257.658680	4011.360758	23972.811481
10.538500	0.000695	0.000032	0.006480	-0.000077	6882.985026	45268.290373	4031.025803	23976.550652
11.035500	0.000000	-0.000375	0.000000	-0.000059	6876.587125	45226.929169	4014.968317	23975.673775
11.538500	0.000501	-0.000093	-0.001001	-0.000201	6882.354030	45268.153372	4012.862797	23982.547888
12.036500	0.000780	0.000160	0.005874	0.000049	6882.612091	45268.391942	4029.202486	23970.422658
12.539500	0.001586	0.000448	0.001852	0.000593	6884.966255	45243.572440	4017.915538	23944.145576
13.037000	-0.001033	0.000012	0.000680	-0.000043	6867.193195	45263.010251	4016.596671	23974.888519
13.540500	0.001750	0.000312	0.001194	0.000472	6887.523884	45242.021599	4016.595397	23949.983111
14.035000	-0.001713	-0.000152	-0.001902	0.002266	6840.551219	45023.162446	4004.650503	23863.549916
14.535000	0.000669	0.000436	-0.002384	0.002561	6859.140556	45051.534476	4002.766560	23849.367322
15.038000	0.001580	0.000021	-0.001818	0.000114	6889.220422	45248.630033	4010.095374	23967.309461
15.535500	-0.000715	-0.000756	-0.000178	-0.000010	6869.740695	45185.120141	4014.409937	23973.275353
16.036000	-0.000576	-0.000521	-0.002505	-0.000557	6875.886118	45261.114565	4010.055472	23999.736921
16.536000	-0.000959	0.000409	-0.000355	0.000444	6863.504508	45254.287227	4012.866928	23951.372747
17.036500	0.000603	0.000075	-0.001148	-0.000049	6881.902289	45269.784744	4012.130781	23975.188724
17.536500	-0.001917	-0.000668	-0.004295	0.000834	6851.474588	45111.866129	4002.319157	23932.525309
18.037000	-0.002376	-0.000213	0.001294	0.001114	6844.901534	45128.773752	4015.265839	23919.031652
18.537500	-0.000700	-0.000511	-0.000657	0.001186	6859.192237	45092.971139	4010.312577	23915.547922
19.035000	-0.000564	0.000197	-0.002006	0.001475	6857.821449	45133.599421	4006.321393	23901.622098
19.537500	-0.002491	-0.001046	-0.000182	0.000952	6845.316071	45063.785931	4012.045436	23926.811673
20.035500	-0.001623	-0.000189	0.000482	0.001389	6849.150760	45104.460467	4012.601200	23905.767537
20.535500	-0.000074	0.000206	0.005212	0.001837	6858.960808	45099.257414	4023.131551	23884.164411
21.036000	-0.003126	-0.000333	0.003183	0.001129	6838.104216	45115.719556	4019.873054	23918.316633
21.537500	-0.001971	0.000130	-0.001252	0.001618	6844.015690	45113.206269	4007.807509	23894.735710
22.037000	-0.001023	-0.000509	-0.002479	0.001134	6856.772804	45098.149087	4005.999599	23918.053310
22.537000	-0.001490	-0.000597	-0.000455	0.001192	6852.091156	45084.054699	4010.792445	23915.268476
23.034500	-0.001999	0.000112	-0.000335	0.001480	6844.996201	45124.802202	4010.380503	23901.369117
23.535000	-0.002543	0.000187	0.000738	0.001605	6839.057898	45119.970508	4012.700368	23895.365777
24.035000	-0.000499	-0.000299	0.000824	0.001284	6860.106343	45103.977944	4013.696546	23910.817867
24.535500	-0.000086	-0.000698	0.001014	0.001344	6863.257763	45059.493377	4014.013985	23907.927055
25.036000	-0.002100	-0.000160	-0.001620	0.001142	6847.101149	45131.194606	4008.070329	23917.652121
25.537500	-0.002585	-0.000332	-0.004298	0.001195	6842.316879	45109.436741	4001.436418	23915.111783
26.036000	-0.002245	0.000462	0.003090	0.001679	6841.041697	45139.504871	4018.290161	23891.802815
26.536500	-0.000701	-0.000580	-0.004089	0.000920	6861.555098	45112.077855	4002.609691	23928.394518
27.037000	0.001430	0.000672	0.001608	-0.001113	6898.913668	45431.544390	4021.516728	24026.676652
27.539000	-0.000012	-0.000362	-0.001203	-0.001252	6887.191562	45344.349324	4014.943821	24033.456433
28.035000	-0.000494	0.000865	0.004770	0.000862	6863.922405	45257.923398	4024.449678	23931.185248
28.535000	-0.002466	0.000528	0.001313	0.000027	6853.777120	45306.369663	4017.980158	23971.500748
29.035000	-0.000844	-0.000068	0.002824	0.001728	6853.069591	45083.355304	4017.515542	23889.435951
29.535500	-0.000162	0.000215	0.004854	0.000357	6871.405068	45243.835235	4025.908597	23955.560995
30.036000	0.000312	0.000621	0.002507	0.000150	6877.511854	45303.466120	4020.618960	23965.562291
30.536000	-0.003290	0.000072	0.000751	0.002319	6826.106510	45039.732273	4010.986221	23861.004163
31.036500	-0.001958	-0.000090	-0.001159	0.001663	6843.727293	45087.507452	4007.923357	23892.543069
31.536000	-0.000748	0.000451	-0.000317	0.000479	6865.067742	45254.890929	4012.873109	23949.648437
32.037000	-0.001397	-0.000622	0.002864	-0.000527	6868.265655	45248.431765	4023.171745	23998.317025
32.537000	-0.002147	-0.000404	0.003531	0.000116	6855.826287	45207.137303	4023.230427	23967.210920
33.034500	-0.001730	-0.000636	-0.004616	0.000452	6856.542808	45151.984752	4002.467161	23950.962629
33.535000	0.001199	-0.000070	-0.000379	-0.001923	6904.143602	45438.300536	4018.616534	24066.001085
34.035500	-0.000631	-0.000159	-0.000432	0.001689	6855.313526	45078.351508	4009.635628	23891.311570
34.535500	-0.001767	-0.000422	0.001852	0.001639	6845.642167	45057.648101	4015.345109	23893.709328
35.035500	-0.001548	0.000340	-0.001376	0.001981	6844.546337	45098.292808	4006.622668	23877.234918
35.536500	0.000082	-0.000356	-0.002437	0.001548	6862.940017	45072.869035	4005.095669	23898.105098
36.037000	-0.000133	-0.000510	0.000379	0.001478	6861.634003	45064.713276	4012.130334	23901.448082
36.537000	-0.002889	0.000295	-0.002115	0.002044	6832.091899	45087.917245	4004.673054	23874.210248
37.037500	-0.001055	-0.000624	-0.002802	0.001539	6852.867906	45047.748359	4004.229696	23898.517805
37.534500	0.000233	0.000561	-0.000380	0.001842	6861.663204	45133.278582	4009.387699	23883.950931
38.035000	-0.001160	-0.000113	-0.000284	0.001729	6850.245948	45078.912309	4009.898001	23889.391072
38.535000	-0.000763	-0.001338	-0.006079	0.000992	6860.363613	45031.730068	3997.623963	23924.916142
39.035500	-0.001541	0.000020	-0.000584	0.001974	6844.676281	45068.011835	4008.567772	23877.585416
39.536000	-0.001366	-0.000595	0.001682	0.001288	6852.345708	45074.926405	4015.791996	23910.650856
40.036000	0.000044	-0.000270	0.000514	0.002092	6857.746497	45028.549374	4010.961881	23871.916696
40.536500	-0.002306	-0.000146	0.000671	0.002053	6837.183835	45044.398768	4011.441370	23873.800465
41.037000	-0.001391	-0.001057	-0.006138	0.000974	6854.909809	45060.545820	3997.524193	23925.762881
41.537000	0.000415	0.000060	0.001392	0.002029	6861.615574	45066.527846	4013.261761	23874.926772
42.037500	-0.001843	-0.000302	0.002118	0.002211	6839.893098	45014.029830	4014.595363	23866.194033
42.535000	-0.002181	-0.000639	-0.000694	0.001253	6845.389393	45073.977875	4010.057659	23912.294405
43.035500	-0.001397	-0.001307	0.001313	0.000990	6854.718796	45034.876355	4015.616192	23924.991678
43.535000	-0.000101	-0.000133	-0.000585	0.001046	6865.792367	45143.158877	4010.832571	23922.309266
44.036000	0.000138	0.000017	-0.002533	0.000064	6876.723542	45253.144695	4008.475059	23969.727916
44.536000	0.000020	-0.000333	0.001560	0.000203	6874.413647	45205.497564	4018.154241	23962.978877
45.035500	-0.000577	-0.000483	0.000734	-0.000134	6872.085719	45223.722493	4016.952496	23979.286276
45.536500	-0.000945	-0.000270	-0.000753	0.000780	6860.625923	45155.711323	4011.071051	23935.145994
46.037000	-0.001511	0.000008	0.002177	0.000681	6856.456788	45192.302486	4018.497742	23939.926617
46.537000	-0.001914	-0.000525	0.000929	0.000532	6854.185234	45154.975289	4015.797332	23947.086256
47.037500	0.000012	0.000196	-0.002250	0.002951	6849.800531	44990.534117	4002.144093	23830.600079
47.535000	-0.000569	0.000199	0.000025	0.003045	6843.800813	44981.779269	4007.442818	23826.105699
48.035000	-0.000932	-0.000201	0.001928	0.000801	6860.546128	45160.306992	4017.589922	23934.103549
48.535500	-0.000666	-0.000385	0.001450	0.000450	6866.065595	45176.608403	4017.279317	23951.087794
49.036000	-0.002640	-0.000649	0.004758	0.000601	6847.107671	45136.178389	4025.065156	23943.749236
49.536000	0.002239	-0.000994	-0.002373	-0.002656	6920.182821	45419.567613	4015.516937	24101.625032
50.036500	0.000690	0.000067	0.005293	0.000553	6877.278053	45210.338376	4026.510407	23946.067365
50.536500	0.000624	0.000090	0.001155	0.003190	6853.123101	44957.247281	4009.846153	23819.154400
51.037000	-0.021329	-0.021949	0.003628	0.033671	6412.997008	40180.334864	3943.639550	22406.353884
51.537000	-0.033270	-0.036819	0.010503	-0.097766	7499.320385	51621.351180	4316.362953	29274.137402
52.034500	-0.016714	-0.024405	0.008721	-0.099117	7689.424641	53186.443290	4315.007937	29356.062111
52.535000	-0.024135	-0.023050	-0.002311	-0.104040	7662.428357	53916.907650	4295.938540	29656.822099
53.035000	-0.027962	-0.022724	-0.010511	-0.123355	7832.312600	56271.548558	4330.833106	30870.252634
53.535500	-0.024351	-0.015495	-0.009960	-0.102528	7643.842824	54630.106871	4267.838129	29564.083825
54.036000	-0.011403	-0.013623	-0.004718	-0.117509	7953.414890	56672.142220	4330.663017	30497.251468
54.536000	-0.003897	-0.012215	-0.002244	-0.129368	8180.047358	58336.339905	4376.997872	31259.132436
55.036500	-0.004233	-0.008061	-0.004456	-0.102096	7859.974070	55468.950086	4283.321294	29537.644878
55.537000	-0.007496	-0.008331	-0.005899	-0.092696	7719.819140	54313.911997	4250.438622	28968.855010
56.037000	-0.008664	-0.005638	-0.008090	-0.042907	7195.422090	49042.357549	4103.721532	26153.281953
56.534500	-0.008052	-0.005365	-0.008075	-0.020687	6990.978315	46774.499240	4046.205818	24997.245344
57.035000	-0.007825	-0.006715	-0.008255	-0.060579	7378.846768	50835.045275	4151.188192	27115.894622
57.534500	-0.006351	-0.005199	-0.005669	-0.048551	7273.314811	49691.626465	4125.351374	26456.505842
58.035000	-0.009399	-0.006370	-0.004745	-0.025381	7021.983057	47147.638420	4066.651266	25236.542574
58.536000	-0.012517	-0.007161	-0.006047	-0.006487	6822.383731	45192.229060	4015.903110	24288.833353
59.036000	-0.011013	-0.006065	-0.009808	-0.000350	6781.640188	44705.469191	3991.880228	23989.738031
59.535500	-0.013159	-0.006580	-0.011544	-0.004439	6798.679137	45050.003209	3997.540718	24188.552810
60.036500	-0.012222	-0.007118	-0.005780	-0.006942	6829.009405	45240.476251	4017.674889	24311.132993
60.537000	-0.013735	-0.006975	-0.004865	-0.014474	6882.679583	45993.239081	4038.650177	24684.394242
61.037000	-0.012770	-0.007252	-0.007320	-0.022546	6964.674144	46771.560413	4052.822670	25091.679836
61.535000	-0.011516	-0.005830	-0.014334	-0.026091	7008.921093	47274.879251	4044.048158	25272.956137
62.035000	-0.009156	-0.002629	-0.016908	-0.032244	7088.605512	48238.415146	4053.102979	25591.127178
62.535500	-0.009860	-0.002428	-0.013757	-0.029718	7058.190954	47996.984658	4054.694220	25459.998896
63.038000	-0.010075	-0.002058	-0.011126	-0.029544	7054.537248	48017.271334	4060.961702	25450.940955
63.536000	-0.009061	-0.001504	-0.005848	-0.026402	7034.643380	47749.953831	4066.442549	25288.965950
64.036000	-0.009041	-0.001091	-0.009677	-0.023236	7005.401926	47467.307984	4048.599840	25126.864513
64.536500	-0.009767	-0.002470	-0.009916	-0.023189	6998.247928	47321.534017	4047.874658	25124.467060
65.036500	-0.010709	-0.002730	-0.013747	-0.024632	7002.880761	47442.402623	4041.853987	25198.172776
65.537000	-0.011006	-0.002224	-0.012852	-0.025354	7006.816441	47568.176402	4045.929622	25235.174025
66.034500	-0.012080	-0.001987	-0.009632	-0.025779	7000.809262	47636.156755	4055.166204	25256.941932
66.535000	-0.012711	-0.002519	-0.008659	-0.026656	7003.082891	47671.631699	4059.886254	25302.004275
67.035000	-0.011566	-0.002399	-0.015000	-0.029278	7038.099254	47954.438186	4050.419404	25437.183610
67.535500	-0.011656	-0.003199	-0.009903	-0.031086	7054.174195	48058.805775	4068.058801	25530.907596
68.035500	-0.008971	-0.003493	-0.013127	-0.032826	7095.872952	48209.019312	4064.245074	25621.470711
68.536000	-0.010306	-0.002498	-0.011613	-0.031049	7066.500270	48127.799624	4063.568056	25528.984601
69.036000	-0.010798	-0.002715	-0.009975	-0.033474	7084.716425	48357.763837	4074.038004	25655.298363
69.536000	-0.009702	-0.002184	-0.004951	-0.033432	7094.689175	48408.790223	4087.009871	25653.112733
70.037000	-0.009447	-0.002419	-0.010534	-0.032974	7092.767532	48336.467237	4071.300550	25629.202759
70.537000	-0.009864	-0.002485	-0.018676	-0.031143	7071.547393	48138.900619	4045.839095	25533.862901
71.037500	-0.007378	-0.003323	-0.009938	-0.033687	7119.176152	48316.442422	4074.686464	25666.419504
71.535000	-0.010062	-0.003422	-0.011832	-0.033614	7093.001975	48298.522860	4069.601947	25662.604767
72.035000	-0.007444	-0.002656	-0.006853	-0.032092	7103.375922	48219.729282	4078.549182	25583.200904
72.535000	-0.008178	-0.002563	-0.009495	-0.028622	7063.691597	47869.650461	4062.777582	25403.300248
73.036000	-0.007669	-0.004267	-0.006843	-0.031912	7099.541530	48033.819225	4078.110042	25573.861982
73.539000	-0.008576	-0.003481	-0.007249	-0.030464	7077.280799	47965.153283	4073.301926	25498.625640
74.036000	-0.009407	-0.003365	-0.009001	-0.030030	7065.372967	47932.363198	4067.662403	25476.142207
74.537000	-0.011424	-0.003709	-0.013304	-0.026636	7014.829553	47547.392793	4048.023574	25300.969024
75.037000	-0.008248	-0.004121	-0.011491	-0.028533	7062.194027	47699.889726	4057.445720	25398.685583
75.537000	-0.011234	-0.004136	-0.006296	-0.027915	7028.482739	47634.755091	4069.181655	25366.804236
76.035000	-0.011834	-0.004582	-0.008651	-0.027150	7015.795982	47510.671039	4061.169592	25327.425957
76.538000	-0.010359	-0.002833	-0.009788	-0.021699	6979.049731	47132.998758	4044.439151	25048.628681
77.035500	-0.011662	-0.003881	-0.010138	-0.025400	7001.168758	47403.163242	4052.914557	25237.497934
77.535500	-0.008550	-0.004695	-0.006747	-0.025487	7030.865461	47328.949110	4061.783505	25241.956998
78.036000	-0.009205	-0.003443	-0.002799	-0.024556	7016.121732	47361.734050	4069.536810	25194.292286
78.536000	-0.008680	-0.003498	-0.008900	-0.023721	7013.234154	47270.991235	4051.794853	25151.596204
79.036500	-0.008541	-0.004291	-0.005841	-0.023804	7015.305752	47198.733361	4059.797070	25155.852916
79.536500	-0.012603	-0.004382	-0.007914	-0.023206	6972.268174	47128.695510	4052.992019	25125.322429
80.037000	-0.011420	-0.003963	-0.010332	-0.021735	6969.620968	47021.911442	4043.155211	25050.411168
80.540000	-0.008497	-0.004718	-0.009933	-0.022922	7007.525452	47065.742611	4047.157068	25110.832803
81.037500	-0.009014	-0.003887	-0.005503	-0.021943	6993.689801	47050.732908	4055.910166	25060.985744
81.535000	-0.008149	-0.004109	-0.010190	-0.021995	7002.168934	47033.437337	4044.170169	25063.638072
82.035500	-0.008489	-0.003620	-0.004798	-0.020792	6987.919684	46961.286892	4054.778447	25002.577526
82.536000	-0.010487	-0.003454	-0.011025	-0.020882	6970.365257	46987.174126	4039.273557	25007.134893
83.035500	-0.008448	-0.003876	-0.015171	-0.020673	6987.194319	46923.345171	4028.402253	24996.526871
83.536500	-0.009988	-0.004265	-0.012426	-0.020868	6974.812264	46903.686021	4035.728054	25006.398549
84.036500	-0.010309	-0.004440	-0.007811	-0.020823	6971.452193	46881.439462	4047.217178	25004.140819
84.539500	-0.008686	-0.003716	-0.006402	-0.019969	6978.515428	46868.290216	4048.618775	24960.839242
85.037000	-0.011063	-0.003986	-0.008520	-0.020110	6958.005782	46855.393749	4043.630121	24968.013140
85.540500	-0.010282	-0.003690	-0.008065	-0.020031	6964.433426	46877.181753	4044.574985	24963.979660
86.035500	-0.012449	-0.003875	-0.011390	-0.018740	6932.857967	46728.340529	4032.999689	24898.705509
86.538000	-0.012129	-0.003959	-0.010865	-0.013925	6892.183496	46238.093281	4022.353092	24656.971660
87.035500	-0.009544	-0.003533	-0.010302	-0.018961	6961.395004	46785.145362	4036.271114	24909.904438
87.536000	-0.010175	-0.003274	-0.010528	-0.018793	6954.081812	46794.245897	4035.285815	24901.396461
88.036000	-0.010833	-0.003564	-0.005571	-0.018935	6949.360340	46779.375246	4048.106218	24908.566211
88.536000	-0.013937	-0.003535	-0.008821	-0.013126	6868.800501	46200.850661	4025.434357	24617.162444
89.036500	-0.010788	-0.003063	-0.006213	-0.017317	6935.016078	46666.956067	4042.404552	24826.984448
89.540000	-0.010376	-0.003616	-0.015392	-0.017760	6942.812139	46655.885632	4020.647294	24849.315463
90.037500	-0.009409	-0.002833	-0.005002	-0.017084	6945.464928	46666.614829	4044.868979	24815.273430
90.535000	-0.012778	-0.003300	-0.012323	-0.011670	6866.133532	46079.586399	4013.222685	24544.688830
91.035000	-0.010012	-0.003573	-0.007977	-0.017389	6942.747612	46622.971089	4038.155437	24830.617287
91.535500	-0.007722	-0.002684	-0.009185	-0.016339	6954.068817	46606.852729	4032.511627	24777.853188
92.036000	-0.012137	-0.003560	-0.011093	-0.015562	6906.881275	46441.292538	4025.840000	24738.891496
92.536000	-0.012290	-0.003067	-0.013409	-0.010096	6856.442953	45946.826858	4006.729359	24466.666655
93.036500	-0.009640	-0.002420	-0.008303	-0.015406	6928.085308	46539.697767	4032.383901	24731.041263
93.536000	-0.010168	-0.002462	-0.007733	-0.015522	6924.348003	46547.139923	4034.096619	24736.863880
94.135500	-0.015384	-0.003385	-0.008046	-0.009838	6826.659193	45889.929775	4019.226384	24453.912802
94.537000	-0.012407	-0.003338	-0.011155	-0.009386	6849.074473	45850.063455	4010.495146	24431.580763
95.034500	-0.010600	-0.002709	-0.004843	-0.014427	6910.515316	46412.800646	4038.586848	24682.072135
95.537500	-0.010222	-0.003353	-0.008340	-0.014930	6918.483516	46398.781899	4031.106346	24707.228325
96.035500	-0.012303	-0.003558	-0.010861	-0.013752	6889.062315	46260.813464	4021.936261	24648.344535
96.535500	-0.013051	-0.003189	-0.008747	-0.008973	6839.670958	45823.955321	4015.378848	24411.170002
