sample name	sample
index	1364
start time	 05-03-2021  02:05:32 PM
880	-0.012914
Peak Time (s)	91.537
Peak Height 	-0.01291
calc peak height	90,93
Baseline Time (s)	10.537
Baseline Value 	-0.003431
subtract baseline	10,4
Abs	-0.009709
Peak Time (s)	92.54
Peak Height 	-0.009709
calc peak height	90,93
Baseline Time (s)	10.037
Baseline Value 	0.001603
subtract baseline	10,3
PK_550	0.005221
Peak Time (s)	90.035
Peak Height 	0.005221
calc peak height	90,93
Baseline Time (s)	10.037
Baseline Value 	-8.9422E-5
subtract baseline	10,2
PK_880	-0.008388
Peak Time (s)	90.537
Peak Height 	-0.008388
calc peak height	90,93
Baseline Time (s)	10.037
Baseline Value 	0.002247
subtract baseline	10,1


Time (s)	A880-A510	A880-A775	A880-A975	A880	I510	I775	I975	I880	
0.036000	-0.004710	-0.000205	-0.006288	0.005404	6094.857022	42215.579038	3903.914336	21982.343159
0.536500	-0.002467	-0.000382	-0.009198	0.003863	6122.068184	42338.823509	3900.960797	22049.839907
1.037000	-0.004119	0.000805	-0.007905	0.004796	6103.456811	42361.882402	3901.736691	22008.951699
1.538000	0.000167	0.001163	-0.002814	0.002562	6150.621180	42597.389679	3917.661872	22107.054493
2.037500	-0.000961	0.000196	-0.001644	0.002401	6143.573312	42523.923282	3920.583995	22114.122419
2.535000	-0.000500	0.000105	-0.006885	0.001496	6153.532079	42598.172113	3911.096179	22154.058993
3.035500	0.001151	0.001551	0.000861	-0.000028	6176.779546	42869.730771	3931.496407	22221.433676
3.535500	-0.001463	0.000522	-0.001179	0.003756	6130.099429	42430.509561	3918.628150	22054.538051
4.038500	-0.000816	0.000790	0.002167	0.001134	6153.867167	42693.645217	3931.817065	22170.044862
4.536000	-0.002638	0.000590	-0.000173	0.000767	6143.265052	42708.887263	3927.434887	22186.225957
5.036000	-0.002169	0.000474	-0.003620	0.001222	6143.371182	42656.742516	3918.832959	22166.144400
5.537000	-0.003978	-0.001208	-0.004130	0.003082	6116.799415	42334.796221	3913.644454	22084.152007
6.037000	-0.003395	0.001055	0.000718	0.001396	6133.201786	42693.962376	3928.017917	22158.461897
6.537500	-0.002923	0.000009	0.000066	-0.000101	6147.510721	42735.213752	3929.893219	22224.672398
7.037500	0.000094	0.000520	0.002086	0.001021	6161.339257	42679.290029	3931.888898	22175.016410
7.535000	-0.000722	0.000403	0.002986	0.003645	6136.274547	42429.796928	3928.059161	22059.417459
8.035500	-0.000789	0.000295	-0.001419	0.000609	6157.894845	42696.333206	3925.029899	22193.228756
8.538500	0.000982	0.000693	0.000057	0.000444	6172.063559	42747.787036	3928.662021	22200.511216
9.039000	-0.000051	0.000972	-0.001585	0.000367	6165.063271	42780.467587	3925.198559	22203.934029
9.536000	0.000222	0.001704	0.001019	0.001315	6160.121388	42760.595301	3928.862631	22162.010990
10.036500	0.000000	0.000000	0.000000	-0.000004	6168.153670	42725.468169	3929.530405	22220.372251
10.536500	-0.002603	-0.000064	0.000305	0.000000	6149.101179	42719.259823	3930.197283	22220.182021
11.037000	0.001772	-0.000452	-0.002767	-0.000195	6182.572342	42701.545762	3923.828068	22228.812362
11.534500	-0.002217	-0.000049	-0.000908	-0.000184	6153.250896	42737.419475	3927.915065	22228.315312
12.037500	0.000473	0.000095	0.002561	-0.000080	6172.181843	42741.156080	3935.402469	22223.744709
12.535000	-0.000656	0.001499	-0.001931	0.001102	6155.265871	42761.354773	3922.811526	22171.429595
13.038500	0.000819	0.000204	0.001718	-0.001826	6187.569117	42911.144692	3937.419407	22301.225370
13.535500	-0.001689	0.000189	-0.002667	0.000245	6153.982487	42719.935909	3923.078254	22209.340029
14.036500	0.001310	0.000979	-0.001297	0.000866	6171.381426	42735.455765	3924.732961	22181.877319
14.536500	-0.002126	0.000258	0.001088	0.002530	6134.183828	42517.888412	3926.325700	22108.458029
15.036500	-0.000684	0.000943	-0.001165	0.001478	6152.313963	42676.163994	3923.671268	22154.815012
15.595500	-0.002865	0.000691	0.001543	0.004503	6114.583693	42378.077703	3922.973439	22021.788068
16.037000	-0.000525	0.000891	-0.003901	0.001560	6152.879492	42663.941396	3917.473433	22151.201365
16.535000	-0.000597	0.000843	-0.004810	0.000849	6157.543206	42724.472782	3917.040455	22182.604910
17.037000	-0.002123	0.000355	0.001408	0.000466	6149.206320	42714.948757	3931.615336	22199.558955
17.538500	-0.001854	0.000453	-0.002319	0.003749	6127.328208	42424.913928	3916.145391	22054.876788
18.035500	0.002222	0.000593	0.002058	-0.002323	6201.607837	42992.572077	3939.294417	22323.341126
18.536000	-0.001665	0.000773	-0.003517	0.001739	6143.269795	42636.852688	3917.924227	22143.323400
19.036000	-0.000626	0.000831	0.001595	0.001685	6151.226088	42647.052963	3929.320035	22145.693181
19.536500	-0.003483	-0.000378	-0.000762	0.002400	6125.296186	42471.936794	3922.528429	22114.177585
20.037000	-0.001338	0.000603	-0.003495	0.001453	6147.732861	42647.432012	3918.598921	22155.937980
20.537000	-0.003078	0.000041	-0.001066	0.001169	6137.152041	42622.097193	3924.573459	22168.480492
21.034500	-0.002673	0.000921	-0.002297	0.001980	6134.198947	42628.389328	3920.074072	22132.679130
21.538000	-0.004407	0.000046	0.000791	0.002414	6118.515963	42509.105402	3925.924567	22113.544028
22.039500	-0.000288	0.000144	-0.004212	0.001322	6156.342333	42617.467924	3917.314154	22161.701070
22.537500	-0.001353	0.000366	-0.002774	0.001821	6144.943112	42592.291766	3919.373988	22139.691791
23.036000	0.000849	0.000955	-0.001376	0.001843	6160.844629	42644.036260	3922.402510	22138.740286
23.538500	-0.003918	0.000406	-0.005240	0.002353	6122.494431	42547.475099	3912.812805	22116.261215
24.036500	-0.002654	0.000367	-0.006351	0.001291	6139.340983	42640.728345	3912.705976	22163.110916
24.536000	-0.002348	0.000059	-0.003679	0.000935	6144.152379	42645.130671	3919.333863	22178.831324
25.036500	-0.001395	0.000699	-0.005985	0.001619	6146.112165	42641.105471	3912.788998	22148.631035
25.537000	-0.001209	0.001275	0.002796	0.003962	6130.448401	42480.107458	3926.935928	22045.490849
26.037500	-0.002511	0.000800	-0.002384	0.001901	6135.956900	42624.584662	3920.057168	22136.191463
26.537500	-0.003134	0.000581	0.000711	0.001231	6136.293915	42665.756076	3928.367735	22165.754522
27.035500	-0.002339	0.000636	-0.000309	0.001599	6139.392961	42637.207604	3925.295559	22149.512761
27.535500	-0.000776	0.000266	0.001197	0.001520	6151.336466	42610.560678	3928.803347	22152.958586
28.036000	-0.001304	0.000380	-0.001497	0.000173	6157.314988	42744.013169	3925.821336	22212.528938
28.536000	-0.001292	0.000623	-0.000187	0.000268	6156.707857	42757.524399	3928.512589	22208.324719
29.036500	-0.000683	0.001165	-0.003256	0.000621	6158.580882	42774.780107	3920.951923	22192.684896
29.545000	-0.004061	-0.000444	-0.004360	0.004948	6102.774529	42235.192540	3909.080446	22002.289354
30.037000	-0.000797	0.000930	-0.000039	0.000664	6157.433469	42749.395318	3927.961938	22190.800738
30.537500	-0.002126	0.000777	-0.007508	0.000144	6151.526738	42782.963626	3912.683960	22213.798129
31.038000	0.000356	0.000131	-0.000947	-0.000293	6172.880972	42763.864855	3928.069386	22233.145870
31.544500	-0.003438	0.000086	-0.004085	0.004738	6108.756460	42301.964296	3910.133809	22011.465992
32.035000	-0.003041	0.000261	-0.006592	0.002254	6129.552774	42543.336153	3910.085197	22120.627176
32.536000	-0.000491	0.000698	0.005598	0.002400	6147.003740	42569.823209	3936.645458	22114.184085
33.053000	-0.002540	-0.000742	-0.004580	-0.000857	6155.813465	42735.612413	3921.292118	22258.184564
33.536500	-0.002760	0.000313	0.000512	0.003812	6120.323028	42406.496608	3922.223091	22052.101608
34.036500	-0.000312	0.000639	-0.000170	0.000474	6162.370856	42740.142365	3928.093571	22199.208786
34.537000	-0.000643	0.000482	-0.003018	0.000163	6162.221099	42754.203043	3922.485085	22212.955782
35.034500	-0.001885	0.000401	0.000330	-0.000691	6159.382830	42825.041766	3931.790469	22250.817999
35.537500	-0.002686	-0.000007	-0.004408	0.002757	6128.485255	42473.217809	3913.747685	22098.475378
36.035000	-0.003083	0.000407	0.002120	0.001493	6134.761462	42625.946152	3930.914426	22154.176070
36.535500	-0.001963	-0.000134	0.000442	0.001638	6141.841199	42563.429065	3926.870636	22147.777529
37.035500	-0.001068	-0.000076	-0.002441	0.001609	6148.562824	42571.250343	3920.572652	22149.033485
37.535500	-0.003370	0.000763	-0.004468	0.003668	6116.957176	42460.314768	3911.627964	22058.409490
38.036000	-0.004497	-0.000479	-0.002711	0.001302	6125.909543	42562.624732	3920.655674	22162.624002
38.536500	-0.003257	0.000722	0.001107	0.002016	6129.706681	42606.932490	3927.505738	22131.098660
39.037000	-0.002420	0.000576	-0.003221	0.001936	6136.355527	42600.905512	3918.139709	22134.607747
39.537000	-0.003329	0.000400	-0.001159	0.003143	6121.042366	42475.113624	3920.018627	22081.496700
40.040000	0.001191	0.000663	-0.000384	0.001989	6162.279055	42604.021111	3924.268052	22132.306697
40.535000	-0.003207	0.000710	0.001164	0.001988	6130.271222	42608.373578	3927.693936	22132.322735
41.035500	-0.000155	0.000130	-0.002760	0.001460	6156.308340	42603.646419	3920.197667	22155.613533
41.535000	-0.003363	0.000058	-0.001125	0.002185	6127.717892	42531.071624	3922.200850	22123.650700
42.035500	-0.002376	0.001426	0.001079	0.002120	6135.342456	42661.659794	3927.211968	22126.518829
42.535500	-0.000237	-0.000001	-0.001939	0.001439	6155.861095	42593.631028	3922.049903	22156.538841
43.036500	-0.001696	0.000233	0.001781	0.001242	6146.663069	42632.944457	3930.719377	22165.266438
43.536500	-0.004427	0.000356	-0.002586	0.002922	6114.714032	42491.160900	3917.371476	22091.188710
44.036500	-0.004491	0.000497	-0.000265	0.001878	6121.780528	42598.947863	3924.774894	22137.167972
44.540000	-0.002942	0.000368	0.002046	0.001089	6138.713447	42659.220995	3931.646063	22171.997369
45.037500	0.002077	0.001141	0.001179	-0.001506	6194.495342	42967.844202	3935.499314	22287.011942
45.535000	-0.000445	0.000659	0.006830	0.002783	6144.551451	42531.369118	3938.545187	22097.304972
46.035500	-0.000401	0.000331	0.003992	-0.000241	6166.949834	42777.330455	3938.962776	22230.841696
46.536000	-0.000757	0.000539	0.004844	0.000227	6160.923485	42753.662512	3939.824996	22210.147906
47.035500	-0.000296	0.000542	-0.002443	-0.000258	6167.841557	42798.273202	3924.683007	22231.603122
47.536500	-0.006567	-0.000180	-0.005903	0.004687	6086.703491	42282.575760	3906.299114	22013.718368
48.036500	-0.001459	0.000263	-0.000635	0.000072	6156.924019	42742.625677	3927.953004	22217.014443
48.554000	0.000145	0.001201	0.002489	0.000251	6167.342334	42811.978177	3934.499899	22209.055472
49.034500	-0.000857	0.000556	-0.001390	0.001528	6150.690945	42636.302434	3923.066376	22152.641417
49.537500	-0.003401	-0.000130	-0.002285	0.004161	6113.179406	42334.706572	3915.319457	22036.779953
50.064000	0.000588	0.000763	0.004240	-0.000183	6173.775167	42811.653419	3939.389230	22228.279698
50.540500	0.000859	0.001175	0.001514	0.000292	6172.282685	42805.865945	3932.237287	22207.257880
51.035000	0.001127	0.000867	0.001595	0.000033	6176.147167	42801.429286	3932.994624	22218.723860
51.535500	-0.002426	0.000512	0.001961	0.004048	6121.028976	42403.169759	3924.900658	22041.752999
52.036000	0.000436	0.000366	0.000922	0.000718	6166.057813	42692.903158	3929.975639	22188.426955
52.536500	0.002795	-0.000889	0.002628	0.007204	6135.969795	41992.039493	3919.416437	21903.749489
53.039500	0.020567	-0.018854	-0.019538	0.318610	4587.661581	21274.435214	3408.025275	12221.360457
53.539500	0.015567	-0.028337	-0.018192	-0.087735	7022.834760	48544.498113	4096.934436	26526.219169
54.037000	0.011829	-0.091239	-0.018389	-0.285809	9301.481765	65166.940679	4749.956587	40129.839428
54.534500	0.013966	-0.105891	-0.013689	-0.303025	9589.318953	65535.000000	4842.318566	41631.903698
55.035000	0.008238	-0.075302	-0.008402	-0.258244	8864.236036	63525.063857	4679.177491	37845.574735
55.535000	0.002630	-0.041517	-0.015659	-0.206771	8140.156753	61110.348194	4462.419190	33949.373021
56.035500	0.011411	-0.039311	-0.008394	-0.202494	8193.902427	60833.943688	4472.757350	33645.963445
56.536000	-0.002756	-0.038154	-0.020726	-0.205861	8065.978608	61439.344576	4441.959299	33884.583049
57.036000	-0.006373	-0.040943	-0.020726	-0.214739	8127.889178	62264.204182	4472.451030	34522.716492
57.536500	-0.002874	-0.030005	-0.018946	-0.187326	7852.377323	60058.838498	4386.083059	32593.612984
58.039000	-0.000772	-0.022535	-0.015264	-0.152726	7501.460116	56604.627306	4288.466301	30326.263462
58.537000	-0.002800	-0.013330	-0.012312	-0.101601	6981.200530	51674.073373	4149.564193	27289.929914
59.034500	-0.003008	-0.012249	-0.016006	-0.076322	6753.448812	49037.234331	4073.149034	25915.628570
59.534500	-0.002771	-0.010627	-0.017750	-0.052863	6557.246811	46780.558665	4010.700335	24709.879752
60.035000	-0.004272	-0.007976	-0.011126	-0.030789	6368.514380	44866.546764	3974.169755	23633.287194
60.535000	-0.004800	-0.006366	-0.015469	-0.020199	6283.001098	44010.157360	3940.077144	23135.901243
61.035500	-0.004119	-0.004466	-0.010609	-0.011499	6222.671747	43373.329909	3931.500159	22736.284166
61.535500	-0.005167	-0.002104	-0.013073	0.011197	6050.421235	41527.410111	3877.124684	21730.609427
62.036000	-0.004056	-0.002179	-0.014138	0.016857	6018.488206	41022.284705	3863.117564	21487.915911
62.539000	-0.005470	-0.003220	-0.016870	0.007953	6071.249664	41716.636068	3875.966593	21871.164647
63.037000	-0.009040	-0.004851	-0.022165	-0.007913	6159.867675	43005.979064	3898.397805	22573.837706
63.537000	-0.013275	-0.002326	-0.017739	0.014707	5969.509657	41197.923607	3860.123539	21579.706736
64.037500	-0.011604	-0.001055	-0.015319	0.027279	5895.539671	40217.298300	3839.454191	21049.176302
64.535000	-0.010022	0.000225	-0.016134	0.018422	5966.337388	41095.732993	3855.786581	21421.330881
65.035000	-0.010173	-0.001368	-0.023517	0.011154	6015.594254	41596.587909	3855.553214	21732.486100
65.559500	-0.015459	-0.001064	-0.018791	0.008019	6000.621517	41903.281812	3871.807694	21868.270229
66.036000	-0.010119	-0.000502	-0.020411	-0.003390	6119.189796	42990.017500	3892.470208	22370.928500
66.541500	-0.010939	0.000925	-0.017154	-0.006455	6135.429415	43405.571333	3906.063200	22508.216547
67.039000	-0.011727	0.001697	-0.019250	-0.008539	6144.844739	43672.070788	3906.037654	22602.127304
67.537000	-0.013404	0.000883	-0.023884	-0.007731	6126.808876	43520.423874	3894.322307	22565.627351
68.036500	-0.011610	0.002541	-0.018490	-0.012594	6175.340377	44133.276933	3916.523078	22786.138985
68.537500	-0.009550	0.002854	-0.020958	-0.012809	6192.097056	44183.275102	3911.601971	22795.952822
69.037500	-0.008889	0.003543	-0.019929	-0.013350	6200.987415	44300.060700	3915.028768	22820.646578
69.535000	-0.012244	0.002469	-0.013684	-0.011307	6161.262526	44004.714639	3924.258877	22727.527545
70.035000	-0.011054	0.002353	-0.016091	-0.016589	6208.952058	44495.262731	3930.626819	22969.118905
70.535500	-0.012475	0.002833	-0.016867	-0.018073	6209.410667	44683.207380	3932.200846	23037.502788
71.036000	-0.010605	0.002971	-0.020511	-0.019390	6233.158790	44822.937540	3927.035407	23098.390524
71.538000	-0.015527	0.001643	-0.019707	-0.014062	6157.408024	44187.263735	3917.072145	22853.178903
72.036500	-0.011178	0.002738	-0.018407	-0.019119	6226.857878	44774.474850	3931.102400	23085.858484
72.537000	-0.009272	0.002439	-0.018183	-0.019396	6243.195820	44772.489863	3932.218800	23098.703453
73.037000	-0.009367	0.003135	-0.017814	-0.019469	6243.024027	44846.455098	3933.200707	23102.071940
73.537500	-0.015362	0.003897	-0.022597	-0.013410	6153.850220	44339.339266	3909.341838	22823.357478
74.034500	-0.013260	0.004456	-0.019021	-0.018525	6206.946914	44882.752575	3928.419944	23058.392070
74.535000	-0.011835	0.005448	-0.015853	-0.018100	6214.365939	44937.442379	3934.521382	23038.749150
75.036000	-0.010148	0.006260	-0.018923	-0.018260	6228.133654	45031.379473	3928.050451	23046.154399
75.535000	-0.010256	0.004613	-0.012518	-0.020342	6242.903965	45073.381386	3947.044709	23142.536190
76.038500	-0.011149	0.004700	-0.017675	-0.020238	6235.435680	45071.854092	3935.227560	23137.734449
76.536000	-0.008590	0.004500	-0.017511	-0.020764	6258.611603	45103.463982	3936.770705	23162.160429
77.036500	-0.012706	0.003453	-0.018875	-0.021742	6235.037101	45096.727300	3935.904664	23207.621737
77.536500	-0.011326	0.003959	-0.017266	-0.021806	6245.863086	45151.942217	3939.652497	23210.612833
78.037000	-0.013036	0.004576	-0.018183	-0.021569	6231.278205	45188.826149	3937.067333	23199.582900
78.537000	-0.009585	0.005517	-0.014293	-0.021580	6257.256675	45281.367475	3945.832223	23200.072038
79.035000	-0.009335	0.006418	-0.012294	-0.021600	6259.298183	45371.152184	3950.402238	23201.036426
79.535500	-0.012307	0.006231	-0.018424	-0.019379	6220.375835	45136.909790	3931.643739	23097.905023
80.035500	-0.011232	0.007273	-0.020327	-0.021673	6245.572910	45461.679244	3932.513172	23204.426481
80.541500	-0.011705	0.006505	-0.014515	-0.022262	6246.437954	45444.164165	3946.870179	23231.842235
81.036000	-0.010278	0.008517	-0.015249	-0.020270	6242.199449	45446.153199	3940.731095	23139.205602
81.536500	-0.010488	0.008234	-0.020148	-0.018735	6229.138967	45268.887374	3926.389339	23068.091962
82.037000	-0.012276	0.008173	-0.013192	-0.018992	6217.727888	45288.052814	3942.482131	23080.009784
82.537000	-0.010157	0.008091	-0.014288	-0.018741	6231.652869	45255.547642	3939.455124	23068.357271
83.037000	-0.013063	0.007597	-0.017333	-0.018354	6207.137236	45170.003504	3931.790917	23050.490374
83.535000	-0.013656	0.007763	-0.014509	-0.015000	6177.982543	44861.741035	3930.610294	22896.115715
84.035000	-0.010679	0.008405	-0.016000	-0.015993	6207.302754	45019.533544	3929.504791	22941.691925
84.535500	-0.012392	0.007257	-0.011425	-0.015343	6189.819030	44845.964628	3938.256753	22911.851345
85.038500	-0.013258	0.006839	-0.014576	-0.015232	6182.621701	44795.069823	3930.978289	22906.754997
85.536500	-0.015800	0.006890	-0.018806	-0.007825	6110.208624	44093.409405	3905.450493	22569.878885
86.036000	-0.011429	0.007477	-0.011751	-0.014651	6191.827039	44800.574397	3935.979405	22880.133008
86.536500	-0.009643	0.006364	-0.009464	-0.014649	6205.020479	44693.483222	3941.098643	22880.044358
87.036500	-0.010689	0.005520	-0.011887	-0.014868	6198.900995	44633.577311	3936.160030	22890.080008
87.537000	-0.011764	0.005793	-0.010818	-0.012864	6176.193117	44467.960612	3934.073222	22798.433510
88.037500	-0.009464	0.005454	-0.014062	-0.014976	6208.772557	44637.548989	3931.550423	22895.012001
88.534500	-0.009496	0.005308	-0.012326	-0.014722	6206.654910	44599.285329	3934.853402	22883.388602
89.035000	-0.010985	0.005477	-0.015896	-0.014376	6193.071885	44582.282802	3926.151772	22867.524384
89.538500	-0.008238	0.005001	-0.012707	-0.013918	6210.024567	44493.010042	3932.213239	22846.581707
90.035500	-0.011573	0.005221	-0.011934	-0.014006	6186.000745	44522.370866	3934.129872	22850.587272
90.536500	-0.008388	0.004189	-0.013824	-0.013888	6208.686586	44412.691203	3929.664070	22845.221522
91.036500	-0.010598	0.003507	-0.012667	-0.014292	6195.304109	44386.108346	3933.134676	22863.674690
91.536500	-0.010919	0.003320	-0.011365	-0.012914	6182.780252	44237.405989	3932.965843	22800.734317
92.037000	-0.010442	0.002878	-0.012306	-0.013947	6193.915583	44293.572714	3933.170739	22847.931453
92.540000	-0.012531	0.001746	-0.009709	-0.014791	6184.730206	44266.169246	3940.867083	22886.537231
93.034500	-0.010379	0.002731	-0.008762	-0.013553	6191.474065	44242.181543	3940.216059	22829.910330
93.535000	-0.014171	0.001921	-0.018460	-0.008000	6123.217474	43642.525721	3906.579957	22577.784315
94.038500	-0.010334	0.001938	-0.013749	-0.013397	6190.654625	44152.130597	3928.740465	22822.779868
94.535500	-0.012254	0.000980	-0.009271	-0.013962	6180.667547	44114.942213	3939.991040	22848.610675
95.043500	-0.010760	0.001462	-0.014533	-0.013646	6189.345548	44130.705308	3927.554505	22834.155700
95.536000	-0.015654	0.000446	-0.014099	-0.009156	6120.854070	43612.769825	3918.611091	22630.011084
96.036000	-0.010097	0.001148	-0.013355	-0.013214	6191.050931	44060.176567	3929.208094	22814.435740
96.536500	-0.013369	-0.000386	-0.017488	-0.014687	6177.794149	44054.300506	3923.321673	22881.768194
97.036500	-0.011310	-0.000434	-0.015801	-0.014368	6190.613468	44019.683600	3926.344411	22867.177820
97.534500	-0.014086	-0.000219	-0.015562	-0.012917	6159.567223	43903.158068	3923.666689	22800.850943
98.034500	-0.011469	-0.000638	-0.013769	-0.014058	6187.150776	43971.180151	3930.162494	22852.986985
98.540000	-0.010126	0.000241	-0.009401	-0.013336	6191.736522	43985.969979	3938.295226	22819.974069
99.035500	-0.012971	-0.000384	-0.009007	-0.013557	6172.418460	43947.865201	3939.673154	22830.072195
