sample name	sample
index	718
start time	 03-25-2021  11:36:55 AM
880	0.030279
Peak Time (s)	91.036
Peak Height 	0.03028
calc peak height	90,93
Baseline Time (s)	9.537
Baseline Value 	-0.004568
subtract baseline	10,4
Abs	0.005364
Peak Time (s)	90.039
Peak Height 	0.005364
calc peak height	90,93
Baseline Time (s)	11.037
Baseline Value 	0.003379
subtract baseline	10,3
PK_550	0.008983
Peak Time (s)	91.537
Peak Height 	0.008983
calc peak height	90,93
Baseline Time (s)	10.037
Baseline Value 	7.0686E-4
subtract baseline	10,2
PK_880	0.005880
Peak Time (s)	90.536
Peak Height 	0.00588
calc peak height	90,93
Baseline Time (s)	10.037
Baseline Value 	0.002822
subtract baseline	10,1


Time (s)	A880-A510	A880-A775	A880-A975	A880	I510	I775	I975	I880	
0.036000	-0.002128	-0.000999	-0.004291	0.003759	7151.761767	43945.908174	3916.863205	23427.512210
0.536500	-0.002548	-0.000699	-0.002158	0.004673	7138.611066	43888.015449	3919.928392	23384.322624
1.037000	-0.001117	0.000657	-0.004022	0.004087	7158.515310	44071.512946	3916.713617	23411.989037
1.537500	-0.004668	-0.001180	-0.005306	0.005442	7110.242808	43770.352256	3910.113823	23348.022670
2.037500	-0.001109	0.000219	-0.002289	0.001136	7187.896244	44310.169879	3928.536550	23552.084479
2.535500	0.000184	-0.000506	-0.002899	-0.000224	7214.408621	44370.624616	3930.438534	23616.935185
3.038000	-0.000172	-0.000025	0.001646	-0.002195	7230.632035	44605.250014	3947.126526	23711.333009
3.535500	-0.002952	-0.000648	-0.005137	0.004579	7135.554362	43901.713045	3912.689520	23388.742338
4.036000	0.000818	-0.000656	-0.002060	-0.000140	7219.926310	44348.417481	3932.360348	23612.951755
4.536000	-0.001086	-0.000189	0.000361	-0.000142	7200.886615	44393.138364	3938.546392	23613.045911
5.036500	-0.000822	-0.000437	0.002055	0.000353	7198.570445	44322.242402	3941.620152	23589.393540
5.537000	-0.000958	-0.000331	-0.004074	-0.000024	7200.976291	44368.319155	3926.951713	23607.397760
6.037000	-0.000574	-0.000286	0.001868	-0.000049	7205.071610	44375.026943	3942.173264	23608.609105
6.537500	0.001033	0.000199	0.004009	0.000411	7216.549391	44377.347089	3946.498276	23586.622210
7.035000	0.000131	-0.001103	0.000750	-0.000487	7216.510803	44338.817082	3940.426359	23629.514029
7.535500	-0.000322	-0.000101	0.000090	0.000037	7206.734649	44384.515353	3937.396943	23604.503434
8.035500	0.001406	0.000223	0.002213	0.000128	7223.139095	44406.661551	3942.603023	23600.125948
8.535500	-0.001053	0.000168	0.002131	-0.000064	7200.434281	44419.778937	3942.887326	23609.318526
9.036000	0.001717	0.001148	-0.000022	0.000916	7218.345635	44419.715765	3934.863764	23562.547692
9.536500	-0.000848	0.000194	-0.002323	0.000000	7201.843064	44416.133866	3931.334339	23606.257103
10.037000	0.000000	0.000000	-0.000942	0.000036	7209.967197	44394.210766	3934.762341	23604.554720
10.537000	0.001173	-0.000301	0.004731	-0.000016	7222.249693	44370.451397	3949.465637	23607.021752
11.037000	0.001058	-0.000057	0.000000	0.000038	7220.549894	44388.499555	3937.162681	23604.435299
11.537500	-0.000330	-0.000664	0.001200	-0.000144	7208.467700	44348.046323	3940.702089	23613.148515
12.035000	-0.000602	-0.000718	-0.001874	-0.000523	7209.530969	44379.052326	3933.809886	23631.249924
12.535000	0.000886	-0.001102	0.000050	-0.000749	7226.729953	44363.942555	3939.304332	23642.044809
13.035500	0.000191	0.000192	0.002251	-0.000604	7218.292620	44473.656441	3944.585774	23635.117118
13.536000	0.003046	0.000183	0.004336	0.000012	7240.816451	44413.945759	3948.374336	23605.707408
14.036500	-0.000798	-0.000701	-0.000763	0.002613	7176.293014	44082.531708	3928.660145	23481.854306
14.536500	-0.000626	-0.000267	0.002802	0.001948	7184.618932	44186.681840	3939.447154	23513.439383
15.042000	0.000047	-0.000226	0.001579	-0.000913	7219.942862	44463.156348	3943.650602	23649.881172
15.537000	0.000573	0.000311	0.003937	0.000094	7215.128700	44418.410470	3947.133894	23601.791601
16.037500	0.001090	0.000066	0.004384	-0.000281	7224.069604	44430.682781	3949.253752	23619.656427
16.535000	0.000600	-0.000653	-0.003987	-0.000720	7223.557535	44403.982461	3928.937080	23640.647473
17.035500	0.002925	0.000448	0.001762	-0.002760	7267.630813	44704.952812	3948.884483	23738.480231
17.535500	-0.000629	0.000483	0.001457	0.002112	7182.952977	44242.347035	3935.584814	23505.637312
18.036000	0.000037	0.000458	0.000841	0.001549	7195.214574	44293.617758	3935.450702	23532.432714
18.536000	0.000252	0.000091	-0.001683	0.002144	7191.419363	44202.127721	3927.518890	23504.148714
19.036500	-0.000014	0.000486	0.002059	0.002164	7188.566272	44237.756731	3936.991971	23503.191093
19.537000	-0.001842	-0.000936	-0.000709	0.001256	7179.412615	44188.913600	3932.248184	23546.376831
20.036500	-0.000326	-0.000253	0.001377	0.001606	7191.018265	44220.602738	3936.676650	23529.720584
20.540000	-0.000563	-0.000058	-0.000863	0.001828	7186.441955	44217.927182	3930.398564	23519.142432
21.034500	0.000652	-0.000256	-0.003815	0.001657	7200.264019	44215.417300	3923.354655	23527.269614
21.535000	0.000053	0.000006	0.000965	0.002193	7188.948397	44189.431738	3934.126120	23501.813371
22.035500	-0.001001	-0.000071	0.003147	0.002137	7179.008701	44187.355801	3939.844689	23504.453700
22.535500	-0.000254	0.000405	0.002004	0.002196	7185.858540	44226.971521	3936.768227	23501.644618
23.036000	-0.001245	0.000215	0.003325	0.001917	7178.764623	44235.408130	3940.866412	23514.901454
23.536500	0.001679	0.000053	0.002012	0.002145	7205.655667	44198.462546	3936.921051	23504.082504
24.036500	-0.000186	0.000638	0.001367	0.002256	7185.943029	44243.502823	3934.991043	23498.827630
24.536500	-0.001617	-0.000434	-0.002620	0.001627	7177.957437	44201.296636	3926.452308	23528.698264
25.040000	-0.000098	0.000464	0.001462	0.002345	7185.927119	44218.518671	3935.004194	23494.586865
25.537500	-0.000580	0.000716	0.000335	0.002533	7179.260140	44224.546363	3931.651847	23485.638478
26.035000	-0.000066	-0.000268	0.003772	0.001514	7194.521818	44227.800867	3943.047586	23534.064769
26.535000	-0.000846	0.000040	0.003508	0.002115	7180.769865	44200.020492	3940.827492	23505.509466
27.035000	0.001458	0.000036	-0.003162	-0.000594	7230.929819	44457.808971	3930.713903	23634.660135
27.535500	0.002396	0.000324	-0.001079	-0.000248	7236.881216	44452.229048	3935.137704	23618.092805
28.036000	0.001020	0.000546	0.001477	0.000901	7211.522328	44363.795411	3938.734229	23563.287526
28.536000	0.001497	0.000779	0.000843	0.000933	7215.983417	44382.977641	3937.031942	23561.772426
29.037000	0.001023	0.000000	0.000018	0.000412	7216.447412	44358.352598	3936.254172	23586.603742
29.536500	-0.001011	0.000264	0.001911	0.001453	7185.718220	44284.321976	3938.432936	23537.009932
30.037000	0.000355	0.000157	0.002077	0.000214	7211.731375	44392.208988	3942.034573	23596.036699
30.537000	-0.001372	0.000171	-0.001777	0.003736	7159.465879	44058.770380	3923.250908	23428.617880
31.037500	0.000700	0.000340	0.002535	0.003249	7184.869729	44120.865388	3935.437035	23451.696849
31.535000	0.001689	0.001385	0.002083	0.001854	7208.676895	44352.931410	3937.847805	23517.934785
32.036000	0.002580	0.001330	0.001313	0.001362	7222.543624	44394.569234	3937.135707	23541.340821
32.536000	0.000895	0.000460	0.001810	0.000608	7213.196187	44383.473860	3940.336727	23577.236424
33.039000	0.001860	0.001461	0.007007	0.001348	7215.455043	44408.359445	3951.825920	23541.972544
33.536500	0.001526	0.000050	0.003076	0.000468	7220.938442	44357.769110	3943.949398	23583.933878
34.036500	0.000388	0.001080	0.006788	0.003469	7179.585841	44170.244033	3945.781288	23441.278698
34.537000	-0.001147	0.000505	0.002238	0.003358	7165.446920	44126.248087	3934.401179	23446.540462
35.034500	-0.000034	0.000245	0.000554	0.002677	7183.257086	44166.111020	3931.845846	23478.827444
35.538000	-0.000649	0.000061	0.000158	0.002968	7174.254273	44121.070486	3930.097134	23465.019560
36.035500	-0.000699	0.000613	0.001771	0.003492	7168.560592	44123.773709	3932.867569	23440.182585
36.535500	0.002366	0.000928	0.008522	0.003274	7201.230992	44174.251306	3950.761593	23450.480060
37.036000	0.000654	-0.000031	0.001607	0.003021	7186.682871	44107.292653	3933.649246	23462.503617
37.535500	-0.000111	0.000479	0.001656	0.003268	7176.616096	44132.234342	3933.145038	23450.778126
38.036000	-0.001159	0.000013	0.000516	0.002974	7169.123354	44115.940951	3930.992559	23464.716560
38.536500	-0.000932	0.000172	0.003778	0.002961	7171.508695	44132.207242	3939.351136	23465.329511
39.040000	0.000704	0.000184	0.003280	0.003237	7185.038310	44107.266688	3937.369814	23452.271573
39.537000	0.000046	0.000338	-0.000920	0.003062	7180.224593	44138.406908	3927.124815	23460.567837
40.037500	-0.002192	-0.000322	0.000343	0.002920	7159.434159	44089.302338	3930.690527	23467.290228
40.535000	0.000995	0.000374	0.004759	0.003747	7182.856285	44076.963156	3939.852573	23428.105785
41.035500	0.001051	0.000536	0.000862	0.003308	7187.781715	44133.909567	3931.023217	23448.895923
41.535500	-0.001833	0.000367	-0.000296	0.003278	7159.439841	44120.762573	3928.158640	23450.332723
42.036000	0.001238	0.000906	0.002030	0.003714	7185.596873	44130.491421	3932.962090	23429.670461
42.536000	0.000757	0.000080	0.004437	0.003645	7181.503086	44058.725263	3939.288925	23432.934960
43.036000	0.000076	0.000237	-0.001437	0.003396	7177.209591	44097.232491	3924.971286	23444.739142
43.539000	0.001219	0.000190	0.003142	0.003273	7189.797629	44104.311949	3936.923237	23450.534295
44.037000	0.003537	0.000386	0.006462	-0.001545	7261.523385	44582.306148	3957.926842	23680.169026
44.537000	0.001861	0.000943	0.000792	0.001532	7213.619074	44341.384532	3935.369488	23533.227807
45.034500	0.000653	0.000729	-0.000520	0.001524	7201.600814	44321.774363	3932.044872	23533.588861
45.535000	0.001613	0.000600	0.009418	0.002296	7203.495085	44236.095934	3955.624775	23496.911402
46.035000	0.000023	0.000298	0.005344	0.001346	7197.091601	44297.674525	3947.530516	23542.072834
46.535500	0.001494	-0.000049	-0.000231	0.000866	7216.618217	44310.436556	3934.460308	23564.963412
47.039000	-0.000379	0.000762	0.003904	0.001787	7188.685593	44299.860143	3942.687027	23521.083713
47.536000	0.000086	0.000488	0.001963	0.004687	7164.495857	43998.789413	3930.316971	23383.665933
48.037000	0.001491	0.001458	0.003100	0.002640	7198.832607	44284.926906	3938.435122	23480.553076
48.536500	0.001461	0.000286	0.003965	0.001326	7211.676235	44298.424567	3944.028220	23543.032465
49.037000	0.002034	0.001533	0.005206	0.002359	7207.074579	44318.904951	3944.566615	23493.936551
49.534000	0.000611	0.000563	0.001485	0.004161	7174.912790	44055.571633	3930.438913	23408.509462
50.037500	0.002621	0.000984	0.006105	0.000295	7233.682167	44463.476840	3952.217585	23592.184483
50.535500	0.003031	0.000452	0.006429	0.000774	7232.984322	44366.913591	3951.816607	23569.342457
51.036000	0.009653	-0.000338	0.001704	-0.003836	7347.540782	44732.910434	3951.518861	23790.264575
51.536000	-0.042300	-0.006557	-0.006721	0.152992	5635.129657	31652.695086	3595.512611	17448.617013
52.036500	-0.050979	-0.015611	-0.005389	-0.046460	7165.301264	47449.273851	4047.418906	25947.892059
52.536500	-0.018907	-0.022817	0.003061	-0.157442	8844.546175	59462.085834	4433.831766	32668.111661
53.036500	-0.021389	-0.012621	0.003923	-0.082889	7871.986697	51677.860076	4183.008861	27967.402500
53.536500	-0.017122	-0.011738	-0.014136	-0.120317	8376.926897	56172.160173	4244.868901	30226.492579
54.037000	0.003139	-0.018403	-0.007602	-0.163391	9242.949746	60826.968271	4416.481922	33079.122922
54.537500	0.011743	-0.014446	-0.003416	-0.154179	9234.033200	60130.731586	4398.189623	32445.037510
55.035000	0.020446	-0.014555	-0.001477	-0.160129	9452.727559	60905.158091	4426.995971	32853.048984
55.535000	0.022319	-0.007823	-0.001343	-0.138457	9158.956020	58945.068137	4349.564562	31393.426012
56.035500	0.018741	-0.004553	0.003299	-0.114285	8769.111080	56313.605257	4282.598902	29849.093741
56.536000	0.012842	-0.002082	0.003520	-0.094369	8428.173492	54212.418031	4218.049125	28639.739640
57.036000	0.002145	-0.001891	0.002874	-0.068667	7980.584647	51287.477511	4136.141688	27158.739028
57.539000	0.000254	-0.000512	0.002304	-0.046983	7710.083995	49079.271950	4070.730964	25975.672449
58.037000	-0.000290	0.000735	0.006396	-0.037985	7604.707674	48263.211101	4056.758341	25501.852265
58.537000	-0.001889	0.001374	0.006747	-0.034357	7547.947245	47952.384533	4047.509967	25313.533158
59.037000	0.000522	0.002693	0.006481	-0.029606	7522.761731	47598.093725	4033.488801	25069.343856
59.535000	0.002025	0.006066	0.004665	-0.003894	7270.002962	45359.233012	3959.365327	23793.036173
60.035000	-0.016306	0.000375	0.005950	-0.011055	7158.052353	45503.110816	3981.609684	24140.948626
60.538000	0.007663	0.008287	0.006476	0.004161	7245.538071	44793.403313	3943.196124	23408.527449
61.035500	-0.001163	0.004629	-0.001553	0.007473	7124.693298	44126.998055	3914.415613	23252.455074
61.536000	-0.000029	0.004621	0.005579	0.010584	7105.324592	43832.326578	3924.534917	23106.971046
62.039000	0.010020	0.009173	0.003165	0.028684	7027.373272	42576.544894	3873.882264	22280.780376
62.536000	0.007998	0.009154	0.002812	0.028898	7005.975262	42555.208413	3872.514475	22271.204511
63.039500	0.008503	0.009407	0.003547	0.028847	7011.274566	42582.953522	3874.409694	22273.473400
63.548000	0.011447	0.009876	0.010788	0.025970	7067.283888	42889.510039	3899.105394	22402.456393
64.040000	0.008697	0.009619	0.004492	0.025413	7046.103423	42917.185458	3885.028627	22427.550376
64.541000	0.008401	0.010234	0.006569	0.025345	7043.901091	42980.070242	3890.267844	22430.597454
65.035500	0.006156	0.009455	-0.001095	0.026965	7006.837440	42759.486278	3867.773235	22357.769548
65.535500	0.008126	0.009022	0.002913	0.023616	7057.929682	43027.746891	3885.558846	22508.642757
66.036000	0.008835	0.009131	0.004467	0.021894	7081.487780	43197.090710	3893.575711	22586.670670
66.539000	0.008048	0.009312	0.011079	0.021611	7076.591600	43240.120328	3910.649740	22599.512996
67.036000	0.006020	0.009037	0.007137	0.025037	7023.978467	42898.187781	3892.415813	22444.466370
67.539500	0.007630	0.008990	0.001208	0.021749	7071.195012	43197.507497	3885.952611	22593.254331
68.037000	0.007949	0.008939	0.003613	0.020955	7082.005531	43266.446451	3893.786907	22629.365972
68.537500	0.006783	0.009949	0.003647	0.021244	7067.884892	43333.391994	3893.160309	22616.217277
69.035000	0.004063	0.008650	-0.001818	0.023338	7021.509378	43019.048037	3874.756207	22521.196305
69.535500	0.006249	0.009814	0.001121	0.021838	7056.970417	43265.586179	3885.524659	22589.202529
70.035500	0.005280	0.009285	0.004294	0.020607	7059.503885	43330.814729	3896.315265	22645.176260
70.536000	0.006209	0.010143	0.003782	0.020803	7066.592071	43392.484014	3894.573473	22636.273209
71.036000	0.003875	0.009218	0.001528	0.024178	7011.679418	42994.012120	3880.822408	22483.253535
71.536500	0.005698	0.008993	0.003428	0.021463	7055.280005	43224.302392	3892.085911	22606.275424
72.036500	0.007077	0.008877	0.004147	0.020800	7075.035827	43274.980490	3895.478900	22636.387362
72.537000	0.008176	0.009631	0.002352	0.021510	7078.808409	43279.059542	3889.331846	22604.096019
73.037000	0.003651	0.008777	0.001104	0.025529	6996.652875	42829.110783	3876.524457	22422.328801
73.537500	0.007467	0.009367	0.006746	0.021897	7068.184999	43218.677589	3899.182856	22586.538469
74.037500	0.005069	0.009778	0.005908	0.022573	7038.513247	43194.113045	3895.449516	22555.862333
74.535500	0.007779	0.009159	0.005899	0.022621	7064.195020	43132.343931	3895.309396	22553.697492
75.035500	0.002368	0.009338	-0.002708	0.027578	6965.039273	42692.650599	3862.450461	22330.280488
75.535000	0.006107	0.009821	0.000012	0.023741	7037.259014	43089.937809	3878.205244	22502.974092
76.036000	0.005625	0.009846	0.004483	0.023062	7039.148393	43155.131332	3890.749004	22533.697214
76.536500	0.003852	0.009159	0.005551	0.022898	7023.703113	43106.736557	3893.773463	22541.141118
77.035500	0.006963	0.010679	0.003986	0.024454	7038.636176	43103.399857	3886.131272	22470.759216
77.537000	0.006401	0.008875	0.004900	0.023241	7044.903193	43048.810012	3891.333532	22525.604411
78.034000	0.004947	0.009816	0.006229	0.023720	7026.317265	43091.489548	3893.419961	22503.940496
78.534000	0.006493	0.010005	0.002516	0.024672	7032.020236	43021.000925	3882.020624	22460.920351
79.035500	0.005692	0.009582	0.004336	0.023708	7033.593549	43071.018814	3888.811112	22504.494248
79.535000	0.005920	0.009635	0.007577	0.023974	7033.222442	43051.300941	3896.108580	22492.447678
80.036000	0.006255	0.009510	0.001147	0.023861	7037.535603	43050.234582	3880.668242	22497.572033
80.538500	0.003985	0.009447	0.001981	0.024177	7012.737649	43015.263952	3881.924674	22483.303768
81.036500	0.004135	0.008817	0.004884	0.023304	7022.524228	43037.629951	3891.140445	22522.772079
81.536500	0.003824	0.009340	0.006351	0.023778	7015.009251	43042.119583	3893.576916	22501.309523
82.037000	0.005211	0.009399	0.005112	0.024536	7021.029572	42977.606375	3888.681957	22467.057493
82.536500	0.005573	0.008896	0.000461	0.024140	7028.294147	42967.780627	3878.327323	22484.947737
83.040000	0.001950	0.008775	-0.000465	0.029881	6939.403895	42431.172847	3862.306210	22227.323643
83.537000	0.002446	0.009335	0.004636	0.024578	6994.230675	42967.888569	3887.414318	22465.170685
84.035000	0.004027	0.009292	0.002885	0.023895	7015.830568	43026.919596	3884.809616	22496.012626
84.535500	0.004992	0.008632	0.005203	0.023611	7027.792256	42992.171769	3891.169364	22508.854014
85.038500	0.000199	0.008653	0.001232	0.028944	6931.763816	42505.310862	3868.604729	22269.139594
85.536000	0.003434	0.009088	0.002003	0.024504	7004.351997	42951.993600	3881.184396	22468.542662
86.037000	0.006212	0.009965	0.000688	0.025203	7024.229560	42968.341648	3876.303484	22436.979933
86.537000	0.005558	0.010420	0.007046	0.025353	7016.527573	42996.417008	3891.415349	22430.220094
87.036500	0.000953	0.008868	0.002653	0.030260	6926.499593	42405.175932	3868.856497	22210.433760
87.537000	0.003980	0.008278	-0.000808	0.024140	7013.043635	42910.975757	3875.259452	22484.978235
88.035000	0.004074	0.008753	0.001746	0.024367	7011.771071	42933.784417	3880.892657	22474.727058
88.535000	0.005335	0.009310	0.004822	0.024713	7020.527286	42953.156621	3887.541218	22459.104985
89.035000	0.000763	0.008600	-0.000909	0.029515	6931.698251	42448.516375	3862.119286	22243.645361
89.536000	0.002730	0.009133	0.006429	0.025160	6991.394482	42895.755519	3890.378822	22438.943958
90.039000	0.004138	0.008268	0.005364	0.024064	7015.276946	42917.049226	3890.455613	22488.409143
90.536000	0.005880	0.008598	-0.000052	0.024303	7029.681585	42925.333344	3876.691551	22477.596722
91.036000	0.001496	0.008462	-0.000789	0.030279	6931.411979	42366.555013	3860.585298	22209.589458
91.536500	0.004226	0.008983	0.003839	0.024472	7012.210164	42945.195541	3885.729245	22469.948183
92.036500	0.003272	0.008660	-0.000229	0.024317	7004.586291	42929.712617	3876.228879	22476.942858
92.537500	0.003736	0.008064	-0.002431	0.024221	7009.938314	42883.798920	3871.154277	22481.318357
93.034500	0.000090	0.007453	0.005744	0.029880	6921.984747	42311.317666	3877.222578	22227.397162
93.543000	0.002833	0.009458	-0.002073	0.026154	6982.927800	42834.256084	3867.370450	22394.193399
94.037000	0.005459	0.008065	0.005510	0.024725	7021.588333	42837.483890	3889.193154	22458.535378
94.536000	0.004455	0.009114	-0.002203	0.025470	7004.865548	42865.425583	3868.699318	22424.951862
95.036500	0.004371	0.008869	0.003530	0.025182	7006.825730	42869.465541	3883.249119	22437.960620
95.536500	0.003955	0.008791	0.003441	0.026047	6994.605784	42782.791853	3880.928118	22398.994988
96.036500	0.002710	0.008186	0.004965	0.024567	6996.851991	42863.222772	3888.247465	22465.694000
