sample name	sample
index	415
start time	 03-08-2021  11:18:01 AM
880	0.053230
Peak Time (s)	92.535
Peak Height 	0.05323
calc peak height	90,93
Baseline Time (s)	10.035
Baseline Value 	-0.005477
subtract baseline	10,4
Abs	0.039968
Peak Time (s)	92.035
Peak Height 	0.03997
calc peak height	90,93
Baseline Time (s)	10.035
Baseline Value 	0.005617
subtract baseline	10,3
PK_550	0.022524
Peak Time (s)	92.535
Peak Height 	0.02252
calc peak height	90,93
Baseline Time (s)	9.037
Baseline Value 	0.00105
subtract baseline	10,2
PK_880	0.041914
Peak Time (s)	92.535
Peak Height 	0.04191
calc peak height	90,93
Baseline Time (s)	10.035
Baseline Value 	0.004201
subtract baseline	10,1


Time (s)	A880-A510	A880-A775	A880-A975	A880	I510	I775	I975	I880	
0.034500	-0.001109	-0.000084	-0.002826	0.002408	6961.870165	47010.438503	3975.902906	24714.892598
0.535000	-0.003472	-0.001662	-0.002425	0.004311	6921.705787	46658.123417	3971.943274	24619.235206
1.035500	-0.005077	-0.001084	-0.002470	0.003267	6916.460191	46821.958102	3974.575776	24671.670497
1.536500	-0.004880	-0.000629	-0.003620	0.006846	6884.950148	46506.998759	3962.175441	24492.541050
2.036000	-0.002859	-0.000431	-0.002190	0.001045	6958.204107	47113.813397	3981.189392	24783.615400
2.536000	-0.001810	-0.000585	-0.001611	0.000518	6973.124472	47151.747153	3984.127593	24810.251618
3.036500	-0.000243	-0.000111	-0.002822	-0.000290	6995.714707	47282.675975	3983.056587	24851.182207
3.539000	-0.001987	-0.000617	-0.001415	0.000857	6968.229626	47113.975794	3983.746154	24793.122746
4.037000	-0.001051	-0.000900	-0.004968	-0.000015	6985.396246	47173.976738	3976.642891	24837.233249
4.537000	-0.001927	-0.000207	0.000026	0.000730	6970.007787	47168.741550	3987.922317	24799.533347
5.035000	-0.001482	-0.000183	-0.002655	0.000046	6980.724677	47240.967454	3982.607893	24834.159820
5.535500	0.000992	-0.000005	-0.002413	-0.000001	7004.741039	47263.994505	3983.375592	24836.532221
6.035000	-0.001440	-0.000690	-0.000785	0.000113	6980.483465	47182.438615	3987.404734	24830.764618
6.536500	-0.001243	0.000497	0.000836	0.001077	6973.197942	47205.098281	3989.155770	24781.993304
7.036000	-0.000970	-0.000709	-0.002635	-0.000342	6989.276638	47226.869916	3983.691000	24853.796004
7.537000	-0.000903	-0.000010	-0.002686	0.000141	6985.314179	47248.922637	3982.272724	24829.325443
8.039000	0.001072	-0.000721	-0.005209	-0.000100	7006.453882	47200.934597	3976.231086	24841.555086
8.537000	-0.001371	-0.000321	0.002591	-0.000066	6982.842077	47238.340512	3996.921246	24839.828485
9.037000	0.001221	0.000000	0.001391	-0.000224	7009.071986	47287.306031	3994.124438	24847.840613
9.534500	0.001024	0.000409	-0.001606	0.000288	7002.287909	47276.782555	3984.752849	24821.907317
10.035000	0.000000	-0.000404	0.000000	0.000000	6995.263559	47223.092807	3989.801011	24836.476871
10.538000	0.000854	0.000125	-0.005182	0.000213	7001.389169	47255.460978	3975.477812	24825.717723
11.035500	-0.000374	0.000565	0.003789	0.000437	6987.541759	47277.462138	3998.791969	24814.360603
11.536000	-0.002994	-0.001459	-0.004501	-0.000929	6975.623107	47210.242483	3980.296893	24883.582623
12.036000	0.000010	-0.000716	-0.001941	-0.000527	7000.390575	47245.097647	3986.028819	24863.179056
12.536500	-0.000550	-0.000996	-0.003102	-0.000734	6997.016077	47237.576811	3983.489651	24873.656016
13.037000	-0.001523	-0.000318	-0.002868	0.001409	6967.401194	47088.239733	3978.429543	24765.243297
13.537000	-0.000306	-0.000149	0.000583	-0.000061	6992.926885	47255.335459	3991.521544	24839.549039
14.034500	-0.003119	-0.000857	0.000319	0.002538	6941.668482	46918.699074	3983.886721	24708.307707
14.537500	-0.002611	-0.000599	-0.008649	0.001899	6952.485721	47009.792703	3961.958238	24740.523161
15.035000	-0.004452	-0.000493	0.000529	0.001337	6940.436383	47077.787485	3987.645159	24768.898966
15.535000	-0.001558	-0.000440	-0.000639	-0.000614	6986.266329	47282.107190	3989.734514	24867.580631
16.035500	-0.000678	-0.000205	-0.001631	-0.000244	6991.128417	47268.332561	3986.101703	24848.842175
16.535500	-0.000994	-0.000317	-0.004999	-0.000564	6991.166610	47289.666259	3978.013693	24865.074556
17.036000	-0.001284	-0.000183	0.001230	-0.001292	6995.342365	47377.805607	3996.558878	24901.992722
17.542000	-0.001809	0.000204	0.004227	0.001319	6965.542893	47150.585231	3997.595939	24769.787215
18.036500	-0.005037	-0.000691	0.002309	0.000582	6942.025408	47134.487691	3994.422943	24807.019456
18.537000	-0.000818	-0.000483	0.000512	0.000868	6979.218164	47126.518517	3988.850432	24792.589266
19.035000	-0.001796	0.000042	-0.003013	0.001444	6964.483625	47121.363860	3977.955614	24763.485267
19.535000	-0.003789	0.000262	-0.004820	0.001043	6949.450017	47184.642580	3974.243757	24783.736204
20.035500	-0.000727	-0.000100	0.000827	0.001264	6976.321445	47125.276412	3988.633900	24772.578097
20.535500	-0.001073	0.000069	-0.000957	0.001306	6972.633846	47138.055160	3983.768686	24770.420985
21.035500	-0.001500	-0.000124	-0.000118	0.001243	6969.196944	47124.976960	3986.171884	24773.641026
21.536000	-0.002679	-0.000527	0.004274	0.000923	6961.054629	47116.362958	3998.786943	24789.765626
22.039500	-0.002249	0.000068	-0.000522	0.001074	6963.700649	47161.677382	3985.545130	24782.174812
22.537000	-0.001137	-0.000512	-0.001311	0.000958	6975.334660	47114.428325	3983.754864	24788.031661
23.037000	-0.001004	-0.000392	0.003313	0.000905	6977.103878	47132.021206	3996.252267	24790.707032
23.537000	-0.002628	0.000316	-0.000002	0.001677	6954.414726	47125.525602	3985.323331	24751.707527
24.035000	-0.002805	-0.000461	-0.000921	0.000829	6960.763267	47132.802266	3985.134909	24794.555666
24.535000	-0.003600	-0.001180	-0.003236	0.000614	6955.279077	47081.441692	3979.562088	24805.418922
25.035000	-0.002633	-0.001408	-0.001514	-0.000004	6970.279236	47121.187565	3985.773832	24836.702777
25.535500	-0.001208	0.000159	-0.003972	0.001160	6972.746596	47162.218151	3976.171957	24777.833337
26.036000	-0.004724	-0.000410	-0.001565	0.000906	6941.923775	47130.137605	3983.219016	24790.661641
26.536000	-0.002776	-0.000276	-0.000606	0.000766	6961.631572	47158.078620	3986.141071	24797.741688
27.036000	0.001158	-0.000058	0.001204	-0.001275	7018.529060	47388.936595	3996.442427	24901.140654
27.537000	-0.000299	-0.000614	0.000963	-0.002078	7012.257547	47414.226151	3997.953504	24941.959107
28.037000	-0.001506	-0.000926	0.005427	-0.001329	6993.572159	47305.576206	4007.990904	24903.859734
28.534500	0.000389	0.000095	0.001841	-0.000760	7006.226306	47351.755792	3996.770453	24874.978571
29.035000	-0.005477	-0.001227	-0.005012	0.003565	6909.938275	46777.390844	3967.111420	24656.699249
29.535000	0.000245	0.000338	0.000143	-0.000312	7000.572991	47330.766097	3991.017560	24852.265323
30.035500	-0.001797	-0.000393	0.001084	-0.000502	6982.936051	47275.513332	3994.047579	24861.933747
30.535500	-0.003535	0.000587	-0.000911	0.003265	6930.919624	46991.475726	3978.697165	24671.744223
31.036000	-0.003290	-0.000161	-0.002910	0.004267	6923.828078	46814.071729	3970.782550	24621.439304
31.540500	-0.000254	-0.001037	-0.003507	-0.000649	6999.028878	47224.694259	3982.188428	24869.352501
32.036500	0.000185	-0.000111	0.003577	-0.000248	6999.386941	47278.321531	4000.064342	24849.021514
32.537000	-0.001229	-0.000113	0.002510	-0.000395	6987.320953	47293.212214	3997.586851	24856.484580
33.037000	-0.002280	-0.000277	0.001542	0.003693	6938.702789	46860.523851	3984.068016	24650.267042
33.537500	0.000568	-0.000466	-0.001305	-0.002223	7021.964183	47444.288329	3992.256486	24949.345522
34.035000	-0.002300	-0.001104	0.004145	0.000945	6964.436440	47055.410902	3998.382127	24788.651471
34.535500	-0.001689	0.000034	-0.003891	0.002577	6954.776544	47005.191029	3972.646595	24706.345010
35.038000	-0.003361	-0.000093	0.000768	0.002966	6935.369695	46952.902854	3983.943372	24686.807520
35.536000	-0.002646	-0.000400	-0.000031	0.001698	6954.047374	47050.476595	3985.190647	24750.658254
36.036000	0.000090	-0.000694	-0.001531	0.001704	6979.900940	47019.978622	3981.190666	24750.372125
36.536500	-0.002796	-0.000757	-0.001699	0.001386	6955.578937	47045.856518	3981.586394	24766.393609
37.036500	-0.001103	-0.000079	-0.000131	0.002696	6959.203196	46981.752957	3982.274308	24700.391751
37.536500	-0.002512	0.000113	-0.001460	0.002371	6948.963146	47034.225429	3979.612129	24716.759701
38.035000	-0.002655	-0.000087	-0.002073	0.002027	6950.861270	47048.856668	3978.897241	24734.068789
38.535000	-0.000845	-0.001068	-0.002736	0.001809	6970.026265	46971.328212	3977.721420	24745.039255
39.035500	-0.003205	-0.000246	-0.002048	0.002490	6941.315261	46985.647602	3977.741113	24710.754857
39.535500	-0.002797	-0.000924	-0.002685	0.001511	6954.387354	47016.199317	3978.643217	24760.076561
40.038000	-0.002642	-0.000648	0.003179	0.001753	6953.565444	47019.670710	3993.617441	24747.867554
40.536000	-0.001186	-0.000389	0.000978	0.002039	6964.618856	47016.905194	3986.969862	24733.453731
41.039000	-0.004128	0.000280	-0.003487	0.002735	6930.335566	47014.184941	3973.297912	24698.435663
41.535500	-0.000286	0.000057	-0.002154	0.002402	6969.718698	47025.394848	3977.692570	24715.195300
42.036500	-0.003255	0.000095	0.001052	0.002475	6940.986003	47021.813426	3986.005461	24711.524471
42.537000	-0.002201	-0.000544	-0.001354	0.002151	6953.973607	46989.844648	3980.474126	24727.831991
43.034500	-0.002504	-0.001093	-0.002394	0.002199	6950.656225	46929.186698	3977.593694	24725.382550
43.535000	0.000148	0.000306	0.000043	0.002006	6977.584869	47090.914996	3984.568025	24735.110242
44.038000	0.000530	-0.000891	-0.000584	-0.003349	7032.421235	47516.277238	3997.211935	25006.723691
44.535500	0.000021	-0.000170	0.003534	-0.000131	6996.714537	47260.382541	3999.635186	24843.115753
45.036000	-0.005832	-0.000416	-0.005456	0.004613	6896.851903	46753.383476	3963.209266	24604.100894
45.536500	-0.001591	-0.000013	0.000499	0.000166	6978.540231	47246.144871	3990.690429	24828.079776
46.036500	-0.000266	0.000170	-0.000797	0.000212	6990.711459	47260.075068	3987.109311	24825.763053
46.536500	0.000802	0.000329	-0.000572	0.000212	7000.890292	47276.279359	3987.706835	24825.719167
47.036500	-0.003098	-0.000463	-0.000768	0.002472	6942.487377	46965.440651	3981.175260	24711.632520
47.537000	-0.002823	-0.000284	0.000528	0.002789	6942.090924	46951.444481	3983.776278	24695.693759
48.039000	-0.001643	-0.000720	0.002721	0.000267	6977.094095	47163.603556	3996.376241	24822.977257
48.535000	-0.000869	0.000694	0.001835	0.000487	6982.354316	47285.600538	3993.408879	24811.841230
49.035500	-0.005630	-0.001250	-0.000457	0.003990	6904.538228	46732.048789	3977.980022	24635.355085
49.536000	0.000768	-0.000183	0.003281	-0.002331	7024.919648	47484.501546	4004.892133	24954.854699
50.036000	0.000258	0.000067	0.003744	-0.000651	7003.940227	47337.793534	4001.601859	24869.457633
50.539000	-0.007099	-0.004088	0.006266	-0.000064	6928.727025	46855.055294	4006.838374	24839.731357
51.036000	-0.027107	-0.015403	-0.016489	0.308037	4768.227486	23956.734488	3379.096382	13664.269396
51.537000	-0.039828	-0.023970	-0.007996	-0.010428	6724.198267	45901.860830	3996.318540	25370.958428
52.037000	-0.032177	-0.041261	-0.006307	-0.162889	8449.561818	61609.379495	4493.500320	34844.960635
52.536500	-0.021787	-0.033339	0.000055	-0.148021	8392.162784	60677.438401	4461.222248	33767.918007
53.034500	-0.031802	-0.021051	-0.009096	-0.076906	7448.480273	53355.787878	4185.879309	29097.061080
53.535000	-0.023412	-0.022834	-0.006812	-0.108301	7889.249615	56917.477570	4295.250403	31065.180728
54.035000	-0.019308	-0.020422	-0.007836	-0.122231	8102.745315	58989.615418	4339.463436	31985.045847
54.534500	-0.004969	-0.026739	-0.002790	-0.152753	8673.905341	62205.512159	4468.331673	34106.757213
55.039000	-0.001925	-0.017094	-0.003096	-0.131139	8430.292670	60592.848377	4387.664590	32588.911563
55.536000	0.006035	-0.012197	0.004385	-0.120550	8396.650455	59841.387565	4376.557371	31872.493974
56.036500	0.009204	-0.006565	0.002021	-0.101555	8198.300965	58115.520686	4302.312179	30630.214431
56.536500	0.009315	-0.003150	0.006693	-0.082862	7974.464620	56206.125237	4255.521573	29459.595695
57.037000	0.005277	0.000492	0.002218	-0.056098	7623.875881	53441.295889	4156.548078	27868.872868
57.534500	0.013994	0.003367	0.007591	-0.047677	7627.140692	52799.855411	4147.268755	27388.348280
58.035000	0.016463	0.004532	0.011750	-0.034600	7511.951902	51449.177794	4120.482476	26660.278720
58.538000	0.020032	0.009151	0.015320	-0.020616	7401.586366	50413.139412	4089.895863	25905.648270
59.035500	0.017034	0.008341	0.018121	-0.006241	7223.258021	48779.895178	4056.751644	25154.820789
59.536000	0.023298	0.009836	0.018771	-0.009887	7324.100375	49326.431026	4068.947170	25342.873022
60.036500	0.020821	0.010387	0.021991	-0.001135	7210.009046	48457.657469	4053.261363	24894.042681
60.536000	0.025783	0.013023	0.023896	-0.002313	7272.029450	48859.663616	4061.978691	24953.913506
61.037000	0.019625	0.012413	0.022759	0.009577	7092.192566	47555.202939	4025.559381	24356.824477
61.536500	0.026566	0.013853	0.026308	0.001000	7246.367737	48597.440309	4059.423135	24785.876413
62.037000	0.028030	0.016272	0.019460	-0.005314	7325.733572	49526.055470	4057.912971	25107.219278
62.538000	0.029184	0.017188	0.023178	-0.004128	7325.405252	49497.125129	4065.096019	25046.510254
63.035500	0.026651	0.018421	0.025030	0.004388	7213.089959	48721.843040	4046.281317	24615.379805
63.535500	0.028897	0.018566	0.025098	0.003138	7248.322533	48869.365840	4049.981383	24678.141290
64.036000	0.029596	0.019592	0.026505	0.006281	7223.660848	48645.764423	4045.111659	24520.713632
64.538500	0.029771	0.019866	0.031853	0.008442	7203.724093	48447.329513	4054.064007	24413.090408
65.036500	0.027199	0.020007	0.022397	0.015708	7106.292997	47705.931774	4007.809093	24055.239562
65.537000	0.030880	0.019939	0.029160	0.011015	7189.077254	48185.717765	4039.303612	24285.673534
66.039500	0.033116	0.021095	0.027575	0.011403	7207.566539	48265.942084	4033.821715	24266.529168
66.537000	0.035276	0.021223	0.031892	0.011260	7230.711731	48294.272933	4046.253603	24273.582147
67.037000	0.030560	0.021413	0.029130	0.016148	7134.994910	47805.677400	4025.007835	24033.764367
67.535000	0.035939	0.021555	0.031037	0.010263	7247.480070	48433.516890	4046.653307	24322.865854
68.035000	0.036080	0.022021	0.033161	0.009709	7254.525023	48540.682644	4054.182110	24350.291354
68.535500	0.036279	0.021638	0.031451	0.008657	7267.202442	48610.957252	4052.324383	24402.417260
69.036000	0.035614	0.022248	0.033361	0.014550	7201.077826	48058.135659	4041.162992	24111.895578
69.536000	0.041883	0.023077	0.031095	0.009606	7314.772949	48662.609332	4048.656490	24355.377085
70.036500	0.039080	0.021926	0.032089	0.007831	7304.225331	48728.448965	4056.455550	24443.489863
70.537000	0.039379	0.022867	0.035490	0.008609	7299.315416	48745.735911	4063.890745	24404.834900
71.037000	0.038700	0.023541	0.034056	0.013013	7247.588620	48353.395385	4047.405755	24187.283406
71.537500	0.042013	0.023055	0.036857	0.009968	7312.389436	48622.252853	4063.912159	24337.466899
72.037000	0.040358	0.023228	0.037789	0.010641	7288.542199	48569.488399	4064.645982	24304.150257
72.535500	0.040187	0.022870	0.033880	0.011472	7278.337229	48444.601772	4051.241654	24263.155565
73.035500	0.038846	0.022324	0.035406	0.015403	7224.942009	47977.345760	4044.491292	24070.129951
73.535500	0.041932	0.022227	0.033442	0.013032	7280.214157	48213.996593	4045.629776	24186.323897
74.039000	0.043317	0.023130	0.037415	0.014862	7275.679845	48117.430964	4051.647365	24096.598287
74.536000	0.040963	0.022833	0.040503	0.015970	7240.582798	47971.378475	4057.234748	24042.469159
75.036500	0.037701	0.022732	0.032466	0.019986	7167.678799	47545.912375	4023.629305	23847.351773
75.536000	0.042107	0.023049	0.037459	0.018709	7224.498272	47710.196441	4040.993264	23909.200400
76.037000	0.040639	0.022495	0.034029	0.019546	7201.362616	47566.776423	4029.147867	23868.609778
76.537500	0.041598	0.022983	0.037163	0.021293	7193.480041	47437.416387	4032.984885	23784.233680
77.035000	0.037832	0.022499	0.037628	0.028122	7088.898900	46693.398573	4015.477035	23457.524638
77.535000	0.041536	0.023563	0.034399	0.024456	7161.375318	47173.167919	4016.670672	23632.257260
78.035500	0.040865	0.023298	0.034925	0.025326	7146.123275	47057.607744	4015.733245	23590.663304
78.536000	0.042365	0.023595	0.042063	0.027373	7140.715520	46879.950602	4029.719777	23493.082802
79.038500	0.036219	0.023008	0.031505	0.034270	7013.882442	46128.190154	3982.435997	23167.745348
79.536500	0.041982	0.023013	0.037904	0.029886	7112.229225	46567.480102	4011.420938	23373.965407
80.036500	0.041979	0.022519	0.040671	0.031003	7101.264304	46405.731498	4015.920772	23321.233615
80.537000	0.040660	0.023316	0.041811	0.032807	7070.833292	46304.983160	4014.108351	23236.368105
81.037500	0.040750	0.021829	0.034766	0.038594	7015.871034	45583.734491	3979.619118	22966.424128
81.537500	0.041450	0.023258	0.039179	0.035491	7052.479485	46031.670265	3999.696191	23110.702732
82.035500	0.040373	0.023085	0.037315	0.036441	7032.922731	45920.252588	3992.137556	23066.421466
82.535500	0.039789	0.022349	0.039907	0.036677	7025.049642	45824.063573	3998.462894	23055.450306
83.036000	0.036334	0.022550	0.037969	0.043478	6927.697501	45176.327023	3975.174729	22741.388067
83.539000	0.041584	0.022788	0.038332	0.039285	7017.246911	45610.049847	3987.257693	22934.431577
84.036000	0.040742	0.023038	0.043526	0.040703	6995.632690	45495.316143	3997.368511	22868.948429
84.536000	0.038339	0.022022	0.036466	0.040655	6973.236233	45400.422224	3978.664631	22871.164740
85.037000	0.035664	0.021517	0.039989	0.044681	6910.166493	44959.186437	3977.334937	22686.368583
85.537000	0.040154	0.022243	0.034902	0.043211	6966.213662	45172.379278	3967.813536	22753.623600
86.034500	0.040257	0.021948	0.039629	0.044017	6959.565261	45065.366967	3978.137201	22716.706365
86.537500	0.040517	0.021724	0.041197	0.044132	6960.932047	45032.427357	3981.985718	22711.456157
87.035500	0.036425	0.020919	0.036444	0.050119	6866.730238	44378.428554	3953.835645	22439.471061
87.535500	0.039236	0.021996	0.036810	0.046330	6928.168610	44845.913688	3964.643086	22611.153595
88.039000	0.040437	0.021892	0.038250	0.047008	6933.081392	44770.480632	3966.637405	22580.336445
88.536000	0.038079	0.021674	0.040194	0.047540	6906.031252	44698.179838	3970.341447	22556.176554
89.036000	0.040010	0.021867	0.038642	0.048269	6917.253295	44646.513329	3964.362778	22523.085702
89.536000	0.039927	0.021768	0.039412	0.048757	6911.906313	44590.152878	3965.098322	22500.978394
90.036500	0.039818	0.021159	0.036563	0.049207	6906.689818	44488.547857	3956.507670	22480.635347
90.533500	0.040883	0.021981	0.036155	0.050413	6905.375503	44451.738432	3952.326531	22426.168231
91.035000	0.039116	0.021873	0.038986	0.051946	6874.710197	44294.971338	3955.686986	22357.169229
91.535000	0.041000	0.022187	0.038314	0.051755	6893.970946	44343.253649	3954.440692	22365.777223
92.035000	0.041798	0.022362	0.039968	0.052882	6890.915428	44252.434571	3955.806828	22315.196975
92.535500	0.041914	0.022524	0.035100	0.053230	6888.751041	44234.716316	3942.360499	22299.582783
93.036000	0.041867	0.022727	0.039059	0.054405	6877.423314	44142.327481	3949.518535	22247.027687
93.536000	0.040819	0.022203	0.038347	0.053466	6876.408909	44181.643785	3950.103132	22289.004181
94.036500	0.043003	0.024358	0.045132	0.055810	6874.928335	44163.704740	3961.621261	22184.345343
94.537000	0.040392	0.021750	0.042810	0.054716	6860.905228	44020.079422	3958.424664	22233.124423
95.034500	0.037498	0.021431	0.036431	0.059764	6788.300546	43514.857794	3929.108013	22009.071724
95.537500	0.042322	0.021799	0.042162	0.056143	6865.549030	43889.684705	3953.042555	22169.510480
96.038000	0.041620	0.022770	0.041035	0.056840	6852.650410	43915.623905	3948.333763	22138.540517
