sample name	sample
index	1110
start time	 04-22-2021  01:04:01 PM
880	0.022785
Peak Time (s)	101.035
Peak Height 	0.02278
calc peak height	100,103
Baseline Time (s)	11.536
Baseline Value 	-0.004668
subtract baseline	10,4
Abs	0.030057
Peak Time (s)	101.535
Peak Height 	0.03006
calc peak height	100,103
Baseline Time (s)	10.037
Baseline Value 	0.001827
subtract baseline	10,3
PK_550	0.021150
Peak Time (s)	102.035
Peak Height 	0.02115
calc peak height	100,103
Baseline Time (s)	9.537
Baseline Value 	-1.2941E-4
subtract baseline	10,2
PK_880	0.035834
Peak Time (s)	102.035
Peak Height 	0.03583
calc peak height	100,103
Baseline Time (s)	10.54
Baseline Value 	0.001288
subtract baseline	10,1


Time (s)	A880-A510	A880-A775	A880-A975	A880	I510	I775	I975	I880	
0.037000	-0.001894	0.000074	-0.005808	0.003747	6252.114688	43100.695388	3895.420890	22624.555058
0.537500	-0.002373	-0.000252	-0.002208	0.008128	6215.089378	42668.174294	3893.638524	22426.861049
1.040000	-0.002958	0.000710	0.004189	0.006096	6226.069369	42942.732205	3913.059168	22518.303721
1.535500	-0.000122	0.000173	0.001609	0.002875	6272.440140	43190.499232	3914.552807	22664.179398
2.035500	-0.002127	0.000945	-0.000856	0.002858	6257.149113	43263.676887	3908.863914	22664.952800
2.536000	-0.003395	-0.000048	-0.001660	0.004866	6232.100164	42986.185807	3902.369607	22573.871938
3.035500	-0.000404	0.001244	-0.004541	0.006273	6244.192537	42975.620893	3892.548204	22510.331575
3.536000	0.001516	0.000166	-0.002825	0.001747	6293.825600	43294.465524	3906.878013	22715.497610
4.036000	0.001073	0.000237	0.002721	0.001703	6290.734953	43305.157752	3919.886993	22717.511959
4.537000	0.002053	0.000308	0.000694	0.001229	6302.021029	43355.758744	3916.254629	22739.103743
5.037000	-0.000281	0.000676	0.000687	0.001161	6284.445356	43396.339382	3916.399035	22742.225511
5.535000	0.000469	0.000543	-0.002394	0.000745	6293.480976	43422.724301	3910.197517	22761.226542
6.037500	0.001969	-0.000051	0.000106	0.000224	6309.191085	43415.872500	3917.230082	22785.025884
6.535000	-0.001201	0.000309	-0.000856	0.000397	6283.233762	43433.285827	3914.580229	22777.098556
7.035500	-0.000212	0.001141	0.002787	0.000961	6286.525748	43458.298671	3921.781230	22751.362922
7.535500	0.002179	0.001006	-0.001881	0.000645	6307.541633	43475.150373	3911.619701	22765.757589
8.039000	0.000522	0.001047	-0.002246	0.000706	6294.189790	43473.232787	3910.630202	22762.970678
8.536000	-0.000232	0.000514	0.003576	0.000561	6289.471282	43437.066176	3924.573614	22769.607636
9.037000	0.000706	0.000654	-0.000858	0.000863	6294.402938	43422.052427	3913.493058	22755.841988
9.536500	-0.001583	0.000000	-0.000401	-0.000248	6285.265783	43464.577201	3917.147060	22806.595649
10.037000	0.001065	-0.000017	0.000000	-0.000132	6304.924171	43452.160291	3917.813181	22801.295743
10.540500	0.000000	0.000325	0.002426	0.000086	6294.955472	43463.817913	3922.989740	22791.353433
11.034500	-0.000834	-0.000630	0.004263	-0.000469	6292.787775	43426.425255	3928.620622	22816.714472
11.535500	0.000535	-0.000027	-0.001610	0.000000	6299.773686	43438.987754	3913.749716	22795.266681
12.035500	0.000971	0.000524	-0.001853	-0.000061	6303.634462	43495.965696	3913.324759	22798.035483
12.535500	-0.000109	0.000587	-0.000371	-0.000358	6297.557124	43529.652455	3917.475464	22811.661828
13.036500	-0.003006	0.000211	-0.002746	0.004871	6235.033742	43009.605421	3899.863110	22573.664171
13.536500	-0.000996	0.000907	-0.001210	0.001207	6278.564960	43413.611277	3911.874104	22740.126033
14.037000	-0.001034	0.000448	-0.009126	0.002931	6264.981884	43210.769812	3889.718261	22661.608678
14.537000	-0.000636	0.000568	0.001041	0.002558	6270.922460	43256.550390	3913.968124	22678.587386
15.041000	-0.000727	-0.000228	-0.000659	0.003586	6262.305280	43087.666590	3907.634972	22631.870695
15.534500	-0.000411	0.000589	-0.000699	0.000721	6286.847101	43429.252387	3914.192471	22762.322289
16.036500	-0.001191	0.000531	-0.001096	0.000137	6285.322504	43478.249254	3914.627256	22788.992587
16.535500	0.000129	0.000349	-0.004039	0.000854	6289.991751	43394.430988	3906.135928	22756.222900
17.035500	-0.002928	-0.000312	0.002503	0.001658	6260.210164	43258.304443	3919.481642	22719.540659
17.536000	0.000104	-0.000253	0.001768	-0.000200	6297.977590	43436.511491	3922.113989	22804.400754
18.036000	-0.000228	-0.000377	-0.000238	0.000975	6286.289131	43315.671267	3914.673992	22750.691253
18.537000	0.000636	0.000319	0.002450	0.001598	6288.155288	43322.445541	3919.498478	22722.280759
19.037000	-0.000789	-0.000248	-0.002343	0.001073	6281.196602	43318.589147	3909.553257	22746.220038
19.537000	-0.001254	0.000098	0.005297	0.001641	6273.219212	43297.983244	3926.083554	22720.314512
20.037500	-0.002356	0.000292	-0.003308	0.001531	6265.583383	43326.189360	3906.260280	22725.337706
20.535000	-0.001153	0.000574	-0.000337	0.001574	6274.519494	43348.441248	3913.050906	22723.404094
21.035000	-0.002326	0.000384	-0.001680	0.001788	6263.837239	43310.858379	3909.434930	22713.638145
21.535500	-0.001180	0.000258	-0.006592	0.001697	6273.361410	43307.636487	3898.320412	22717.758532
22.035500	0.002082	0.000043	0.002576	0.001555	6299.713161	43300.874884	3919.893448	22724.249602
22.536000	-0.001135	0.001074	0.004829	0.001943	6271.818581	43360.634163	3924.272252	22706.592513
23.036500	-0.003834	-0.000266	-0.002337	0.001496	6254.496373	43277.642588	3908.586377	22726.926325
23.537000	0.000454	0.000224	0.002292	0.001956	6283.979928	43280.427826	3918.291328	22705.970833
24.037000	-0.002072	-0.000607	-0.000643	0.001299	6269.555130	43264.238824	3912.975991	22735.914146
24.540000	-0.000381	0.000286	0.000233	0.001790	6278.805875	43301.611706	3913.873758	22713.533074
25.034500	-0.001222	0.000327	-0.000221	0.003121	6262.078001	43182.012049	3909.725016	22652.987120
25.535500	-0.001441	0.001332	0.004292	0.002643	6264.069903	43319.473187	3921.365983	22674.701962
26.035500	-0.001090	0.000865	-0.001879	0.003140	6262.940574	43230.048741	3905.844481	22652.118271
26.536000	-0.001160	-0.000573	0.002960	0.001599	6274.271266	43239.587249	3920.688947	22722.225264
27.036000	0.000336	0.000206	-0.001878	0.002513	6278.758295	43227.038374	3907.297031	22680.615032
27.536000	0.000988	0.000524	0.006837	-0.001481	6314.838224	43628.781652	3937.127220	22863.126896
28.036500	0.000344	0.000162	-0.007019	0.000993	6290.589593	43364.198539	3898.957390	22749.901935
28.537000	-0.000631	0.000877	0.003389	0.001554	6278.701821	43378.479787	3921.802420	22724.285698
29.037000	-0.000856	0.000761	0.001859	0.001144	6280.135753	43405.860221	3919.177665	22743.003366
29.537000	0.001273	0.000346	0.005149	0.000883	6298.642479	43391.500620	3927.521437	22754.895204
30.035000	-0.000224	0.001255	0.001325	0.004281	6260.828709	43160.521594	3910.620287	22600.364035
30.535000	0.000983	0.000460	0.002810	0.002739	6282.011397	43229.610914	3917.670359	22670.326889
31.035500	-0.001295	0.001099	0.003111	0.003623	6257.661578	43206.991458	3916.308577	22630.183626
31.536000	-0.001158	0.000606	0.007218	0.001168	6277.606337	43389.143872	3931.739603	22741.881329
32.036000	-0.000557	0.000875	0.000198	0.003900	6261.200754	43160.596887	3908.891043	22617.634080
32.536500	0.001228	0.001003	-0.001441	0.001157	6296.174824	43427.134665	3911.453881	22742.409455
33.036500	-0.001407	0.000667	0.004422	0.000591	6280.144894	43448.606738	3926.495875	22768.253346
33.537000	0.000169	0.000671	0.000812	0.000256	6294.951124	43480.186487	3918.805383	22783.577231
34.040000	-0.002309	0.000337	0.000026	0.002393	6259.314982	43250.325968	3911.988678	22686.069340
34.535000	-0.001221	0.000731	-0.000082	0.002044	6270.377040	43319.425817	3912.550518	22701.989511
35.035000	0.000198	0.001197	-0.001827	0.002321	6279.183899	43336.943350	3907.859921	22689.375923
35.535500	-0.001543	0.000040	-0.000365	0.001571	6271.538781	43299.142932	3912.992982	22723.533048
36.036000	0.000635	0.000776	0.001829	0.003089	6276.622763	43226.505515	3914.565425	22654.439050
36.536000	-0.001301	0.000967	0.003895	0.001849	6271.264268	43359.479528	3922.298366	22710.871328
37.036000	-0.001340	0.001291	0.002564	0.002772	6263.856953	43303.780716	3917.020160	22668.860304
37.536500	0.000809	0.001247	0.003231	0.002214	6284.735532	43351.505686	3919.885564	22694.252804
38.036500	-0.000297	0.000790	0.005049	0.001658	6280.481909	43360.699459	3925.459951	22719.564962
38.537000	-0.000051	0.000668	0.001628	0.001541	6283.281046	43360.169933	3917.708453	22724.875247
39.034500	-0.001531	0.000444	0.000853	0.001767	6270.119721	43318.446690	3915.371907	22714.609994
39.535000	0.000459	0.000906	0.003506	0.002063	6283.186774	43333.827074	3920.882276	22701.096480
40.035000	0.000615	-0.000100	-0.003667	0.003143	6276.053429	43140.469587	3901.718203	22651.997734
40.535500	-0.001920	-0.000021	0.001648	0.001711	6267.547221	43280.355681	3917.356982	22717.121905
41.035500	-0.000318	0.000716	0.001546	0.003053	6269.553698	43224.350256	3913.990209	22656.090840
41.536000	-0.002448	0.000478	0.003826	0.002346	6258.607305	43267.774140	3920.968293	22688.204494
42.036500	-0.000693	0.000291	-0.001328	0.003537	6262.944230	43140.201977	3906.200617	22634.106169
42.537000	-0.001148	0.000861	0.007010	0.002842	6264.790328	43257.307445	3927.290256	22665.649047
43.037000	0.002333	0.001671	0.001812	0.003724	6284.843835	43250.698096	3913.046843	22625.626770
43.540000	0.003258	0.001066	0.002984	-0.001736	6334.603680	43703.372911	3928.592306	22874.828314
44.035000	-0.000968	0.000692	-0.000079	0.005820	6243.336733	42966.421590	3903.813050	22530.757131
44.534500	0.000776	0.000985	0.002882	0.001821	6287.513621	43363.662292	3919.986248	22712.106410
45.035000	0.000354	0.001000	0.002609	0.004850	6260.907416	43084.369404	3912.282449	22574.627804
45.535500	0.001618	0.000216	-0.001434	0.000734	6302.485271	43393.222044	3912.450816	22761.713066
46.035500	-0.002845	0.000602	0.001502	0.006479	6224.018029	42897.498402	3905.940655	22501.031307
46.536000	-0.000109	0.000847	0.001959	0.001269	6284.945518	43402.255270	3919.118536	22737.305524
47.036500	-0.003392	0.000714	-0.002494	0.003349	6243.697711	43196.724075	3903.942652	22642.638358
47.536500	0.001004	0.001677	0.001037	0.003581	6275.673379	43264.488929	3911.578836	22632.096991
48.037500	-0.002741	0.001319	-0.004598	0.007113	6219.992722	42905.240450	3890.507306	22472.502177
48.537500	0.000139	0.000754	0.004447	0.001252	6286.993350	43395.126868	3924.998552	22738.060787
49.035000	-0.002052	0.000779	0.000682	0.004724	6243.431449	43075.625067	3908.104701	22580.321162
49.535000	0.003623	0.001505	0.001227	-0.001916	6338.890308	43761.535591	3924.876541	22883.123866
50.035500	-0.003098	0.000258	-0.001456	0.016321	6148.208911	41972.061774	3876.804542	22062.415657
50.535500	0.036534	-0.014441	0.028970	0.572786	3905.269098	13442.183824	3192.818004	8239.589555
51.035500	0.005197	-0.015806	-0.008403	0.241092	4882.861271	25371.852821	3474.035176	14330.814715
51.536500	0.002680	-0.019612	-0.029868	-0.096776	7163.138805	51310.044030	4086.534048	27754.961047
52.036000	0.000425	-0.109943	-0.021819	-0.299139	9643.871665	65535.000000	4824.466544	42491.998519
52.537000	-0.005011	-0.138776	-0.016564	-0.327973	10015.796901	65535.000000	4981.387612	45208.045456
53.037000	-0.005150	-0.133393	-0.013669	-0.322589	9926.216165	65535.000000	4969.515999	44687.176404
53.534500	-0.011573	-0.085339	-0.013437	-0.274535	9100.801234	65535.000000	4754.012926	40312.813727
54.035000	-0.012565	-0.059163	-0.014394	-0.240632	8623.958485	64431.716165	4611.217149	37505.209599
54.535000	-0.010360	-0.052669	-0.011547	-0.231559	8534.536005	64067.805970	4586.899360	36790.290689
55.035500	-0.006718	-0.048834	-0.008854	-0.226322	8513.968897	63870.867592	4577.061949	36384.380381
55.535500	-0.007336	-0.031725	-0.011091	-0.191945	8081.261236	61497.034584	4441.689576	33838.060438
56.036000	-0.009991	-0.019790	-0.015102	-0.144677	7521.287037	56924.324683	4270.290230	30650.214769
56.536000	-0.006979	-0.016398	-0.011078	-0.120771	7305.392359	54435.251113	4209.097826	29165.401710
57.037000	-0.003753	-0.010589	-0.007434	-0.095916	7092.559029	52227.188412	4146.826670	27705.835385
57.536000	-0.001832	-0.007404	-0.005226	-0.088200	7037.306841	51715.890715	4131.145374	27269.454209
58.034500	-0.009988	-0.006149	-0.009391	-0.061862	6723.298243	48980.610664	4047.827630	25837.013149
58.535000	0.000402	-0.002389	-0.004119	-0.043389	6653.252325	47448.073770	4013.540727	24882.895160
59.035000	0.002388	-0.002793	-0.001239	-0.042646	6663.935766	47330.721675	4019.020524	24845.358780
59.535500	-0.005033	0.000123	-0.005508	-0.030027	6495.309611	46350.634226	3976.445674	24217.618399
60.038500	-0.005865	0.000827	-0.006949	-0.026021	6455.755378	46022.115497	3963.062157	24022.125631
60.536500	-0.009965	0.000721	-0.008971	-0.033155	6480.517412	46724.509898	3975.618311	24371.556918
61.043000	-0.006993	0.001909	-0.004771	-0.035648	6525.544125	47096.886145	3992.282944	24495.026733
61.536000	-0.006279	0.004071	-0.005758	-0.035254	6528.191776	47276.827050	3988.822029	24475.441355
62.036500	-0.008217	0.003446	-0.005691	-0.029972	6468.778952	46678.307918	3975.857152	24214.920979
62.537500	-0.007253	0.003069	0.000248	-0.034372	6512.827032	47085.077039	4001.713353	24431.732401
63.034500	-0.004182	0.004473	-0.003308	-0.032278	6520.908921	47015.005991	3987.506312	24328.284249
63.535000	-0.006877	0.004726	-0.000772	-0.030936	6487.634453	46904.722863	3990.493280	24262.253331
64.035500	-0.006969	0.005031	-0.004579	-0.024967	6438.250656	46335.480125	3966.281287	23970.990012
64.535500	-0.002456	0.006660	0.000738	-0.028355	6502.763074	46839.334386	3987.813526	24135.807995
65.035500	-0.003764	0.006732	-0.002541	-0.023321	6450.889782	46340.976314	3967.240128	23891.382981
65.536000	-0.000919	0.007900	-0.003641	-0.025549	6492.315014	46681.448529	3970.009582	23999.201875
66.036000	-0.004666	0.007280	-0.004065	-0.018483	6404.593272	45914.739646	3951.761386	23659.138967
66.536500	-0.001636	0.008517	0.003185	-0.023343	6468.393863	46521.835298	3981.425307	23892.457612
67.042000	-0.001247	0.009371	0.005225	-0.020585	6449.111819	46331.299834	3979.642942	23759.729307
67.537500	0.000387	0.009419	0.001940	-0.024431	6493.862833	46721.813724	3981.034090	23945.032741
68.034500	0.001908	0.009978	-0.000676	-0.024649	6508.185503	46800.149168	3975.095838	23955.585840
68.534500	-0.001208	0.009560	-0.001184	-0.025417	6488.859535	46835.451699	3975.738446	23992.808993
69.035000	0.000724	0.009931	0.000609	-0.021916	6476.009830	46520.541484	3971.527872	23823.681117
69.535500	0.000960	0.010214	-0.002327	-0.026567	6516.198319	47018.104360	3975.756399	24048.663485
70.035500	0.001626	0.009956	0.003568	-0.027522	6529.628129	47088.797861	3992.813679	24095.159654
70.536000	0.002833	0.011362	-0.003120	-0.028168	6545.041244	47297.766812	3977.754178	24126.687700
71.039000	0.004167	0.012003	0.003278	-0.024852	6528.554187	47025.536261	3985.410415	23965.410867
71.537000	0.006763	0.012592	0.003093	-0.028775	6583.060751	47485.649058	3994.768027	24156.321873
72.037000	0.002784	0.012635	0.000327	-0.024633	6515.290488	47067.488955	3977.535546	23954.821489
72.537500	0.004579	0.013005	0.007859	-0.030205	6576.715915	47674.948898	4010.462544	24226.362631
73.035000	0.003942	0.013025	0.007643	-0.028188	6554.466054	47469.821362	4004.780192	24127.652119
73.535000	0.007500	0.013763	0.010489	-0.029988	6599.527402	47730.633905	4016.633560	24215.715559
74.035500	0.004220	0.013405	0.001812	-0.025284	6532.584731	47211.962900	3982.834495	23986.353422
74.535500	0.005648	0.013546	0.007376	-0.030065	6584.532382	47716.159204	4008.872886	24219.476031
75.036500	0.007454	0.014146	0.002672	-0.028950	6590.369249	47663.226438	3994.152618	24164.904448
75.536000	0.005895	0.013677	0.004814	-0.028582	6574.133582	47577.128566	3998.618868	24146.907598
76.036500	0.002129	0.013657	0.005520	-0.022821	6494.952932	46987.381641	3985.936416	23867.262438
76.539500	0.005468	0.015424	0.012800	-0.024415	6535.730517	47329.284909	4008.296329	23944.254229
77.037500	0.007701	0.014840	0.006519	-0.023151	6543.808997	47141.038428	3989.256901	23883.205231
77.534500	0.005563	0.014433	0.006794	-0.022783	6522.979777	47062.233662	3989.025720	23865.442352
78.035000	0.004552	0.014174	0.008796	-0.016939	6466.630228	46446.989026	3979.457429	23585.558410
78.535000	0.008895	0.014700	0.008245	-0.020298	6529.997012	46837.630962	3986.440556	23745.941464
79.035500	0.007457	0.015550	0.009118	-0.015265	6476.683267	46417.156591	3976.108628	23506.074054
79.535500	0.010295	0.014812	0.014980	-0.018063	6523.079582	46623.741932	3997.728623	23639.104366
80.036000	0.008487	0.014931	0.015168	-0.014983	6482.808828	46327.154370	3990.459851	23492.715217
80.536500	0.009286	0.014572	0.012936	-0.015940	6497.214900	46386.829585	3987.269864	23538.062397
81.039500	0.009068	0.014823	0.010930	-0.011117	6455.986363	45932.162934	3970.351293	23310.427694
81.537000	0.011385	0.014765	0.013191	-0.013593	6495.182088	46172.148764	3982.060702	23427.009081
82.035000	0.010312	0.014464	0.013627	-0.008175	6442.212225	45607.000240	3969.749483	23172.836135
82.535000	0.012636	0.013951	0.016261	-0.011514	6488.377358	45885.267950	3984.524302	23329.072330
83.035500	0.012091	0.014282	0.016475	-0.008019	6455.381208	45573.790657	3976.383618	23165.557501
83.535500	0.014280	0.014845	0.019197	-0.008634	6478.246353	45689.472177	3984.663596	23194.211851
84.036000	0.014041	0.015772	0.010249	-0.003322	6433.128284	45260.449356	3949.718232	22947.856021
84.536000	0.017138	0.015691	0.014466	-0.005898	6479.250876	45503.985829	3966.220281	23066.931179
85.036500	0.017380	0.015134	0.017466	-0.002971	6457.339117	45164.242195	3966.400819	22931.661124
85.536500	0.019805	0.015679	0.018037	-0.003973	6485.329845	45314.795559	3970.260232	22977.879254
86.042500	0.019283	0.015145	0.022935	-0.003182	6474.580493	45185.722489	3980.402826	22941.371900
86.536500	0.021190	0.015027	0.022168	-0.002346	6483.348072	45093.133774	3976.434553	22902.892281
87.037500	0.022311	0.016525	0.027140	-0.000582	6478.081329	45067.355672	3984.394029	22821.926569
87.535000	0.021420	0.015698	0.025953	-0.000382	6469.160830	44967.931929	3980.944526	22812.730470
88.034500	0.022001	0.015986	0.018943	0.000882	6463.595215	44873.674287	3960.596525	22754.938968
88.535500	0.021870	0.015978	0.023918	0.002287	6451.099077	44737.561292	3969.329639	22690.901220
89.035500	0.021372	0.015815	0.026223	0.002938	6441.781334	44659.354151	3973.399490	22661.288799
89.536500	0.024949	0.016700	0.024233	0.004453	6458.519682	44598.885717	3964.793587	22592.567861
90.036500	0.022413	0.016810	0.021320	0.007740	6411.462332	44295.592143	3949.739646	22444.306522
90.539500	0.025299	0.016808	0.026748	0.005729	6450.997097	44487.142897	3967.827806	22534.887868
91.037000	0.027831	0.016434	0.023943	0.006598	6464.525873	44368.512883	3958.854578	22495.681527
91.537000	0.025400	0.016869	0.030134	0.007263	6439.376081	44346.554662	3972.377835	22465.722908
92.037500	0.027937	0.017700	0.025385	0.010768	6431.553587	44092.594598	3952.240135	22308.668639
92.535000	0.024875	0.017886	0.024481	0.009300	6418.705858	44249.590098	3953.606340	22374.326948
93.035500	0.027882	0.017891	0.021051	0.009144	6444.245976	44264.822275	3945.714344	22381.304330
93.535500	0.026710	0.018187	0.023816	0.010396	6424.652906	44174.009019	3949.353007	22325.276365
94.036000	0.028805	0.017800	0.024419	0.012240	6426.679196	43962.909529	3946.364834	22243.071485
94.536500	0.028070	0.019069	0.030711	0.011866	6423.770718	44118.296217	3962.509629	22259.735546
95.036500	0.028098	0.018604	0.030400	0.012500	6418.894005	44014.279368	3960.205394	22231.542571
95.536500	0.030820	0.019459	0.031758	0.013458	6433.114598	44004.558138	3961.180829	22189.001495
96.037500	0.027652	0.018637	0.027452	0.014766	6397.134177	43803.827985	3947.585359	22131.047824
96.534500	0.029275	0.019936	0.029163	0.014831	6409.613961	43919.988750	3951.552893	22128.171369
97.035000	0.029585	0.019567	0.031639	0.014560	6414.287408	43910.784447	3958.209560	22140.188518
97.535000	0.032184	0.020556	0.026012	0.015798	6425.232072	43887.220765	3941.653357	22085.463281
98.041000	0.030628	0.020554	0.034331	0.017855	6396.235981	43693.792746	3956.743274	21994.957648
98.535500	0.032884	0.019895	0.027053	0.016188	6427.737080	43788.384319	3943.213630	22068.291456
99.036000	0.028615	0.019549	0.029736	0.019279	6368.865971	43466.714369	3942.236972	21932.526330
99.536500	0.032202	0.020343	0.030540	0.018002	6407.661932	43660.165460	3947.228862	21988.480600
100.039500	0.030449	0.019990	0.026868	0.019634	6380.616289	43474.654319	3934.548959	21916.973865
100.536500	0.034259	0.020745	0.028591	0.019558	6411.676567	43552.207311	3938.833173	21920.305836
101.034500	0.032038	0.020183	0.029286	0.022785	6368.209926	43199.797101	3932.810471	21779.712741
101.534500	0.033679	0.020238	0.030057	0.020680	6398.044528	43400.383021	3939.655802	21871.327925
102.034500	0.035834	0.021150	0.028852	0.021797	6406.355671	43381.265061	3934.125896	21822.647483
102.535500	0.033331	0.020731	0.026022	0.022304	6382.310604	43295.158986	3926.230216	21800.598686
103.036000	0.030943	0.021055	0.029618	0.026429	6330.839052	42943.833299	3924.983232	21622.166838
103.536500	0.035225	0.021621	0.029224	0.024380	6380.863035	43185.271350	3928.888468	21710.604453
104.036000	0.035211	0.020841	0.030991	0.025273	6373.639914	43030.625128	3930.952744	21671.983995
