sample name	sample
index	217
start time	 02-22-2021  10:19:40 AM


Wavelength (nm)	Absorbance
494.344910	NaN
494.563924	NaN
494.782919	NaN
495.001897	-0.213250
495.220856	0.080996
495.439797	0.020000
495.658719	-0.026158
495.877624	-0.092128
496.096510	-0.061319
496.315378	-0.077245
496.534227	-0.057659
496.753059	-0.058066
496.971872	-0.053095
497.190667	-0.003581
497.409444	0.002946
497.628203	0.005004
497.846943	0.006040
498.065665	0.006300
498.284369	0.005944
498.503055	0.004934
498.721723	0.004934
498.940372	0.004500
499.159003	0.004919
499.377616	0.005431
499.596210	0.005880
499.814787	0.006667
500.033345	0.006551
500.251885	0.006642
500.470406	0.006579
500.688910	0.007378
500.907395	0.007323
501.125862	0.008721
501.344311	0.008896
501.562742	0.008694
501.781154	0.008729
501.999548	0.008556
502.217924	0.009313
502.436282	0.009882
502.654621	0.008856
502.872942	0.008893
503.091245	0.008102
503.309530	0.008205
503.527797	0.007020
503.746045	0.007214
503.964275	0.007146
504.182487	0.006618
504.400681	0.006661
504.618856	0.008115
504.837013	0.008397
505.055152	0.008899
505.273273	0.008309
505.491376	0.009142
505.709460	0.008055
505.927526	0.008389
506.145574	0.008701
506.363604	0.008409
506.581615	0.007482
506.799608	0.007766
507.017583	0.007157
507.235540	0.007035
507.453478	0.007306
507.671399	0.007544
507.889301	0.007515
508.107185	0.006878
508.325050	0.007538
508.542898	0.008289
508.760727	0.008019
508.978538	0.008619
509.196330	0.009221
509.414105	0.008963
509.631861	0.009090
509.849599	0.008856
510.067319	0.009593
510.285021	0.008829
510.502704	0.007952
510.720369	0.008258
510.938016	0.007609
511.155645	0.007533
511.373255	0.007342
511.590848	0.007595
511.808422	0.007694
512.025977	0.007861
512.243515	0.008181
512.461034	0.008522
512.678536	0.008657
512.896018	0.008779
513.113483	0.008065
513.330930	0.008456
513.548358	0.008619
513.765768	0.008427
513.983160	0.007827
514.200533	0.007862
514.417889	0.007636
514.635226	0.006688
514.852545	0.006968
515.069845	0.006853
515.287128	0.007214
515.504392	0.006930
515.721638	0.007367
515.938866	0.007497
516.156075	0.007332
516.373267	0.007571
516.590440	0.008096
516.807594	0.007837
517.024731	0.008532
517.241850	0.008157
517.458950	0.008219
517.676032	0.008123
517.893095	0.007919
518.110141	0.007762
518.327168	0.007684
518.544177	0.007411
518.761168	0.007014
518.978141	0.007169
519.195095	0.007604
519.412031	0.007578
519.628949	0.007404
519.845849	0.007408
520.062731	0.008150
520.279594	0.008394
520.496439	0.008837
520.713266	0.009366
520.930074	0.008938
521.146865	0.008185
521.363637	0.008524
521.580391	0.009188
521.797127	0.009142
522.013844	0.008913
522.230543	0.009042
522.447224	0.008703
522.663887	0.008608
522.880532	0.008760
523.097158	0.009473
523.313766	0.009127
523.530356	0.008959
523.746928	0.009582
523.963481	0.008903
524.180017	0.008724
524.396534	0.009284
524.613032	0.009143
524.829513	0.008821
525.045975	0.008693
525.262420	0.009070
525.478845	0.008665
525.695253	0.008352
525.911643	0.008603
526.128014	0.008691
526.344367	0.008432
526.560702	0.008516
526.777018	0.008974
526.993316	0.008956
527.209597	0.008407
527.425858	0.008954
527.642102	0.009400
527.858328	0.009602
528.074535	0.009965
528.290724	0.009682
528.506894	0.010054
528.723047	0.009781
528.939181	0.009691
529.155297	0.009946
529.371395	0.009683
529.587475	0.009276
529.803536	0.009634
530.019579	0.009245
530.235604	0.009805
530.451611	0.009527
530.667600	0.009153
530.883570	0.009367
531.099522	0.009737
531.315456	0.010104
531.531372	0.010214
531.747269	0.009890
531.963148	0.009301
532.179009	0.009415
532.394852	0.009058
532.610676	0.009256
532.826482	0.009256
533.042271	0.008751
533.258040	0.008472
533.473792	0.008459
533.689525	0.008667
533.905240	0.009020
534.120937	0.009184
534.336616	0.010373
534.552277	0.010614
534.767919	0.010466
534.983543	0.010537
535.199149	0.010593
535.414736	0.010832
535.630306	0.010691
535.845857	0.011079
536.061390	0.010635
536.276904	0.009768
536.492401	0.009966
536.707879	0.010268
536.923339	0.010513
537.138781	0.010494
537.354204	0.010246
537.569610	0.010353
537.784997	0.010415
538.000366	0.010678
538.215716	0.011029
538.431049	0.010978
538.646363	0.010724
538.861659	0.010909
539.076937	0.011185
539.292196	0.011386
539.507438	0.011537
539.722661	0.011401
539.937866	0.011732
540.153052	0.011815
540.368221	0.012150
540.583371	0.012193
540.798503	0.011852
541.013617	0.011807
541.228712	0.011726
541.443789	0.011989
541.658848	0.011824
541.873889	0.011668
542.088912	0.011745
542.303916	0.011505
542.518902	0.011374
542.733870	0.011295
542.948820	0.011141
543.163752	0.011381
543.378665	0.011169
543.593560	0.011377
543.808437	0.011509
544.023295	0.011460
544.238136	0.011569
544.452958	0.011975
544.667762	0.012364
544.882548	0.012541
545.097315	0.012388
545.312064	0.012458
545.526795	0.012252
545.741508	0.011915
545.956203	0.011648
546.170879	0.011657
546.385537	0.011286
546.600177	0.011081
546.814799	0.011170
547.029402	0.011086
547.243988	0.011019
547.458555	0.011231
547.673103	0.011146
547.887634	0.011395
548.102146	0.011246
548.316640	0.011610
548.531116	0.012005
548.745574	0.011905
548.960013	0.012160
549.174435	0.012151
549.388838	0.012212
549.603222	0.012444
549.817589	0.012321
550.031937	0.012730
550.246267	0.012741
550.460579	0.012525
550.674873	0.012740
550.889148	0.012865
551.103405	0.012866
551.317644	0.013098
551.531865	0.013083
551.746068	0.013298
551.960252	0.013190
552.174418	0.012715
552.388566	0.012700
552.602696	0.012662
552.816807	0.012436
553.030900	0.012821
553.244975	0.012742
553.459032	0.012884
553.673070	0.012615
553.887091	0.012846
554.101093	0.013359
554.315077	0.013149
554.529042	0.013159
554.742990	0.013204
554.956919	0.013038
555.170830	0.013139
555.384722	0.012986
555.598597	0.013058
555.812453	0.012622
556.026291	0.012744
556.240111	0.012857
556.453913	0.012646
556.667696	0.012873
556.881461	0.012923
557.095208	0.012799
557.308937	0.012816
557.522647	0.013253
557.736339	0.013760
557.950013	0.013905
558.163669	0.013886
558.377307	0.013897
558.590926	0.013560
558.804527	0.013506
559.018110	0.013410
559.231675	0.013418
559.445221	0.013450
559.658749	0.013127
559.872259	0.012740
560.085751	0.013142
560.299225	0.013268
560.512680	0.013625
560.726117	0.013762
560.939536	0.014061
561.152937	0.014410
561.366319	0.014108
561.579683	0.014080
561.793029	0.014089
562.006357	0.013902
562.219667	0.013909
562.432958	0.013766
562.646231	0.013550
562.859486	0.013585
563.072723	0.013494
563.285941	0.013231
563.499141	0.013272
563.712323	0.013387
563.925487	0.013534
564.138632	0.013604
564.351760	0.013679
564.564869	0.013868
564.777960	0.013859
564.991032	0.013674
565.204087	0.013986
565.417123	0.013826
565.630141	0.013660
565.843140	0.013894
566.056122	0.014015
566.269085	0.013927
566.482030	0.013429
566.694957	0.013483
566.907866	0.013652
567.120756	0.013709
567.333628	0.013844
567.546482	0.013928
567.759318	0.013679
567.972135	0.013655
568.184935	0.013815
568.397716	0.014333
568.610478	0.014185
568.823223	0.014057
569.035949	0.013954
569.248657	0.013780
569.461347	0.013851
569.674019	0.013835
569.886672	0.013426
570.099308	0.013462
570.311925	0.013311
570.524523	0.013179
570.737104	0.013049
570.949666	0.013143
571.162210	0.013260
571.374736	0.013310
571.587244	0.013430
571.799733	0.013589
572.012205	0.013586
572.224658	0.013988
572.437092	0.014583
572.649509	0.014802
572.861907	0.015056
573.074287	0.015004
573.286649	0.014928
573.498993	0.015049
573.711318	0.015436
573.923625	0.015509
574.135914	0.015218
574.348185	0.014787
574.560438	0.014802
574.772672	0.014599
574.984888	0.014621
575.197086	0.014863
575.409266	0.014656
575.621427	0.014441
575.833570	0.014295
576.045695	0.014097
576.257802	0.014063
576.469890	0.013851
576.681961	0.014009
576.894013	0.014294
577.106046	0.014325
577.318062	0.014325
577.530059	0.014426
577.742039	0.014666
577.954000	0.014894
578.165942	0.015152
578.377867	0.015295
578.589773	0.015296
578.801661	0.015353
579.013531	0.015065
579.225382	0.015270
579.437216	0.015186
579.649031	0.014890
579.860828	0.014828
580.072606	0.014669
580.284367	0.014644
580.496109	0.014287
580.707833	0.014236
580.919539	0.014338
581.131227	0.014055
581.342896	0.013942
581.554547	0.013989
581.766180	0.013785
581.977795	0.013648
582.189391	0.013605
582.400969	0.013852
582.612529	0.013717
582.824071	0.013794
583.035595	0.013951
583.247100	0.014193
583.458587	0.014379
583.670056	0.014427
583.881506	0.014782
584.092939	0.014863
584.304353	0.014950
584.515749	0.015195
584.727127	0.015368
584.938486	0.015695
585.149828	0.015632
585.361151	0.015852
585.572456	0.015977
585.783742	0.015978
585.995011	0.016202
586.206261	0.016185
586.417493	0.016048
586.628706	0.015981
586.839902	0.015881
587.051079	0.016117
587.262238	0.015894
587.473379	0.016317
587.684502	0.015987
587.895606	0.015994
588.106692	0.016009
588.317760	0.016076
588.528810	0.016143
588.739841	0.016181
588.950855	0.016105
589.161850	0.016107
589.372827	0.016028
589.583785	0.016448
589.794726	0.016482
590.005648	0.016535
590.216552	0.016641
590.427437	0.016599
590.638305	0.016421
590.849154	0.016519
591.059985	0.016575
591.270798	0.016339
591.481592	0.015997
591.692369	0.015947
591.903127	0.016112
592.113867	0.016001
592.324588	0.016168
592.535292	0.016255
592.745977	0.016306
592.956644	0.016488
593.167293	0.016643
593.377923	0.016873
593.588536	0.017033
593.799130	0.016925
594.009706	0.017076
594.220263	0.016900
594.430803	0.017051
594.641324	0.017169
594.851827	0.017246
595.062312	0.017322
595.272778	0.017252
595.483227	0.017381
595.693657	0.017446
595.904069	0.017500
596.114462	0.017852
596.324838	0.017809
596.535195	0.017688
596.745534	0.017660
596.955855	0.017750
597.166157	0.017996
597.376441	0.017828
597.586707	0.017825
597.796955	0.017857
598.007185	0.017630
598.217396	0.017638
598.427589	0.017632
598.637764	0.017424
598.847921	0.017264
599.058060	0.017139
599.268180	0.016972
599.478282	0.017082
599.688366	0.017206
599.898431	0.017539
600.108479	0.017371
600.318508	0.017431
600.528519	0.017500
600.738511	0.017722
600.948486	0.017868
601.158442	0.017947
601.368380	0.017816
601.578300	0.017771
601.788202	0.017391
601.998085	0.017650
602.207950	0.017736
602.417797	0.017588
602.627626	0.017437
602.837436	0.017351
603.047228	0.017649
603.257002	0.017794
603.466758	0.017787
603.676496	0.017873
603.886215	0.017874
604.095916	0.017504
604.305599	0.017698
604.515264	0.017901
604.724910	0.017577
604.934538	0.017351
605.144148	0.017377
605.353740	0.017426
605.563314	0.017688
605.772869	0.017627
605.982406	0.018008
606.191925	0.018001
606.401425	0.017958
606.610908	0.018343
606.820372	0.018590
607.029818	0.018486
607.239246	0.018372
607.448655	0.018134
607.658047	0.018044
607.867420	0.018084
608.076775	0.018217
608.286111	0.018253
608.495430	0.018359
608.704730	0.018039
608.914012	0.018254
609.123275	0.018241
609.332521	0.018535
609.541748	0.018906
609.750957	0.018930
609.960148	0.019180
610.169321	0.019406
610.378475	0.019502
610.587611	0.019635
610.796729	0.019575
611.005829	0.019879
611.214910	0.019643
611.423974	0.019394
611.633019	0.019615
611.842045	0.019368
612.051054	0.019280
612.260044	0.019163
612.469017	0.019484
612.677970	0.019747
612.886906	0.019700
613.095824	0.020039
613.304723	0.020178
613.513604	0.019676
613.722467	0.019917
613.931311	0.019864
614.140138	0.019836
614.348946	0.019666
614.557736	0.019416
614.766507	0.019447
614.975261	0.018913
615.183996	0.018997
615.392713	0.019309
615.601412	0.019198
615.810092	0.019164
616.018754	0.019244
616.227399	0.019370
616.436024	0.019479
616.644632	0.019558
616.853222	0.019836
617.061793	0.019733
617.270346	0.019784
617.478880	0.019557
617.687397	0.019776
617.895895	0.019777
618.104375	0.019721
618.312837	0.019533
618.521281	0.019440
618.729706	0.019582
618.938113	0.019614
619.146502	0.019628
619.354873	0.019727
619.563226	0.019734
619.771560	0.019715
619.979876	0.019618
620.188174	0.019699
620.396453	0.019593
620.604715	0.019347
620.812958	0.019218
621.021183	0.019178
621.229390	0.019282
621.437578	0.018985
621.645748	0.019036
621.853900	0.019133
622.062034	0.019213
622.270150	0.019146
622.478247	0.019223
622.686326	0.019448
622.894387	0.019568
623.102430	0.019714
623.310454	0.019842
623.518461	0.019928
623.726449	0.019873
623.934418	0.019963
624.142370	0.020131
624.350303	0.020163
624.558218	0.020165
624.766115	0.019959
624.973994	0.019997
625.181855	0.020027
625.389697	0.020063
625.597521	0.020140
625.805327	0.020371
626.013114	0.020378
626.220883	0.020364
626.428634	0.020370
626.636367	0.020438
626.844082	0.020174
627.051778	0.020450
627.259457	0.020375
627.467117	0.020427
627.674758	0.020303
627.882382	0.020467
628.089987	0.020633
628.297574	0.020585
628.505143	0.020731
628.712694	0.020833
628.920226	0.020556
629.127740	0.020737
629.335236	0.020746
629.542714	0.020704
629.750174	0.020638
629.957615	0.020621
630.165038	0.020553
630.372443	0.020592
630.579829	0.020601
630.787198	0.020709
630.994548	0.020720
631.201880	0.020561
631.409194	0.020560
631.616489	0.020464
631.823766	0.020448
632.031025	0.020617
632.238266	0.020687
632.445489	0.020652
632.652693	0.020504
632.859879	0.020406
633.067047	0.020522
633.274197	0.020603
633.481329	0.020718
633.688442	0.020871
633.895537	0.020813
634.102614	0.020625
634.309672	0.020911
634.516713	0.020942
634.723735	0.020985
634.930739	0.021128
635.137724	0.021028
635.344692	0.021127
635.551641	0.021137
635.758572	0.021328
635.965485	0.021480
636.172379	0.021378
636.379256	0.021424
636.586114	0.021397
636.792954	0.021490
636.999775	0.021358
637.206579	0.021352
637.413364	0.021225
637.620131	0.021219
637.826880	0.021117
638.033610	0.020970
638.240323	0.021017
638.447017	0.021140
638.653692	0.021221
638.860350	0.021445
639.066990	0.021551
639.273611	0.021870
639.480214	0.021901
639.686798	0.022008
639.893365	0.022299
640.099913	0.022288
640.306443	0.022294
640.512955	0.022114
640.719449	0.022111
640.925924	0.021910
641.132381	0.021819
641.338820	0.021896
641.545241	0.021823
641.751644	0.021811
641.958028	0.021989
642.164394	0.021879
642.370742	0.021874
642.577071	0.021823
642.783383	0.021833
642.989676	0.021707
643.195951	0.021613
643.402207	0.021775
643.608446	0.021639
643.814666	0.021620
644.020868	0.021561
644.227052	0.021621
644.433218	0.021772
644.639365	0.021924
644.845494	0.022176
645.051605	0.022225
645.257698	0.022159
645.463772	0.022339
645.669828	0.022359
645.875866	0.022666
646.081886	0.022723
646.287888	0.022660
646.493871	0.022794
646.699836	0.022724
646.905783	0.022810
647.111712	0.022915
647.317622	0.022976
647.523514	0.022966
647.729388	0.022926
647.935244	0.023100
648.141082	0.023235
648.346901	0.023307
648.552702	0.023274
648.758485	0.023480
648.964250	0.023723
649.169996	0.023716
649.375724	0.023962
649.581434	0.024131
649.787126	0.024122
649.992800	0.024149
650.198455	0.024050
650.404092	0.024006
650.609711	0.023698
650.815311	0.023525
651.020894	0.023550
651.226458	0.023418
651.432004	0.023206
651.637532	0.023047
651.843041	0.022926
652.048532	0.022968
652.254006	0.023296
652.459460	0.023460
652.664897	0.023291
652.870315	0.023320
653.075716	0.023430
653.281097	0.023477
653.486461	0.023583
653.691807	0.023854
653.897134	0.023887
654.102443	0.023628
654.307734	0.023571
654.513006	0.023731
654.718261	0.023776
654.923497	0.023598
655.128715	0.023671
655.333915	0.023696
655.539096	0.023649
655.744259	0.023636
655.949404	0.023672
656.154531	0.023750
656.359640	0.023748
656.564730	0.023957
656.769802	0.024161
656.974856	0.024106
657.179892	0.024136
657.384909	0.024157
657.589908	0.024162
657.794889	0.024165
657.999852	0.024206
658.204797	0.024393
658.409723	0.024375
658.614631	0.024335
658.819521	0.024560
659.024393	0.024629
659.229246	0.024660
659.434081	0.024822
659.638898	0.024893
659.843697	0.024869
660.048478	0.024892
660.253240	0.024709
660.457984	0.024850
660.662710	0.024635
660.867417	0.024815
661.072107	0.024813
661.276778	0.024679
661.481431	0.024765
661.686066	0.024787
661.890682	0.024740
662.095281	0.024833
662.299861	0.024730
662.504422	0.024741
662.708966	0.024573
662.913491	0.024670
663.117999	0.024740
663.322488	0.024769
663.526958	0.024795
663.731411	0.024883
663.935845	0.024761
664.140261	0.024928
664.344659	0.025114
664.549038	0.025360
664.753400	0.025348
664.957743	0.025345
665.162068	0.025428
665.366375	0.025586
665.570663	0.025625
665.774933	0.025914
665.979185	0.025811
666.183419	0.025916
666.387635	0.025735
666.591832	0.025594
666.796011	0.025857
667.000172	0.025884
667.204315	0.025840
667.408439	0.025698
667.612545	0.025628
667.816634	0.025656
668.020703	0.025618
668.224755	0.025691
668.428788	0.025836
668.632803	0.025645
668.836800	0.025572
669.040779	0.025496
669.244739	0.025489
669.448681	0.025584
669.652605	0.025659
669.856511	0.025513
670.060399	0.025546
670.264268	0.025644
670.468119	0.025598
670.671952	0.025600
670.875767	0.025702
671.079563	0.025925
671.283341	0.025922
671.487101	0.026046
671.690843	0.026210
671.894567	0.026330
672.098272	0.026271
672.301959	0.026467
672.505628	0.026639
672.709278	0.026649
672.912911	0.026708
673.116525	0.026782
673.320121	0.026616
673.523699	0.026646
673.727258	0.026687
673.930799	0.026878
674.134322	0.026979
674.337827	0.027070
674.541314	0.027144
674.744782	0.027202
674.948232	0.027108
675.151664	0.027216
675.355078	0.027447
675.558474	0.027563
675.761851	0.027450
675.965210	0.027275
676.168551	0.027231
676.371873	0.027224
676.575178	0.027260
676.778464	0.027272
676.981732	0.027283
677.184981	0.027136
677.388213	0.026911
677.591426	0.026784
677.794621	0.026920
677.997798	0.026919
678.200956	0.027072
678.404097	0.027002
678.607219	0.027190
678.810323	0.027535
679.013408	0.027497
679.216476	0.027611
679.419525	0.027762
679.622556	0.027782
679.825569	0.027767
680.028563	0.027762
680.231540	0.027794
680.434498	0.027510
680.637438	0.027237
680.840359	0.027453
681.043263	0.027363
681.246148	0.027376
681.449015	0.027444
681.651864	0.027520
681.854694	0.027525
682.057506	0.027519
682.260301	0.027867
682.463076	0.028024
682.665834	0.027952
682.868573	0.028209
683.071295	0.028273
683.273998	0.028239
683.476682	0.028175
683.679349	0.028181
683.881997	0.028177
684.084627	0.027996
684.287239	0.027862
684.489833	0.027941
684.692408	0.027756
684.894965	0.027803
685.097504	0.027901
685.300025	0.028056
685.502527	0.028170
685.705012	0.028056
685.907478	0.028188
686.109925	0.028348
686.312355	0.028325
686.514766	0.028627
686.717159	0.028677
686.919534	0.028648
687.121891	0.028643
687.324230	0.028590
687.526550	0.028747
687.728852	0.028747
687.931136	0.028622
688.133401	0.028545
688.335649	0.028454
688.537878	0.028312
688.740089	0.028476
688.942281	0.028433
689.144456	0.028334
689.346612	0.028439
689.548750	0.028461
689.750870	0.028565
689.952971	0.028591
690.155055	0.028552
690.357120	0.028698
690.559167	0.028477
690.761195	0.028549
690.963206	0.028599
691.165198	0.028536
691.367172	0.028482
691.569128	0.028565
691.771065	0.028771
691.972984	0.028655
692.174885	0.028779
692.376768	0.028987
692.578633	0.029177
692.780479	0.029282
692.982308	0.029507
693.184118	0.029686
693.385909	0.029639
693.587683	0.029638
693.789438	0.029861
693.991175	0.029896
694.192894	0.029856
694.394595	0.029751
694.596277	0.029793
694.797941	0.029666
694.999587	0.029484
695.201215	0.029474
695.402824	0.029298
695.604416	0.029308
695.805989	0.029346
696.007543	0.029542
696.209080	0.029537
696.410598	0.029679
696.612099	0.029702
696.813580	0.029999
697.015044	0.030092
697.216490	0.030279
697.417917	0.030197
697.619326	0.030203
697.820717	0.030067
698.022089	0.030158
698.223444	0.030019
698.424780	0.030132
698.626098	0.029944
698.827397	0.029935
699.028679	0.029930
699.229942	0.030051
699.431187	0.030131
699.632414	0.029998
699.833622	0.029918
700.034813	0.029953
700.235985	0.029781
700.437139	0.029869
700.638274	0.029874
700.839392	0.029856
701.040491	0.029824
701.241572	0.029801
701.442635	0.030009
701.643679	0.030032
701.844706	0.030235
702.045714	0.030312
702.246704	0.030382
702.447675	0.030459
702.648629	0.030688
702.849564	0.030782
703.050481	0.030816
703.251380	0.030893
703.452260	0.030970
703.653122	0.030910
703.853966	0.031050
704.054792	0.030941
704.255600	0.031045
704.456389	0.030947
704.657160	0.030844
704.857913	0.030662
705.058648	0.030492
705.259365	0.030505
705.460063	0.030420
705.660743	0.030352
705.861405	0.030423
706.062048	0.030366
706.262674	0.030296
706.463281	0.030245
706.663870	0.030389
706.864441	0.030456
707.064993	0.030453
707.265527	0.030508
707.466043	0.030591
707.666541	0.030476
707.867021	0.030339
708.067482	0.030343
708.267925	0.030377
708.468350	0.030368
708.668757	0.030284
708.869145	0.030254
709.069516	0.030106
709.269868	0.030175
709.470201	0.030303
709.670517	0.030542
709.870814	0.030638
710.071093	0.030656
710.271354	0.030551
710.471597	0.030569
710.671821	0.030680
710.872028	0.030669
711.072216	0.030595
711.272385	0.030608
711.472537	0.030513
711.672670	0.030527
711.872785	0.030725
712.072882	0.030765
712.272961	0.030773
712.473021	0.030653
712.673063	0.030672
712.873087	0.030437
713.073093	0.030304
713.273081	0.030188
713.473050	0.029902
713.673001	0.029758
713.872934	0.029768
714.072849	0.029883
714.272745	0.029744
714.472623	0.029726
714.672483	0.029767
714.872325	0.029892
715.072148	0.029985
715.271954	0.030273
715.471741	0.030337
715.671509	0.030385
715.871260	0.030221
716.070992	0.030510
716.270707	0.030581
716.470403	0.030648
716.670080	0.030637
716.869740	0.030655
717.069381	0.030512
717.269004	0.030441
717.468609	0.030424
717.668195	0.030430
717.867764	0.030292
718.067314	0.030223
718.266846	0.030403
718.466360	0.030364
718.665855	0.030333
718.865332	0.030429
719.064791	0.030353
719.264232	0.030353
719.463655	0.030466
719.663059	0.030357
719.862445	0.030356
720.061813	0.030199
720.261163	0.030064
720.460494	0.030014
720.659807	0.029771
720.859102	0.029699
721.058379	0.029549
721.257638	0.029505
721.456878	0.029634
721.656100	0.029682
721.855304	0.029567
722.054490	0.029608
722.253657	0.029483
722.452806	0.029571
722.651937	0.029599
722.851050	0.029608
723.050145	0.029512
723.249221	0.029415
723.448279	0.029370
723.647319	0.029481
723.846340	0.029388
724.045344	0.029338
724.244329	0.029349
724.443296	0.029447
724.642245	0.029371
724.841175	0.029359
725.040088	0.029329
725.238982	0.029421
725.437857	0.029408
725.636715	0.029456
725.835554	0.029595
726.034376	0.029632
726.233179	0.029578
726.431963	0.029637
726.630730	0.029580
726.829478	0.029553
727.028208	0.029416
727.226920	0.029286
727.425614	0.029160
727.624289	0.029096
727.822946	0.028921
728.021585	0.028875
728.220206	0.028839
728.418808	0.028865
728.617392	0.028883
728.815958	0.028934
729.014506	0.028968
729.213036	0.029090
729.411547	0.029079
729.610040	0.029187
729.808515	0.029126
730.006972	0.029264
730.205410	0.029402
730.403831	0.029412
730.602233	0.029246
730.800616	0.029286
730.998982	0.029191
731.197329	0.029176
731.395658	0.029129
731.593969	0.029063
731.792262	0.029033
731.990536	0.028928
732.188793	0.028881
732.387031	0.029099
732.585250	0.029124
732.783452	0.029068
732.981635	0.029140
733.179800	0.029272
733.377947	0.029468
733.576076	0.029338
733.774186	0.029260
733.972278	0.029157
734.170352	0.028965
734.368408	0.028766
734.566446	0.028983
734.764465	0.028941
734.962466	0.028857
735.160449	0.028662
735.358413	0.028625
735.556360	0.028807
735.754288	0.028878
735.952198	0.028758
736.150090	0.028789
736.347963	0.028863
736.545818	0.028893
736.743655	0.028643
736.941474	0.028603
737.139275	0.028672
737.337057	0.028445
737.534821	0.028183
737.732567	0.028353
737.930295	0.028398
738.128005	0.028297
738.325696	0.028318
738.523369	0.028541
738.721024	0.028498
738.918660	0.028436
739.116279	0.028328
739.313879	0.028500
739.511461	0.028515
739.709024	0.028411
739.906570	0.028312
740.104097	0.028122
740.301606	0.027946
740.499097	0.027983
740.696569	0.027850
740.894024	0.027874
741.091460	0.027823
741.288878	0.027786
741.486277	0.027889
741.683659	0.027912
741.881022	0.027796
742.078367	0.027811
742.275694	0.027833
742.473002	0.027985
742.670293	0.028139
742.867565	0.028099
743.064819	0.028045
743.262054	0.028030
743.459272	0.027920
743.656471	0.027949
743.853652	0.027992
744.050815	0.027896
744.247959	0.027815
744.445085	0.027700
744.642194	0.027625
744.839283	0.027574
745.036355	0.027485
745.233408	0.027501
745.430444	0.027529
745.627461	0.027509
745.824459	0.027662
746.021440	0.027571
746.218402	0.027492
746.415346	0.027745
746.612272	0.027696
746.809180	0.027693
747.006069	0.027613
747.202940	0.027724
747.399793	0.027472
747.596628	0.027307
747.793444	0.027247
747.990243	0.027336
748.187023	0.027086
748.383784	0.027203
748.580528	0.027088
748.777253	0.027227
748.973960	0.026919
749.170649	0.027137
749.367320	0.026976
749.563973	0.027045
749.760607	0.027031
749.957223	0.027108
750.153821	0.026976
750.350400	0.027107
750.546962	0.026962
750.743505	0.026976
750.940030	0.026824
751.136536	0.027063
751.333025	0.027130
751.529495	0.027135
751.725947	0.027047
751.922381	0.026922
752.118796	0.026849
752.315194	0.026863
752.511573	0.026776
752.707934	0.026788
752.904276	0.026646
753.100601	0.026587
753.296907	0.026487
753.493195	0.026418
753.689465	0.026578
753.885716	0.026413
754.081949	0.026356
754.278164	0.026410
754.474361	0.026312
754.670540	0.026453
754.866700	0.026479
755.062843	0.026374
755.258967	0.026530
755.455072	0.026454
755.651160	0.026493
755.847229	0.026633
756.043280	0.026576
756.239313	0.026706
756.435328	0.026703
756.631324	0.026756
756.827302	0.026861
757.023262	0.026784
757.219204	0.026779
757.415127	0.026820
757.611033	0.026786
757.806920	0.026944
758.002788	0.026810
758.198639	0.026718
758.394471	0.026455
758.590286	0.026426
758.786081	0.026387
758.981859	0.026377
759.177619	0.026498
759.373360	0.026460
759.569083	0.026232
759.764788	0.026256
759.960474	0.026144
760.156143	0.026389
760.351793	0.026406
760.547425	0.026363
760.743038	0.026145
760.938634	0.026114
761.134211	0.026123
761.329770	0.026357
761.525311	0.026442
761.720833	0.026592
761.916338	0.026376
762.111824	0.026301
762.307292	0.026361
762.502741	0.026595
762.698173	0.026494
762.893586	0.026333
763.088981	0.026226
763.284358	0.026157
763.479716	0.026142
763.675057	0.026261
763.870379	0.026247
764.065683	0.026137
764.260968	0.026020
764.456236	0.025840
764.651485	0.025982
764.846716	0.026070
765.041929	0.025851
765.237123	0.025634
765.432299	0.025630
765.627457	0.025628
765.822597	0.025871
766.017719	0.025822
766.212822	0.026055
766.407907	0.025968
766.602974	0.025940
766.798023	0.026161
766.993054	0.026253
767.188066	0.026183
767.383060	0.026253
767.578036	0.025966
767.772993	0.026009
767.967933	0.025935
768.162854	0.025842
768.357757	0.025863
768.552642	0.025811
768.747508	0.025817
768.942356	0.026046
769.137186	0.026039
769.331998	0.026184
769.526792	0.026197
769.721567	0.026268
769.916324	0.026338
770.111063	0.026359
770.305784	0.026483
770.500486	0.026382
770.695171	0.026171
770.889837	0.026133
771.084484	0.026212
771.279114	0.026174
771.473725	0.025990
771.668318	0.026046
771.862893	0.026020
772.057450	0.025943
772.251988	0.025925
772.446509	0.025949
772.641011	0.026129
772.835494	0.025987
773.029960	0.026204
773.224407	0.026221
773.418836	0.026205
773.613247	0.026245
773.807640	0.026278
774.002014	0.026290
774.196370	0.026074
774.390708	0.025908
774.585028	0.025800
774.779330	0.025689
774.973613	0.025791
775.167878	0.025731
775.362125	0.025734
775.556354	0.025641
775.750564	0.025661
775.944756	0.025735
776.138930	0.025680
776.333086	0.025829
776.527223	0.025655
776.721343	0.025479
776.915444	0.025433
777.109526	0.025409
777.303591	0.025308
777.497637	0.025480
777.691666	0.025618
777.885676	0.025648
778.079667	0.025724
778.273641	0.025897
778.467596	0.026054
778.661533	0.026162
778.855452	0.026252
779.049352	0.026470
779.243235	0.026388
779.437099	0.026447
779.630945	0.026430
779.824773	0.026492
780.018582	0.026485
780.212373	0.026412
780.406146	0.026527
780.599901	0.026412
780.793638	0.026461
780.987356	0.026576
781.181056	0.026559
781.374738	0.026577
781.568402	0.026452
781.762047	0.026431
781.955674	0.026658
782.149283	0.026516
782.342874	0.026403
782.536447	0.026232
782.730001	0.025986
782.923537	0.025675
783.117055	0.025642
783.310555	0.025486
783.504036	0.025460
783.697499	0.025361
783.890944	0.025219
784.084371	0.025355
784.277780	0.025423
784.471170	0.025673
784.664542	0.025842
784.857896	0.025903
785.051231	0.025961
785.244549	0.026049
785.437848	0.025874
785.631129	0.025989
785.824392	0.025992
786.017636	0.026084
786.210863	0.025907
786.404071	0.025838
786.597260	0.025700
786.790432	0.025754
786.983585	0.025660
787.176721	0.025642
787.369838	0.025588
787.562936	0.025569
787.756017	0.025598
787.949079	0.025635
788.142123	0.025669
788.335149	0.025796
788.528156	0.025761
788.721146	0.025726
788.914117	0.025807
789.107070	0.025922
789.300005	0.025713
789.492921	0.025671
789.685819	0.025575
789.878699	0.025634
790.071561	0.025421
790.264405	0.025240
790.457230	0.025052
790.650037	0.024973
790.842826	0.024879
791.035597	0.025080
791.228349	0.025042
791.421084	0.025142
791.613800	0.025103
791.806497	0.025296
791.999177	0.025554
792.191838	0.025629
792.384481	0.025756
792.577106	0.025812
792.769713	0.025649
792.962301	0.025523
793.154871	0.025646
793.347423	0.025618
793.539957	0.025577
793.732473	0.025603
793.924970	0.025793
794.117449	0.025897
794.309910	0.026090
794.502353	0.026137
794.694777	0.026206
794.887183	0.026057
795.079571	0.026178
795.271941	0.026321
795.464293	0.026238
795.656626	0.026315
795.848941	0.026296
796.041238	0.026149
796.233516	0.026221
796.425777	0.026334
796.618019	0.026686
796.810243	0.026761
797.002449	0.026869
797.194636	0.027100
797.386805	0.027075
797.578956	0.027160
797.771089	0.027275
797.963204	0.027469
798.155300	0.027424
798.347378	0.027468
798.539438	0.027412
798.731480	0.027395
798.923503	0.027249
799.115509	0.027429
799.307496	0.027421
799.499465	0.027419
799.691415	0.027441
799.883348	0.027392
800.075262	0.027280
800.267158	0.027305
800.459035	0.027293
800.650895	0.027302
800.842736	0.027152
801.034559	0.027155
801.226364	0.027058
801.418150	0.027063
801.609919	0.027229
801.801669	0.027189
801.993401	0.027190
802.185114	0.027121
802.376810	0.027093
802.568487	0.027079
802.760146	0.027068
802.951787	0.027092
803.143409	0.026992
803.335014	0.026953
803.526600	0.026754
803.718168	0.026703
803.909717	0.026681
804.101249	0.026671
804.292762	0.026787
804.484257	0.026697
804.675734	0.026838
804.867192	0.027035
805.058632	0.027115
805.250054	0.027412
805.441458	0.027535
805.632844	0.027607
805.824211	0.027729
806.015561	0.027588
806.206891	0.027786
806.398204	0.027596
806.589499	0.027488
806.780775	0.027600
806.972033	0.027535
807.163273	0.027473
807.354495	0.027451
807.545698	0.027471
807.736883	0.027675
807.928050	0.027658
808.119199	0.027796
808.310329	0.027879
808.501441	0.027882
808.692535	0.027925
808.883611	0.028065
809.074669	0.028163
809.265708	0.028262
809.456729	0.028182
809.647732	0.028348
809.838717	0.028474
810.029683	0.028292
810.220632	0.028244
810.411562	0.028234
810.602474	0.028187
810.793367	0.028398
810.984242	0.028283
811.175100	0.028243
811.365938	0.028154
811.556759	0.028045
811.747562	0.028128
811.938346	0.028089
812.129112	0.028120
812.319860	0.028276
812.510589	0.028192
812.701300	0.028240
812.891994	0.028426
813.082668	0.028409
813.273325	0.028682
813.463964	0.029009
813.654584	0.029334
813.845186	0.029462
814.035769	0.029595
814.226335	0.029579
814.416882	0.029631
814.607411	0.029681
814.797922	0.029641
814.988415	0.029641
815.178889	0.029344
815.369345	0.029028
815.559783	0.028935
815.750203	0.028761
815.940605	0.028931
816.130988	0.029136
816.321353	0.029158
816.511700	0.029173
816.702028	0.029089
816.892339	0.029516
817.082631	0.029645
817.272905	0.029787
817.463161	0.029805
817.653398	0.029579
817.843617	0.029594
818.033819	0.029610
818.224001	0.029805
818.414166	0.029788
818.604312	0.029631
818.794440	0.029721
818.984550	0.029705
819.174642	0.029947
819.364716	0.030241
819.554771	0.030163
819.744808	0.030205
819.934827	0.030305
820.124827	0.030457
820.314810	0.030394
820.504774	0.030343
820.694720	0.030231
820.884647	0.029992
821.074557	0.029994
821.264448	0.030004
821.454321	0.030150
821.644176	0.030232
821.834012	0.030127
822.023831	0.030272
822.213631	0.030255
822.403413	0.030341
822.593176	0.030564
822.782922	0.030455
822.972649	0.030611
823.162358	0.030597
823.352049	0.030516
823.541721	0.030521
823.731376	0.030709
823.921012	0.030829
824.110629	0.030988
824.300229	0.030966
824.489811	0.031137
824.679374	0.031195
824.868919	0.031086
825.058445	0.031098
825.247954	0.031257
825.437444	0.031040
825.626916	0.030949
825.816370	0.031007
826.005806	0.030902
826.195223	0.030817
826.384622	0.030727
826.574003	0.030824
826.763366	0.030855
826.952711	0.030741
827.142037	0.030783
827.331345	0.031123
827.520635	0.031084
827.709906	0.031194
827.899160	0.031353
828.088395	0.031427
828.277612	0.031425
828.466810	0.031457
828.655991	0.031407
828.845153	0.031557
829.034297	0.031497
829.223423	0.031323
829.412531	0.031360
829.601620	0.031144
829.790691	0.031354
829.979744	0.031413
830.168779	0.031515
830.357795	0.031803
830.546793	0.031823
830.735773	0.031950
830.924735	0.031892
831.113679	0.032087
831.302604	0.032248
831.491511	0.032294
831.680400	0.032359
831.869271	0.032453
832.058123	0.032495
832.246957	0.032704
832.435773	0.032520
832.624571	0.032711
832.813351	0.032818
833.002112	0.032904
833.190855	0.032879
833.379580	0.032711
833.568287	0.032776
833.756975	0.032863
833.945645	0.032755
834.134297	0.032806
834.322931	0.032841
834.511547	0.032756
834.700144	0.032759
834.888723	0.032618
835.077284	0.032939
835.265826	0.032649
835.454351	0.032561
835.642857	0.032592
835.831345	0.032581
836.019815	0.032756
836.208266	0.032738
836.396699	0.032774
836.585114	0.032924
836.773511	0.032829
836.961890	0.033004
837.150250	0.033054
837.338592	0.033012
837.526916	0.033221
837.715222	0.033354
837.903510	0.033588
838.091779	0.033411
838.280030	0.033608
838.468263	0.033823
838.656477	0.034086
838.844674	0.034363
839.032852	0.034453
839.221012	0.034495
839.409153	0.034610
839.597277	0.034568
839.785382	0.034811
839.973469	0.034703
840.161538	0.034681
840.349589	0.034645
840.537621	0.034545
840.725635	0.034825
840.913631	0.034880
841.101609	0.034948
841.289568	0.035026
841.477509	0.035007
841.665432	0.035078
841.853337	0.035058
842.041224	0.035360
842.229092	0.035442
842.416942	0.035269
842.604774	0.035175
842.792588	0.035188
842.980383	0.035423
843.168160	0.035724
843.355919	0.035584
843.543660	0.035711
843.731382	0.035394
843.919087	0.035410
844.106773	0.035395
844.294441	0.035638
844.482090	0.035665
844.669722	0.035595
844.857335	0.035597
845.044930	0.035925
845.232507	0.035829
845.420065	0.035984
845.607605	0.036257
845.795127	0.036574
845.982631	0.036729
846.170117	0.036922
846.357584	0.036836
846.545033	0.037004
846.732464	0.037047
846.919877	0.037346
847.107272	0.037569
847.294648	0.037476
847.482006	0.037332
847.669346	0.037453
847.856667	0.037357
848.043971	0.037481
848.231256	0.037580
848.418523	0.037672
848.605771	0.037721
848.793002	0.037657
848.980214	0.037908
849.167408	0.038129
849.354584	0.038079
849.541742	0.038353
849.728881	0.038620
849.916002	0.038633
850.103105	0.038776
850.290190	0.039058
850.477256	0.039023
850.664304	0.039027
850.851334	0.039100
851.038346	0.039313
851.225340	0.039329
851.412315	0.039340
851.599272	0.039267
851.786211	0.039398
851.973132	0.039440
852.160034	0.039645
852.346918	0.039767
852.533784	0.039769
852.720632	0.039970
852.907462	0.040033
853.094273	0.039904
853.281066	0.040221
853.467841	0.040069
853.654598	0.040202
853.841336	0.040159
854.028056	0.040040
854.214758	0.040081
854.401442	0.040175
854.588107	0.040133
854.774755	0.040588
854.961384	0.040676
855.147995	0.040833
855.334587	0.040734
855.521162	0.040742
855.707718	0.041149
855.894256	0.041415
856.080775	0.041155
856.267277	0.041279
856.453760	0.041269
856.640225	0.041342
856.826672	0.041487
857.013101	0.041605
857.199511	0.042207
857.385903	0.042194
857.572277	0.042053
857.758633	0.042362
857.944970	0.042521
858.131290	0.042492
858.317591	0.042499
858.503873	0.042592
858.690138	0.042679
858.876384	0.042441
859.062612	0.042430
859.248822	0.042653
859.435014	0.042759
859.621188	0.042747
859.807343	0.042841
859.993480	0.043118
860.179599	0.043185
860.365699	0.043198
860.551781	0.043252
860.737846	0.043157
860.923891	0.043146
861.109919	0.042947
861.295929	0.043129
861.481920	0.043333
861.667893	0.043264
861.853848	0.043394
862.039784	0.043536
862.225702	0.043651
862.411603	0.043838
862.597484	0.043873
862.783348	0.044071
862.969193	0.044186
863.155021	0.044267
863.340830	0.044642
863.526620	0.044761
863.712393	0.044756
863.898147	0.044942
864.083883	0.045000
864.269601	0.045030
864.455301	0.045127
864.640982	0.045256
864.826645	0.045113
865.012290	0.044773
865.197917	0.044680
865.383526	0.044584
865.569116	0.044571
865.754688	0.044555
865.940242	0.044753
866.125777	0.045139
866.311295	0.045144
866.496794	0.045481
866.682275	0.045812
866.867737	0.046008
867.053182	0.046310
867.238608	0.046425
867.424016	0.046611
867.609406	0.046893
867.794778	0.046650
867.980131	0.046654
868.165466	0.046598
868.350783	0.046362
868.536082	0.046418
868.721362	0.046425
868.906625	0.046546
869.091869	0.046656
869.277094	0.046578
869.462302	0.046471
869.647491	0.046748
869.832662	0.046553
870.017815	0.046560
870.202950	0.046659
870.388066	0.046554
870.573165	0.046755
870.758245	0.046731
870.943306	0.046783
871.128350	0.047273
871.313375	0.046960
871.498382	0.046979
871.683371	0.047217
871.868342	0.047224
872.053294	0.047387
872.238229	0.046821
872.423144	0.047008
872.608042	0.046928
872.792922	0.046486
872.977783	0.046470
873.162626	0.046489
873.347451	0.046110
873.532258	0.046219
873.717046	0.045931
873.901816	0.046306
874.086568	0.046084
874.271302	0.046191
874.456017	0.046233
874.640715	0.046162
874.825394	0.046119
875.010055	0.046531
875.194697	0.046273
875.379322	0.046530
875.563928	0.046635
875.748516	0.046794
875.933085	0.046880
876.117637	0.047229
876.302170	0.047610
876.486685	0.048079
876.671182	0.048128
876.855661	0.048311
877.040121	0.048593
877.224563	0.048379
877.408987	0.048249
877.593393	0.047965
877.777780	0.048027
877.962150	0.047964
878.146501	0.047740
878.330833	0.047611
878.515148	0.047580
878.699444	0.047579
878.883722	0.047639
879.067982	0.047653
879.252224	0.048007
879.436447	0.047925
879.620653	0.047874
879.804840	0.047982
879.989008	0.048056
880.173159	0.047896
880.357291	0.047945
880.541405	0.047882
880.725501	0.047984
880.909579	0.047734
881.093638	0.047685
881.277680	0.048021
881.461703	0.047944
881.645707	0.047812
881.829694	0.048192
882.013662	0.048014
882.197612	0.048297
882.381544	0.048209
882.565458	0.048278
882.749353	0.048454
882.933230	0.048486
883.117089	0.048427
883.300930	0.048811
883.484753	0.048726
883.668557	0.049068
883.852343	0.049151
884.036111	0.049337
884.219861	0.049492
884.403592	0.049276
884.587305	0.048863
884.771000	0.049368
884.954677	0.049125
885.138335	0.049397
885.321976	0.049317
885.505598	0.049285
885.689201	0.049277
885.872787	0.049409
886.056354	0.049349
886.239904	0.049476
886.423434	0.049315
886.606947	0.049601
886.790442	0.049310
886.973918	0.049458
887.157376	0.049406
887.340816	0.049688
887.524237	0.049531
887.707641	0.049555
887.891026	0.049659
888.074393	0.049589
888.257741	0.049449
888.441072	0.049450
888.624384	0.049199
888.807678	0.049113
888.990954	0.048988
889.174211	0.049070
889.357451	0.049266
889.540672	0.049171
889.723875	0.049411
889.907059	0.049251
890.090226	0.049454
890.273374	0.049154
890.456504	0.049120
890.639616	0.049245
890.822709	0.048995
891.005785	0.048796
891.188842	0.048965
891.371881	0.048717
891.554901	0.049176
891.737904	0.049173
891.920888	0.049300
892.103854	0.049649
892.286802	0.049482
892.469731	0.049640
892.652643	0.049653
892.835536	0.049481
893.018410	0.049201
893.201267	0.048792
893.384106	0.048383
893.566926	0.048572
893.749728	0.048452
893.932511	0.048461
894.115277	0.048198
894.298024	0.048509
894.480753	0.048529
894.663464	0.048822
894.846157	0.048887
895.028831	0.049391
895.211487	0.049387
895.394125	0.049354
895.576745	0.049506
895.759346	0.049941
895.941930	0.049720
896.124495	0.049880
896.307041	0.049932
896.489570	0.049900
896.672080	0.049535
896.854573	0.049454
897.037046	0.049370
897.219502	0.049007
897.401940	0.048967
897.584359	0.049130
897.766760	0.049045
897.949143	0.049005
898.131507	0.048939
898.313854	0.049256
898.496182	0.049196
898.678492	0.049241
898.860783	0.049428
899.043057	0.049211
899.225312	0.049155
899.407549	0.049039
899.589768	0.048951
899.771968	0.048935
899.954151	0.048493
900.136315	0.048421
900.318461	0.048176
900.500588	0.047829
900.682698	0.047808
900.864789	0.047941
901.046862	0.047780
901.228917	0.047796
901.410953	0.047535
901.592971	0.047583
901.774972	0.047844
901.956953	0.047780
902.138917	0.047724
902.320862	0.047237
902.502790	0.046832
902.684699	0.046770
902.866589	0.046590
903.048462	0.046810
903.230316	0.046949
903.412152	0.046758
903.593970	0.046816
903.775770	0.047083
903.957551	0.047742
904.139314	0.047832
904.321059	0.047857
904.502786	0.047886
904.684494	0.048000
904.866185	0.047759
905.047857	0.047405
905.229510	0.047258
905.411146	0.047306
905.592763	0.047218
905.774363	0.046941
905.955943	0.046977
906.137506	0.046809
906.319051	0.046580
906.500577	0.046785
906.682085	0.046921
906.863575	0.047095
907.045046	0.046982
907.226500	0.046675
907.407935	0.046649
907.589352	0.046741
907.770750	0.046531
907.952131	0.046426
908.133493	0.046084
908.314837	0.045819
908.496163	0.046040
908.677470	0.045888
908.858760	0.045865
909.040031	0.045813
909.221284	0.045567
909.402518	0.045746
909.583735	0.045553
909.764933	0.045309
909.946113	0.045211
910.127275	0.044594
910.308418	0.044290
910.489544	0.043855
910.670651	0.043667
910.851740	0.043618
911.032810	0.043290
911.213863	0.043098
911.394897	0.043027
911.575913	0.043138
911.756911	0.042898
911.937890	0.042885
912.118851	0.042923
912.299794	0.042718
912.480719	0.042349
912.661626	0.042247
912.842514	0.042180
913.023384	0.042156
913.204236	0.042069
913.385070	0.041994
913.565886	0.041993
913.746683	0.041923
913.927462	0.041775
914.108223	0.042037
914.288965	0.041866
914.469690	0.041581
914.650396	0.041157
914.831084	0.040773
915.011754	0.040838
915.192405	0.040432
915.373038	0.040321
915.553653	0.040496
915.734250	0.040021
915.914829	0.039757
916.095389	0.039788
916.275931	0.039594
916.456455	0.039803
916.636961	0.039607
916.817448	0.039747
916.997917	0.039675
917.178368	0.039640
917.358801	0.039539
917.539216	0.039246
917.719612	0.039189
917.899990	0.039491
918.080350	0.039291
918.260692	0.039132
918.441015	0.038553
918.621320	0.038393
918.801607	0.037678
918.981876	0.037390
919.162127	0.037296
919.342359	0.036810
919.522573	0.036107
919.702769	0.036144
919.882947	0.035996
920.063106	0.036333
920.243247	0.036109
920.423370	0.036176
920.603475	0.036011
920.783562	0.036602
920.963630	0.037145
921.143680	0.037191
921.323712	0.036631
921.503725	0.036345
921.683721	0.036056
921.863698	0.036082
922.043657	0.036017
922.223598	0.036462
922.403520	0.036124
922.583424	0.035680
922.763311	0.035996
922.943178	0.035840
923.123028	0.035544
923.302859	0.035297
923.482673	0.035020
923.662467	0.034791
923.842244	0.034001
924.022003	0.033612
924.201743	0.033376
924.381465	0.032994
924.561169	0.032504
924.740854	0.032601
924.920522	0.032425
925.100171	0.032240
925.279802	0.032043
925.459414	0.031789
925.639009	0.031662
925.818585	0.031579
925.998143	0.031458
926.177683	0.031910
926.357205	0.031498
926.536708	0.031303
926.716193	0.031423
926.895660	0.031421
927.075109	0.031400
927.254539	0.030956
927.433951	0.030279
927.613345	0.029950
927.792721	0.029964
927.972079	0.029823
928.151418	0.029578
928.330739	0.028849
928.510042	0.028647
928.689327	0.028608
928.868593	0.028831
929.047841	0.028887
929.227071	0.028665
929.406283	0.028125
929.585476	0.028202
929.764652	0.027746
929.943809	0.027247
930.122948	0.027036
930.302068	0.026717
930.481171	0.026066
930.660255	0.025750
930.839321	0.025719
931.018369	0.025651
931.197398	0.025723
931.376409	0.025756
931.555402	0.025841
931.734377	0.025575
931.913334	0.025560
932.092272	0.025585
932.271192	0.025460
932.450094	0.025222
932.628978	0.024354
932.807844	0.023645
932.986691	0.023669
933.165520	0.023605
933.344331	0.022955
933.523123	0.023031
933.701898	0.022370
933.880654	0.022380
934.059392	0.021805
934.238111	0.022095
934.416813	0.022014
934.595496	0.021156
934.774161	0.021210
934.952808	0.021094
935.131437	0.020495
935.310047	0.020764
935.488639	0.020558
935.667213	0.020562
935.845769	0.020086
936.024306	0.019178
936.202825	0.018925
936.381326	0.018741
936.559809	0.018744
936.738274	0.018205
936.916720	0.017362
937.095148	0.017319
937.273558	0.017531
937.451950	0.017382
937.630323	0.017936
937.808678	0.018757
937.987015	0.018347
938.165334	0.017655
938.343635	0.017220
938.521917	0.017610
938.700181	0.016822
938.878427	0.015974
939.056655	0.015460
939.234864	0.015276
939.413055	0.014585
939.591228	0.014012
939.769383	0.014242
939.947519	0.014756
940.125638	0.014297
940.303738	0.014770
940.481820	0.014590
940.659883	0.013806
940.837929	0.013381
941.015956	0.012791
941.193965	0.012490
941.371955	0.011964
941.549928	0.012098
941.727882	0.012424
941.905818	0.012341
942.083736	0.011999
942.261636	0.012353
942.439517	0.012331
942.617380	0.011977
942.795225	0.012389
942.973052	0.012593
943.150860	0.011662
943.328651	0.010699
943.506423	0.009410
943.684176	0.009026
943.861912	0.009538
944.039629	0.009231
944.217328	0.009877
944.395009	0.009062
944.572672	0.008900
944.750317	0.009080
944.927943	0.008380
945.105551	0.008096
945.283141	0.008462
945.460712	0.007121
945.638265	0.006588
945.815801	0.005826
945.993317	0.005842
946.170816	0.004899
946.348297	0.004185
946.525759	0.003565
946.703203	0.003360
946.880629	0.003344
947.058036	0.003721
947.235425	0.003059
947.412797	0.003456
947.590149	0.003253
947.767484	0.003935
947.944800	0.003584
948.122099	0.005185
948.299379	0.005771
948.476640	0.005509
948.653884	0.005082
948.831109	0.005904
949.008316	0.004783
949.185505	0.004822
949.362676	0.004800
949.539828	0.004772
949.716962	0.003665
949.894078	0.003712
950.071176	0.003210
950.248256	0.003286
950.425317	0.001809
950.602360	0.001224
950.779385	0.001139
950.956391	0.001202
951.133380	0.000935
951.310350	0.000820
951.487302	-0.000167
951.664235	-0.001220
951.841151	-0.001532
952.018048	-0.001103
952.194927	-0.000490
952.371788	-0.001621
952.548631	-0.002392
952.725455	-0.003470
952.902261	-0.003822
953.079049	-0.003616
953.255819	-0.001875
953.432570	-0.002517
953.609303	-0.003513
953.786018	-0.003276
953.962715	-0.003251
954.139394	-0.002829
954.316054	-0.000049
954.492696	0.001039
954.669320	0.000885
954.845926	-0.001436
955.022513	-0.000933
955.199083	-0.000019
955.375634	-0.000337
955.552166	0.000387
955.728681	-0.000683
955.905177	-0.003087
956.081655	-0.003277
956.258115	-0.001800
956.434557	0.000099
956.610980	0.000550
956.787385	0.001922
956.963772	0.002978
957.140141	0.002828
957.316492	0.002838
957.492824	0.003841
957.669138	0.003582
957.845434	0.001224
958.021712	0.000242
958.197971	0.001004
958.374212	0.000650
958.550435	-0.000171
958.726640	-0.000808
958.902826	-0.000322
959.078995	-0.000961
959.255145	-0.000786
959.431277	0.000276
959.607390	0.001169
959.783486	0.001607
959.959563	0.000123
960.135622	-0.000812
960.311662	-0.000081
960.487685	0.000559
960.663689	0.001512
960.839675	0.000715
961.015643	0.001826
961.191593	0.003139
961.367524	0.002041
961.543437	0.004416
961.719332	0.006023
961.895209	0.006684
962.071067	0.006663
962.246907	0.006105
962.422730	0.007540
962.598533	0.006915
962.774319	0.006708
962.950086	0.005279
963.125835	0.004094
963.301566	0.002136
963.477279	0.001213
963.652973	0.001137
963.828650	0.001596
964.004308	0.001215
964.179947	0.002190
964.355569	0.001174
964.531172	0.002391
964.706757	0.001700
964.882324	0.002411
965.057873	0.003037
965.233403	0.003747
965.408916	0.004724
965.584410	0.004110
965.759885	0.001843
965.935343	0.001816
966.110782	0.002235
966.286203	0.003161
966.461606	0.002528
966.636991	0.002730
966.812357	0.002598
966.987705	-0.000397
967.163035	0.000611
967.338347	0.001750
967.513641	0.000005
967.688916	0.000283
967.864173	-0.001032
968.039412	-0.000665
968.214632	-0.000455
968.389835	-0.000773
968.565019	0.002322
968.740185	0.002222
968.915333	0.001841
969.090462	0.002923
969.265573	0.001178
969.440667	0.002196
969.615741	0.003836
969.790798	0.004498
969.965836	0.004327
970.140856	0.003259
970.315858	0.002346
970.490842	0.002663
970.665808	0.002219
970.840755	0.004008
971.015684	0.003493
971.190595	0.002638
971.365487	0.001017
971.540362	0.001473
971.715218	-0.000209
971.890056	-0.001363
972.064875	0.000270
972.239677	0.000954
972.414460	0.000981
972.589225	0.001324
972.763972	0.000308
972.938700	0.000193
973.113411	-0.000152
973.288103	0.000327
973.462777	0.003332
973.637432	-0.000009
973.812070	0.002113
973.986689	0.001737
974.161290	0.001717
974.335873	0.004286
974.510437	0.005831
974.684984	0.007188
974.859512	0.008036
975.034022	0.005057
975.208513	0.005105
975.382987	0.002488
975.557442	0.003132
975.731879	0.002758
975.906298	0.000741
976.080698	-0.000447
976.255080	-0.002819
976.429445	-0.003264
976.603790	-0.001117
976.778118	0.000328
976.952427	0.002295
977.126719	0.000648
977.300992	-0.000063
977.475246	0.001526
977.649483	0.002096
977.823701	0.004719
977.997901	0.004018
978.172083	0.003854
978.346247	0.002742
978.520392	0.002477
978.694519	0.004205
978.868628	0.007067
979.042719	0.006010
979.216791	0.004310
979.390845	0.002947
979.564882	0.005278
979.738899	0.004167
979.912899	0.007258
980.086880	0.006979
980.260843	0.006204
980.434788	0.003930
980.608715	0.004100
980.782623	0.005433
980.956514	0.006498
981.130386	0.006558
981.304240	0.006447
981.478075	0.004892
981.651892	0.004068
981.825692	0.005074
981.999472	0.003494
982.173235	0.003246
982.346980	0.002818
982.520706	0.001472
982.694414	-0.000051
982.868104	0.000480
983.041775	0.001463
983.215428	0.001480
983.389064	0.000737
983.562680	0.002467
983.736279	0.003523
983.909860	0.004559
984.083422	0.003749
984.256966	0.004237
984.430491	0.004579
984.603999	0.003380
984.777488	0.003204
984.950959	0.003857
985.124412	0.004909
985.297847	0.004488
985.471263	0.004366
985.644661	0.003420
985.818041	0.003586
985.991403	0.004484
986.164747	0.005447
986.338072	0.005789
986.511379	0.006269
986.684668	0.005276
986.857938	0.006091
987.031191	0.006643
987.204425	0.008251
987.377641	0.008375
987.550839	0.006653
987.724018	0.005121
987.897179	0.004724
988.070322	0.003823
988.243447	0.004233
988.416554	0.003818
988.589642	0.003955
988.762712	0.005092
988.935764	0.004159
989.108798	0.004399
989.281813	0.004338
989.454811	0.003885
989.627790	0.003318
989.800751	0.002381
989.973693	0.003325
990.146617	0.003508
990.319524	0.002431
990.492412	0.002421
990.665281	0.002654
990.838133	0.003095
991.010966	0.004678
991.183781	0.004797
991.356578	0.004454
991.529356	0.002823
991.702117	0.002796
991.874859	0.001543
992.047583	0.002100
992.220288	0.001815
992.392976	0.002891
992.565645	0.001784
992.738296	0.002141
992.910929	0.004112
993.083543	0.004159
993.256139	0.003821
993.428718	0.004957
993.601277	0.004443
993.773819	0.004183
993.946342	0.003252
994.118848	0.003937
994.291335	0.004579
994.463803	0.003691
994.636254	0.003614
994.808686	0.004469
994.981100	0.004675
995.153496	0.004174
995.325874	0.005921
995.498233	0.005857
995.670574	0.006320
995.842897	0.004793
996.015202	0.004014
996.187488	0.002911
996.359757	0.000522
996.532007	0.000886
996.704239	0.001502
996.876452	0.001473
997.048648	0.000133
997.220825	-0.001043
997.392984	-0.000748
997.565124	-0.000598
997.737247	0.000597
997.909351	0.001443
998.081437	0.001928
998.253505	0.003631
998.425554	0.003014
998.597586	0.004176
998.769599	0.003619
998.941594	0.004971
999.113571	0.005461
999.285529	0.005199
999.457469	0.005683
999.629391	0.004531
999.801295	0.002548
999.973181	0.002470
1000.145048	0.002333
1000.316897	0.002086
1000.488728	0.001320
1000.660541	0.000942
1000.832335	0.001236
1001.004111	-0.000126
1001.175869	-0.000146
1001.347609	0.000524
1001.519331	0.000070
1001.691034	0.001310
1001.862719	0.002928
1002.034386	0.003141
1002.206035	0.003372
1002.377665	0.003746
1002.549277	0.004876
1002.720871	0.004770
1002.892447	0.003593
1003.064004	0.002902
1003.235544	0.002849
1003.407065	0.002738
1003.578568	0.003082
1003.750052	0.002796
1003.921519	0.003380
1004.092967	0.003969
1004.264397	0.003796
1004.435809	0.005173
1004.607202	0.007076
1004.778577	0.005901
1004.949934	0.005757
1005.121273	0.004977
1005.292594	0.006085
1005.463896	0.004663
1005.635180	0.004535
1005.806446	0.005002
1005.977694	0.005215
1006.148923	0.006171
1006.320135	0.007400
1006.491328	0.007329
1006.662503	0.007922
1006.833659	0.007632
1007.004798	0.006392
1007.175918	0.007109
1007.347020	0.006263
1007.518103	0.006800
1007.689169	0.005255
1007.860216	0.004541
1008.031245	0.005452
1008.202256	0.005645
1008.373248	0.005931
1008.544223	0.007094
1008.715179	0.005521
1008.886117	0.006067
1009.057036	0.005420
1009.227938	0.004894
1009.398821	0.004555
1009.569686	0.004304
1009.740533	0.003535
1009.911361	0.002799
1010.082172	0.001879
1010.252964	0.002445
1010.423738	0.002745
1010.594493	0.003380
1010.765231	0.004226
1010.935950	0.004150
1011.106651	0.002526
1011.277334	0.002482
1011.447998	0.001725
1011.618645	0.003853
1011.789273	0.004152
1011.959882	0.004052
1012.130474	0.003552
1012.301048	0.003086
1012.471603	0.003163
1012.642140	0.004851
1012.812658	0.004694
1012.983159	0.006314
1013.153641	0.004240
1013.324105	0.003319
1013.494551	0.003665
1013.664979	0.001907
1013.835388	0.001197
1014.005779	0.000561
1014.176152	0.000913
1014.346507	0.001455
1014.516843	0.002501
1014.687162	0.002709
1014.857462	0.002545
1015.027744	0.002192
1015.198007	0.004684
1015.368252	0.006278
1015.538480	0.007105
1015.708689	0.006581
1015.878879	0.006611
1016.049052	0.005194
1016.219206	0.006470
1016.389342	0.006650
1016.559460	0.006535
1016.729559	0.005319
1016.899641	0.004837
1017.069704	0.004253
1017.239749	0.003438
1017.409775	0.004508
1017.579784	0.003507
1017.749774	0.003572
1017.919746	0.004945
1018.089700	0.003838
1018.259635	0.003902
1018.429553	0.004509
1018.599452	0.005475
1018.769333	0.006508
1018.939195	0.006051
1019.109040	0.007424
1019.278866	0.006662
1019.448674	0.005078
1019.618464	0.005557
1019.788235	0.005863
1019.957989	0.005318
1020.127724	0.004147
1020.297441	0.002365
1020.467139	0.000735
1020.636820	-0.000212
1020.806482	0.000630
1020.976126	0.001810
1021.145752	0.002457
1021.315359	0.002542
1021.484948	0.001245
1021.654519	0.001529
1021.824072	0.001139
1021.993607	0.000900
1022.163123	0.001421
1022.332621	0.000825
1022.502101	0.000126
1022.671563	0.001060
1022.841007	0.000772
1023.010432	0.001608
1023.179839	0.003550
1023.349228	0.006402
1023.518598	0.007767
1023.687951	0.007053
1023.857285	0.007524
1024.026601	0.008199
1024.195899	0.008064
1024.365178	0.008256
1024.534439	0.008426
1024.703682	0.007425
1024.872907	0.005851
1025.042114	0.005419
1025.211302	0.007834
1025.380472	0.008673
1025.549624	0.008013
1025.718758	0.007120
1025.887873	0.006509
1026.056970	0.006256
1026.226049	0.006166
1026.395110	0.007485
1026.564153	0.007220
1026.733177	0.006362
1026.902183	0.006188
1027.071171	0.006046
1027.240141	0.005523
1027.409092	0.005938
1027.578026	0.005967
1027.746940	0.004819
1027.915837	0.004633
1028.084716	0.006844
1028.253576	0.005619
1028.422418	0.004905
1028.591242	0.004026
1028.760048	0.005973
1028.928835	0.005346
1029.097604	0.004426
1029.266355	0.004470
1029.435088	0.003329
1029.603803	0.000082
1029.772499	0.000241
1029.941177	-0.001228
1030.109837	-0.000316
1030.278478	-0.000931
1030.447102	0.000621
1030.615707	0.001980
1030.784294	0.002580
1030.952863	0.003375
1031.121413	0.004490
1031.289945	0.004196
1031.458460	0.005339
1031.626955	0.004711
1031.795433	0.004327
1031.963892	0.004958
1032.132334	0.003857
1032.300756	0.004626
1032.469161	0.003736
1032.637548	0.002966
1032.805916	0.003867
1032.974266	0.004983
1033.142598	0.005403
1033.310911	0.005210
1033.479207	0.002725
1033.647484	0.004656
1033.815743	0.004436
1033.983983	0.004530
1034.152206	0.005162
1034.320410	0.003669
1034.488596	0.001382
1034.656764	0.002496
1034.824914	0.003016
1034.993045	0.005045
1035.161158	0.003025
1035.329253	0.002756
1035.497330	0.003065
1035.665388	0.005384
1035.833428	0.005431
1036.001450	0.005432
1036.169454	0.005596
1036.337440	0.007299
1036.505407	0.005158
1036.673356	0.005594
1036.841287	0.004924
1037.009200	0.003482
1037.177094	0.002233
1037.344970	0.002328
1037.512828	0.004014
1037.680668	0.004499
1037.848489	0.002418
1038.016293	0.004522
1038.184078	0.004435
1038.351845	0.005172
1038.519593	0.005818
1038.687324	0.006162
1038.855036	0.006646
1039.022730	0.006485
1039.190406	0.003707
1039.358063	0.002328
1039.525702	0.001447
1039.693323	0.002492
1039.860926	0.002216
1040.028511	0.002610
1040.196077	0.000511
1040.363625	0.000942
1040.531155	0.000616
1040.698667	0.002616
1040.866161	0.004036
1041.033636	0.005070
1041.201093	0.005936
1041.368532	0.006313
1041.535952	0.006376
1041.703355	0.007227
1041.870739	0.005995
1042.038105	0.005896
1042.205452	0.005127
1042.372782	0.005832
1042.540093	0.004518
1042.707386	0.002659
1042.874661	0.001805
1043.041918	0.001249
1043.209156	0.002163
1043.376376	0.004070
1043.543578	0.005815
1043.710762	0.006543
1043.877927	0.005239
1044.045074	0.004625
1044.212203	0.005356
1044.379314	0.006882
1044.546407	0.007726
1044.713481	0.007039
1044.880537	0.006695
1045.047575	0.004775
1045.214595	0.003320
1045.381596	0.002213
1045.548579	0.002981
1045.715544	0.003455
1045.882491	0.003533
1046.049420	0.003855
1046.216330	0.004468
1046.383222	0.004604
1046.550096	0.004945
1046.716951	0.006265
1046.883789	0.007673
1047.050608	0.007433
1047.217409	0.006978
1047.384192	0.004308
1047.550956	0.003320
1047.717703	0.003011
1047.884431	0.001651
1048.051140	0.002253
1048.217832	0.001613
1048.384505	0.001591
1048.551161	0.001564
1048.717798	0.001962
1048.884416	0.003892
1049.051017	0.005071
1049.217599	0.003748
1049.384163	0.005671
1049.550709	0.004178
1049.717237	0.004615
1049.883746	0.005877
1050.050237	0.006312
1050.216710	0.004901
1050.383165	0.003989
1050.549601	0.003766
1050.716019	0.004512
1050.882420	0.003543
1051.048801	0.004542
1051.215165	0.003205
1051.381510	0.001799
1051.547837	0.001253
1051.714146	0.002709
1051.880437	0.002861
1052.046709	0.002761
1052.212964	0.003626
1052.379200	0.002180
1052.545417	0.002614
1052.711617	0.003863
1052.877798	0.003094
1053.043961	0.003377
1053.210106	0.002423
1053.376233	0.003214
1053.542341	0.003011
1053.708432	0.001716
1053.874504	0.003369
1054.040557	0.003645
1054.206593	0.002657
1054.372610	0.004298
1054.538609	0.004956
1054.704590	0.004212
1054.870553	0.003198
1055.036497	0.002577
1055.202424	0.002555
1055.368331	0.002933
1055.534221	0.001807
1055.700093	0.002819
1055.865946	0.001920
1056.031781	-0.000404
1056.197598	0.000587
1056.363397	0.001172
1056.529177	0.002651
1056.694939	0.004150
1056.860683	0.002191
1057.026409	0.001151
1057.192116	-0.000826
1057.357806	0.000151
1057.523477	0.003442
1057.689130	0.002473
1057.854764	0.001803
1058.020381	0.001072
1058.185979	-0.000719
1058.351559	0.000864
1058.517120	0.002453
1058.682664	0.004458
1058.848189	0.002611
1059.013696	0.001217
1059.179185	0.002137
1059.344656	0.003098
1059.510108	0.003046
1059.675542	0.004162
1059.840958	0.002345
1060.006356	0.002603
1060.171735	0.001706
1060.337096	0.001710
1060.502439	0.001784
1060.667764	0.001371
1060.833071	0.001168
1060.998359	0.000405
1061.163629	0.000551
1061.328881	0.001253
1061.494115	0.000886
1061.659330	0.002097
1061.824527	0.005100
1061.989706	0.003183
1062.154867	0.004999
1062.320010	0.004031
1062.485134	0.004518
1062.650240	0.004263
1062.815328	0.004640
1062.980398	0.003337
1063.145449	0.003989
1063.310482	0.002600
1063.475497	0.005350
1063.640494	0.002868
1063.805473	0.005286
1063.970433	0.003545
1064.135375	0.003093
1064.300299	0.002851
1064.465204	0.003356
1064.630092	0.002578
1064.794961	0.000220
1064.959812	0.000103
1065.124645	0.000162
1065.289459	-0.002306
1065.454256	-0.000969
1065.619034	-0.000786
1065.783793	-0.001432
1065.948535	-0.000197
1066.113258	-0.001350
1066.277964	0.000143
1066.442651	0.000308
1066.607319	0.000740
1066.771970	0.000731
1066.936602	0.000415
1067.101216	0.000020
1067.265812	0.000251
1067.430389	-0.000632
1067.594949	0.000379
1067.759490	0.001575
1067.924013	0.001350
1068.088518	0.001077
1068.253004	0.000640
1068.417472	0.002122
1068.581922	0.002749
1068.746354	0.004123
1068.910768	0.004261
1069.075163	0.002912
1069.239540	0.003084
1069.403899	0.001459
1069.568240	0.001476
1069.732562	0.003656
1069.896866	0.002464
1070.061152	0.002767
1070.225420	0.002891
1070.389670	0.002571
1070.553901	0.003264
1070.718114	0.001859
1070.882309	0.001987
1071.046486	0.003275
1071.210644	0.001665
1071.374784	0.003806
1071.538906	0.002737
1071.703010	0.001231
1071.867096	0.000847
1072.031163	0.000641
1072.195212	0.001507
1072.359243	0.001204
1072.523256	0.000595
1072.687250	0.002303
1072.851226	0.000244
1073.015184	0.000977
1073.179124	0.001814
1073.343045	0.002815
1073.506949	0.003098
1073.670834	0.004359
1073.834701	0.006228
1073.998549	0.005146
1074.162380	0.004869
1074.326192	0.001957
1074.489986	0.002898
1074.653761	0.002617
1074.817519	0.003286
1074.981258	0.002838
1075.144979	0.003036
1075.308682	0.001591
1075.472367	0.001351
1075.636033	0.001263
1075.799681	0.003288
1075.963311	0.002350
1076.126923	0.004507
1076.290516	0.001252
1076.454092	0.002504
1076.617649	0.001865
1076.781187	0.002680
1076.944708	0.003201
1077.108210	0.001667
1077.271695	0.003218
1077.435160	0.002143
1077.598608	0.000614
1077.762038	0.002414
1077.925449	0.002981
1078.088842	0.001223
1078.252217	0.001736
1078.415573	0.002587
1078.578912	0.002792
1078.742232	0.001366
1078.905534	0.002532
1079.068817	0.001473
1079.232083	0.001661
1079.395330	0.001063
1079.558559	0.000828
1079.721770	0.000796
1079.884962	0.001074
1080.048136	0.000265
1080.211293	-0.001405
1080.374430	-0.001513
1080.537550	-0.002254
1080.700651	-0.003576
1080.863735	-0.002393
1081.026800	-0.000928
1081.189846	-0.002498
1081.352875	-0.003619
1081.515885	-0.002779
1081.678877	-0.001278
1081.841851	-0.001788
1082.004807	-0.002257
1082.167744	-0.001207
1082.330663	-0.003073
1082.493564	-0.005043
1082.656447	-0.004221
1082.819312	-0.003201
1082.982158	-0.001659
1083.144986	-0.001603
1083.307796	0.000483
1083.470587	0.000927
1083.633361	0.000210
1083.796116	0.000246
1083.958853	-0.000485
1084.121571	-0.000065
1084.284272	-0.000831
1084.446954	-0.001640
1084.609618	0.000450
1084.772264	-0.002012
1084.934892	-0.000625
1085.097501	0.001113
1085.260092	0.001411
1085.422665	0.005707
1085.585220	0.004272
1085.747756	0.004117
1085.910274	0.004487
1086.072774	0.002390
1086.235256	0.003125
1086.397720	0.003095
1086.560165	0.001743
1086.722592	0.002089
1086.885001	-0.000644
1087.047392	-0.001075
1087.209764	-0.001334
1087.372119	0.000567
1087.534455	0.001553
1087.696772	0.000244
1087.859072	-0.001087
1088.021353	0.000932
1088.183616	-0.000592
1088.345861	-0.000365
1088.508088	0.001107
1088.670296	0.002836
1088.832486	-0.000994
1088.994658	-0.000739
1089.156812	0.000540
1089.318948	0.001834
1089.481065	0.002277
1089.643164	0.002427
1089.805245	0.000986
1089.967308	0.000121
1090.129352	-0.000354
1090.291378	0.001508
1090.453386	0.001104
1090.615376	0.000687
1090.777347	0.000775
1090.939301	0.001296
1091.101236	0.000501
1091.263153	0.001439
1091.425051	0.001548
1091.586932	0.000492
1091.748794	0.001088
1091.910638	0.002603
1092.072463	0.003222
1092.234271	0.003930
1092.396060	0.001511
1092.557831	0.001828
1092.719584	0.002743
1092.881319	0.002380
1093.043035	0.002835
1093.204733	0.005101
1093.366413	0.002967
1093.528075	0.002255
1093.689718	0.000794
1093.851343	0.000886
1094.012950	0.000904
1094.174539	0.000487
1094.336110	0.000635
1094.497662	-0.000822
1094.659196	-0.002048
1094.820712	-0.000636
1094.982210	0.001731
1095.143689	0.003205
1095.305151	0.003735
1095.466594	0.007271
1095.628018	0.005882
1095.789425	0.007312
1095.950813	0.010455
1096.112183	0.005382
1096.273535	0.006322
1096.434869	0.005784
1096.596184	0.006265
1096.757482	0.006856
1096.918761	0.003916
1097.080021	0.005480
1097.241264	0.002574
1097.402488	0.001182
1097.563694	0.002618
1097.724882	-0.000465
1097.886052	-0.000971
1098.047203	-0.003744
1098.208336	-0.005687
1098.369451	-0.005041
1098.530548	-0.003942
1098.691627	-0.004648
1098.852687	-0.003171
1099.013729	-0.001314
1099.174753	-0.000428
1099.335758	-0.000098
1099.496746	0.001926
1099.657715	0.002045
1099.818666	0.000718
1099.979599	-0.001091
1100.140513	0.000249
1100.301409	-0.000218
1100.462287	-0.001120
1100.623147	-0.000091
1100.783989	0.000628
1100.944812	0.001155
1101.105617	0.003927
1101.266404	0.005718
1101.427173	0.008200
1101.587923	0.012102
1101.748656	0.008871
1101.909370	0.009245
1102.070066	0.009157
1102.230743	0.007786
1102.391403	0.002584
1102.552044	-0.000273
1102.712667	-0.002082
1102.873271	-0.002395
1103.033858	-0.004395
1103.194426	-0.003636
1103.354976	-0.002653
1103.515508	-0.004426
1103.676021	-0.003434
1103.836517	0.000085
1103.996994	0.000823
1104.157453	0.002906
1104.317893	0.001540
1104.478316	0.001204
1104.638720	0.000933
1104.799106	0.000222
1104.959474	0.005044
1105.119823	0.004816
1105.280155	0.005634
1105.440468	0.004391
1105.600763	0.001993
1105.761039	0.003735
1105.921298	0.005071
1106.081538	0.004697
1106.241760	0.001267
1106.401964	-0.002352
1106.562149	-0.004360
1106.722316	-0.005392
1106.882465	-0.004237
1107.042596	-0.002686
1107.202709	-0.002684
1107.362803	-0.005418
1107.522879	-0.002675
1107.682937	-0.001181
1107.842977	-0.001342
1108.002999	0.000372
1108.163002	0.001769
1108.322987	0.002635
1108.482954	0.000736
1108.642902	-0.000720
1108.802833	-0.000535
1108.962745	0.001347
1109.122639	0.003345
1109.282515	0.006084
1109.442372	0.006513
1109.602211	0.006049
1109.762032	0.002887
1109.921835	0.000663
1110.081620	-0.001838
1110.241386	-0.001174
1110.401134	-0.001165
1110.560864	0.000242
1110.720576	0.000372
1110.880269	-0.000614
1111.039945	-0.002658
1111.199602	0.000467
1111.359240	0.002734
1111.518861	0.006348
1111.678463	0.008913
1111.838047	0.006026
1111.997613	0.002756
1112.157161	0.001326
1112.316690	-0.000988
1112.476202	0.003379
1112.635695	0.001172
1112.795169	0.003523
1112.954626	0.001067
1113.114064	-0.004562
1113.273484	-0.004327
1113.432886	-0.002071
1113.592270	-0.002901
1113.751635	-0.000106
1113.910983	-0.003697
1114.070312	-0.000988
1114.229622	-0.000367
1114.388915	-0.001218
1114.548189	0.001947
1114.707445	0.001662
1114.866683	-0.000561
1115.025903	-0.000004
1115.185104	-0.001268
1115.344287	0.000262
1115.503452	-0.003207
1115.662599	-0.006649
1115.821727	-0.010145
1115.980838	-0.011692
1116.139930	-0.013446
1116.299004	-0.015090
1116.458059	-0.015345
1116.617097	-0.015080
1116.776116	-0.013862
1116.935117	-0.012327
1117.094099	-0.010930
1117.253064	-0.007144
1117.412010	-0.006814
1117.570938	-0.003333
1117.729848	0.001239
1117.888740	-0.001168
1118.047613	-0.003500
1118.206468	-0.006785
1118.365305	-0.007348
1118.524124	-0.003778
1118.682924	-0.000937
1118.841707	-0.000061
1119.000471	-0.001984
1119.159216	-0.004196
1119.317944	-0.001276
1119.476653	0.003124
1119.635344	0.004111
1119.794017	0.010055
1119.952672	0.008867
1120.111308	0.008079
1120.269927	0.005418
1120.428527	0.007254
1120.587108	0.010313
1120.745672	0.006631
1120.904217	0.001255
1121.062744	-0.000045
1121.221253	-0.003178
1121.379744	-0.007695
1121.538216	-0.006574
1121.696671	-0.003517
1121.855107	-0.006622
1122.013524	-0.010999
1122.171924	-0.007770
1122.330305	-0.003155
1122.488668	-0.001444
1122.647013	-0.002579
1122.805340	0.000271
1122.963648	-0.001647
1123.121938	0.001251
1123.280210	0.002435
1123.438464	0.004445
1123.596700	0.000966
1123.754917	-0.000014
1123.913116	-0.002497
1124.071297	-0.004755
1124.229459	-0.006568
1124.387604	-0.006257
1124.545730	-0.008341
1124.703838	-0.008208
1124.861928	-0.006970
1125.019999	-0.004294
1125.178052	-0.006983
1125.336088	-0.006123
1125.494104	-0.005125
1125.652103	-0.002467
1125.810083	-0.002144
1125.968045	-0.002666
1126.125989	-0.001557
1126.283915	-0.002252
1126.441823	0.000937
1126.599712	0.002878
1126.757583	0.006715
1126.915436	0.009391
1127.073270	0.010040
1127.231087	0.008468
1127.388885	0.008045
1127.546665	0.012472
1127.704426	0.013936
1127.862170	0.008027
1128.019895	0.009803
1128.177602	0.010167
1128.335291	0.005106
1128.492961	0.002137
1128.650614	-0.000163
1128.808248	0.002660
1128.965864	0.000309
1129.123461	-0.001093
1129.281041	0.004754
1129.438602	-0.001469
1129.596145	-0.002502
1129.753670	-0.003788
1129.911176	-0.001226
1130.068665	0.003317
1130.226135	0.002824
1130.383587	-0.002358
1130.541020	-0.002984
1130.698436	-0.003866
1130.855833	0.003084
1131.013212	0.003446
1131.170573	0.006774
1131.327915	0.006979
1131.485239	0.007746
1131.642545	0.009527
1131.799833	0.008365
1131.957103	0.009010
1132.114354	0.005444
1132.271588	0.004154
1132.428803	0.004615
1132.585999	0.004359
1132.743178	0.004528
1132.900338	0.006113
1133.057480	0.002784
1133.214604	0.007550
1133.371710	0.007566
1133.528797	0.008633
1133.685866	0.005768
1133.842917	0.001866
1133.999950	0.004461
1134.156964	0.002286
1134.313960	0.000723
1134.470938	0.002481
1134.627898	-0.006288
1134.784840	-0.006360
1134.941763	-0.005743
1135.098668	-0.002397
1135.255555	0.000729
1135.412424	-0.001637
1135.569274	-0.003599
1135.726107	-0.003866
1135.882921	-0.004525
1136.039716	0.004063
1136.196494	0.003088
1136.353253	0.004930
1136.509995	0.003517
1136.666717	0.003997
1136.823422	0.004381
1136.980109	0.003740
1137.136777	0.002073
1137.293427	0.001070
1137.450059	0.002324
1137.606672	0.002430
1137.763267	-0.000175
1137.919844	0.000123
1138.076403	-0.000233
1138.232944	-0.000655
1138.389466	0.002861
1138.545971	0.002813
1138.702457	0.001542
1138.858924	-0.000882
1139.015374	-0.002579
1139.171805	-0.004425
1139.328218	-0.005645
1139.484613	-0.013159
1139.640990	-0.012922
1139.797348	-0.014278
1139.953688	-0.014273
1140.110010	-0.015428
1140.266314	-0.014890
1140.422600	-0.010839
1140.578867	-0.009344
1140.735116	-0.003909
1140.891347	0.002596
1141.047559	0.005032
1141.203754	0.007274
1141.359930	0.007450
1141.516088	0.009416
1141.672228	0.010116
1141.828349	0.005530
1141.984452	0.005383
1142.140537	0.002235
1142.296604	0.000728
1142.452653	0.005004
1142.608683	0.002209
1142.764695	0.001336
1142.920689	-0.002560
1143.076665	-0.007477
1143.232622	-0.005936
1143.388562	-0.002637
1143.544483	-0.008037
1143.700385	-0.002981
1143.856270	-0.011218
1144.012136	-0.007750
1144.167985	-0.006192
1144.323814	0.001186
1144.479626	0.004147
1144.635420	0.002037
1144.791195	0.005981
1144.946952	0.010989
1145.102691	0.005712
1145.258411	0.012587
1145.414113	0.005409
1145.569798	0.000164
1145.725463	-0.001910
1145.881111	-0.000430
1146.036741	0.004071
1146.192352	-0.000527
1146.347945	-0.004830
1146.503519	-0.000811
1146.659076	-0.010294
1146.814614	-0.002941
1146.970134	-0.000310
1147.125636	0.003052
1147.281120	0.004256
1147.436585	0.003499
1147.592032	0.001797
1147.747461	0.004327
1147.902872	0.003576
1148.058265	0.014080
1148.213639	0.012218
1148.368995	0.015865
1148.524333	0.011520
1148.679653	0.002971
1148.834954	0.001651
1148.990237	0.003080
1149.145502	0.005201
1149.300749	0.001041
1149.455977	-0.007174
1149.611188	-0.008590
1149.766380	-0.014585
1149.921553	-0.013999
1150.076709	-0.007631
1150.231846	-0.003703
1150.386966	-0.003396
1150.542066	-0.005619
1150.697149	-0.002299
1150.852214	-0.000787
1151.007260	-0.000052
1151.162288	0.002229
1151.317298	-0.002513
1151.472289	-0.002126
1151.627263	-0.005413
1151.782218	-0.007895
1151.937155	-0.006600
1152.092073	-0.003498
1152.246974	0.000162
1152.401856	0.000166
1152.556720	-0.003775
1152.711566	0.002715
1152.866393	0.004130
1153.021203	0.004829
1153.175994	0.003026
1153.330767	0.003460
1153.485521	-0.002338
1153.640258	-0.002199
1153.794976	-0.000114
1153.949676	0.009496
1154.104358	0.010310
1154.259021	0.005278
1154.413667	0.007067
1154.568294	0.007799
1154.722903	0.012468
1154.877493	0.016844
1155.032066	0.008127
1155.186620	0.006289
1155.341156	-0.001795
1155.495674	-0.004249
1155.650173	-0.001036
1155.804654	-0.000273
1155.959118	-0.003061
1156.113562	-0.009114
1156.267989	-0.014187
1156.422397	-0.011631
1156.576788	-0.012806
1156.731160	-0.002694
1156.885513	-0.004730
1157.039849	-0.005575
1157.194166	-0.016239
1157.348465	-0.017935
1157.502746	-0.016310
1157.657009	-0.009186
1157.811253	-0.010515
1157.965479	-0.006682
1158.119687	-0.008070
1158.273877	-0.006512
1158.428048	-0.006299
1158.582201	-0.001442
1158.736337	0.002433
1158.890453	0.004986
1159.044552	0.003253
1159.198632	0.005874
1159.352694	0.000335
1159.506738	-0.004984
1159.660764	-0.006719
1159.814771	-0.006585
1159.968761	-0.010551
1160.122732	-0.007373
1160.276685	-0.015618
1160.430619	-0.016139
1160.584535	-0.013778
1160.738434	-0.008050
1160.892313	-0.008873
1161.046175	-0.019816
1161.200019	-0.013821
1161.353844	-0.003495
1161.507651	-0.005153
1161.661440	0.005806
1161.815210	0.011544
1161.968962	0.011350
1162.122697	0.006647
1162.276412	0.013243
1162.430110	0.024374
1162.583789	0.018511
1162.737451	0.018801
1162.891094	0.015026
1163.044718	0.004797
1163.198325	-0.005227
1163.351913	-0.000670
1163.505483	0.007118
1163.659035	-0.003684
1163.812569	-0.001197
1163.966084	-0.006060
1164.119581	-0.003257
1164.273060	0.000347
1164.426521	0.006043
1164.579964	0.013367
1164.733388	0.015101
1164.886794	0.017796
1165.040182	0.021735
1165.193551	0.015274
1165.346903	0.018550
1165.500236	0.009025
1165.653551	0.012148
1165.806848	0.008488
1165.960126	-0.001996
1166.113386	-0.007973
1166.266628	-0.021932
1166.419852	-0.017392
1166.573058	-0.011784
1166.726245	-0.011360
1166.879414	-0.016845
1167.032565	-0.020937
1167.185698	-0.013224
1167.338812	-0.015772
1167.491909	-0.015149
1167.644987	-0.012706
1167.798046	-0.022081
1167.951088	-0.031712
1168.104111	-0.031492
1168.257117	-0.026569
1168.410103	-0.034615
1168.563072	-0.043616
1168.716023	-0.041865
1168.868955	-0.044326
1169.021869	-0.044555
1169.174765	-0.038849
1169.327642	-0.034027
1169.480501	-0.029995
1169.633343	-0.031502
1169.786165	-0.023011
1169.938970	-0.026452
1170.091757	-0.019820
1170.244525	-0.017935
1170.397275	-0.021589
1170.550007	-0.023279
1170.702720	-0.017501
1170.855415	-0.022041
1171.008092	-0.019259
1171.160751	-0.019133
1171.313392	-0.014347
1171.466014	-0.006805
1171.618619	-0.016084
1171.771205	-0.016084
1171.923772	-0.016084
