sample name	sample
index	205
start time	 02-22-2021  09:37:35 AM


Wavelength (nm)	Absorbance
494.344910	0.113109
494.563924	0.113109
494.782919	0.113109
495.001897	-0.126387
495.220856	-0.015971
495.439797	-0.028345
495.658719	-0.033992
495.877624	-0.037561
496.096510	-0.034267
496.315378	-0.037687
496.534227	-0.022922
496.753059	-0.055712
496.971872	-0.049301
497.190667	-0.002888
497.409444	0.007407
497.628203	0.010390
497.846943	0.009355
498.065665	0.011182
498.284369	0.012394
498.503055	0.012534
498.721723	0.012972
498.940372	0.013826
499.159003	0.013756
499.377616	0.013353
499.596210	0.013942
499.814787	0.014529
500.033345	0.013681
500.251885	0.013114
500.470406	0.012751
500.688910	0.013873
500.907395	0.013943
501.125862	0.014138
501.344311	0.014068
501.562742	0.013500
501.781154	0.014076
501.999548	0.015083
502.217924	0.015776
502.436282	0.015602
502.654621	0.015086
502.872942	0.014262
503.091245	0.013865
503.309530	0.014149
503.527797	0.013541
503.746045	0.012593
503.964275	0.012381
504.182487	0.011970
504.400681	0.012637
504.618856	0.012739
504.837013	0.013568
505.055152	0.013992
505.273273	0.014176
505.491376	0.014467
505.709460	0.013974
505.927526	0.013795
506.145574	0.013568
506.363604	0.013427
506.581615	0.013627
506.799608	0.013102
507.017583	0.012031
507.235540	0.011894
507.453478	0.012317
507.671399	0.012802
507.889301	0.012457
508.107185	0.013293
508.325050	0.014070
508.542898	0.013656
508.760727	0.013569
508.978538	0.013759
509.196330	0.014550
509.414105	0.014553
509.631861	0.015380
509.849599	0.015917
510.067319	0.015414
510.285021	0.014751
510.502704	0.015155
510.720369	0.014818
510.938016	0.015504
511.155645	0.015342
511.373255	0.014879
511.590848	0.015058
511.808422	0.015544
512.025977	0.015563
512.243515	0.015557
512.461034	0.015295
512.678536	0.015497
512.896018	0.015365
513.113483	0.014905
513.330930	0.015204
513.548358	0.014545
513.765768	0.013882
513.983160	0.013977
514.200533	0.014025
514.417889	0.014643
514.635226	0.015083
514.852545	0.014481
515.069845	0.014287
515.287128	0.013956
515.504392	0.014067
515.721638	0.013994
515.938866	0.013866
516.156075	0.013381
516.373267	0.013213
516.590440	0.012582
516.807594	0.013344
517.024731	0.013997
517.241850	0.014165
517.458950	0.014389
517.676032	0.014403
517.893095	0.015021
518.110141	0.015107
518.327168	0.014528
518.544177	0.015311
518.761168	0.014810
518.978141	0.013875
519.195095	0.013699
519.412031	0.013718
519.628949	0.013848
519.845849	0.013850
520.062731	0.013805
520.279594	0.013490
520.496439	0.013230
520.713266	0.013596
520.930074	0.013850
521.146865	0.014113
521.363637	0.014078
521.580391	0.014077
521.797127	0.013795
522.013844	0.013860
522.230543	0.014328
522.447224	0.014526
522.663887	0.014603
522.880532	0.015144
523.097158	0.015218
523.313766	0.014915
523.530356	0.014808
523.746928	0.014316
523.963481	0.014521
524.180017	0.014638
524.396534	0.014234
524.613032	0.013880
524.829513	0.013667
525.045975	0.013828
525.262420	0.014315
525.478845	0.014244
525.695253	0.014370
525.911643	0.014305
526.128014	0.014297
526.344367	0.014801
526.560702	0.015489
526.777018	0.015405
526.993316	0.014982
527.209597	0.014737
527.425858	0.014876
527.642102	0.014736
527.858328	0.014960
528.074535	0.015116
528.290724	0.014569
528.506894	0.014299
528.723047	0.014694
528.939181	0.015063
529.155297	0.015094
529.371395	0.015226
529.587475	0.016027
529.803536	0.015553
530.019579	0.015520
530.235604	0.015853
530.451611	0.015485
530.667600	0.015346
530.883570	0.015111
531.099522	0.014781
531.315456	0.014789
531.531372	0.013943
531.747269	0.014445
531.963148	0.014047
532.179009	0.014147
532.394852	0.014441
532.610676	0.014016
532.826482	0.013873
533.042271	0.014007
533.258040	0.013557
533.473792	0.013863
533.689525	0.014148
533.905240	0.014691
534.120937	0.014805
534.336616	0.014836
534.552277	0.015345
534.767919	0.015803
534.983543	0.016005
535.199149	0.016967
535.414736	0.016888
535.630306	0.016679
535.845857	0.016754
536.061390	0.016605
536.276904	0.016830
536.492401	0.016980
536.707879	0.017155
536.923339	0.017493
537.138781	0.016988
537.354204	0.017605
537.569610	0.018010
537.784997	0.017827
538.000366	0.018135
538.215716	0.018423
538.431049	0.018372
538.646363	0.018112
538.861659	0.017859
539.076937	0.018012
539.292196	0.017833
539.507438	0.017402
539.722661	0.017771
539.937866	0.017637
540.153052	0.017728
540.368221	0.017901
540.583371	0.017971
540.798503	0.018046
541.013617	0.018144
541.228712	0.018009
541.443789	0.018441
541.658848	0.017935
541.873889	0.017845
542.088912	0.017674
542.303916	0.017624
542.518902	0.017558
542.733870	0.017725
542.948820	0.017911
543.163752	0.018007
543.378665	0.017568
543.593560	0.017598
543.808437	0.017536
544.023295	0.017316
544.238136	0.017431
544.452958	0.017774
544.667762	0.017787
544.882548	0.017616
545.097315	0.017878
545.312064	0.018222
545.526795	0.018507
545.741508	0.018868
545.956203	0.019092
546.170879	0.018917
546.385537	0.019027
546.600177	0.019146
546.814799	0.019521
547.029402	0.019769
547.243988	0.019638
547.458555	0.020097
547.673103	0.020101
547.887634	0.020373
548.102146	0.020271
548.316640	0.020053
548.531116	0.019937
548.745574	0.019573
548.960013	0.018727
549.174435	0.018803
549.388838	0.018654
549.603222	0.018631
549.817589	0.018499
550.031937	0.018655
550.246267	0.018664
550.460579	0.018558
550.674873	0.018402
550.889148	0.019140
551.103405	0.019032
551.317644	0.018715
551.531865	0.018457
551.746068	0.018553
551.960252	0.018485
552.174418	0.018320
552.388566	0.017965
552.602696	0.018174
552.816807	0.018036
553.030900	0.018018
553.244975	0.018100
553.459032	0.018067
553.673070	0.017627
553.887091	0.017702
554.101093	0.017852
554.315077	0.018012
554.529042	0.017844
554.742990	0.017809
554.956919	0.017770
555.170830	0.017551
555.384722	0.017786
555.598597	0.017934
555.812453	0.017855
556.026291	0.018148
556.240111	0.018750
556.453913	0.019034
556.667696	0.019086
556.881461	0.019231
557.095208	0.019841
557.308937	0.020003
557.522647	0.019986
557.736339	0.020432
557.950013	0.019951
558.163669	0.019717
558.377307	0.019366
558.590926	0.019386
558.804527	0.019414
559.018110	0.019110
559.231675	0.018707
559.445221	0.018792
559.658749	0.018852
559.872259	0.019220
560.085751	0.019045
560.299225	0.019310
560.512680	0.019528
560.726117	0.019603
560.939536	0.019616
561.152937	0.019761
561.366319	0.019731
561.579683	0.019258
561.793029	0.019301
562.006357	0.019432
562.219667	0.019268
562.432958	0.018996
562.646231	0.018812
562.859486	0.018566
563.072723	0.018813
563.285941	0.018535
563.499141	0.018669
563.712323	0.018420
563.925487	0.018275
564.138632	0.018399
564.351760	0.018430
564.564869	0.018285
564.777960	0.018412
564.991032	0.018472
565.204087	0.018968
565.417123	0.018938
565.630141	0.019222
565.843140	0.019461
566.056122	0.019611
566.269085	0.019450
566.482030	0.019626
566.694957	0.019728
566.907866	0.019519
567.120756	0.019514
567.333628	0.019462
567.546482	0.019470
567.759318	0.019607
567.972135	0.019662
568.184935	0.020101
568.397716	0.020301
568.610478	0.020273
568.823223	0.020085
569.035949	0.019954
569.248657	0.020129
569.461347	0.019986
569.674019	0.019872
569.886672	0.019840
570.099308	0.019748
570.311925	0.019462
570.524523	0.019720
570.737104	0.019923
570.949666	0.020037
571.162210	0.019795
571.374736	0.019665
571.587244	0.019958
571.799733	0.020249
572.012205	0.019985
572.224658	0.020303
572.437092	0.020171
572.649509	0.020404
572.861907	0.020544
573.074287	0.020689
573.286649	0.021042
573.498993	0.020653
573.711318	0.020144
573.923625	0.020384
574.135914	0.020454
574.348185	0.020234
574.560438	0.020195
574.772672	0.020111
574.984888	0.019983
575.197086	0.019686
575.409266	0.019948
575.621427	0.020232
575.833570	0.020151
576.045695	0.020090
576.257802	0.020490
576.469890	0.020400
576.681961	0.020291
576.894013	0.020481
577.106046	0.020607
577.318062	0.020326
577.530059	0.020378
577.742039	0.020330
577.954000	0.020314
578.165942	0.020256
578.377867	0.020355
578.589773	0.020416
578.801661	0.020613
579.013531	0.020577
579.225382	0.020372
579.437216	0.020583
579.649031	0.020856
579.860828	0.020783
580.072606	0.020773
580.284367	0.020727
580.496109	0.020929
580.707833	0.020784
580.919539	0.020822
581.131227	0.021285
581.342896	0.021234
581.554547	0.021301
581.766180	0.021628
581.977795	0.021708
582.189391	0.021738
582.400969	0.021279
582.612529	0.021153
582.824071	0.021255
583.035595	0.021193
583.247100	0.021464
583.458587	0.021198
583.670056	0.021215
583.881506	0.021134
584.092939	0.021256
584.304353	0.021642
584.515749	0.021867
584.727127	0.022212
584.938486	0.022497
585.149828	0.022218
585.361151	0.022260
585.572456	0.022362
585.783742	0.022763
585.995011	0.023047
586.206261	0.023017
586.417493	0.023326
586.628706	0.023110
586.839902	0.022924
587.051079	0.022723
587.262238	0.023065
587.473379	0.022903
587.684502	0.022628
587.895606	0.022314
588.106692	0.022504
588.317760	0.022074
588.528810	0.022165
588.739841	0.022432
588.950855	0.022808
589.161850	0.022956
589.372827	0.022926
589.583785	0.023191
589.794726	0.023400
590.005648	0.023492
590.216552	0.023671
590.427437	0.023466
590.638305	0.023455
590.849154	0.023533
591.059985	0.023042
591.270798	0.023267
591.481592	0.023402
591.692369	0.023230
591.903127	0.023191
592.113867	0.023238
592.324588	0.023066
592.535292	0.022976
592.745977	0.022583
592.956644	0.022796
593.167293	0.022729
593.377923	0.022302
593.588536	0.022465
593.799130	0.022352
594.009706	0.022545
594.220263	0.023129
594.430803	0.023202
594.641324	0.023541
594.851827	0.023927
595.062312	0.023837
595.272778	0.024371
595.483227	0.024451
595.693657	0.024542
595.904069	0.024366
596.114462	0.024298
596.324838	0.024289
596.535195	0.024311
596.745534	0.024072
596.955855	0.024206
597.166157	0.023633
597.376441	0.023508
597.586707	0.023824
597.796955	0.024200
598.007185	0.024185
598.217396	0.024173
598.427589	0.024272
598.637764	0.024567
598.847921	0.024698
599.058060	0.024843
599.268180	0.024866
599.478282	0.024576
599.688366	0.024539
599.898431	0.024806
600.108479	0.024910
600.318508	0.024893
600.528519	0.024823
600.738511	0.024732
600.948486	0.024796
601.158442	0.025156
601.368380	0.025575
601.578300	0.025644
601.788202	0.025664
601.998085	0.025580
602.207950	0.025471
602.417797	0.025468
602.627626	0.025478
602.837436	0.025562
603.047228	0.025314
603.257002	0.025010
603.466758	0.024909
603.676496	0.024664
603.886215	0.024851
604.095916	0.024934
604.305599	0.024919
604.515264	0.024810
604.724910	0.024978
604.934538	0.025200
605.144148	0.025324
605.353740	0.025273
605.563314	0.025284
605.772869	0.025325
605.982406	0.025431
606.191925	0.025540
606.401425	0.025651
606.610908	0.025672
606.820372	0.025556
607.029818	0.025388
607.239246	0.025379
607.448655	0.025311
607.658047	0.025159
607.867420	0.024896
608.076775	0.024648
608.286111	0.024724
608.495430	0.024443
608.704730	0.024628
608.914012	0.024726
609.123275	0.024771
609.332521	0.024947
609.541748	0.024915
609.750957	0.025018
609.960148	0.024999
610.169321	0.024967
610.378475	0.025011
610.587611	0.024953
610.796729	0.024979
611.005829	0.024988
611.214910	0.025143
611.423974	0.025223
611.633019	0.025427
611.842045	0.025720
612.051054	0.025931
612.260044	0.026114
612.469017	0.025964
612.677970	0.026027
612.886906	0.026158
613.095824	0.026235
613.304723	0.026429
613.513604	0.026635
613.722467	0.026799
613.931311	0.026563
614.140138	0.026475
614.348946	0.026628
614.557736	0.026771
614.766507	0.026822
614.975261	0.026795
615.183996	0.026898
615.392713	0.026804
615.601412	0.026695
615.810092	0.026806
616.018754	0.026887
616.227399	0.026956
616.436024	0.026944
616.644632	0.026830
616.853222	0.026937
617.061793	0.026707
617.270346	0.026519
617.478880	0.026501
617.687397	0.026466
617.895895	0.026621
618.104375	0.026593
618.312837	0.026415
618.521281	0.026497
618.729706	0.026269
618.938113	0.026377
619.146502	0.026353
619.354873	0.026110
619.563226	0.026222
619.771560	0.026090
619.979876	0.026034
620.188174	0.025952
620.396453	0.025859
620.604715	0.025699
620.812958	0.025690
621.021183	0.025859
621.229390	0.026092
621.437578	0.026039
621.645748	0.025985
621.853900	0.026029
622.062034	0.026279
622.270150	0.026271
622.478247	0.026379
622.686326	0.026442
622.894387	0.026273
623.102430	0.026105
623.310454	0.026155
623.518461	0.026142
623.726449	0.026078
623.934418	0.026106
624.142370	0.026230
624.350303	0.026142
624.558218	0.026205
624.766115	0.026355
624.973994	0.026561
625.181855	0.026465
625.389697	0.026534
625.597521	0.026672
625.805327	0.026489
626.013114	0.026388
626.220883	0.026531
626.428634	0.026346
626.636367	0.026056
626.844082	0.025920
627.051778	0.026057
627.259457	0.026300
627.467117	0.026305
627.674758	0.026579
627.882382	0.026887
628.089987	0.027038
628.297574	0.026986
628.505143	0.027248
628.712694	0.027457
628.920226	0.027419
629.127740	0.027489
629.335236	0.027607
629.542714	0.027504
629.750174	0.027362
629.957615	0.027427
630.165038	0.027558
630.372443	0.027389
630.579829	0.027281
630.787198	0.027394
630.994548	0.027075
631.201880	0.026970
631.409194	0.027038
631.616489	0.027028
631.823766	0.026967
632.031025	0.027065
632.238266	0.027174
632.445489	0.027228
632.652693	0.027054
632.859879	0.027393
633.067047	0.027357
633.274197	0.027257
633.481329	0.027193
633.688442	0.027108
633.895537	0.027091
634.102614	0.027261
634.309672	0.027405
634.516713	0.027579
634.723735	0.027488
634.930739	0.027638
635.137724	0.027705
635.344692	0.027793
635.551641	0.027966
635.758572	0.028182
635.965485	0.028291
636.172379	0.028281
636.379256	0.028332
636.586114	0.028259
636.792954	0.028173
636.999775	0.028523
637.206579	0.028637
637.413364	0.028735
637.620131	0.028667
637.826880	0.028717
638.033610	0.028669
638.240323	0.028798
638.447017	0.028836
638.653692	0.028676
638.860350	0.028452
639.066990	0.028481
639.273611	0.028221
639.480214	0.028324
639.686798	0.028403
639.893365	0.028522
640.099913	0.028388
640.306443	0.028521
640.512955	0.028791
640.719449	0.028808
640.925924	0.028844
641.132381	0.029191
641.338820	0.029230
641.545241	0.029220
641.751644	0.029105
641.958028	0.029146
642.164394	0.029285
642.370742	0.029287
642.577071	0.029410
642.783383	0.029526
642.989676	0.029477
643.195951	0.029596
643.402207	0.029579
643.608446	0.029692
643.814666	0.029779
644.020868	0.029635
644.227052	0.029770
644.433218	0.029732
644.639365	0.029777
644.845494	0.029869
645.051605	0.029696
645.257698	0.029693
645.463772	0.029811
645.669828	0.029816
645.875866	0.029815
646.081886	0.029886
646.287888	0.029782
646.493871	0.029754
646.699836	0.029667
646.905783	0.029519
647.111712	0.029346
647.317622	0.029271
647.523514	0.029235
647.729388	0.029324
647.935244	0.029237
648.141082	0.029428
648.346901	0.029457
648.552702	0.029644
648.758485	0.029888
648.964250	0.030108
649.169996	0.030177
649.375724	0.030441
649.581434	0.030643
649.787126	0.030874
649.992800	0.031051
650.198455	0.031164
650.404092	0.031192
650.609711	0.031535
650.815311	0.031840
651.020894	0.032164
651.226458	0.031969
651.432004	0.032000
651.637532	0.031865
651.843041	0.031709
652.048532	0.031695
652.254006	0.031672
652.459460	0.031351
652.664897	0.031181
652.870315	0.030836
653.075716	0.030952
653.281097	0.030818
653.486461	0.030855
653.691807	0.030784
653.897134	0.030636
654.102443	0.030588
654.307734	0.030385
654.513006	0.030208
654.718261	0.030125
654.923497	0.030187
655.128715	0.030210
655.333915	0.030181
655.539096	0.030158
655.744259	0.030198
655.949404	0.030124
656.154531	0.030303
656.359640	0.030284
656.564730	0.030331
656.769802	0.030338
656.974856	0.030303
657.179892	0.030361
657.384909	0.030581
657.589908	0.030530
657.794889	0.030662
657.999852	0.030746
658.204797	0.031014
658.409723	0.031185
658.614631	0.031059
658.819521	0.030985
659.024393	0.030948
659.229246	0.030799
659.434081	0.030982
659.638898	0.031104
659.843697	0.031118
660.048478	0.031112
660.253240	0.031006
660.457984	0.031034
660.662710	0.031215
660.867417	0.031122
661.072107	0.031128
661.276778	0.030889
661.481431	0.030643
661.686066	0.030637
661.890682	0.030537
662.095281	0.030549
662.299861	0.030647
662.504422	0.030610
662.708966	0.030687
662.913491	0.030860
663.117999	0.031063
663.322488	0.031133
663.526958	0.031225
663.731411	0.031300
663.935845	0.031456
664.140261	0.031670
664.344659	0.031847
664.549038	0.032030
664.753400	0.032109
664.957743	0.032194
665.162068	0.032351
665.366375	0.032382
665.570663	0.032435
665.774933	0.032329
665.979185	0.032172
666.183419	0.032145
666.387635	0.032135
666.591832	0.032011
666.796011	0.031834
667.000172	0.031727
667.204315	0.031858
667.408439	0.031933
667.612545	0.032184
667.816634	0.032166
668.020703	0.032176
668.224755	0.032282
668.428788	0.032251
668.632803	0.032535
668.836800	0.032766
669.040779	0.032692
669.244739	0.032695
669.448681	0.032726
669.652605	0.032812
669.856511	0.032876
670.060399	0.032854
670.264268	0.033050
670.468119	0.032953
670.671952	0.032801
670.875767	0.032798
671.079563	0.032723
671.283341	0.032634
671.487101	0.032682
671.690843	0.032471
671.894567	0.032452
672.098272	0.032377
672.301959	0.032456
672.505628	0.032542
672.709278	0.032670
672.912911	0.032948
673.116525	0.033073
673.320121	0.033178
673.523699	0.033428
673.727258	0.033435
673.930799	0.033545
674.134322	0.033685
674.337827	0.033677
674.541314	0.033704
674.744782	0.033620
674.948232	0.033556
675.151664	0.033516
675.355078	0.033641
675.558474	0.033627
675.761851	0.033515
675.965210	0.033439
676.168551	0.033524
676.371873	0.033330
676.575178	0.033193
676.778464	0.032938
676.981732	0.032797
677.184981	0.032539
677.388213	0.032518
677.591426	0.032518
677.794621	0.032338
677.997798	0.032320
678.200956	0.032322
678.404097	0.032232
678.607219	0.032202
678.810323	0.032258
679.013408	0.032272
679.216476	0.032262
679.419525	0.032333
679.622556	0.032514
679.825569	0.032509
680.028563	0.032685
680.231540	0.032841
680.434498	0.033125
680.637438	0.033366
680.840359	0.033550
681.043263	0.033694
681.246148	0.033833
681.449015	0.033925
681.651864	0.033861
681.854694	0.033867
682.057506	0.033901
682.260301	0.033909
682.463076	0.033789
682.665834	0.033649
682.868573	0.033563
683.071295	0.033459
683.273998	0.033413
683.476682	0.033550
683.679349	0.033562
683.881997	0.033614
684.084627	0.033776
684.287239	0.033823
684.489833	0.033924
684.692408	0.033990
684.894965	0.034012
685.097504	0.034095
685.300025	0.034191
685.502527	0.034160
685.705012	0.034168
685.907478	0.034182
686.109925	0.034189
686.312355	0.034257
686.514766	0.034254
686.717159	0.034316
686.919534	0.034314
687.121891	0.034266
687.324230	0.034469
687.526550	0.034680
687.728852	0.034615
687.931136	0.034820
688.133401	0.034946
688.335649	0.035087
688.537878	0.035164
688.740089	0.035273
688.942281	0.035353
689.144456	0.035333
689.346612	0.035294
689.548750	0.035437
689.750870	0.035483
689.952971	0.035445
690.155055	0.035456
690.357120	0.035527
690.559167	0.035447
690.761195	0.035508
690.963206	0.035599
691.165198	0.035713
691.367172	0.035736
691.569128	0.035713
691.771065	0.035848
691.972984	0.035930
692.174885	0.035932
692.376768	0.036046
692.578633	0.036017
692.780479	0.035960
692.982308	0.035885
693.184118	0.035823
693.385909	0.035879
693.587683	0.035922
693.789438	0.036048
693.991175	0.036148
694.192894	0.036250
694.394595	0.036375
694.596277	0.036412
694.797941	0.036465
694.999587	0.036469
695.201215	0.036374
695.402824	0.036341
695.604416	0.036338
695.805989	0.036329
696.007543	0.036208
696.209080	0.036164
696.410598	0.036100
696.612099	0.036036
696.813580	0.036061
697.015044	0.036048
697.216490	0.036079
697.417917	0.035904
697.619326	0.036039
697.820717	0.036040
698.022089	0.036074
698.223444	0.036209
698.424780	0.036213
698.626098	0.036298
698.827397	0.036381
699.028679	0.036408
699.229942	0.036562
699.431187	0.036472
699.632414	0.036541
699.833622	0.036483
700.034813	0.036611
700.235985	0.036565
700.437139	0.036447
700.638274	0.036447
700.839392	0.036442
701.040491	0.036543
701.241572	0.036497
701.442635	0.036366
701.643679	0.036362
701.844706	0.036214
702.045714	0.036267
702.246704	0.036377
702.447675	0.036282
702.648629	0.036278
702.849564	0.036078
703.050481	0.036234
703.251380	0.036406
703.452260	0.036505
703.653122	0.036556
703.853966	0.036616
704.054792	0.036489
704.255600	0.036350
704.456389	0.036318
704.657160	0.036394
704.857913	0.036109
705.058648	0.036052
705.259365	0.035848
705.460063	0.035656
705.660743	0.035656
705.861405	0.035689
706.062048	0.035842
706.262674	0.035721
706.463281	0.035780
706.663870	0.036008
706.864441	0.035972
707.064993	0.036027
707.265527	0.036263
707.466043	0.036326
707.666541	0.036639
707.867021	0.036801
708.067482	0.037071
708.267925	0.037190
708.468350	0.037239
708.668757	0.037286
708.869145	0.037536
709.069516	0.037468
709.269868	0.037531
709.470201	0.037409
709.670517	0.037371
709.870814	0.037231
710.071093	0.037108
710.271354	0.036957
710.471597	0.036934
710.671821	0.036857
710.872028	0.036690
711.072216	0.036613
711.272385	0.036444
711.472537	0.036267
711.672670	0.036263
711.872785	0.036040
712.072882	0.036004
712.272961	0.036129
712.473021	0.035985
712.673063	0.036055
712.873087	0.036084
713.073093	0.036182
713.273081	0.036192
713.473050	0.036088
713.673001	0.036204
713.872934	0.036256
714.072849	0.036281
714.272745	0.036340
714.472623	0.036332
714.672483	0.036327
714.872325	0.036407
715.072148	0.036634
715.271954	0.036755
715.471741	0.036933
715.671509	0.036761
715.871260	0.036646
716.070992	0.036623
716.270707	0.036747
716.470403	0.036777
716.670080	0.036741
716.869740	0.036576
717.069381	0.036501
717.269004	0.036454
717.468609	0.036590
717.668195	0.036459
717.867764	0.036558
718.067314	0.036528
718.266846	0.036508
718.466360	0.036396
718.665855	0.036509
718.865332	0.036644
719.064791	0.036644
719.264232	0.036624
719.463655	0.036729
719.663059	0.036682
719.862445	0.036476
720.061813	0.036441
720.261163	0.036381
720.460494	0.036361
720.659807	0.036253
720.859102	0.036093
721.058379	0.036301
721.257638	0.036247
721.456878	0.036412
721.656100	0.036592
721.855304	0.036534
722.054490	0.036641
722.253657	0.036480
722.452806	0.036565
722.651937	0.036719
722.851050	0.036555
723.050145	0.036604
723.249221	0.036421
723.448279	0.036378
723.647319	0.036394
723.846340	0.036470
724.045344	0.036543
724.244329	0.036451
724.443296	0.036370
724.642245	0.036345
724.841175	0.036449
725.040088	0.036562
725.238982	0.036644
725.437857	0.036645
725.636715	0.036608
725.835554	0.036548
726.034376	0.036557
726.233179	0.036639
726.431963	0.036773
726.630730	0.036792
726.829478	0.036565
727.028208	0.036708
727.226920	0.036725
727.425614	0.036694
727.624289	0.036958
727.822946	0.037149
728.021585	0.037023
728.220206	0.036842
728.418808	0.036787
728.617392	0.036854
728.815958	0.036781
729.014506	0.036719
729.213036	0.036745
729.411547	0.036699
729.610040	0.036594
729.808515	0.036671
730.006972	0.036909
730.205410	0.036828
730.403831	0.036871
730.602233	0.036788
730.800616	0.036797
730.998982	0.036758
731.197329	0.036775
731.395658	0.036877
731.593969	0.036979
731.792262	0.036856
731.990536	0.036951
732.188793	0.037029
732.387031	0.036890
732.585250	0.037067
732.783452	0.037099
732.981635	0.036976
733.179800	0.036932
733.377947	0.036847
733.576076	0.036881
733.774186	0.036897
733.972278	0.036886
734.170352	0.036999
734.368408	0.037027
734.566446	0.036929
734.764465	0.036944
734.962466	0.036907
735.160449	0.036872
735.358413	0.036826
735.556360	0.036738
735.754288	0.036781
735.952198	0.036657
736.150090	0.036347
736.347963	0.036533
736.545818	0.036450
736.743655	0.036227
736.941474	0.036251
737.139275	0.036086
737.337057	0.035954
737.534821	0.035676
737.732567	0.035622
737.930295	0.035521
738.128005	0.035366
738.325696	0.035311
738.523369	0.035341
738.721024	0.035342
738.918660	0.035417
739.116279	0.035448
739.313879	0.035591
739.511461	0.035626
739.709024	0.035909
739.906570	0.035935
740.104097	0.035910
740.301606	0.035929
740.499097	0.036052
740.696569	0.036052
740.894024	0.035899
741.091460	0.035881
741.288878	0.035786
741.486277	0.035676
741.683659	0.035748
741.881022	0.036025
742.078367	0.035922
742.275694	0.035709
742.473002	0.035792
742.670293	0.035989
742.867565	0.035964
743.064819	0.036041
743.262054	0.035930
743.459272	0.035679
743.656471	0.035491
743.853652	0.035391
744.050815	0.035372
744.247959	0.035033
744.445085	0.035044
744.642194	0.034841
744.839283	0.034643
745.036355	0.034516
745.233408	0.034457
745.430444	0.034134
745.627461	0.034326
745.824459	0.034181
746.021440	0.034344
746.218402	0.034220
746.415346	0.034488
746.612272	0.034720
746.809180	0.034849
747.006069	0.035042
747.202940	0.035171
747.399793	0.035087
747.596628	0.035066
747.793444	0.035169
747.990243	0.035302
748.187023	0.035283
748.383784	0.035323
748.580528	0.035495
748.777253	0.035526
748.973960	0.035672
749.170649	0.035890
749.367320	0.036015
749.563973	0.035955
749.760607	0.035736
749.957223	0.035666
750.153821	0.035544
750.350400	0.035356
750.546962	0.035056
750.743505	0.034975
750.940030	0.034556
751.136536	0.034277
751.333025	0.034179
751.529495	0.034080
751.725947	0.033839
751.922381	0.033844
752.118796	0.033750
752.315194	0.033902
752.511573	0.033839
752.707934	0.033873
752.904276	0.033943
753.100601	0.033694
753.296907	0.033581
753.493195	0.033631
753.689465	0.033462
753.885716	0.033589
754.081949	0.033637
754.278164	0.033616
754.474361	0.033666
754.670540	0.033730
754.866700	0.033865
755.062843	0.034019
755.258967	0.034010
755.455072	0.033975
755.651160	0.033588
755.847229	0.033248
756.043280	0.033116
756.239313	0.032936
756.435328	0.032696
756.631324	0.032542
756.827302	0.032443
757.023262	0.032418
757.219204	0.032431
757.415127	0.032590
757.611033	0.032770
757.806920	0.032919
758.002788	0.033041
758.198639	0.033243
758.394471	0.033428
758.590286	0.033500
758.786081	0.033492
758.981859	0.033660
759.177619	0.033589
759.373360	0.033616
759.569083	0.033665
759.764788	0.033669
759.960474	0.033791
760.156143	0.033859
760.351793	0.034012
760.547425	0.034078
760.743038	0.034095
760.938634	0.034259
761.134211	0.034336
761.329770	0.034331
761.525311	0.034391
761.720833	0.034419
761.916338	0.034607
762.111824	0.034555
762.307292	0.034740
762.502741	0.034843
762.698173	0.035058
762.893586	0.035125
763.088981	0.035226
763.284358	0.035488
763.479716	0.035497
763.675057	0.035326
763.870379	0.035546
764.065683	0.035373
764.260968	0.035499
764.456236	0.035406
764.651485	0.035494
764.846716	0.035465
765.041929	0.035390
765.237123	0.035385
765.432299	0.035412
765.627457	0.035148
765.822597	0.035323
766.017719	0.035142
766.212822	0.035060
766.407907	0.034878
766.602974	0.034799
766.798023	0.034678
766.993054	0.034501
767.188066	0.034365
767.383060	0.034406
767.578036	0.034162
767.772993	0.034149
767.967933	0.033975
768.162854	0.033997
768.357757	0.034112
768.552642	0.033950
768.747508	0.033961
768.942356	0.034009
769.137186	0.033888
769.331998	0.033838
769.526792	0.033703
769.721567	0.033742
769.916324	0.033670
770.111063	0.033400
770.305784	0.033489
770.500486	0.033559
770.695171	0.033632
770.889837	0.033729
771.084484	0.033978
771.279114	0.034011
771.473725	0.034220
771.668318	0.034119
771.862893	0.034202
772.057450	0.034354
772.251988	0.034281
772.446509	0.034397
772.641011	0.034567
772.835494	0.034487
773.029960	0.034497
773.224407	0.034303
773.418836	0.034332
773.613247	0.034431
773.807640	0.034351
774.002014	0.034592
774.196370	0.034381
774.390708	0.034316
774.585028	0.034450
774.779330	0.034501
774.973613	0.034709
775.167878	0.034917
775.362125	0.034832
775.556354	0.034825
775.750564	0.034824
775.944756	0.034782
776.138930	0.034704
776.333086	0.034482
776.527223	0.034414
776.721343	0.034267
776.915444	0.034104
777.109526	0.034092
777.303591	0.034119
777.497637	0.034021
777.691666	0.034194
777.885676	0.034046
778.079667	0.034017
778.273641	0.034036
778.467596	0.034214
778.661533	0.034323
778.855452	0.034411
779.049352	0.034501
779.243235	0.034407
779.437099	0.034184
779.630945	0.034252
779.824773	0.034287
780.018582	0.034306
780.212373	0.034075
780.406146	0.033912
780.599901	0.033731
780.793638	0.033522
780.987356	0.033552
781.181056	0.033804
781.374738	0.034054
781.568402	0.034064
781.762047	0.034188
781.955674	0.034375
782.149283	0.034699
782.342874	0.035153
782.536447	0.035374
782.730001	0.035670
782.923537	0.035822
783.117055	0.035785
783.310555	0.035866
783.504036	0.035896
783.697499	0.035988
783.890944	0.035926
784.084371	0.035731
784.277780	0.035684
784.471170	0.035424
784.664542	0.035273
784.857896	0.035280
785.051231	0.035241
785.244549	0.035233
785.437848	0.035104
785.631129	0.035132
785.824392	0.034894
786.017636	0.034788
786.210863	0.034891
786.404071	0.034959
786.597260	0.034996
786.790432	0.034989
786.983585	0.034966
787.176721	0.034996
787.369838	0.035114
787.562936	0.035323
787.756017	0.035489
787.949079	0.035480
788.142123	0.035647
788.335149	0.035626
788.528156	0.035797
788.721146	0.035699
788.914117	0.035792
789.107070	0.035507
789.300005	0.035517
789.492921	0.035498
789.685819	0.035459
789.878699	0.035469
790.071561	0.035522
790.264405	0.035526
790.457230	0.035607
790.650037	0.035669
790.842826	0.035800
791.035597	0.035814
791.228349	0.035791
791.421084	0.035779
791.613800	0.035606
791.806497	0.035490
791.999177	0.035484
792.191838	0.035484
792.384481	0.035480
792.577106	0.035421
792.769713	0.035510
792.962301	0.035485
793.154871	0.035444
793.347423	0.035302
793.539957	0.035281
793.732473	0.035180
793.924970	0.035158
794.117449	0.035076
794.309910	0.035184
794.502353	0.035184
794.694777	0.035272
794.887183	0.035352
795.079571	0.035533
795.271941	0.035527
795.464293	0.035486
795.656626	0.035356
795.848941	0.035339
796.041238	0.035150
796.233516	0.034989
796.425777	0.035038
796.618019	0.034954
796.810243	0.034979
797.002449	0.035056
797.194636	0.035255
797.386805	0.035466
797.578956	0.035508
797.771089	0.035692
797.963204	0.035955
798.155300	0.035823
798.347378	0.035944
798.539438	0.036100
798.731480	0.036134
798.923503	0.036138
799.115509	0.036113
799.307496	0.036144
799.499465	0.036167
799.691415	0.036027
799.883348	0.036125
800.075262	0.036132
800.267158	0.035871
800.459035	0.035903
800.650895	0.035848
800.842736	0.035863
801.034559	0.035901
801.226364	0.035914
801.418150	0.036044
801.609919	0.035925
801.801669	0.036037
801.993401	0.036256
802.185114	0.036251
802.376810	0.036318
802.568487	0.036398
802.760146	0.036292
802.951787	0.036265
803.143409	0.036099
803.335014	0.036244
803.526600	0.036162
803.718168	0.036106
803.909717	0.036137
804.101249	0.036062
804.292762	0.035968
804.484257	0.036148
804.675734	0.036220
804.867192	0.036250
805.058632	0.036246
805.250054	0.036152
805.441458	0.035847
805.632844	0.035657
805.824211	0.035752
806.015561	0.035803
806.206891	0.035611
806.398204	0.035465
806.589499	0.035328
806.780775	0.035182
806.972033	0.035251
807.163273	0.035372
807.354495	0.035506
807.545698	0.035249
807.736883	0.035310
807.928050	0.035418
808.119199	0.035546
808.310329	0.035705
808.501441	0.035972
808.692535	0.035973
808.883611	0.036121
809.074669	0.036261
809.265708	0.036621
809.456729	0.036561
809.647732	0.036655
809.838717	0.036724
810.029683	0.036917
810.220632	0.036936
810.411562	0.037079
810.602474	0.037229
810.793367	0.037152
810.984242	0.037244
811.175100	0.037389
811.365938	0.037298
811.556759	0.037306
811.747562	0.037366
811.938346	0.037498
812.129112	0.037410
812.319860	0.037296
812.510589	0.037251
812.701300	0.037115
812.891994	0.037182
813.082668	0.037141
813.273325	0.037205
813.463964	0.037191
813.654584	0.037238
813.845186	0.037368
814.035769	0.037657
814.226335	0.037839
814.416882	0.037883
814.607411	0.037969
814.797922	0.038250
814.988415	0.038295
815.178889	0.038353
815.369345	0.038347
815.559783	0.038461
815.750203	0.038392
815.940605	0.038501
816.130988	0.038573
816.321353	0.038670
816.511700	0.038846
816.702028	0.039122
816.892339	0.039253
817.082631	0.039271
817.272905	0.039306
817.463161	0.039299
817.653398	0.039290
817.843617	0.039578
818.033819	0.039495
818.224001	0.039227
818.414166	0.039040
818.604312	0.038980
818.794440	0.038993
818.984550	0.038921
819.174642	0.038895
819.364716	0.038811
819.554771	0.038764
819.744808	0.038758
819.934827	0.038917
820.124827	0.038821
820.314810	0.038934
820.504774	0.038889
820.694720	0.038797
820.884647	0.038745
821.074557	0.038883
821.264448	0.038721
821.454321	0.038691
821.644176	0.038763
821.834012	0.038832
822.023831	0.038602
822.213631	0.038593
822.403413	0.038933
822.593176	0.038969
822.782922	0.038984
822.972649	0.039103
823.162358	0.039377
823.352049	0.039424
823.541721	0.039435
823.731376	0.039650
823.921012	0.039847
824.110629	0.039584
824.300229	0.039650
824.489811	0.039659
824.679374	0.039691
824.868919	0.039606
825.058445	0.039385
825.247954	0.039329
825.437444	0.039163
825.626916	0.039114
825.816370	0.039433
826.005806	0.039559
826.195223	0.039525
826.384622	0.039634
826.574003	0.039827
826.763366	0.040274
826.952711	0.040644
827.142037	0.040864
827.331345	0.041096
827.520635	0.041150
827.709906	0.041349
827.899160	0.041649
828.088395	0.041664
828.277612	0.041574
828.466810	0.041735
828.655991	0.041744
828.845153	0.041865
829.034297	0.041971
829.223423	0.041870
829.412531	0.041764
829.601620	0.041791
829.790691	0.041783
829.979744	0.041740
830.168779	0.041546
830.357795	0.041366
830.546793	0.041412
830.735773	0.041249
830.924735	0.041322
831.113679	0.041504
831.302604	0.041685
831.491511	0.041718
831.680400	0.041720
831.869271	0.041757
832.058123	0.041805
832.246957	0.041899
832.435773	0.042170
832.624571	0.042381
832.813351	0.042292
833.002112	0.041967
833.190855	0.041907
833.379580	0.042034
833.568287	0.042024
833.756975	0.042297
833.945645	0.042036
834.134297	0.041727
834.322931	0.041790
834.511547	0.041766
834.700144	0.042149
834.888723	0.042437
835.077284	0.042711
835.265826	0.042823
835.454351	0.042523
835.642857	0.042732
835.831345	0.042777
836.019815	0.042772
836.208266	0.043104
836.396699	0.043051
836.585114	0.043123
836.773511	0.043126
836.961890	0.043258
837.150250	0.043490
837.338592	0.043854
837.526916	0.044136
837.715222	0.044129
837.903510	0.044113
838.091779	0.044198
838.280030	0.044264
838.468263	0.044194
838.656477	0.044032
838.844674	0.044140
839.032852	0.043667
839.221012	0.043508
839.409153	0.043646
839.597277	0.043627
839.785382	0.043551
839.973469	0.043361
840.161538	0.043790
840.349589	0.044125
840.537621	0.044311
840.725635	0.044790
840.913631	0.045098
841.101609	0.045127
841.289568	0.045281
841.477509	0.045440
841.665432	0.045611
841.853337	0.045195
842.041224	0.045084
842.229092	0.045152
842.416942	0.044781
842.604774	0.044789
842.792588	0.044696
842.980383	0.044699
843.168160	0.044877
843.355919	0.044935
843.543660	0.044992
843.731382	0.045182
843.919087	0.045132
844.106773	0.045554
844.294441	0.045611
844.482090	0.045893
844.669722	0.046097
844.857335	0.046105
845.044930	0.046361
845.232507	0.046698
845.420065	0.046907
845.607605	0.047202
845.795127	0.047499
845.982631	0.047482
846.170117	0.047430
846.357584	0.047369
846.545033	0.047365
846.732464	0.047461
846.919877	0.047675
847.107272	0.047728
847.294648	0.047643
847.482006	0.047387
847.669346	0.047635
847.856667	0.047897
848.043971	0.048236
848.231256	0.048402
848.418523	0.048465
848.605771	0.048342
848.793002	0.048476
848.980214	0.048714
849.167408	0.048882
849.354584	0.049167
849.541742	0.049240
849.728881	0.049026
849.916002	0.049216
850.103105	0.049193
850.290190	0.049365
850.477256	0.049494
850.664304	0.049538
850.851334	0.049595
851.038346	0.049464
851.225340	0.049554
851.412315	0.049868
851.599272	0.049949
851.786211	0.050279
851.973132	0.050489
852.160034	0.050312
852.346918	0.050428
852.533784	0.050642
852.720632	0.050664
852.907462	0.050901
853.094273	0.050884
853.281066	0.051064
853.467841	0.050975
853.654598	0.051195
853.841336	0.051400
854.028056	0.051586
854.214758	0.051714
854.401442	0.051845
854.588107	0.051868
854.774755	0.052012
854.961384	0.052031
855.147995	0.052036
855.334587	0.052145
855.521162	0.052359
855.707718	0.052274
855.894256	0.052448
856.080775	0.052672
856.267277	0.052857
856.453760	0.053010
856.640225	0.053081
856.826672	0.053308
857.013101	0.053189
857.199511	0.053357
857.385903	0.053628
857.572277	0.053649
857.758633	0.053703
857.944970	0.053594
858.131290	0.053564
858.317591	0.053542
858.503873	0.053620
858.690138	0.053554
858.876384	0.053192
859.062612	0.053370
859.248822	0.053377
859.435014	0.053351
859.621188	0.053505
859.807343	0.053598
859.993480	0.053689
860.179599	0.053455
860.365699	0.053318
860.551781	0.053287
860.737846	0.053070
860.923891	0.053031
861.109919	0.052924
861.295929	0.052861
861.481920	0.052695
861.667893	0.052784
861.853848	0.052914
862.039784	0.053018
862.225702	0.053082
862.411603	0.053098
862.597484	0.053092
862.783348	0.053061
862.969193	0.053158
863.155021	0.053311
863.340830	0.053208
863.526620	0.053236
863.712393	0.053298
863.898147	0.053350
864.083883	0.053327
864.269601	0.053603
864.455301	0.054160
864.640982	0.054422
864.826645	0.054573
865.012290	0.054618
865.197917	0.055132
865.383526	0.055463
865.569116	0.055818
865.754688	0.056067
865.940242	0.056145
866.125777	0.055896
866.311295	0.055923
866.496794	0.056049
866.682275	0.056224
866.867737	0.056061
867.053182	0.056258
867.238608	0.056412
867.424016	0.056736
867.609406	0.056897
867.794778	0.057256
867.980131	0.057219
868.165466	0.057455
868.350783	0.057790
868.536082	0.057763
868.721362	0.057565
868.906625	0.057613
869.091869	0.057322
869.277094	0.057204
869.462302	0.057182
869.647491	0.057138
869.832662	0.056989
870.017815	0.056880
870.202950	0.057046
870.388066	0.057190
870.573165	0.057187
870.758245	0.057124
870.943306	0.057180
871.128350	0.056880
871.313375	0.057139
871.498382	0.057178
871.683371	0.056919
871.868342	0.056860
872.053294	0.056826
872.238229	0.056499
872.423144	0.056851
872.608042	0.056759
872.792922	0.056994
872.977783	0.056831
873.162626	0.056969
873.347451	0.057277
873.532258	0.057326
873.717046	0.057263
873.901816	0.057916
874.086568	0.057856
874.271302	0.057863
874.456017	0.057848
874.640715	0.057674
874.825394	0.057487
875.010055	0.057495
875.194697	0.057709
875.379322	0.057835
875.563928	0.057905
875.748516	0.058024
875.933085	0.058409
876.117637	0.058757
876.302170	0.059168
876.486685	0.059374
876.671182	0.059343
876.855661	0.059327
877.040121	0.059376
877.224563	0.059025
877.408987	0.059373
877.593393	0.059350
877.777780	0.059135
877.962150	0.059104
878.146501	0.059104
878.330833	0.059116
878.515148	0.058944
878.699444	0.059166
878.883722	0.059465
879.067982	0.058829
879.252224	0.058642
879.436447	0.058978
879.620653	0.058993
879.804840	0.058797
879.989008	0.058718
880.173159	0.058607
880.357291	0.058487
880.541405	0.058450
880.725501	0.058718
880.909579	0.059037
881.093638	0.058663
881.277680	0.058395
881.461703	0.058495
881.645707	0.058719
881.829694	0.059046
882.013662	0.058990
882.197612	0.058895
882.381544	0.058967
882.565458	0.058674
882.749353	0.058898
882.933230	0.059329
883.117089	0.059461
883.300930	0.059695
883.484753	0.059565
883.668557	0.059773
883.852343	0.059776
884.036111	0.059788
884.219861	0.059788
884.403592	0.059444
884.587305	0.059069
884.771000	0.059225
884.954677	0.058866
885.138335	0.059003
885.321976	0.059088
885.505598	0.059098
885.689201	0.058889
885.872787	0.059192
886.056354	0.059364
886.239904	0.059602
886.423434	0.059656
886.606947	0.059833
886.790442	0.059734
886.973918	0.059616
887.157376	0.059622
887.340816	0.059900
887.524237	0.059721
887.707641	0.059584
887.891026	0.059667
888.074393	0.059570
888.257741	0.059510
888.441072	0.059574
888.624384	0.059417
888.807678	0.059545
888.990954	0.059680
889.174211	0.059996
889.357451	0.060130
889.540672	0.060091
889.723875	0.060262
889.907059	0.059929
890.090226	0.060155
890.273374	0.060523
890.456504	0.060459
890.639616	0.060450
890.822709	0.060089
891.005785	0.060373
891.188842	0.060169
891.371881	0.060028
891.554901	0.060325
891.737904	0.060147
891.920888	0.059906
892.103854	0.059912
892.286802	0.059468
892.469731	0.059571
892.652643	0.059161
892.835536	0.059169
893.018410	0.059203
893.201267	0.059245
893.384106	0.059171
893.566926	0.059267
893.749728	0.059142
893.932511	0.059196
894.115277	0.059308
894.298024	0.059617
894.480753	0.059926
894.663464	0.059663
894.846157	0.059772
895.028831	0.059724
895.211487	0.059496
895.394125	0.059759
895.576745	0.060315
895.759346	0.060290
895.941930	0.060241
896.124495	0.060017
896.307041	0.060238
896.489570	0.060038
896.672080	0.060136
896.854573	0.060160
897.037046	0.059470
897.219502	0.059197
897.401940	0.059371
897.584359	0.059299
897.766760	0.059551
897.949143	0.059461
898.131507	0.059581
898.313854	0.059670
898.496182	0.059580
898.678492	0.060197
898.860783	0.059872
899.043057	0.059544
899.225312	0.059864
899.407549	0.059655
899.589768	0.059487
899.771968	0.059352
899.954151	0.059342
900.136315	0.059274
900.318461	0.059294
900.500588	0.059342
900.682698	0.059394
900.864789	0.058988
901.046862	0.059110
901.228917	0.059195
901.410953	0.059182
901.592971	0.058758
901.774972	0.059198
901.956953	0.059103
902.138917	0.059281
902.320862	0.058994
902.502790	0.059131
902.684699	0.058893
902.866589	0.058891
903.048462	0.059090
903.230316	0.059345
903.412152	0.059262
903.593970	0.059233
903.775770	0.059159
903.957551	0.059252
904.139314	0.059263
904.321059	0.059396
904.502786	0.059567
904.684494	0.059534
904.866185	0.059448
905.047857	0.058767
905.229510	0.058486
905.411146	0.058647
905.592763	0.058765
905.774363	0.058450
905.955943	0.058056
906.137506	0.057334
906.319051	0.056690
906.500577	0.056719
906.682085	0.057240
906.863575	0.057290
907.045046	0.056609
907.226500	0.056380
907.407935	0.056247
907.589352	0.056075
907.770750	0.056028
907.952131	0.056597
908.133493	0.056422
908.314837	0.055812
908.496163	0.055613
908.677470	0.055629
908.858760	0.055354
909.040031	0.055543
909.221284	0.055478
909.402518	0.055699
909.583735	0.054872
909.764933	0.054527
909.946113	0.054446
910.127275	0.054127
910.308418	0.054161
910.489544	0.053836
910.670651	0.053300
910.851740	0.053333
911.032810	0.053230
911.213863	0.053609
911.394897	0.053638
911.575913	0.053580
911.756911	0.053461
911.937890	0.053227
912.118851	0.053734
912.299794	0.053483
912.480719	0.053297
912.661626	0.053245
912.842514	0.052640
913.023384	0.052533
913.204236	0.052831
913.385070	0.052785
913.565886	0.052870
913.746683	0.052367
913.927462	0.052860
914.108223	0.052361
914.288965	0.052521
914.469690	0.053107
914.650396	0.052919
914.831084	0.052834
915.011754	0.053173
915.192405	0.053160
915.373038	0.053055
915.553653	0.052657
915.734250	0.053225
915.914829	0.053052
916.095389	0.053153
916.275931	0.052946
916.456455	0.052682
916.636961	0.052187
916.817448	0.051995
916.997917	0.052346
917.178368	0.052102
917.358801	0.051822
917.539216	0.051378
917.719612	0.050978
917.899990	0.051009
918.080350	0.050691
918.260692	0.050591
918.441015	0.050344
918.621320	0.049555
918.801607	0.049570
918.981876	0.049357
919.162127	0.049290
919.342359	0.048847
919.522573	0.048872
919.702769	0.048540
919.882947	0.048270
920.063106	0.048068
920.243247	0.047669
920.423370	0.047369
920.603475	0.047125
920.783562	0.047028
920.963630	0.046719
921.143680	0.046344
921.323712	0.046585
921.503725	0.046336
921.683721	0.046120
921.863698	0.046205
922.043657	0.046194
922.223598	0.046244
922.403520	0.046127
922.583424	0.046197
922.763311	0.045806
922.943178	0.045283
923.123028	0.045119
923.302859	0.044799
923.482673	0.044645
923.662467	0.044282
923.842244	0.043463
924.022003	0.042779
924.201743	0.042265
924.381465	0.042334
924.561169	0.041976
924.740854	0.041873
924.920522	0.041759
925.100171	0.041972
925.279802	0.042360
925.459414	0.042756
925.639009	0.042970
925.818585	0.043000
925.998143	0.043014
926.177683	0.043249
926.357205	0.043517
926.536708	0.043995
926.716193	0.043821
926.895660	0.043181
927.075109	0.043066
927.254539	0.042963
927.433951	0.042747
927.613345	0.042596
927.792721	0.042394
927.972079	0.042123
928.151418	0.042020
928.330739	0.042000
928.510042	0.041375
928.689327	0.041342
928.868593	0.040393
929.047841	0.040350
929.227071	0.040223
929.406283	0.040009
929.585476	0.039565
929.764652	0.038683
929.943809	0.038291
930.122948	0.038688
930.302068	0.038342
930.481171	0.038994
930.660255	0.039188
930.839321	0.038723
931.018369	0.038772
931.197398	0.038768
931.376409	0.038665
931.555402	0.038040
931.734377	0.038049
931.913334	0.037262
932.092272	0.036863
932.271192	0.035859
932.450094	0.035338
932.628978	0.035080
932.807844	0.035052
932.986691	0.034580
933.165520	0.034468
933.344331	0.033883
933.523123	0.034095
933.701898	0.033899
933.880654	0.034063
934.059392	0.033947
934.238111	0.033432
934.416813	0.033037
934.595496	0.032923
934.774161	0.032948
934.952808	0.032751
935.131437	0.032726
935.310047	0.032352
935.488639	0.031635
935.667213	0.031413
935.845769	0.031371
936.024306	0.030703
936.202825	0.030982
936.381326	0.030248
936.559809	0.029893
936.738274	0.029581
936.916720	0.029683
937.095148	0.030003
937.273558	0.030243
937.451950	0.029631
937.630323	0.030067
937.808678	0.029700
937.987015	0.029686
938.165334	0.030037
938.343635	0.029923
938.521917	0.029705
938.700181	0.029821
938.878427	0.029904
939.056655	0.029570
939.234864	0.028693
939.413055	0.028562
939.591228	0.028926
939.769383	0.028199
939.947519	0.027787
940.125638	0.026421
940.303738	0.025903
940.481820	0.024943
940.659883	0.025177
940.837929	0.025314
941.015956	0.025188
941.193965	0.024974
941.371955	0.025192
941.549928	0.024209
941.727882	0.025116
941.905818	0.024757
942.083736	0.024553
942.261636	0.024771
942.439517	0.024124
942.617380	0.022445
942.795225	0.021854
942.973052	0.021785
943.150860	0.022463
943.328651	0.021544
943.506423	0.021256
943.684176	0.021154
943.861912	0.020615
944.039629	0.021153
944.217328	0.021952
944.395009	0.021628
944.572672	0.019859
944.750317	0.019039
944.927943	0.018968
945.105551	0.017810
945.283141	0.018123
945.460712	0.017686
945.638265	0.016367
945.815801	0.015480
945.993317	0.015326
946.170816	0.015861
946.348297	0.016010
946.525759	0.016240
946.703203	0.017049
946.880629	0.015955
947.058036	0.015245
947.235425	0.015461
947.412797	0.016111
947.590149	0.015237
947.767484	0.015594
947.944800	0.014137
948.122099	0.013719
948.299379	0.013475
948.476640	0.012775
948.653884	0.012782
948.831109	0.013061
949.008316	0.013622
949.185505	0.014364
949.362676	0.014601
949.539828	0.015205
949.716962	0.015370
949.894078	0.015394
950.071176	0.016702
950.248256	0.016147
950.425317	0.015694
950.602360	0.014472
950.779385	0.014846
950.956391	0.014364
951.133380	0.014776
951.310350	0.013254
951.487302	0.013742
951.664235	0.013225
951.841151	0.014376
952.018048	0.014485
952.194927	0.015096
952.371788	0.014524
952.548631	0.013682
952.725455	0.013696
952.902261	0.014954
953.079049	0.015013
953.255819	0.015786
953.432570	0.015583
953.609303	0.014885
953.786018	0.014497
953.962715	0.013605
954.139394	0.013267
954.316054	0.013327
954.492696	0.012918
954.669320	0.012554
954.845926	0.011730
955.022513	0.011739
955.199083	0.012417
955.375634	0.011580
955.552166	0.011719
955.728681	0.012026
955.905177	0.012870
956.081655	0.013620
956.258115	0.012277
956.434557	0.011816
956.610980	0.011118
956.787385	0.010357
956.963772	0.012360
957.140141	0.013627
957.316492	0.013791
957.492824	0.012536
957.669138	0.011694
957.845434	0.011963
958.021712	0.011456
958.197971	0.012682
958.374212	0.013984
958.550435	0.012536
958.726640	0.010946
958.902826	0.009588
959.078995	0.009688
959.255145	0.009226
959.431277	0.011325
959.607390	0.012035
959.783486	0.011538
959.959563	0.010514
960.135622	0.010758
960.311662	0.010556
960.487685	0.013359
960.663689	0.014019
960.839675	0.014959
961.015643	0.012508
961.191593	0.010849
961.367524	0.010282
961.543437	0.010385
961.719332	0.009948
961.895209	0.008236
962.071067	0.006042
962.246907	0.006014
962.422730	0.007323
962.598533	0.008613
962.774319	0.009649
962.950086	0.008024
963.125835	0.008517
963.301566	0.007645
963.477279	0.010181
963.652973	0.010194
963.828650	0.010833
964.004308	0.009044
964.179947	0.008852
964.355569	0.010387
964.531172	0.011354
964.706757	0.011006
964.882324	0.010748
965.057873	0.012111
965.233403	0.014405
965.408916	0.013658
965.584410	0.013997
965.759885	0.013615
965.935343	0.012353
966.110782	0.013706
966.286203	0.013751
966.461606	0.016029
966.636991	0.014783
966.812357	0.013008
966.987705	0.011808
967.163035	0.011914
967.338347	0.013460
967.513641	0.013458
967.688916	0.013756
967.864173	0.014140
968.039412	0.012672
968.214632	0.012639
968.389835	0.013484
968.565019	0.015851
968.740185	0.015665
968.915333	0.016008
969.090462	0.015726
969.265573	0.012740
969.440667	0.012961
969.615741	0.012813
969.790798	0.012031
969.965836	0.011934
970.140856	0.010035
970.315858	0.010139
970.490842	0.009199
970.665808	0.008722
970.840755	0.010223
971.015684	0.009908
971.190595	0.009975
971.365487	0.010653
971.540362	0.011659
971.715218	0.011902
971.890056	0.011166
972.064875	0.012681
972.239677	0.013281
972.414460	0.012286
972.589225	0.012793
972.763972	0.012514
972.938700	0.011205
973.113411	0.009546
973.288103	0.008662
973.462777	0.010012
973.637432	0.007690
973.812070	0.010112
973.986689	0.010991
974.161290	0.011356
974.335873	0.012601
974.510437	0.014824
974.684984	0.015724
974.859512	0.016696
975.034022	0.015009
975.208513	0.016323
975.382987	0.015354
975.557442	0.015689
975.731879	0.015273
975.906298	0.014701
976.080698	0.014045
976.255080	0.014208
976.429445	0.013370
976.603790	0.015451
976.778118	0.013938
976.952427	0.013515
977.126719	0.013793
977.300992	0.012463
977.475246	0.012182
977.649483	0.013099
977.823701	0.012626
977.997901	0.014789
978.172083	0.012254
978.346247	0.011752
978.520392	0.012217
978.694519	0.011652
978.868628	0.012119
979.042719	0.012793
979.216791	0.010737
979.390845	0.009345
979.564882	0.010250
979.738899	0.011960
979.912899	0.013077
980.086880	0.013921
980.260843	0.014534
980.434788	0.015200
980.608715	0.014636
980.782623	0.014678
980.956514	0.014618
981.130386	0.013115
981.304240	0.011890
981.478075	0.011377
981.651892	0.010969
981.825692	0.011471
981.999472	0.009687
982.173235	0.010016
982.346980	0.010953
982.520706	0.012694
982.694414	0.012307
982.868104	0.012610
983.041775	0.011082
983.215428	0.008885
983.389064	0.008485
983.562680	0.008331
983.736279	0.009904
983.909860	0.009954
984.083422	0.010234
984.256966	0.010873
984.430491	0.013305
984.603999	0.014609
984.777488	0.015288
984.950959	0.014146
985.124412	0.015651
985.297847	0.013954
985.471263	0.013528
985.644661	0.011510
985.818041	0.011810
985.991403	0.011082
986.164747	0.011172
986.338072	0.011267
986.511379	0.011987
986.684668	0.012336
986.857938	0.011758
987.031191	0.011363
987.204425	0.012677
987.377641	0.012256
987.550839	0.010124
987.724018	0.009673
987.897179	0.009825
988.070322	0.010109
988.243447	0.009852
988.416554	0.010742
988.589642	0.011442
988.762712	0.012105
988.935764	0.012077
989.108798	0.012762
989.281813	0.013558
989.454811	0.012912
989.627790	0.012906
989.800751	0.013094
989.973693	0.012077
990.146617	0.013026
990.319524	0.011638
990.492412	0.010709
990.665281	0.011026
990.838133	0.011392
991.010966	0.012845
991.183781	0.012274
991.356578	0.011772
991.529356	0.013872
991.702117	0.011860
991.874859	0.012407
992.047583	0.012893
992.220288	0.012471
992.392976	0.011430
992.565645	0.010387
992.738296	0.011594
992.910929	0.012340
993.083543	0.011609
993.256139	0.014074
993.428718	0.014320
993.601277	0.014294
993.773819	0.015477
993.946342	0.017926
994.118848	0.017276
994.291335	0.017397
994.463803	0.016706
994.636254	0.015245
994.808686	0.013094
994.981100	0.013709
995.153496	0.012287
995.325874	0.012988
995.498233	0.011658
995.670574	0.011628
995.842897	0.010793
996.015202	0.010289
996.187488	0.011583
996.359757	0.012418
996.532007	0.011893
996.704239	0.014712
996.876452	0.014304
997.048648	0.014177
997.220825	0.014963
997.392984	0.016130
997.565124	0.017542
997.737247	0.018279
997.909351	0.019521
998.081437	0.020049
998.253505	0.019006
998.425554	0.017903
998.597586	0.017749
998.769599	0.017140
998.941594	0.015345
999.113571	0.014717
999.285529	0.014068
999.457469	0.012906
999.629391	0.012476
999.801295	0.012366
999.973181	0.013137
1000.145048	0.013927
1000.316897	0.015133
1000.488728	0.016972
1000.660541	0.017166
1000.832335	0.016227
1001.004111	0.016913
1001.175869	0.018684
1001.347609	0.018225
1001.519331	0.016777
1001.691034	0.014837
1001.862719	0.013967
1002.034386	0.014334
1002.206035	0.013308
1002.377665	0.014597
1002.549277	0.015475
1002.720871	0.013689
1002.892447	0.014669
1003.064004	0.014819
1003.235544	0.016336
1003.407065	0.016377
1003.578568	0.015329
1003.750052	0.016390
1003.921519	0.016301
1004.092967	0.014209
1004.264397	0.013129
1004.435809	0.012700
1004.607202	0.013909
1004.778577	0.013996
1004.949934	0.015617
1005.121273	0.014841
1005.292594	0.013624
1005.463896	0.013849
1005.635180	0.013817
1005.806446	0.015115
1005.977694	0.013789
1006.148923	0.013061
1006.320135	0.012482
1006.491328	0.011967
1006.662503	0.012106
1006.833659	0.013001
1007.004798	0.011205
1007.175918	0.011279
1007.347020	0.011446
1007.518103	0.012510
1007.689169	0.012266
1007.860216	0.011806
1008.031245	0.010268
1008.202256	0.011171
1008.373248	0.011037
1008.544223	0.011759
1008.715179	0.012863
1008.886117	0.012283
1009.057036	0.012946
1009.227938	0.012976
1009.398821	0.013013
1009.569686	0.014881
1009.740533	0.015821
1009.911361	0.015293
1010.082172	0.014699
1010.252964	0.013973
1010.423738	0.013410
1010.594493	0.012814
1010.765231	0.013689
1010.935950	0.013958
1011.106651	0.013353
1011.277334	0.010653
1011.447998	0.011751
1011.618645	0.012540
1011.789273	0.012741
1011.959882	0.013970
1012.130474	0.014065
1012.301048	0.013470
1012.471603	0.012926
1012.642140	0.011637
1012.812658	0.012397
1012.983159	0.012347
1013.153641	0.012875
1013.324105	0.013222
1013.494551	0.012951
1013.664979	0.012759
1013.835388	0.013087
1014.005779	0.013556
1014.176152	0.014203
1014.346507	0.014282
1014.516843	0.013569
1014.687162	0.012045
1014.857462	0.011071
1015.027744	0.010034
1015.198007	0.009070
1015.368252	0.009087
1015.538480	0.011077
1015.708689	0.010619
1015.878879	0.010254
1016.049052	0.010927
1016.219206	0.011428
1016.389342	0.010554
1016.559460	0.011251
1016.729559	0.011586
1016.899641	0.011835
1017.069704	0.010783
1017.239749	0.011478
1017.409775	0.012034
1017.579784	0.010591
1017.749774	0.010295
1017.919746	0.011419
1018.089700	0.012047
1018.259635	0.013433
1018.429553	0.013233
1018.599452	0.013138
1018.769333	0.013175
1018.939195	0.014370
1019.109040	0.015537
1019.278866	0.015811
1019.448674	0.016117
1019.618464	0.015974
1019.788235	0.014840
1019.957989	0.015165
1020.127724	0.014504
1020.297441	0.014678
1020.467139	0.014415
1020.636820	0.014291
1020.806482	0.015175
1020.976126	0.014362
1021.145752	0.013564
1021.315359	0.013461
1021.484948	0.012236
1021.654519	0.012439
1021.824072	0.013115
1021.993607	0.013289
1022.163123	0.013102
1022.332621	0.012687
1022.502101	0.014174
1022.671563	0.014469
1022.841007	0.014916
1023.010432	0.014990
1023.179839	0.014506
1023.349228	0.013789
1023.518598	0.013353
1023.687951	0.015696
1023.857285	0.016105
1024.026601	0.014697
1024.195899	0.015122
1024.365178	0.014624
1024.534439	0.015081
1024.703682	0.015130
1024.872907	0.016300
1025.042114	0.014890
1025.211302	0.012681
1025.380472	0.011809
1025.549624	0.012775
1025.718758	0.012142
1025.887873	0.012845
1026.056970	0.012680
1026.226049	0.013618
1026.395110	0.011244
1026.564153	0.012183
1026.733177	0.010994
1026.902183	0.012813
1027.071171	0.011887
1027.240141	0.010626
1027.409092	0.009853
1027.578026	0.009920
1027.746940	0.009553
1027.915837	0.011204
1028.084716	0.009733
1028.253576	0.009638
1028.422418	0.008691
1028.591242	0.010091
1028.760048	0.011245
1028.928835	0.011340
1029.097604	0.011954
1029.266355	0.012301
1029.435088	0.013380
1029.603803	0.015139
1029.772499	0.016586
1029.941177	0.016418
1030.109837	0.015841
1030.278478	0.014952
1030.447102	0.015425
1030.615707	0.014307
1030.784294	0.014023
1030.952863	0.012315
1031.121413	0.012940
1031.289945	0.013330
1031.458460	0.013346
1031.626955	0.012800
1031.795433	0.014467
1031.963892	0.013655
1032.132334	0.014573
1032.300756	0.015086
1032.469161	0.013733
1032.637548	0.012426
1032.805916	0.012439
1032.974266	0.012337
1033.142598	0.012716
1033.310911	0.013160
1033.479207	0.013812
1033.647484	0.014336
1033.815743	0.013640
1033.983983	0.014515
1034.152206	0.015042
1034.320410	0.015389
1034.488596	0.014139
1034.656764	0.013895
1034.824914	0.012467
1034.993045	0.013370
1035.161158	0.012597
1035.329253	0.011272
1035.497330	0.012223
1035.665388	0.012298
1035.833428	0.011398
1036.001450	0.012403
1036.169454	0.012189
1036.337440	0.013627
1036.505407	0.013769
1036.673356	0.013930
1036.841287	0.014724
1037.009200	0.014365
1037.177094	0.013838
1037.344970	0.014075
1037.512828	0.014174
1037.680668	0.014366
1037.848489	0.014057
1038.016293	0.013060
1038.184078	0.012673
1038.351845	0.011910
1038.519593	0.012110
1038.687324	0.011838
1038.855036	0.012719
1039.022730	0.012180
1039.190406	0.012496
1039.358063	0.011517
1039.525702	0.012360
1039.693323	0.012638
1039.860926	0.014075
1040.028511	0.013852
1040.196077	0.013430
1040.363625	0.012839
1040.531155	0.013360
1040.698667	0.013255
1040.866161	0.013796
1041.033636	0.013383
1041.201093	0.013399
1041.368532	0.013373
1041.535952	0.014098
1041.703355	0.014532
1041.870739	0.013485
1042.038105	0.013203
1042.205452	0.013479
1042.372782	0.013609
1042.540093	0.013434
1042.707386	0.015864
1042.874661	0.015295
1043.041918	0.014682
1043.209156	0.015596
1043.376376	0.015853
1043.543578	0.016585
1043.710762	0.016660
1043.877927	0.016371
1044.045074	0.016247
1044.212203	0.013609
1044.379314	0.015538
1044.546407	0.014730
1044.713481	0.013709
1044.880537	0.014423
1045.047575	0.014161
1045.214595	0.012652
1045.381596	0.011877
1045.548579	0.012663
1045.715544	0.012264
1045.882491	0.009506
1046.049420	0.010904
1046.216330	0.010205
1046.383222	0.009763
1046.550096	0.008535
1046.716951	0.009018
1046.883789	0.009754
1047.050608	0.010108
1047.217409	0.011012
1047.384192	0.011202
1047.550956	0.012067
1047.717703	0.013523
1047.884431	0.012799
1048.051140	0.013314
1048.217832	0.014022
1048.384505	0.015278
1048.551161	0.015702
1048.717798	0.015640
1048.884416	0.017314
1049.051017	0.015018
1049.217599	0.013650
1049.384163	0.014510
1049.550709	0.015144
1049.717237	0.015240
1049.883746	0.014185
1050.050237	0.012306
1050.216710	0.011339
1050.383165	0.009758
1050.549601	0.009326
1050.716019	0.011189
1050.882420	0.011317
1051.048801	0.011296
1051.215165	0.011747
1051.381510	0.011278
1051.547837	0.010614
1051.714146	0.011604
1051.880437	0.012075
1052.046709	0.013317
1052.212964	0.013243
1052.379200	0.012527
1052.545417	0.013012
1052.711617	0.013826
1052.877798	0.013745
1053.043961	0.014574
1053.210106	0.013425
1053.376233	0.013401
1053.542341	0.012940
1053.708432	0.012733
1053.874504	0.012806
1054.040557	0.011662
1054.206593	0.009535
1054.372610	0.009428
1054.538609	0.009580
1054.704590	0.012003
1054.870553	0.013665
1055.036497	0.013241
1055.202424	0.012834
1055.368331	0.013172
1055.534221	0.013286
1055.700093	0.013907
1055.865946	0.013771
1056.031781	0.014498
1056.197598	0.011389
1056.363397	0.009170
1056.529177	0.009271
1056.694939	0.009940
1056.860683	0.010286
1057.026409	0.011644
1057.192116	0.011306
1057.357806	0.011437
1057.523477	0.011321
1057.689130	0.013440
1057.854764	0.014524
1058.020381	0.014729
1058.185979	0.014094
1058.351559	0.014034
1058.517120	0.013349
1058.682664	0.012943
1058.848189	0.014761
1059.013696	0.014528
1059.179185	0.014371
1059.344656	0.013338
1059.510108	0.014670
1059.675542	0.015029
1059.840958	0.014452
1060.006356	0.013887
1060.171735	0.011002
1060.337096	0.008597
1060.502439	0.008718
1060.667764	0.007853
1060.833071	0.007892
1060.998359	0.006246
1061.163629	0.005542
1061.328881	0.005955
1061.494115	0.006596
1061.659330	0.009587
1061.824527	0.010459
1061.989706	0.010747
1062.154867	0.010808
1062.320010	0.011794
1062.485134	0.012994
1062.650240	0.013339
1062.815328	0.011848
1062.980398	0.012818
1063.145449	0.013611
1063.310482	0.013891
1063.475497	0.012747
1063.640494	0.012812
1063.805473	0.012615
1063.970433	0.013127
1064.135375	0.012544
1064.300299	0.014719
1064.465204	0.014404
1064.630092	0.013962
1064.794961	0.013548
1064.959812	0.012215
1065.124645	0.011511
1065.289459	0.012267
1065.454256	0.012994
1065.619034	0.013101
1065.783793	0.011882
1065.948535	0.011231
1066.113258	0.013432
1066.277964	0.014109
1066.442651	0.014709
1066.607319	0.016206
1066.771970	0.015030
1066.936602	0.012453
1067.101216	0.012283
1067.265812	0.012164
1067.430389	0.012011
1067.594949	0.009821
1067.759490	0.007726
1067.924013	0.007381
1068.088518	0.006570
1068.253004	0.007636
1068.417472	0.008636
1068.581922	0.007917
1068.746354	0.009430
1068.910768	0.009704
1069.075163	0.009195
1069.239540	0.010485
1069.403899	0.012027
1069.568240	0.011497
1069.732562	0.010037
1069.896866	0.011017
1070.061152	0.012266
1070.225420	0.010758
1070.389670	0.009927
1070.553901	0.010395
1070.718114	0.011544
1070.882309	0.011127
1071.046486	0.011835
1071.210644	0.012543
1071.374784	0.011131
1071.538906	0.010935
1071.703010	0.011192
1071.867096	0.012018
1072.031163	0.013436
1072.195212	0.013352
1072.359243	0.013745
1072.523256	0.013463
1072.687250	0.013379
1072.851226	0.013923
1073.015184	0.012730
1073.179124	0.013560
1073.343045	0.013392
1073.506949	0.011191
1073.670834	0.012261
1073.834701	0.011244
1073.998549	0.014315
1074.162380	0.014319
1074.326192	0.014217
1074.489986	0.016073
1074.653761	0.015708
1074.817519	0.015272
1074.981258	0.017387
1075.144979	0.016988
1075.308682	0.018822
1075.472367	0.013540
1075.636033	0.012547
1075.799681	0.012060
1075.963311	0.011661
1076.126923	0.010325
1076.290516	0.011105
1076.454092	0.009071
1076.617649	0.008747
1076.781187	0.008623
1076.944708	0.010875
1077.108210	0.012306
1077.271695	0.011923
1077.435160	0.010670
1077.598608	0.013018
1077.762038	0.011349
1077.925449	0.013161
1078.088842	0.011591
1078.252217	0.011329
1078.415573	0.010926
1078.578912	0.012635
1078.742232	0.012331
1078.905534	0.012542
1079.068817	0.013502
1079.232083	0.015163
1079.395330	0.013849
1079.558559	0.013571
1079.721770	0.013244
1079.884962	0.013934
1080.048136	0.012604
1080.211293	0.013273
1080.374430	0.015196
1080.537550	0.012965
1080.700651	0.012582
1080.863735	0.014176
1081.026800	0.015732
1081.189846	0.014413
1081.352875	0.015404
1081.515885	0.014575
1081.678877	0.015486
1081.841851	0.017859
1082.004807	0.019147
1082.167744	0.019513
1082.330663	0.018600
1082.493564	0.017874
1082.656447	0.018466
1082.819312	0.017428
1082.982158	0.017905
1083.144986	0.018223
1083.307796	0.015413
1083.470587	0.014898
1083.633361	0.013372
1083.796116	0.011290
1083.958853	0.011289
1084.121571	0.013510
1084.284272	0.012693
1084.446954	0.014209
1084.609618	0.012754
1084.772264	0.013582
1084.934892	0.013603
1085.097501	0.014400
1085.260092	0.017671
1085.422665	0.016566
1085.585220	0.015516
1085.747756	0.016065
1085.910274	0.014937
1086.072774	0.014596
1086.235256	0.012567
1086.397720	0.012046
1086.560165	0.011406
1086.722592	0.010312
1086.885001	0.011384
1087.047392	0.010515
1087.209764	0.010519
1087.372119	0.009520
1087.534455	0.008688
1087.696772	0.011019
1087.859072	0.009871
1088.021353	0.013194
1088.183616	0.013163
1088.345861	0.014408
1088.508088	0.015290
1088.670296	0.015853
1088.832486	0.016133
1088.994658	0.017678
1089.156812	0.016774
1089.318948	0.020082
1089.481065	0.018793
1089.643164	0.018765
1089.805245	0.018113
1089.967308	0.017314
1090.129352	0.019117
1090.291378	0.020859
1090.453386	0.022028
1090.615376	0.022869
1090.777347	0.020008
1090.939301	0.014748
1091.101236	0.014665
1091.263153	0.014976
1091.425051	0.014492
1091.586932	0.011981
1091.748794	0.012590
1091.910638	0.010764
1092.072463	0.009793
1092.234271	0.011297
1092.396060	0.014246
1092.557831	0.016350
1092.719584	0.016457
1092.881319	0.017452
1093.043035	0.019060
1093.204733	0.016772
1093.366413	0.016883
1093.528075	0.015580
1093.689718	0.012071
1093.851343	0.014335
1094.012950	0.010830
1094.174539	0.008312
1094.336110	0.008226
1094.497662	0.007229
1094.659196	0.005502
1094.820712	0.006182
1094.982210	0.007545
1095.143689	0.009181
1095.305151	0.008093
1095.466594	0.009424
1095.628018	0.010383
1095.789425	0.008735
1095.950813	0.007501
1096.112183	0.011098
1096.273535	0.009722
1096.434869	0.007596
1096.596184	0.008471
1096.757482	0.006344
1096.918761	0.005977
1097.080021	0.006739
1097.241264	0.008942
1097.402488	0.011844
1097.563694	0.011885
1097.724882	0.012196
1097.886052	0.014552
1098.047203	0.014175
1098.208336	0.016498
1098.369451	0.017195
1098.530548	0.016343
1098.691627	0.013249
1098.852687	0.011078
1099.013729	0.007803
1099.174753	0.006608
1099.335758	0.006711
1099.496746	0.006494
1099.657715	0.004105
1099.818666	0.005183
1099.979599	0.005942
1100.140513	0.008300
1100.301409	0.011863
1100.462287	0.012734
1100.623147	0.014629
1100.783989	0.013785
1100.944812	0.016025
1101.105617	0.018522
1101.266404	0.017963
1101.427173	0.017324
1101.587923	0.018147
1101.748656	0.016926
1101.909370	0.016864
1102.070066	0.017569
1102.230743	0.014990
1102.391403	0.014859
1102.552044	0.015900
1102.712667	0.013464
1102.873271	0.013612
1103.033858	0.013266
1103.194426	0.011097
1103.354976	0.010310
1103.515508	0.011411
1103.676021	0.013262
1103.836517	0.010611
1103.996994	0.005959
1104.157453	0.007374
1104.317893	0.006085
1104.478316	0.003819
1104.638720	0.003501
1104.799106	0.006111
1104.959474	0.003463
1105.119823	0.004139
1105.280155	0.004001
1105.440468	0.009032
1105.600763	0.011605
1105.761039	0.012421
1105.921298	0.013275
1106.081538	0.013123
1106.241760	0.012469
1106.401964	0.013676
1106.562149	0.011692
1106.722316	0.012305
1106.882465	0.009071
1107.042596	0.003370
1107.202709	0.002659
1107.362803	0.002351
1107.522879	0.001980
1107.682937	-0.000396
1107.842977	-0.000326
1108.002999	0.001397
1108.163002	-0.001015
1108.322987	-0.000201
1108.482954	0.002045
1108.642902	0.007003
1108.802833	0.007012
1108.962745	0.008141
1109.122639	0.010695
1109.282515	0.010840
1109.442372	0.009736
1109.602211	0.010905
1109.762032	0.011829
1109.921835	0.010824
1110.081620	0.008112
1110.241386	0.008970
1110.401134	0.008973
1110.560864	0.009184
1110.720576	0.008170
1110.880269	0.009588
1111.039945	0.011955
1111.199602	0.011958
1111.359240	0.012758
1111.518861	0.011603
1111.678463	0.012523
1111.838047	0.013680
1111.997613	0.010169
1112.157161	0.011814
1112.316690	0.008397
1112.476202	0.007632
1112.635695	0.010280
1112.795169	0.016444
1112.954626	0.016099
1113.114064	0.014303
1113.273484	0.011245
1113.432886	0.013436
1113.592270	0.011700
1113.751635	0.012765
1113.910983	0.012493
1114.070312	0.007246
1114.229622	0.001817
1114.388915	0.004480
1114.548189	0.008197
1114.707445	0.009330
1114.866683	0.011528
1115.025903	0.012130
1115.185104	0.011489
1115.344287	0.015122
1115.503452	0.014284
1115.662599	0.018203
1115.821727	0.014817
1115.980838	0.012056
1116.139930	0.009575
1116.299004	0.007508
1116.458059	0.005735
1116.617097	0.008654
1116.776116	0.006025
1116.935117	0.005188
1117.094099	0.000379
1117.253064	0.001677
1117.412010	0.000321
1117.570938	0.000849
1117.729848	0.000519
1117.888740	-0.000766
1118.047613	-0.001608
1118.206468	-0.000522
1118.365305	0.004419
1118.524124	0.002592
1118.682924	-0.000407
1118.841707	0.000102
1119.000471	-0.002810
1119.159216	-0.006037
1119.317944	-0.004127
1119.476653	-0.004101
1119.635344	-0.008821
1119.794017	-0.012475
1119.952672	-0.008363
1120.111308	-0.005059
1120.269927	-0.004186
1120.428527	-0.000559
1120.587108	-0.000175
1120.745672	-0.002736
1120.904217	-0.004020
1121.062744	-0.000812
1121.221253	-0.000401
1121.379744	-0.001353
1121.538216	-0.001537
1121.696671	0.002717
1121.855107	0.004940
1122.013524	0.009377
1122.171924	0.016131
1122.330305	0.016227
1122.488668	0.016253
1122.647013	0.014819
1122.805340	0.016000
1122.963648	0.016620
1123.121938	0.011345
1123.280210	0.013178
1123.438464	0.014760
1123.596700	0.012051
1123.754917	0.014374
1123.913116	0.015136
1124.071297	0.015902
1124.229459	0.012851
1124.387604	0.013554
1124.545730	0.014216
1124.703838	0.011232
1124.861928	0.010952
1125.019999	0.012080
1125.178052	0.011156
1125.336088	0.006987
1125.494104	0.009008
1125.652103	0.012755
1125.810083	0.008975
1125.968045	0.007816
1126.125989	0.008321
1126.283915	0.003637
1126.441823	0.002518
1126.599712	0.003120
1126.757583	0.006658
1126.915436	0.006306
1127.073270	0.005078
1127.231087	0.006600
1127.388885	0.006855
1127.546665	0.010559
1127.704426	0.010937
1127.862170	0.007486
1128.019895	0.007089
1128.177602	0.008985
1128.335291	0.007202
1128.492961	0.006271
1128.650614	0.007347
1128.808248	0.009675
1128.965864	0.007102
1129.123461	0.007097
1129.281041	0.012024
1129.438602	0.010002
1129.596145	0.007624
1129.753670	0.011883
1129.911176	0.013380
1130.068665	0.013896
1130.226135	0.015119
1130.383587	0.012957
1130.541020	0.017131
1130.698436	0.018714
1130.855833	0.019977
1131.013212	0.021408
1131.170573	0.025236
1131.327915	0.024453
1131.485239	0.020014
1131.642545	0.018997
1131.799833	0.019408
1131.957103	0.016610
1132.114354	0.012698
1132.271588	0.008535
1132.428803	0.006734
1132.585999	0.004431
1132.743178	0.001305
1132.900338	0.006465
1133.057480	0.004053
1133.214604	0.006563
1133.371710	0.004524
1133.528797	0.006336
1133.685866	0.012482
1133.842917	0.011758
1133.999950	0.009395
1134.156964	0.011018
1134.313960	0.010209
1134.470938	0.010257
1134.627898	0.005661
1134.784840	0.005885
1134.941763	0.007951
1135.098668	0.005931
1135.255555	0.007890
1135.412424	0.003301
1135.569274	0.000747
1135.726107	-0.003831
1135.882921	-0.004617
1136.039716	-0.000252
1136.196494	-0.002388
1136.353253	-0.003645
1136.509995	-0.000961
1136.666717	-0.005161
1136.823422	0.000051
1136.980109	0.006579
1137.136777	0.010493
1137.293427	0.010671
1137.450059	0.009938
1137.606672	0.009852
1137.763267	0.008047
1137.919844	0.007241
1138.076403	0.010662
1138.232944	0.006606
1138.389466	0.003765
1138.545971	0.002077
1138.702457	0.001483
1138.858924	0.004841
1139.015374	0.011141
1139.171805	0.011336
1139.328218	0.011838
1139.484613	0.010317
1139.640990	0.012020
1139.797348	0.013239
1139.953688	0.014220
1140.110010	0.016160
1140.266314	0.012758
1140.422600	0.009817
1140.578867	0.002996
1140.735116	-0.000241
1140.891347	0.004920
1141.047559	0.006909
1141.203754	0.002990
1141.359930	0.004070
1141.516088	0.006074
1141.672228	0.000832
1141.828349	0.001870
1141.984452	0.009656
1142.140537	0.010758
1142.296604	0.006532
1142.452653	0.003317
1142.608683	0.004075
1142.764695	0.004833
1142.920689	0.003946
1143.076665	0.011632
1143.232622	0.007738
1143.388562	0.002750
1143.544483	0.003347
1143.700385	0.003548
1143.856270	0.002652
1144.012136	0.007020
1144.167985	0.001382
1144.323814	0.000831
1144.479626	-0.004217
1144.635420	-0.003004
1144.791195	0.000202
1144.946952	0.000736
1145.102691	0.004060
1145.258411	0.011171
1145.414113	0.008428
1145.569798	0.011021
1145.725463	0.012496
1145.881111	0.018513
1146.036741	0.019723
1146.192352	0.020763
1146.347945	0.021390
1146.503519	0.017161
1146.659076	0.012985
1146.814614	0.012643
1146.970134	0.016584
1147.125636	0.020707
1147.281120	0.021571
1147.436585	0.021794
1147.592032	0.024453
1147.747461	0.022119
1147.902872	0.022794
1148.058265	0.021898
1148.213639	0.025083
1148.368995	0.021123
1148.524333	0.012981
1148.679653	0.008015
1148.834954	0.010562
1148.990237	0.010986
1149.145502	0.009853
1149.300749	0.011966
1149.455977	0.018059
1149.611188	0.015319
1149.766380	0.009666
1149.921553	0.011131
1150.076709	0.008039
1150.231846	0.009263
1150.386966	0.001230
1150.542066	-0.001008
1150.697149	-0.004073
1150.852214	-0.012739
1151.007260	-0.013379
1151.162288	-0.008344
1151.317298	-0.009600
1151.472289	-0.003115
1151.627263	-0.006666
1151.782218	0.000776
1151.937155	0.002310
1152.092073	0.004593
1152.246974	0.001701
1152.401856	0.000684
1152.556720	-0.001026
1152.711566	-0.001026
1152.866393	-0.002303
1153.021203	-0.004770
1153.175994	-0.009158
1153.330767	-0.007806
1153.485521	-0.008320
1153.640258	-0.000313
1153.794976	0.001196
1153.949676	0.001345
1154.104358	0.002036
1154.259021	-0.003895
1154.413667	-0.001769
1154.568294	0.001062
1154.722903	0.002002
1154.877493	-0.003297
1155.032066	-0.007129
1155.186620	-0.008996
1155.341156	-0.010476
1155.495674	-0.010553
1155.650173	-0.014093
1155.804654	-0.016358
1155.959118	-0.019735
1156.113562	-0.017075
1156.267989	-0.015371
1156.422397	-0.010574
1156.576788	-0.005716
1156.731160	-0.001291
1156.885513	0.000677
1157.039849	0.010136
1157.194166	0.006854
1157.348465	0.006172
1157.502746	0.004505
1157.657009	0.010185
1157.811253	0.005231
1157.965479	-0.001859
1158.119687	-0.001688
1158.273877	-0.003799
1158.428048	-0.002193
1158.582201	0.007508
1158.736337	0.010897
1158.890453	0.014804
1159.044552	0.019720
1159.198632	0.021934
1159.352694	0.027061
1159.506738	0.024128
1159.660764	0.027325
1159.814771	0.028520
1159.968761	0.025405
1160.122732	0.029512
1160.276685	0.022745
1160.430619	0.014677
1160.584535	0.018791
1160.738434	0.019268
1160.892313	0.022745
1161.046175	0.015527
1161.200019	0.007080
1161.353844	0.010239
1161.507651	0.005135
1161.661440	0.010654
1161.815210	0.006437
1161.968962	0.002588
1162.122697	-0.001537
1162.276412	-0.002535
1162.430110	0.000980
1162.583789	0.005185
1162.737451	0.004684
1162.891094	0.001507
1163.044718	0.000728
1163.198325	0.005590
1163.351913	0.001403
1163.505483	-0.000482
1163.659035	0.001464
1163.812569	-0.008648
1163.966084	-0.005914
1164.119581	-0.007377
1164.273060	-0.005903
1164.426521	-0.010775
1164.579964	-0.012913
1164.733388	-0.003893
1164.886794	0.003589
1165.040182	-0.000138
1165.193551	0.009193
1165.346903	-0.000454
1165.500236	0.000030
1165.653551	-0.001719
1165.806848	-0.000890
1165.960126	0.001643
1166.113386	-0.005461
1166.266628	-0.010926
1166.419852	-0.004537
1166.573058	-0.001542
1166.726245	-0.000754
1166.879414	0.000085
1167.032565	0.001984
1167.185698	-0.000767
1167.338812	0.006151
1167.491909	0.007457
1167.644987	0.002626
1167.798046	0.002737
1167.951088	0.002788
1168.104111	0.005316
1168.257117	0.007028
1168.410103	0.006369
1168.563072	0.011123
1168.716023	0.005225
1168.868955	0.002476
1169.021869	0.010768
1169.174765	0.012087
1169.327642	0.009962
1169.480501	0.007139
1169.633343	0.002195
1169.786165	0.007350
1169.938970	0.005436
1170.091757	0.010006
1170.244525	0.008515
1170.397275	0.009111
1170.550007	0.002822
1170.702720	0.000523
1170.855415	0.006541
1171.008092	0.001289
1171.160751	-0.006567
1171.313392	-0.011724
1171.466014	0.016850
1171.618619	-0.041415
1171.771205	-0.041415
1171.923772	-0.041415
