sample name	sample
index	1212
start time	 04-29-2021  09:50:40 AM
880	-0.022339
Peak Time (s)	92.535
Peak Height 	-0.02234
calc peak height	90,93
Baseline Time (s)	10.534
Baseline Value 	-0.006637
subtract baseline	10,4
Abs	-0.009589
Peak Time (s)	92.035
Peak Height 	-0.009589
calc peak height	90,93
Baseline Time (s)	10.534
Baseline Value 	0.003658
subtract baseline	10,3
PK_550	0.002164
Peak Time (s)	92.035
Peak Height 	0.002164
calc peak height	90,93
Baseline Time (s)	10.534
Baseline Value 	9.2149E-4
subtract baseline	10,2
PK_880	-0.011628
Peak Time (s)	91.538
Peak Height 	-0.01163
calc peak height	90,93
Baseline Time (s)	8.537
Baseline Value 	0.001369
subtract baseline	10,1


Time (s)	A880-A510	A880-A775	A880-A975	A880	I510	I775	I975	I880	
0.039500	-0.001291	-0.000585	-0.000373	0.007108	6112.072063	44084.169342	3767.913850	22553.416718
0.544000	-0.001932	-0.000897	-0.009123	0.004919	6123.959490	44262.938747	3752.702885	22653.378374
1.039500	-0.003642	-0.000751	-0.002519	0.003810	6119.338120	44383.000218	3770.608855	22704.211328
1.534000	-0.004901	-0.001082	-0.005061	0.006513	6089.051974	44093.470800	3758.398681	22580.543913
2.037500	0.000472	-0.000630	-0.005037	0.001039	6172.635017	44660.832902	3771.201869	22831.812025
2.538000	0.000600	-0.000235	0.004224	-0.000062	6182.244516	44805.226774	3795.776540	22882.748308
3.035500	-0.000093	-0.000425	-0.005895	0.000539	6172.133126	44728.812797	3770.362491	22854.928448
3.536500	-0.002263	-0.000208	-0.001990	0.006212	6111.488105	44205.368088	3766.231187	22594.254266
4.036000	-0.001670	-0.000897	0.002095	0.000397	6160.957330	44696.980013	3789.583576	22861.496071
4.536000	0.000014	0.000328	0.002224	0.001416	6166.127726	44716.809543	3787.463270	22814.411437
5.037000	-0.000738	-0.000597	0.007382	0.000550	6167.022415	44711.160809	3801.905330	22854.431069
5.534500	0.000266	0.000078	-0.000000	0.000931	6171.875510	44739.565762	3783.330898	22836.834287
6.037500	-0.000130	0.000193	0.002739	0.000884	6169.152067	44755.135167	3789.957218	22838.978736
6.535000	-0.001717	-0.000955	0.001453	0.000105	6162.860938	44719.595934	3788.749466	22875.033766
7.035500	-0.001311	-0.000355	-0.001556	0.000560	6162.485335	44733.616586	3780.525226	22853.982864
7.535500	0.001365	0.000417	0.001559	0.001194	6178.404343	44746.906897	3786.407963	22824.659726
8.036000	0.001859	0.000154	-0.002387	0.000716	6186.012948	44767.709970	3778.192209	22846.752532
8.536500	0.000000	0.000123	0.001020	0.000461	6173.463498	44789.245855	3786.869120	22858.522725
9.039500	0.001919	0.000410	-0.002148	0.000801	6185.809040	44784.171618	3778.555781	22842.816393
9.540000	-0.001464	-0.000466	-0.001823	0.000107	6164.811782	44766.556965	3780.965055	22874.918438
10.034000	0.000646	-0.000501	-0.004339	-0.000151	6183.300079	44788.133701	3775.636653	22886.883071
10.534500	-0.000513	0.000000	0.000000	0.000000	6173.060968	44822.001058	3785.540630	22879.876177
11.035000	-0.001051	-0.000133	0.006034	-0.000795	6175.070113	44886.124834	3801.898720	22916.743624
11.535000	0.002158	0.000702	0.003045	-0.000044	6194.315397	44894.197280	3792.907073	22881.908422
12.035000	0.000636	0.001004	0.000945	0.000763	6176.079379	44845.410931	3785.973986	22844.596474
12.535500	-0.000098	0.000371	0.000226	0.000564	6171.896262	44803.309774	3784.737539	22853.781688
13.036500	0.000747	-0.000716	-0.000075	-0.001808	6197.086815	44927.841009	3789.666908	22963.771800
13.537000	-0.000619	-0.000197	-0.000776	-0.001660	6185.213371	44963.857766	3787.643516	22956.897144
14.036500	-0.001836	-0.000113	0.002064	0.002327	6144.694093	44586.482832	3784.913721	22772.390874
14.537000	-0.003350	-0.000936	-0.000192	0.004788	6114.070932	44271.729008	3773.772987	22659.369203
15.034500	0.000707	-0.000103	0.001315	-0.001399	6193.562066	44947.600301	3792.010219	22944.773717
15.537500	-0.000303	0.000036	0.003593	-0.001410	6185.725885	44962.171334	3797.499620	22945.292037
16.035000	0.003175	0.000572	0.000343	-0.001046	6210.200708	44978.870526	3788.846087	22928.361034
16.538000	-0.002748	-0.000074	0.001880	0.003851	6125.892200	44443.900820	3780.866024	22702.325276
17.035500	0.000730	-0.000145	0.001876	-0.002411	6201.695537	45041.856861	3795.777745	22991.819911
17.535500	-0.002060	0.000012	0.003439	0.000482	6157.263850	44776.568603	3792.592646	22857.585320
18.036500	0.000998	0.000422	-0.001007	0.001319	6174.559328	44735.343942	3780.028901	22818.898263
18.535500	-0.000601	0.000838	0.005806	0.002573	6152.352353	44654.371943	3793.251779	22761.065365
19.039000	0.001006	0.000260	0.001953	0.000878	6178.071330	44762.323573	3788.099801	22839.283393
19.536500	0.000409	-0.000206	0.000471	0.000529	6176.124588	44750.949437	3785.402455	22855.383238
20.034500	0.000228	-0.000026	0.003315	0.001295	6168.741582	44694.434279	3790.352567	22820.009561
20.535000	-0.001573	0.000695	-0.000751	0.002386	6146.268641	44658.668452	3778.111976	22769.673091
21.034000	-0.001121	0.000347	-0.001219	0.001206	6158.936277	44739.004136	3779.794863	22824.114185
21.535000	0.000461	-0.000303	-0.002462	0.000937	6173.345511	44702.198300	3777.493399	22836.531287
22.036000	0.001532	0.000091	-0.003499	0.000814	6182.676000	44752.125294	3775.340559	22842.212433
22.535500	-0.000490	0.000836	0.001419	0.002575	6153.203365	44654.118724	3782.797013	22761.009328
23.036500	0.001427	-0.000026	0.000203	0.000779	6182.131569	44744.138231	3784.171704	22843.831916
23.539000	-0.000667	0.000220	-0.000968	0.001279	6161.895448	44719.707867	3780.214999	22820.742744
24.037000	-0.000043	-0.001279	0.003058	0.000084	6176.067324	44690.279641	3792.632238	22875.965695
24.536000	-0.001424	-0.000471	0.000540	0.002183	6149.002955	44565.966669	3781.643054	22779.040952
25.037000	0.000303	0.000638	0.002378	0.001544	6167.387098	44734.447250	3787.525549	22808.526916
25.537500	0.000319	0.000693	0.003736	0.001384	6168.749438	44755.128099	3791.144314	22815.876541
26.035000	0.000545	0.000061	-0.000089	0.001472	6169.834250	44685.740076	3781.837346	22811.844956
26.535000	-0.002176	0.000344	0.004952	0.002953	6137.233071	44570.322761	3790.301321	22743.603653
27.036500	0.001058	-0.000643	-0.000815	-0.001991	6200.973828	44952.638777	3788.340363	22972.297643
27.535500	0.001816	0.000045	0.002762	-0.001710	6204.725164	44992.205150	3796.224097	22959.225147
28.037000	0.001695	0.000322	0.003068	-0.001222	6199.936646	44971.661649	3795.785784	22936.548439
28.540000	0.001751	-0.000033	0.002481	-0.001741	6204.461373	44987.612246	3795.624094	22960.664773
29.037000	0.000525	-0.000351	-0.000079	-0.001851	6195.679317	44967.440726	3789.759932	22965.776945
29.540500	-0.000051	-0.000066	0.002245	-0.001375	6187.425832	44948.838487	3794.179067	22943.656523
30.038000	-0.000178	-0.000164	0.001248	-0.001272	6185.630231	44929.403166	3791.547547	22938.885286
30.538000	0.001348	0.000011	-0.004135	0.001867	6173.013881	44642.847952	3771.374231	22793.611644
31.035500	0.001945	-0.000419	0.006185	-0.000587	6196.906425	44838.320670	3801.760924	22907.085700
31.535500	0.000680	0.000588	-0.001633	-0.001621	6195.094864	45036.322788	3785.512985	22955.100910
32.045000	0.002551	0.000573	0.000216	-0.001237	6206.787473	44997.448339	3788.998756	22937.224475
32.536000	0.001668	-0.000178	0.003221	-0.001766	6204.003900	44975.871603	3797.460563	22961.803926
33.039000	-0.002035	-0.001104	-0.001889	0.000787	6155.088939	44639.448886	3779.202744	22843.486680
33.536500	-0.000545	0.000531	0.001336	0.001812	6158.698820	44698.178025	3784.409358	22796.129421
34.037000	-0.000878	-0.000282	0.001284	0.000804	6163.949505	44717.101049	3786.681214	22842.686958
34.534500	0.000185	-0.000184	0.004613	0.002903	6155.896669	44524.342011	3789.612289	22745.905933
35.035000	-0.001657	-0.000244	0.002549	0.002025	6148.418008	44602.965025	3786.786700	22786.313543
35.535500	0.000008	0.000145	0.001216	0.000969	6169.565962	44742.353910	3786.127189	22835.052824
36.035500	-0.001653	-0.000559	0.000799	0.000412	6160.965482	44728.147442	3786.460706	22860.796219
36.535500	0.000445	0.000431	0.000087	0.003410	6153.982042	44534.757179	3777.674023	22722.590442
37.036000	-0.001881	-0.000595	-0.000783	0.001858	6147.980694	44585.371813	3779.282839	22794.028956
37.535500	0.000828	0.000303	0.003251	0.001860	6169.016540	44671.637392	3788.852473	22793.948639
38.036000	-0.000854	-0.000716	0.000847	0.001097	6161.857897	44646.904079	3784.947684	22829.143153
38.536000	-0.000779	0.000586	0.004127	0.003643	6142.695027	44527.250259	3786.692937	22711.907755
39.034000	0.000258	0.000108	0.001050	0.001730	6165.585864	44665.357910	3783.924756	22799.920122
39.535000	-0.000545	-0.000296	0.003395	0.000959	6165.337438	44700.807329	3791.347024	22835.538624
40.034500	-0.000453	-0.000134	0.000352	0.001297	6163.416684	44683.766587	3783.297090	22819.888398
40.535000	-0.001675	-0.000468	-0.003945	0.002579	6143.996940	44528.227848	3770.152191	22760.820303
41.034500	-0.001196	-0.000305	-0.002624	0.003038	6144.152971	44499.799366	3772.173862	22739.711096
41.536000	0.000966	-0.000395	-0.007771	0.001164	6175.516469	44671.386353	3764.523719	22826.026679
42.042000	0.001895	-0.000266	0.002346	0.001227	6182.294073	44677.832133	3788.203996	22823.146008
42.538500	0.000035	-0.000317	0.001137	0.002976	6154.166187	44504.617308	3781.179332	22742.549507
43.036500	-0.001841	-0.000204	-0.001669	0.002826	6140.796408	44529.793246	3774.912297	22749.427263
43.536000	0.003829	0.000539	0.006711	-0.002253	6224.924871	45093.087191	3807.065433	22984.487127
44.034500	0.000255	0.000028	0.004521	-0.001134	6187.938742	44934.562933	3799.067950	22932.458257
44.534500	-0.001820	-0.000182	0.003496	0.003428	6136.307848	44474.171722	3785.701561	22721.760247
45.037000	-0.000871	-0.000150	-0.002557	0.004307	6136.848624	44392.983346	3769.356846	22681.419627
45.534500	0.001774	0.000453	0.000628	-0.000432	6194.345881	44907.695143	3788.063876	22899.897214
46.035500	0.003562	-0.000322	0.002385	-0.001165	6214.196320	44903.657895	3794.010544	22933.882064
46.535500	-0.002052	-0.000733	0.000024	0.002551	6141.288418	44505.424077	3779.551580	22762.091840
47.037000	0.001691	-0.000161	-0.003427	0.003498	6162.974084	44469.420028	3769.213645	22718.529284
47.536000	0.001104	0.000563	0.008844	0.000047	6185.336497	44871.927576	3806.660169	22877.687630
48.034000	0.001114	0.000432	0.005722	-0.000706	6191.314525	44932.312788	3800.929877	22912.607662
48.536500	-0.001708	-0.000042	0.002157	0.004757	6126.927357	44360.189214	3779.379529	22660.789519
49.034000	0.004956	0.000919	0.003482	-0.000891	6223.059060	44997.450500	3795.984723	22921.166201
49.535000	0.004729	0.000902	-0.000559	-0.000751	6220.159871	44982.262671	3785.998860	22914.698234
50.034500	0.002347	-0.001122	0.003000	-0.001212	6204.989845	44830.736479	3795.600202	22936.078433
50.535500	0.012884	-0.017672	0.014058	0.042934	5950.220301	39348.500573	3719.149117	20986.883799
51.036000	0.015408	-0.022095	0.006530	0.276824	4642.509805	23913.018549	3307.338528	13401.005514
51.536000	-0.004731	-0.019852	-0.011128	-0.051334	6561.431806	47981.389728	3885.651473	25403.133091
52.036000	-0.019486	-0.042372	-0.014805	-0.166807	7547.406222	58764.655494	4218.055803	32297.107722
52.534000	-0.011286	-0.040393	-0.008585	-0.185788	7855.068897	61531.910842	4305.558438	33616.227028
53.037000	-0.002924	-0.031525	0.003641	-0.163992	7700.601377	59809.255052	4271.726461	32106.292193
53.537000	-0.007054	-0.024750	-0.007965	-0.132440	7312.793547	56647.898991	4128.104837	30050.553990
54.037500	-0.013089	-0.021176	-0.004529	-0.101162	6939.934047	53320.127978	4042.743405	28154.846716
54.535000	-0.012240	-0.021434	-0.010636	-0.128933	7223.037165	56624.156395	4108.685914	29831.108714
55.035500	-0.014825	-0.017846	-0.014603	-0.137364	7283.197786	58134.578550	4122.690400	30361.594544
55.536000	-0.010470	-0.023514	-0.011264	-0.162602	7600.466156	60685.016678	4215.815947	32012.547570
56.036000	-0.006233	-0.018900	-0.010239	-0.152662	7537.629722	59979.627931	4186.106427	31350.865536
56.539000	-0.007910	-0.017643	-0.010636	-0.150141	7491.899878	59813.372720	4176.511472	31185.437275
57.035500	-0.009861	-0.014833	-0.011492	-0.141172	7374.994539	59010.414956	4144.677204	30604.568737
57.536500	-0.007188	-0.013814	-0.015864	-0.130786	7294.187658	57811.236780	4098.197254	29946.851933
58.034000	-0.008234	-0.012338	-0.011156	-0.119836	7171.310567	56624.137059	4079.007499	29270.177831
58.534000	-0.006236	-0.010000	-0.004089	-0.107074	7063.891059	55347.499494	4061.737974	28502.743466
59.035500	-0.010191	-0.008219	-0.011046	-0.085401	6818.635557	52994.927454	3978.272140	27250.068357
59.534500	-0.006164	-0.008841	-0.009762	-0.080488	6810.417301	52359.337164	3968.081606	26974.715103
60.035000	-0.007938	-0.010221	-0.013458	-0.066127	6663.567229	50595.194193	3918.615222	26187.398468
60.536000	-0.009434	-0.002925	-0.016299	-0.040356	6427.466619	48604.528793	3844.325034	24838.162863
61.036500	-0.014428	-0.009829	-0.017893	-0.019580	6217.555304	45776.145718	3789.557291	23807.290904
61.536500	-0.012529	0.001882	-0.018793	-0.036034	6365.772360	48655.717851	3827.338003	24619.662653
62.036000	-0.013835	0.004554	-0.023092	-0.042475	6408.375489	49628.043678	3832.646041	24946.097054
62.533500	-0.014821	0.006606	-0.018696	-0.041641	6393.216136	49759.579681	3841.535129	24903.575951
63.034500	-0.016789	0.006266	-0.028136	-0.045695	6410.598672	50162.974822	3828.125396	25111.172082
63.534500	-0.013403	0.007660	-0.019158	-0.052733	6498.701551	51091.545323	3868.495627	25476.166389
64.034500	-0.014472	0.007208	-0.019942	-0.054163	6501.788739	51200.397161	3870.155087	25551.055181
64.535500	-0.021428	0.005705	-0.022432	-0.050734	6413.941154	50653.825205	3855.040967	25371.901668
65.035500	-0.020940	0.006240	-0.029562	-0.051632	6425.539590	50812.037340	3839.346295	25418.683661
65.536000	-0.016741	0.005491	-0.024583	-0.058964	6523.526580	51545.227941	3870.568389	25804.287859
66.039500	-0.015973	0.006339	-0.019156	-0.058536	6526.455563	51592.464694	3883.501025	25781.622109
66.536500	-0.016365	0.004911	-0.018333	-0.058825	6525.570707	51464.648504	3886.398224	25796.924456
67.037500	-0.015025	0.005127	-0.020440	-0.058197	6531.704025	51418.502976	3879.286320	25763.651761
67.537000	-0.015580	0.004633	-0.023455	-0.057475	6520.702295	51282.505228	3869.637572	25725.439917
68.034500	-0.015104	0.004045	-0.020467	-0.056657	6517.760268	51125.870759	3875.229689	25682.261404
68.534500	-0.020058	0.004284	-0.022064	-0.049295	6413.362284	50339.746917	3852.326871	25297.140600
69.035000	-0.021052	0.004233	-0.021390	-0.050632	6416.230741	50480.740771	3857.428758	25366.610728
69.535500	-0.017956	0.004427	-0.020716	-0.054213	6472.506771	50896.898783	3868.295931	25553.660102
70.035500	-0.019729	0.003213	-0.020328	-0.054028	6455.916104	50742.298503	3868.818472	25543.977570
70.535500	-0.023357	0.002987	-0.024134	-0.047524	6371.232290	50005.029877	3842.651081	25205.428526
71.036000	-0.023734	0.003025	-0.026907	-0.049418	6383.788065	50215.488017	3840.448940	25303.508460
71.536000	-0.021308	0.002551	-0.022498	-0.052940	6433.438865	50549.514379	3860.482670	25487.006274
72.036000	-0.021225	0.003713	-0.022168	-0.051598	6422.862690	50529.630868	3857.904718	25416.888268
72.537000	-0.023279	0.002945	-0.022462	-0.045515	6355.323164	49782.720094	3841.807709	25101.922741
73.034000	-0.021210	0.002571	-0.020503	-0.051244	6420.028621	50365.597512	3861.244138	25398.448366
73.534500	-0.021247	0.003627	-0.023789	-0.049545	6405.522744	50295.204965	3848.601210	25310.092504
74.034500	-0.019588	0.002290	-0.024956	-0.049806	6421.571548	50177.677162	3846.319128	25323.641182
74.535500	-0.023559	0.002751	-0.022072	-0.042637	6329.440398	49451.486385	3835.588391	24954.371336
75.036000	-0.024233	0.003136	-0.023473	-0.042619	6323.800028	49490.876537	3832.059258	24953.470027
75.539000	-0.017802	0.003964	-0.025830	-0.047317	6415.693474	50088.831296	3837.888874	25194.777458
76.035500	-0.019138	0.003666	-0.016676	-0.046746	6399.778517	49994.284419	3859.533364	25165.298170
76.536500	-0.023442	0.003085	-0.022621	-0.040546	6313.367730	49263.093638	3829.030289	24847.819465
77.037000	-0.022746	0.003505	-0.024959	-0.039757	6312.613115	49223.719161	3821.314854	24807.768037
77.535000	-0.019717	0.002853	-0.016931	-0.046272	6391.022055	49854.668884	3857.678942	25140.880102
78.034500	-0.017813	0.002685	-0.020830	-0.045955	6404.226760	49802.186525	3847.012155	25124.545476
78.535000	-0.022994	0.002760	-0.024664	-0.039036	6304.745362	49067.212207	3820.266225	24771.211442
79.035000	-0.024189	0.001959	-0.025363	-0.039190	6296.315687	48998.323608	3818.927976	24779.001185
79.535500	-0.021066	0.001603	-0.020053	-0.045055	6369.769355	49588.113197	3846.700276	25078.257615
80.036500	-0.018058	0.002380	-0.019544	-0.043272	6379.902683	49479.914776	3843.499771	24986.875830
80.542500	-0.024135	0.001894	-0.024801	-0.037087	6279.790240	48768.348006	3815.156387	24672.705176
81.039500	-0.020854	0.001573	-0.021439	-0.038633	6318.856416	48898.150849	3827.223136	24750.805798
81.537000	-0.020474	0.000292	-0.021186	-0.042311	6352.039379	49153.233651	3836.986236	24937.749832
82.037500	-0.018907	0.000680	-0.019541	-0.041151	6355.382998	49070.940958	3838.195864	24878.606294
82.537500	-0.018823	0.001194	-0.018217	-0.039541	6342.857510	48954.309059	3837.481131	24796.794629
83.034500	-0.021262	0.000817	-0.016936	-0.034459	6281.761192	48377.804637	3828.037037	24540.559385
83.535500	-0.017329	0.000931	-0.017765	-0.037984	6342.345540	48761.339136	3834.728202	24718.000045
84.036000	-0.019578	0.000549	-0.016498	-0.037466	6319.739147	48666.144208	3836.593279	24691.789203
84.536000	-0.017921	-0.000160	-0.020643	-0.037511	6333.626677	48596.046500	3826.416275	24694.086428
85.041500	-0.019225	0.001027	-0.019199	-0.033561	6290.943704	48305.595176	3820.241438	24495.572877
85.536500	-0.015462	0.000481	-0.016750	-0.035389	6336.383323	48440.119574	3830.798005	24587.195820
86.036500	-0.016049	0.000519	-0.016210	-0.035073	6329.004171	48411.022130	3831.356851	24571.355662
86.537000	-0.016121	0.000448	-0.017491	-0.035199	6329.440003	48416.661929	3828.491447	24577.654004
87.037500	-0.016762	0.001211	-0.014062	-0.033663	6311.714375	48335.582446	3833.188654	24500.671844
87.534500	-0.013521	0.000520	-0.015559	-0.033358	6335.649064	48231.353102	3828.719168	24485.422739
88.035000	-0.013141	0.001246	-0.011118	-0.032393	6330.867759	48206.382977	3837.359189	24437.241784
88.535500	-0.019963	0.000532	-0.014885	-0.025901	6223.782647	47459.168832	3812.054311	24115.748037
89.035500	-0.012651	0.001277	-0.016427	-0.031325	6326.155329	48098.050082	3821.560012	24384.028852
89.539000	-0.014346	0.001607	-0.014873	-0.030930	6309.150175	48091.262167	3824.415123	24364.377179
90.036500	-0.012762	0.001359	-0.013461	-0.030292	6316.829335	47998.942454	3826.323717	24332.651471
90.536500	-0.014657	0.000913	-0.020649	-0.024752	6256.865261	47380.185336	3795.338363	24059.327399
91.040000	-0.013429	0.001519	-0.013161	-0.029808	6307.482146	47965.251172	3825.869841	24308.652908
91.537500	-0.011628	0.001592	-0.010601	-0.029284	6317.857328	47918.372686	3830.910033	24282.665109
92.035000	-0.012602	0.002164	-0.009589	-0.028568	6304.130869	47903.378529	3831.644459	24247.223060
92.535000	-0.015482	0.001135	-0.012070	-0.022339	6231.065502	47155.849203	3810.236933	23941.376951
93.035000	-0.013895	0.000753	-0.011588	-0.025262	6267.052988	47416.124748	3818.553731	24084.346296
93.535500	-0.011931	0.001468	-0.012251	-0.027811	6303.437174	47752.780084	3823.189932	24209.846467
94.038500	-0.009356	0.001382	-0.008241	-0.027138	6318.883393	47674.219656	3831.441457	24176.618743
94.536000	-0.013564	0.001197	-0.017711	-0.020989	6235.574913	47024.454485	3793.359451	23875.652377
95.039500	-0.011902	0.001947	-0.011975	-0.024921	6280.318515	47503.802319	3816.767906	24067.606065
95.539500	-0.011125	0.000858	-0.011289	-0.026654	6300.585763	47570.137073	3822.706828	24152.755932
