sample name	sample
index	968
start time	 04-14-2021  02:22:49 PM


Wavelength (nm)	Absorbance
494.344910	-0.081094
494.563924	-0.081094
494.782919	-0.081094
495.001897	0.048067
495.220856	-0.014137
495.439797	0.002691
495.658719	0.013219
495.877624	0.024292
496.096510	0.017430
496.315378	0.007501
496.534227	0.038504
496.753059	0.023225
496.971872	0.012109
497.190667	0.009758
497.409444	0.016481
497.628203	0.015857
497.846943	0.017779
498.065665	0.017108
498.284369	0.019620
498.503055	0.019273
498.721723	0.019687
498.940372	0.019221
499.159003	0.020595
499.377616	0.020811
499.596210	0.021890
499.814787	0.021399
500.033345	0.022223
500.251885	0.020622
500.470406	0.019368
500.688910	0.019499
500.907395	0.021093
501.125862	0.020238
501.344311	0.019760
501.562742	0.019506
501.781154	0.019909
501.999548	0.020721
502.217924	0.020957
502.436282	0.021021
502.654621	0.020762
502.872942	0.019970
503.091245	0.021414
503.309530	0.022168
503.527797	0.022121
503.746045	0.022716
503.964275	0.021781
504.182487	0.022750
504.400681	0.023759
504.618856	0.023906
504.837013	0.024659
505.055152	0.023893
505.273273	0.023173
505.491376	0.022639
505.709460	0.021956
505.927526	0.021379
506.145574	0.020851
506.363604	0.020498
506.581615	0.020118
506.799608	0.018622
507.017583	0.017844
507.235540	0.017216
507.453478	0.018253
507.671399	0.018461
507.889301	0.018979
508.107185	0.019335
508.325050	0.020539
508.542898	0.020458
508.760727	0.020848
508.978538	0.021146
509.196330	0.022204
509.414105	0.020740
509.631861	0.020307
509.849599	0.020285
510.067319	0.019315
510.285021	0.017623
510.502704	0.018417
510.720369	0.018672
510.938016	0.018173
511.155645	0.017169
511.373255	0.017759
511.590848	0.017740
511.808422	0.017470
512.025977	0.017341
512.243515	0.017621
512.461034	0.017251
512.678536	0.017033
512.896018	0.017392
513.113483	0.017272
513.330930	0.017519
513.548358	0.017063
513.765768	0.017361
513.983160	0.018114
514.200533	0.017922
514.417889	0.017728
514.635226	0.017437
514.852545	0.016852
515.069845	0.017232
515.287128	0.017626
515.504392	0.018083
515.721638	0.017974
515.938866	0.017804
516.156075	0.018235
516.373267	0.018212
516.590440	0.018585
516.807594	0.018800
517.024731	0.018513
517.241850	0.018541
517.458950	0.018187
517.676032	0.017799
517.893095	0.017799
518.110141	0.017918
518.327168	0.018003
518.544177	0.017766
518.761168	0.017908
518.978141	0.017780
519.195095	0.017270
519.412031	0.016715
519.628949	0.016993
519.845849	0.016554
520.062731	0.015836
520.279594	0.014998
520.496439	0.015133
520.713266	0.014704
520.930074	0.014415
521.146865	0.014197
521.363637	0.014366
521.580391	0.014666
521.797127	0.015030
522.013844	0.015196
522.230543	0.015370
522.447224	0.015318
522.663887	0.015934
522.880532	0.016468
523.097158	0.017204
523.313766	0.018311
523.530356	0.018178
523.746928	0.018103
523.963481	0.017989
524.180017	0.018075
524.396534	0.017899
524.613032	0.017836
524.829513	0.018006
525.045975	0.017378
525.262420	0.016872
525.478845	0.016610
525.695253	0.016197
525.911643	0.017111
526.128014	0.017481
526.344367	0.018033
526.560702	0.017721
526.777018	0.017729
526.993316	0.017862
527.209597	0.018095
527.425858	0.018176
527.642102	0.017882
527.858328	0.017781
528.074535	0.017316
528.290724	0.016586
528.506894	0.016550
528.723047	0.016153
528.939181	0.016164
529.155297	0.015815
529.371395	0.015667
529.587475	0.016094
529.803536	0.016080
530.019579	0.016291
530.235604	0.015939
530.451611	0.017044
530.667600	0.016942
530.883570	0.017044
531.099522	0.017283
531.315456	0.017669
531.531372	0.018142
531.747269	0.017539
531.963148	0.017978
532.179009	0.018031
532.394852	0.017301
532.610676	0.017538
532.826482	0.017176
533.042271	0.016506
533.258040	0.016711
533.473792	0.016543
533.689525	0.016742
533.905240	0.016361
534.120937	0.016878
534.336616	0.016560
534.552277	0.016274
534.767919	0.016558
534.983543	0.016908
535.199149	0.016313
535.414736	0.016102
535.630306	0.015865
535.845857	0.015875
536.061390	0.016201
536.276904	0.016445
536.492401	0.016868
536.707879	0.016930
536.923339	0.017306
537.138781	0.017188
537.354204	0.017507
537.569610	0.017680
537.784997	0.017979
538.000366	0.017993
538.215716	0.017996
538.431049	0.017770
538.646363	0.017267
538.861659	0.017266
539.076937	0.017599
539.292196	0.017349
539.507438	0.017607
539.722661	0.017499
539.937866	0.017046
540.153052	0.017142
540.368221	0.017596
540.583371	0.017646
540.798503	0.017953
541.013617	0.018011
541.228712	0.018038
541.443789	0.017710
541.658848	0.017901
541.873889	0.018018
542.088912	0.018233
542.303916	0.018147
542.518902	0.018583
542.733870	0.018349
542.948820	0.018199
543.163752	0.017870
543.378665	0.018006
543.593560	0.017749
543.808437	0.018289
544.023295	0.018017
544.238136	0.017902
544.452958	0.017271
544.667762	0.016757
544.882548	0.016865
545.097315	0.017155
545.312064	0.017306
545.526795	0.017255
545.741508	0.016865
545.956203	0.016467
546.170879	0.016278
546.385537	0.016592
546.600177	0.016923
546.814799	0.016869
547.029402	0.016975
547.243988	0.017110
547.458555	0.017274
547.673103	0.017174
547.887634	0.017458
548.102146	0.017628
548.316640	0.017800
548.531116	0.017827
548.745574	0.017760
548.960013	0.018043
549.174435	0.017962
549.388838	0.017589
549.603222	0.017454
549.817589	0.017225
550.031937	0.017080
550.246267	0.016837
550.460579	0.017079
550.674873	0.017123
550.889148	0.016949
551.103405	0.016765
551.317644	0.017125
551.531865	0.017071
551.746068	0.017344
551.960252	0.017613
552.174418	0.017836
552.388566	0.018038
552.602696	0.018000
552.816807	0.018032
553.030900	0.017988
553.244975	0.017718
553.459032	0.017746
553.673070	0.017758
553.887091	0.017358
554.101093	0.017301
554.315077	0.016855
554.529042	0.017036
554.742990	0.016762
554.956919	0.016941
555.170830	0.017295
555.384722	0.017730
555.598597	0.017567
555.812453	0.017883
556.026291	0.018059
556.240111	0.018426
556.453913	0.018340
556.667696	0.018551
556.881461	0.018648
557.095208	0.018161
557.308937	0.018017
557.522647	0.018228
557.736339	0.017988
557.950013	0.017949
558.163669	0.017798
558.377307	0.017647
558.590926	0.017658
558.804527	0.017426
559.018110	0.018021
559.231675	0.018005
559.445221	0.018005
559.658749	0.018337
559.872259	0.018386
560.085751	0.018351
560.299225	0.018636
560.512680	0.018718
560.726117	0.019026
560.939536	0.019114
561.152937	0.019150
561.366319	0.019187
561.579683	0.019060
561.793029	0.018884
562.006357	0.018724
562.219667	0.018225
562.432958	0.018046
562.646231	0.017794
562.859486	0.017597
563.072723	0.017431
563.285941	0.017443
563.499141	0.017342
563.712323	0.017542
563.925487	0.017219
564.138632	0.017655
564.351760	0.017797
564.564869	0.017847
564.777960	0.017800
564.991032	0.017707
565.204087	0.017777
565.417123	0.017828
565.630141	0.017723
565.843140	0.017860
566.056122	0.017591
566.269085	0.017622
566.482030	0.017644
566.694957	0.017660
566.907866	0.018052
567.120756	0.017888
567.333628	0.018137
567.546482	0.018451
567.759318	0.018646
567.972135	0.019085
568.184935	0.018957
568.397716	0.019115
568.610478	0.019025
568.823223	0.018718
569.035949	0.018756
569.248657	0.018401
569.461347	0.018236
569.674019	0.018474
569.886672	0.017984
570.099308	0.018004
570.311925	0.017659
570.524523	0.017614
570.737104	0.017848
570.949666	0.017905
571.162210	0.017787
571.374736	0.017347
571.587244	0.016786
571.799733	0.016853
572.012205	0.016791
572.224658	0.016870
572.437092	0.016848
572.649509	0.016635
572.861907	0.016630
573.074287	0.016801
573.286649	0.016955
573.498993	0.017313
573.711318	0.017398
573.923625	0.017447
574.135914	0.017488
574.348185	0.017609
574.560438	0.017666
574.772672	0.017748
574.984888	0.018014
575.197086	0.018477
575.409266	0.018355
575.621427	0.018424
575.833570	0.018376
576.045695	0.018352
576.257802	0.017933
576.469890	0.017879
576.681961	0.017634
576.894013	0.017295
577.106046	0.016962
577.318062	0.016833
577.530059	0.016781
577.742039	0.016751
577.954000	0.016599
578.165942	0.017053
578.377867	0.016947
578.589773	0.016832
578.801661	0.017092
579.013531	0.017150
579.225382	0.017293
579.437216	0.017629
579.649031	0.017830
579.860828	0.018193
580.072606	0.018197
580.284367	0.018446
580.496109	0.018622
580.707833	0.018499
580.919539	0.018802
581.131227	0.018999
581.342896	0.018709
581.554547	0.018472
581.766180	0.018175
581.977795	0.018284
582.189391	0.018505
582.400969	0.018835
582.612529	0.018809
582.824071	0.018257
583.035595	0.017997
583.247100	0.018015
583.458587	0.018375
583.670056	0.018427
583.881506	0.018408
584.092939	0.018193
584.304353	0.017749
584.515749	0.017888
584.727127	0.017937
584.938486	0.018116
585.149828	0.018302
585.361151	0.018362
585.572456	0.018886
585.783742	0.018896
585.995011	0.018825
586.206261	0.018896
586.417493	0.018969
586.628706	0.019166
586.839902	0.019447
587.051079	0.019283
587.262238	0.019114
587.473379	0.018800
587.684502	0.018730
587.895606	0.018794
588.106692	0.019094
588.317760	0.018930
588.528810	0.018622
588.739841	0.018171
588.950855	0.018059
589.161850	0.018236
589.372827	0.018086
589.583785	0.018261
589.794726	0.018375
590.005648	0.018154
590.216552	0.018268
590.427437	0.018690
590.638305	0.019169
590.849154	0.019499
591.059985	0.019385
591.270798	0.019706
591.481592	0.019810
591.692369	0.019702
591.903127	0.019582
592.113867	0.019768
592.324588	0.019678
592.535292	0.019699
592.745977	0.019547
592.956644	0.019274
593.167293	0.018964
593.377923	0.018748
593.588536	0.018838
593.799130	0.018890
594.009706	0.019105
594.220263	0.018840
594.430803	0.018700
594.641324	0.018945
594.851827	0.019319
595.062312	0.019329
595.272778	0.019273
595.483227	0.019115
595.693657	0.019612
595.904069	0.019034
596.114462	0.019210
596.324838	0.019276
596.535195	0.019223
596.745534	0.019021
596.955855	0.019222
597.166157	0.019484
597.376441	0.019829
597.586707	0.019759
597.796955	0.019820
598.007185	0.020250
598.217396	0.019841
598.427589	0.019736
598.637764	0.019764
598.847921	0.019556
599.058060	0.019343
599.268180	0.019060
599.478282	0.018885
599.688366	0.019139
599.898431	0.018821
600.108479	0.019152
600.318508	0.019041
600.528519	0.019148
600.738511	0.019364
600.948486	0.019213
601.158442	0.019348
601.368380	0.019661
601.578300	0.019409
601.788202	0.019466
601.998085	0.019388
602.207950	0.019499
602.417797	0.019644
602.627626	0.019501
602.837436	0.019584
603.047228	0.019535
603.257002	0.019121
603.466758	0.019285
603.676496	0.019252
603.886215	0.019251
604.095916	0.019113
604.305599	0.018736
604.515264	0.018902
604.724910	0.019135
604.934538	0.019002
605.144148	0.019031
605.353740	0.018943
605.563314	0.018826
605.772869	0.018946
605.982406	0.018865
606.191925	0.018840
606.401425	0.018825
606.610908	0.018728
606.820372	0.018758
607.029818	0.018770
607.239246	0.018981
607.448655	0.019105
607.658047	0.018838
607.867420	0.019012
608.076775	0.019058
608.286111	0.018799
608.495430	0.018905
608.704730	0.018946
608.914012	0.019167
609.123275	0.019038
609.332521	0.019021
609.541748	0.019229
609.750957	0.019348
609.960148	0.019511
610.169321	0.019744
610.378475	0.019582
610.587611	0.019507
610.796729	0.019414
611.005829	0.019279
611.214910	0.019298
611.423974	0.019495
611.633019	0.019434
611.842045	0.019287
612.051054	0.019415
612.260044	0.019530
612.469017	0.019674
612.677970	0.019577
612.886906	0.019844
613.095824	0.019727
613.304723	0.019681
613.513604	0.019803
613.722467	0.019917
613.931311	0.019575
614.140138	0.019423
614.348946	0.019406
614.557736	0.019373
614.766507	0.019059
614.975261	0.019184
615.183996	0.018790
615.392713	0.018511
615.601412	0.018465
615.810092	0.018599
616.018754	0.018701
616.227399	0.018768
616.436024	0.018842
616.644632	0.018912
616.853222	0.018825
617.061793	0.019000
617.270346	0.019058
617.478880	0.019169
617.687397	0.019369
617.895895	0.019354
618.104375	0.019375
618.312837	0.019411
618.521281	0.019418
618.729706	0.019615
618.938113	0.019888
619.146502	0.019905
619.354873	0.019996
619.563226	0.019862
619.771560	0.020092
619.979876	0.020004
620.188174	0.019788
620.396453	0.019871
620.604715	0.019840
620.812958	0.019681
621.021183	0.019914
621.229390	0.019872
621.437578	0.019683
621.645748	0.019422
621.853900	0.019710
622.062034	0.020016
622.270150	0.019984
622.478247	0.020011
622.686326	0.020106
622.894387	0.020001
623.102430	0.020219
623.310454	0.020357
623.518461	0.020294
623.726449	0.020225
623.934418	0.020098
624.142370	0.020071
624.350303	0.020057
624.558218	0.019838
624.766115	0.019649
624.973994	0.019356
625.181855	0.019317
625.389697	0.019343
625.597521	0.019045
625.805327	0.019121
626.013114	0.019006
626.220883	0.018946
626.428634	0.018927
626.636367	0.019190
626.844082	0.019170
627.051778	0.019454
627.259457	0.019525
627.467117	0.019733
627.674758	0.019676
627.882382	0.019951
628.089987	0.020124
628.297574	0.020331
628.505143	0.020377
628.712694	0.020381
628.920226	0.020216
629.127740	0.020248
629.335236	0.020415
629.542714	0.020380
629.750174	0.020234
629.957615	0.020344
630.165038	0.020442
630.372443	0.020446
630.579829	0.020661
630.787198	0.020635
630.994548	0.020843
631.201880	0.020746
631.409194	0.021142
631.616489	0.021238
631.823766	0.021119
632.031025	0.021086
632.238266	0.021033
632.445489	0.020871
632.652693	0.020927
632.859879	0.020725
633.067047	0.020676
633.274197	0.020524
633.481329	0.020720
633.688442	0.020581
633.895537	0.020424
634.102614	0.020458
634.309672	0.020559
634.516713	0.020735
634.723735	0.020903
634.930739	0.020706
635.137724	0.020684
635.344692	0.020496
635.551641	0.020714
635.758572	0.020919
635.965485	0.020928
636.172379	0.020982
636.379256	0.020828
636.586114	0.020827
636.792954	0.021096
636.999775	0.021106
637.206579	0.021206
637.413364	0.021095
637.620131	0.021123
637.826880	0.021082
638.033610	0.021329
638.240323	0.021296
638.447017	0.021219
638.653692	0.021216
638.860350	0.021140
639.066990	0.021221
639.273611	0.021352
639.480214	0.021300
639.686798	0.021257
639.893365	0.020939
640.099913	0.021116
640.306443	0.021407
640.512955	0.021421
640.719449	0.021519
640.925924	0.021384
641.132381	0.021346
641.338820	0.021363
641.545241	0.021671
641.751644	0.021808
641.958028	0.021959
642.164394	0.021987
642.370742	0.022090
642.577071	0.021996
642.783383	0.022180
642.989676	0.022223
643.195951	0.022342
643.402207	0.022374
643.608446	0.022337
643.814666	0.022193
644.020868	0.022145
644.227052	0.022157
644.433218	0.022224
644.639365	0.022156
644.845494	0.021993
645.051605	0.022061
645.257698	0.021980
645.463772	0.021923
645.669828	0.021874
645.875866	0.022053
646.081886	0.022236
646.287888	0.022302
646.493871	0.022489
646.699836	0.022717
646.905783	0.022532
647.111712	0.022452
647.317622	0.022458
647.523514	0.022561
647.729388	0.022246
647.935244	0.021943
648.141082	0.022024
648.346901	0.021953
648.552702	0.021847
648.758485	0.021953
648.964250	0.021976
649.169996	0.022109
649.375724	0.022075
649.581434	0.022120
649.787126	0.022280
649.992800	0.022330
650.198455	0.022462
650.404092	0.022599
650.609711	0.022780
650.815311	0.022893
651.020894	0.022884
651.226458	0.023051
651.432004	0.023159
651.637532	0.023147
651.843041	0.023263
652.048532	0.023143
652.254006	0.023236
652.459460	0.023161
652.664897	0.023383
652.870315	0.023607
653.075716	0.023645
653.281097	0.023735
653.486461	0.023945
653.691807	0.023882
653.897134	0.024037
654.102443	0.024020
654.307734	0.024184
654.513006	0.024099
654.718261	0.024025
654.923497	0.024211
655.128715	0.024071
655.333915	0.024100
655.539096	0.024126
655.744259	0.024080
655.949404	0.024067
656.154531	0.023971
656.359640	0.023976
656.564730	0.024008
656.769802	0.024033
656.974856	0.024241
657.179892	0.024128
657.384909	0.024224
657.589908	0.024277
657.794889	0.024301
657.999852	0.024483
658.204797	0.024336
658.409723	0.024458
658.614631	0.024431
658.819521	0.024397
659.024393	0.024466
659.229246	0.024415
659.434081	0.024507
659.638898	0.024696
659.843697	0.024591
660.048478	0.024753
660.253240	0.024868
660.457984	0.024781
660.662710	0.024760
660.867417	0.024738
661.072107	0.024680
661.276778	0.024615
661.481431	0.024472
661.686066	0.024491
661.890682	0.024587
662.095281	0.024264
662.299861	0.024155
662.504422	0.024130
662.708966	0.024072
662.913491	0.024251
663.117999	0.024412
663.322488	0.024437
663.526958	0.024476
663.731411	0.024492
663.935845	0.024704
664.140261	0.024780
664.344659	0.025134
664.549038	0.025272
664.753400	0.025214
664.957743	0.025175
665.162068	0.024967
665.366375	0.024987
665.570663	0.025018
665.774933	0.024923
665.979185	0.024968
666.183419	0.024677
666.387635	0.024624
666.591832	0.024663
666.796011	0.024786
667.000172	0.025132
667.204315	0.025118
667.408439	0.025053
667.612545	0.025250
667.816634	0.025197
668.020703	0.025254
668.224755	0.025347
668.428788	0.025396
668.632803	0.025254
668.836800	0.025329
669.040779	0.025315
669.244739	0.025214
669.448681	0.025164
669.652605	0.025179
669.856511	0.025228
670.060399	0.025137
670.264268	0.025105
670.468119	0.025222
670.671952	0.024948
670.875767	0.024956
671.079563	0.024994
671.283341	0.025101
671.487101	0.025168
671.690843	0.025115
671.894567	0.025137
672.098272	0.025298
672.301959	0.025412
672.505628	0.025673
672.709278	0.025789
672.912911	0.025902
673.116525	0.025931
673.320121	0.026002
673.523699	0.026106
673.727258	0.026230
673.930799	0.026117
674.134322	0.026061
674.337827	0.026212
674.541314	0.026255
674.744782	0.026306
674.948232	0.026429
675.151664	0.026698
675.355078	0.026685
675.558474	0.026759
675.761851	0.026864
675.965210	0.027069
676.168551	0.027065
676.371873	0.027077
676.575178	0.027190
676.778464	0.027233
676.981732	0.027136
677.184981	0.027156
677.388213	0.027271
677.591426	0.027256
677.794621	0.027062
677.997798	0.027126
678.200956	0.026974
678.404097	0.027092
678.607219	0.027076
678.810323	0.026982
679.013408	0.027004
679.216476	0.027102
679.419525	0.027156
679.622556	0.027200
679.825569	0.027131
680.028563	0.027373
680.231540	0.027349
680.434498	0.027366
680.637438	0.027417
680.840359	0.027624
681.043263	0.027504
681.246148	0.027670
681.449015	0.027658
681.651864	0.027630
681.854694	0.027598
682.057506	0.027477
682.260301	0.027380
682.463076	0.027495
682.665834	0.027591
682.868573	0.027509
683.071295	0.027521
683.273998	0.027610
683.476682	0.027647
683.679349	0.027681
683.881997	0.027858
684.084627	0.027975
684.287239	0.028018
684.489833	0.028030
684.692408	0.028245
684.894965	0.028254
685.097504	0.028276
685.300025	0.028476
685.502527	0.028460
685.705012	0.028430
685.907478	0.028571
686.109925	0.028407
686.312355	0.028336
686.514766	0.028343
686.717159	0.028478
686.919534	0.028426
687.121891	0.028223
687.324230	0.028307
687.526550	0.028265
687.728852	0.028147
687.931136	0.028349
688.133401	0.028287
688.335649	0.028229
688.537878	0.028076
688.740089	0.028036
688.942281	0.028114
689.144456	0.028216
689.346612	0.028318
689.548750	0.028147
689.750870	0.028221
689.952971	0.028219
690.155055	0.028154
690.357120	0.027939
690.559167	0.028099
690.761195	0.028099
690.963206	0.028162
691.165198	0.028137
691.367172	0.028353
691.569128	0.028421
691.771065	0.028569
691.972984	0.028891
692.174885	0.029200
692.376768	0.029121
692.578633	0.029172
692.780479	0.029249
692.982308	0.029342
693.184118	0.029452
693.385909	0.029440
693.587683	0.029432
693.789438	0.029413
693.991175	0.029426
694.192894	0.029619
694.394595	0.029752
694.596277	0.029440
694.797941	0.029441
694.999587	0.029436
695.201215	0.029325
695.402824	0.029289
695.604416	0.029071
695.805989	0.028987
696.007543	0.028989
696.209080	0.028844
696.410598	0.028954
696.612099	0.028944
696.813580	0.029001
697.015044	0.029021
697.216490	0.028931
697.417917	0.029070
697.619326	0.028947
697.820717	0.028713
698.022089	0.028651
698.223444	0.028594
698.424780	0.028575
698.626098	0.028282
698.827397	0.028227
699.028679	0.028413
699.229942	0.028344
699.431187	0.028589
699.632414	0.028706
699.833622	0.028774
700.034813	0.028841
700.235985	0.028888
700.437139	0.029056
700.638274	0.029081
700.839392	0.029112
701.040491	0.029193
701.241572	0.028999
701.442635	0.029040
701.643679	0.029039
701.844706	0.029020
702.045714	0.028956
702.246704	0.028884
702.447675	0.028907
702.648629	0.028879
702.849564	0.028841
703.050481	0.028875
703.251380	0.028824
703.452260	0.028929
703.653122	0.028928
703.853966	0.028769
704.054792	0.028709
704.255600	0.028723
704.456389	0.028627
704.657160	0.028596
704.857913	0.028853
705.058648	0.028797
705.259365	0.028599
705.460063	0.028458
705.660743	0.028552
705.861405	0.028587
706.062048	0.028618
706.262674	0.028604
706.463281	0.028595
706.663870	0.028420
706.864441	0.028606
707.064993	0.028618
707.265527	0.028834
707.466043	0.028971
707.666541	0.029075
707.867021	0.029058
708.067482	0.029006
708.267925	0.028990
708.468350	0.029034
708.668757	0.028976
708.869145	0.029015
709.069516	0.029177
709.269868	0.029125
709.470201	0.029095
709.670517	0.029005
709.870814	0.029171
710.071093	0.029191
710.271354	0.029247
710.471597	0.029193
710.671821	0.029283
710.872028	0.029034
711.072216	0.028979
711.272385	0.029048
711.472537	0.029104
711.672670	0.028811
711.872785	0.028795
712.072882	0.028553
712.272961	0.028554
712.473021	0.028616
712.673063	0.028647
712.873087	0.028531
713.073093	0.028333
713.273081	0.028363
713.473050	0.028493
713.673001	0.028585
713.872934	0.028610
714.072849	0.028630
714.272745	0.028464
714.472623	0.028248
714.672483	0.028312
714.872325	0.028267
715.072148	0.028029
715.271954	0.028018
715.471741	0.027854
715.671509	0.027928
715.871260	0.027835
716.070992	0.027855
716.270707	0.027862
716.470403	0.027840
716.670080	0.027868
716.869740	0.028061
717.069381	0.028128
717.269004	0.028114
717.468609	0.028030
717.668195	0.028160
717.867764	0.028147
718.067314	0.028213
718.266846	0.028302
718.466360	0.028333
718.665855	0.028212
718.865332	0.028256
719.064791	0.028361
719.264232	0.028407
719.463655	0.028273
719.663059	0.028291
719.862445	0.028291
720.061813	0.028200
720.261163	0.028236
720.460494	0.028372
720.659807	0.028329
720.859102	0.028281
721.058379	0.028182
721.257638	0.028143
721.456878	0.028031
721.656100	0.028197
721.855304	0.028166
722.054490	0.028039
722.253657	0.027966
722.452806	0.027818
722.651937	0.027800
722.851050	0.027730
723.050145	0.027715
723.249221	0.027763
723.448279	0.027585
723.647319	0.027525
723.846340	0.027389
724.045344	0.027341
724.244329	0.027399
724.443296	0.027408
724.642245	0.027637
724.841175	0.027509
725.040088	0.027642
725.238982	0.027754
725.437857	0.027833
725.636715	0.028015
725.835554	0.028074
726.034376	0.028026
726.233179	0.027937
726.431963	0.027867
726.630730	0.028091
726.829478	0.027909
727.028208	0.027836
727.226920	0.027708
727.425614	0.027798
727.624289	0.027670
727.822946	0.027477
728.021585	0.027627
728.220206	0.027560
728.418808	0.027493
728.617392	0.027481
728.815958	0.027467
729.014506	0.027499
729.213036	0.027363
729.411547	0.027448
729.610040	0.027466
729.808515	0.027344
730.006972	0.027163
730.205410	0.027237
730.403831	0.027253
730.602233	0.027256
730.800616	0.027298
730.998982	0.027244
731.197329	0.026903
731.395658	0.026921
731.593969	0.026835
731.792262	0.026686
731.990536	0.026410
732.188793	0.026144
732.387031	0.025985
732.585250	0.026044
732.783452	0.025986
732.981635	0.026223
733.179800	0.026221
733.377947	0.026038
733.576076	0.026241
733.774186	0.026286
733.972278	0.026330
734.170352	0.026390
734.368408	0.026126
734.566446	0.026010
734.764465	0.025916
734.962466	0.025875
735.160449	0.026028
735.358413	0.025956
735.556360	0.025979
735.754288	0.025943
735.952198	0.025993
736.150090	0.026016
736.347963	0.026109
736.545818	0.025959
736.743655	0.025949
736.941474	0.025675
737.139275	0.025713
737.337057	0.025448
737.534821	0.025334
737.732567	0.025073
737.930295	0.025054
738.128005	0.024896
738.325696	0.024830
738.523369	0.024810
738.721024	0.024839
738.918660	0.024703
739.116279	0.024801
739.313879	0.024842
739.511461	0.024853
739.709024	0.024718
739.906570	0.024907
740.104097	0.024897
740.301606	0.024724
740.499097	0.024749
740.696569	0.024799
740.894024	0.024985
741.091460	0.025183
741.288878	0.025153
741.486277	0.025092
741.683659	0.024820
741.881022	0.024968
742.078367	0.025075
742.275694	0.024932
742.473002	0.024611
742.670293	0.024359
742.867565	0.024102
743.064819	0.023893
743.262054	0.024071
743.459272	0.024168
743.656471	0.024249
743.853652	0.024329
744.050815	0.024237
744.247959	0.024358
744.445085	0.024440
744.642194	0.024473
744.839283	0.024627
745.036355	0.024352
745.233408	0.024115
745.430444	0.023848
745.627461	0.023719
745.824459	0.023974
746.021440	0.024064
746.218402	0.024028
746.415346	0.023858
746.612272	0.023715
746.809180	0.023578
747.006069	0.023771
747.202940	0.023747
747.399793	0.023794
747.596628	0.023566
747.793444	0.023385
747.990243	0.023219
748.187023	0.023400
748.383784	0.023672
748.580528	0.023877
748.777253	0.023838
748.973960	0.023724
749.170649	0.023813
749.367320	0.024124
749.563973	0.024215
749.760607	0.024401
749.957223	0.024389
750.153821	0.024228
750.350400	0.024262
750.546962	0.024155
750.743505	0.024288
750.940030	0.024008
751.136536	0.023820
751.333025	0.023825
751.529495	0.023653
751.725947	0.023742
751.922381	0.023720
752.118796	0.023704
752.315194	0.023825
752.511573	0.023846
752.707934	0.023911
752.904276	0.023825
753.100601	0.023878
753.296907	0.023667
753.493195	0.023656
753.689465	0.023584
753.885716	0.023533
754.081949	0.023573
754.278164	0.023630
754.474361	0.023603
754.670540	0.023688
754.866700	0.023591
755.062843	0.023878
755.258967	0.023752
755.455072	0.023933
755.651160	0.023934
755.847229	0.023866
756.043280	0.023764
756.239313	0.023798
756.435328	0.023816
756.631324	0.023922
756.827302	0.023724
757.023262	0.023788
757.219204	0.023627
757.415127	0.023605
757.611033	0.023577
757.806920	0.023449
758.002788	0.023469
758.198639	0.023135
758.394471	0.022892
758.590286	0.022848
758.786081	0.022638
758.981859	0.022558
759.177619	0.022457
759.373360	0.022183
759.569083	0.022202
759.764788	0.022163
759.960474	0.022361
760.156143	0.022413
760.351793	0.022326
760.547425	0.022401
760.743038	0.022457
760.938634	0.022538
761.134211	0.022706
761.329770	0.022624
761.525311	0.022447
761.720833	0.022282
761.916338	0.022296
762.111824	0.022364
762.307292	0.022334
762.502741	0.022122
762.698173	0.021995
762.893586	0.021975
763.088981	0.022217
763.284358	0.022377
763.479716	0.022489
763.675057	0.022241
763.870379	0.022311
764.065683	0.022277
764.260968	0.022415
764.456236	0.022483
764.651485	0.022279
764.846716	0.022044
765.041929	0.021974
765.237123	0.021861
765.432299	0.021931
765.627457	0.021893
765.822597	0.021866
766.017719	0.021793
766.212822	0.021611
766.407907	0.021686
766.602974	0.021715
766.798023	0.021710
766.993054	0.021926
767.188066	0.022056
767.383060	0.022055
767.578036	0.021950
767.772993	0.021984
767.967933	0.022195
768.162854	0.022252
768.357757	0.022320
768.552642	0.022323
768.747508	0.022229
768.942356	0.022020
769.137186	0.021883
769.331998	0.022054
769.526792	0.022208
769.721567	0.022174
769.916324	0.022204
770.111063	0.022127
770.305784	0.022039
770.500486	0.021920
770.695171	0.022279
770.889837	0.022502
771.084484	0.022316
771.279114	0.022214
771.473725	0.022319
771.668318	0.022302
771.862893	0.022238
772.057450	0.022389
772.251988	0.022434
772.446509	0.022429
772.641011	0.022327
772.835494	0.022459
773.029960	0.022238
773.224407	0.022060
773.418836	0.021983
773.613247	0.021923
773.807640	0.021772
774.002014	0.021808
774.196370	0.021585
774.390708	0.021552
774.585028	0.021560
774.779330	0.021689
774.973613	0.021635
775.167878	0.021718
775.362125	0.021675
775.556354	0.021590
775.750564	0.021593
775.944756	0.021613
776.138930	0.021537
776.333086	0.021360
776.527223	0.021416
776.721343	0.021450
776.915444	0.021325
777.109526	0.021380
777.303591	0.021405
777.497637	0.021224
777.691666	0.021306
777.885676	0.021385
778.079667	0.021408
778.273641	0.021379
778.467596	0.021491
778.661533	0.021782
778.855452	0.021827
779.049352	0.022055
779.243235	0.022289
779.437099	0.022171
779.630945	0.022437
779.824773	0.022496
780.018582	0.022626
780.212373	0.022587
780.406146	0.022493
780.599901	0.022589
780.793638	0.022492
780.987356	0.022509
781.181056	0.022697
781.374738	0.022601
781.568402	0.022876
781.762047	0.022886
781.955674	0.023023
782.149283	0.022905
782.342874	0.023007
782.536447	0.022974
782.730001	0.022902
782.923537	0.022974
783.117055	0.023039
783.310555	0.022842
783.504036	0.022634
783.697499	0.022454
783.890944	0.022562
784.084371	0.022454
784.277780	0.022463
784.471170	0.022512
784.664542	0.022383
784.857896	0.022254
785.051231	0.022373
785.244549	0.022576
785.437848	0.022712
785.631129	0.022729
785.824392	0.022935
786.017636	0.022993
786.210863	0.023025
786.404071	0.023230
786.597260	0.023235
786.790432	0.023238
786.983585	0.023288
787.176721	0.023416
787.369838	0.023557
787.562936	0.023479
787.756017	0.023458
787.949079	0.023736
788.142123	0.023646
788.335149	0.023645
788.528156	0.023906
788.721146	0.024015
788.914117	0.024025
789.107070	0.023906
789.300005	0.023938
789.492921	0.024111
789.685819	0.023919
789.878699	0.023978
790.071561	0.024122
790.264405	0.023824
790.457230	0.023771
790.650037	0.023799
790.842826	0.023977
791.035597	0.023923
791.228349	0.024024
791.421084	0.024019
791.613800	0.024086
791.806497	0.024207
791.999177	0.024272
792.191838	0.024227
792.384481	0.024368
792.577106	0.024468
792.769713	0.024720
792.962301	0.024711
793.154871	0.024976
793.347423	0.025016
793.539957	0.025157
793.732473	0.025425
793.924970	0.025512
794.117449	0.025396
794.309910	0.025471
794.502353	0.025545
794.694777	0.025537
794.887183	0.025707
795.079571	0.025732
795.271941	0.025680
795.464293	0.025490
795.656626	0.025728
795.848941	0.025852
796.041238	0.025884
796.233516	0.025818
796.425777	0.025784
796.618019	0.025498
796.810243	0.025530
797.002449	0.025559
797.194636	0.025747
797.386805	0.025747
797.578956	0.025757
797.771089	0.025668
797.963204	0.025688
798.155300	0.025973
798.347378	0.026104
798.539438	0.026039
798.731480	0.026085
798.923503	0.026035
799.115509	0.025864
799.307496	0.026022
799.499465	0.026215
799.691415	0.026046
799.883348	0.025814
800.075262	0.025955
800.267158	0.026132
800.459035	0.025980
800.650895	0.026012
800.842736	0.026114
801.034559	0.025962
801.226364	0.025721
801.418150	0.025902
801.609919	0.025975
801.801669	0.025617
801.993401	0.025414
802.185114	0.025414
802.376810	0.025663
802.568487	0.025731
802.760146	0.025692
802.951787	0.025729
803.143409	0.025785
803.335014	0.025726
803.526600	0.026225
803.718168	0.026418
803.909717	0.026560
804.101249	0.026313
804.292762	0.026499
804.484257	0.026412
804.675734	0.026572
804.867192	0.026491
805.058632	0.026735
805.250054	0.026556
805.441458	0.026631
805.632844	0.026674
805.824211	0.026744
806.015561	0.026584
806.206891	0.026762
806.398204	0.026799
806.589499	0.026897
806.780775	0.026709
806.972033	0.026691
807.163273	0.026916
807.354495	0.026985
807.545698	0.027217
807.736883	0.027512
807.928050	0.027738
808.119199	0.027847
808.310329	0.028201
808.501441	0.028703
808.692535	0.028938
808.883611	0.028787
809.074669	0.028958
809.265708	0.029018
809.456729	0.028983
809.647732	0.029213
809.838717	0.029491
810.029683	0.029211
810.220632	0.029096
810.411562	0.029036
810.602474	0.028985
810.793367	0.028784
810.984242	0.028824
811.175100	0.028899
811.365938	0.028528
811.556759	0.028420
811.747562	0.028599
811.938346	0.028700
812.129112	0.028686
812.319860	0.028783
812.510589	0.028979
812.701300	0.029122
812.891994	0.028937
813.082668	0.029134
813.273325	0.028976
813.463964	0.029088
813.654584	0.029004
813.845186	0.029086
814.035769	0.029339
814.226335	0.029354
814.416882	0.029283
814.607411	0.029252
814.797922	0.029172
814.988415	0.029395
815.178889	0.029343
815.369345	0.029395
815.559783	0.029453
815.750203	0.029441
815.940605	0.029631
816.130988	0.029486
816.321353	0.029746
816.511700	0.029827
816.702028	0.029764
816.892339	0.029677
817.082631	0.029828
817.272905	0.029935
817.463161	0.029912
817.653398	0.029576
817.843617	0.029955
818.033819	0.029854
818.224001	0.029973
818.414166	0.029965
818.604312	0.030155
818.794440	0.029953
818.984550	0.029680
819.174642	0.029629
819.364716	0.030068
819.554771	0.030002
819.744808	0.030320
819.934827	0.030543
820.124827	0.030672
820.314810	0.030901
820.504774	0.031215
820.694720	0.031872
820.884647	0.032189
821.074557	0.032233
821.264448	0.032121
821.454321	0.031973
821.644176	0.032110
821.834012	0.032340
822.023831	0.032372
822.213631	0.032225
822.403413	0.031846
822.593176	0.031791
822.782922	0.031773
822.972649	0.031945
823.162358	0.032180
823.352049	0.031927
823.541721	0.031550
823.731376	0.031360
823.921012	0.031721
824.110629	0.031821
824.300229	0.031815
824.489811	0.031768
824.679374	0.031941
824.868919	0.031873
825.058445	0.031943
825.247954	0.032512
825.437444	0.032662
825.626916	0.032483
825.816370	0.032471
826.005806	0.032509
826.195223	0.032789
826.384622	0.032664
826.574003	0.032728
826.763366	0.032999
826.952711	0.032981
827.142037	0.033185
827.331345	0.033191
827.520635	0.033643
827.709906	0.033555
827.899160	0.033594
828.088395	0.033700
828.277612	0.033722
828.466810	0.033688
828.655991	0.033508
828.845153	0.033653
829.034297	0.033766
829.223423	0.033510
829.412531	0.033910
829.601620	0.033855
829.790691	0.033898
829.979744	0.034151
830.168779	0.034307
830.357795	0.034603
830.546793	0.034432
830.735773	0.034520
830.924735	0.034363
831.113679	0.034372
831.302604	0.034475
831.491511	0.034592
831.680400	0.034822
831.869271	0.034616
832.058123	0.034485
832.246957	0.034766
832.435773	0.034868
832.624571	0.035234
832.813351	0.035202
833.002112	0.035609
833.190855	0.035791
833.379580	0.035349
833.568287	0.035881
833.756975	0.036157
833.945645	0.035984
834.134297	0.036239
834.322931	0.036276
834.511547	0.036150
834.700144	0.035853
834.888723	0.035633
835.077284	0.035996
835.265826	0.035900
835.454351	0.035960
835.642857	0.036013
835.831345	0.035736
836.019815	0.035821
836.208266	0.036192
836.396699	0.036324
836.585114	0.036565
836.773511	0.036680
836.961890	0.036612
837.150250	0.036547
837.338592	0.036884
837.526916	0.037227
837.715222	0.037428
837.903510	0.037459
838.091779	0.037359
838.280030	0.037619
838.468263	0.037584
838.656477	0.037554
838.844674	0.037815
839.032852	0.037565
839.221012	0.037559
839.409153	0.037527
839.597277	0.037604
839.785382	0.037991
839.973469	0.037870
840.161538	0.038011
840.349589	0.038165
840.537621	0.038251
840.725635	0.038676
840.913631	0.038662
841.101609	0.038796
841.289568	0.038924
841.477509	0.038919
841.665432	0.039259
841.853337	0.039513
842.041224	0.039593
842.229092	0.039750
842.416942	0.039813
842.604774	0.040167
842.792588	0.040340
842.980383	0.040272
843.168160	0.040575
843.355919	0.040656
843.543660	0.040626
843.731382	0.040788
843.919087	0.040766
844.106773	0.040967
844.294441	0.040823
844.482090	0.040886
844.669722	0.041184
844.857335	0.040992
845.044930	0.040800
845.232507	0.040705
845.420065	0.040859
845.607605	0.041024
845.795127	0.040928
845.982631	0.041042
846.170117	0.041172
846.357584	0.041109
846.545033	0.041155
846.732464	0.041248
846.919877	0.041451
847.107272	0.041588
847.294648	0.041443
847.482006	0.041561
847.669346	0.041768
847.856667	0.042015
848.043971	0.042210
848.231256	0.042184
848.418523	0.042318
848.605771	0.042396
848.793002	0.042548
848.980214	0.042520
849.167408	0.042379
849.354584	0.042262
849.541742	0.042150
849.728881	0.042292
849.916002	0.042430
850.103105	0.042734
850.290190	0.042789
850.477256	0.042739
850.664304	0.042919
850.851334	0.043097
851.038346	0.043330
851.225340	0.043162
851.412315	0.043012
851.599272	0.043046
851.786211	0.042960
851.973132	0.043069
852.160034	0.043098
852.346918	0.043111
852.533784	0.043447
852.720632	0.043605
852.907462	0.044181
853.094273	0.044370
853.281066	0.044928
853.467841	0.044952
853.654598	0.045070
853.841336	0.045336
854.028056	0.045764
854.214758	0.045654
854.401442	0.045581
854.588107	0.045370
854.774755	0.045517
854.961384	0.045376
855.147995	0.045469
855.334587	0.045409
855.521162	0.045244
855.707718	0.045146
855.894256	0.045329
856.080775	0.045390
856.267277	0.045608
856.453760	0.045446
856.640225	0.045179
856.826672	0.045276
857.013101	0.045297
857.199511	0.045587
857.385903	0.045528
857.572277	0.045639
857.758633	0.045613
857.944970	0.045704
858.131290	0.046015
858.317591	0.046263
858.503873	0.046366
858.690138	0.046780
858.876384	0.046757
859.062612	0.047281
859.248822	0.047281
859.435014	0.047594
859.621188	0.047568
859.807343	0.047504
859.993480	0.047558
860.179599	0.047750
860.365699	0.047891
860.551781	0.048103
860.737846	0.047897
860.923891	0.047965
861.109919	0.047870
861.295929	0.048216
861.481920	0.048476
861.667893	0.048876
861.853848	0.048886
862.039784	0.048784
862.225702	0.048844
862.411603	0.048845
862.597484	0.049120
862.783348	0.049323
862.969193	0.048934
863.155021	0.049015
863.340830	0.048648
863.526620	0.048667
863.712393	0.048790
863.898147	0.048688
864.083883	0.049084
864.269601	0.048968
864.455301	0.049066
864.640982	0.049216
864.826645	0.049176
865.012290	0.049963
865.197917	0.050156
865.383526	0.050521
865.569116	0.051031
865.754688	0.051152
865.940242	0.051337
866.125777	0.051689
866.311295	0.051940
866.496794	0.052261
866.682275	0.051846
866.867737	0.051884
867.053182	0.051706
867.238608	0.051531
867.424016	0.051359
867.609406	0.051431
867.794778	0.051212
867.980131	0.051244
868.165466	0.051594
868.350783	0.051734
868.536082	0.051589
868.721362	0.051551
868.906625	0.051674
869.091869	0.051608
869.277094	0.051584
869.462302	0.051904
869.647491	0.051969
869.832662	0.051571
870.017815	0.051600
870.202950	0.051567
870.388066	0.051692
870.573165	0.051754
870.758245	0.051864
870.943306	0.052110
871.128350	0.052005
871.313375	0.051952
871.498382	0.052011
871.683371	0.052008
871.868342	0.052450
872.053294	0.052632
872.238229	0.052674
872.423144	0.052682
872.608042	0.052664
872.792922	0.052821
872.977783	0.052889
873.162626	0.053225
873.347451	0.053329
873.532258	0.053310
873.717046	0.053402
873.901816	0.053524
874.086568	0.053698
874.271302	0.053749
874.456017	0.053866
874.640715	0.054304
874.825394	0.054215
875.010055	0.054542
875.194697	0.054611
875.379322	0.054692
875.563928	0.054842
875.748516	0.054936
875.933085	0.054927
876.117637	0.054886
876.302170	0.054885
876.486685	0.054944
876.671182	0.054661
876.855661	0.054595
877.040121	0.054339
877.224563	0.054367
877.408987	0.054204
877.593393	0.053994
877.777780	0.053678
877.962150	0.053539
878.146501	0.053714
878.330833	0.054093
878.515148	0.054314
878.699444	0.054684
878.883722	0.054710
879.067982	0.055057
879.252224	0.055590
879.436447	0.055720
879.620653	0.055644
879.804840	0.055615
879.989008	0.055518
880.173159	0.055400
880.357291	0.055551
880.541405	0.055492
880.725501	0.055363
880.909579	0.055379
881.093638	0.055722
881.277680	0.055982
881.461703	0.056273
881.645707	0.056252
881.829694	0.056611
882.013662	0.056498
882.197612	0.056566
882.381544	0.056842
882.565458	0.056594
882.749353	0.056396
882.933230	0.056577
883.117089	0.056119
883.300930	0.056520
883.484753	0.056551
883.668557	0.056368
883.852343	0.056268
884.036111	0.056074
884.219861	0.055968
884.403592	0.056020
884.587305	0.055933
884.771000	0.056178
884.954677	0.055781
885.138335	0.055448
885.321976	0.055638
885.505598	0.055790
885.689201	0.055790
885.872787	0.056255
886.056354	0.056473
886.239904	0.056558
886.423434	0.056586
886.606947	0.056585
886.790442	0.057114
886.973918	0.056930
887.157376	0.056985
887.340816	0.057196
887.524237	0.057177
887.707641	0.057022
887.891026	0.057059
888.074393	0.057216
888.257741	0.057404
888.441072	0.057153
888.624384	0.057299
888.807678	0.057396
888.990954	0.057312
889.174211	0.056934
889.357451	0.057300
889.540672	0.057016
889.723875	0.057065
889.907059	0.057094
890.090226	0.057249
890.273374	0.057425
890.456504	0.057172
890.639616	0.057196
890.822709	0.057526
891.005785	0.057560
891.188842	0.057817
891.371881	0.057625
891.554901	0.057779
891.737904	0.057792
891.920888	0.057451
892.103854	0.057521
892.286802	0.057572
892.469731	0.057393
892.652643	0.057347
892.835536	0.057562
893.018410	0.057496
893.201267	0.057274
893.384106	0.057054
893.566926	0.056917
893.749728	0.057177
893.932511	0.057224
894.115277	0.057366
894.298024	0.057116
894.480753	0.056856
894.663464	0.056833
894.846157	0.057232
895.028831	0.057417
895.211487	0.057753
895.394125	0.057815
895.576745	0.057951
895.759346	0.057944
895.941930	0.058170
896.124495	0.058284
896.307041	0.058511
896.489570	0.057991
896.672080	0.057872
896.854573	0.057985
897.037046	0.057765
897.219502	0.057679
897.401940	0.057497
897.584359	0.057152
897.766760	0.056922
897.949143	0.056782
898.131507	0.057134
898.313854	0.056952
898.496182	0.057004
898.678492	0.056967
898.860783	0.057049
899.043057	0.057133
899.225312	0.057317
899.407549	0.057576
899.589768	0.057856
899.771968	0.057465
899.954151	0.058013
900.136315	0.057806
900.318461	0.058267
900.500588	0.058064
900.682698	0.058393
900.864789	0.058306
901.046862	0.057688
901.228917	0.057120
901.410953	0.057321
901.592971	0.056692
901.774972	0.056441
901.956953	0.055484
902.138917	0.055275
902.320862	0.054710
902.502790	0.054411
902.684699	0.054610
902.866589	0.054552
903.048462	0.054121
903.230316	0.054222
903.412152	0.054456
903.593970	0.054861
903.775770	0.054943
903.957551	0.054899
904.139314	0.054832
904.321059	0.055095
904.502786	0.055131
904.684494	0.055556
904.866185	0.055647
905.047857	0.055281
905.229510	0.055207
905.411146	0.055025
905.592763	0.055121
905.774363	0.055206
905.955943	0.055125
906.137506	0.055292
906.319051	0.054910
906.500577	0.054710
906.682085	0.054842
906.863575	0.054773
907.045046	0.054597
907.226500	0.054508
907.407935	0.054530
907.589352	0.054641
907.770750	0.054385
907.952131	0.054825
908.133493	0.054627
908.314837	0.054721
908.496163	0.054663
908.677470	0.054892
908.858760	0.055081
909.040031	0.054603
909.221284	0.054300
909.402518	0.054349
909.583735	0.053634
909.764933	0.053529
909.946113	0.053462
910.127275	0.053317
910.308418	0.052743
910.489544	0.052575
910.670651	0.052737
910.851740	0.052419
911.032810	0.052641
911.213863	0.053039
911.394897	0.052964
911.575913	0.052743
911.756911	0.052656
911.937890	0.052770
912.118851	0.052765
912.299794	0.053032
912.480719	0.052871
912.661626	0.052163
912.842514	0.051809
913.023384	0.051859
913.204236	0.051811
913.385070	0.051557
913.565886	0.051262
913.746683	0.051095
913.927462	0.050542
914.108223	0.050411
914.288965	0.050375
914.469690	0.050456
914.650396	0.050240
914.831084	0.049890
915.011754	0.049921
915.192405	0.050232
915.373038	0.049811
915.553653	0.049848
915.734250	0.049954
915.914829	0.049924
916.095389	0.049773
916.275931	0.049508
916.456455	0.049422
916.636961	0.049204
916.817448	0.049053
916.997917	0.049188
917.178368	0.049126
917.358801	0.048887
917.539216	0.048645
917.719612	0.048322
917.899990	0.048072
918.080350	0.048281
918.260692	0.048139
918.441015	0.047964
918.621320	0.047152
918.801607	0.046824
918.981876	0.046931
919.162127	0.046691
919.342359	0.046351
919.522573	0.046079
919.702769	0.045492
919.882947	0.045337
920.063106	0.045200
920.243247	0.045628
920.423370	0.046151
920.603475	0.045578
920.783562	0.045357
920.963630	0.045266
921.143680	0.045237
921.323712	0.045285
921.503725	0.044905
921.683721	0.044787
921.863698	0.044483
922.043657	0.043678
922.223598	0.043320
922.403520	0.042732
922.583424	0.042650
922.763311	0.042333
922.943178	0.042075
923.123028	0.041586
923.302859	0.041067
923.482673	0.041097
923.662467	0.040769
923.842244	0.040808
924.022003	0.041174
924.201743	0.040545
924.381465	0.040768
924.561169	0.040518
924.740854	0.040651
924.920522	0.040553
925.100171	0.040006
925.279802	0.039704
925.459414	0.039022
925.639009	0.038545
925.818585	0.038464
925.998143	0.038269
926.177683	0.037863
926.357205	0.037711
926.536708	0.037255
926.716193	0.037192
926.895660	0.037148
927.075109	0.037491
927.254539	0.037319
927.433951	0.037002
927.613345	0.036290
927.792721	0.036707
927.972079	0.036088
928.151418	0.036213
928.330739	0.035993
928.510042	0.035858
928.689327	0.035478
928.868593	0.035602
929.047841	0.035502
929.227071	0.035750
929.406283	0.034856
929.585476	0.034837
929.764652	0.034972
929.943809	0.034700
930.122948	0.034066
930.302068	0.033977
930.481171	0.033540
930.660255	0.033781
930.839321	0.033451
931.018369	0.033423
931.197398	0.033746
931.376409	0.033303
931.555402	0.033034
931.734377	0.032746
931.913334	0.032179
932.092272	0.031334
932.271192	0.030267
932.450094	0.029821
932.628978	0.029754
932.807844	0.029092
932.986691	0.028607
933.165520	0.028342
933.344331	0.028258
933.523123	0.028318
933.701898	0.028512
933.880654	0.028505
934.059392	0.028101
934.238111	0.027212
934.416813	0.026971
934.595496	0.026667
934.774161	0.025908
934.952808	0.025652
935.131437	0.024940
935.310047	0.025458
935.488639	0.024839
935.667213	0.024926
935.845769	0.025264
936.024306	0.024619
936.202825	0.023959
936.381326	0.024043
936.559809	0.024419
936.738274	0.024737
936.916720	0.024234
937.095148	0.024435
937.273558	0.024399
937.451950	0.024283
937.630323	0.023292
937.808678	0.023427
937.987015	0.023053
938.165334	0.022030
938.343635	0.020864
938.521917	0.019965
938.700181	0.020584
938.878427	0.020292
939.056655	0.019418
939.234864	0.021000
939.413055	0.020844
939.591228	0.020987
939.769383	0.021288
939.947519	0.021309
940.125638	0.021256
940.303738	0.020150
940.481820	0.018889
940.659883	0.018397
940.837929	0.016891
941.015956	0.016025
941.193965	0.015402
941.371955	0.014959
941.549928	0.014670
941.727882	0.014464
941.905818	0.014898
942.083736	0.015677
942.261636	0.015793
942.439517	0.016157
942.617380	0.016595
942.795225	0.015967
942.973052	0.015985
943.150860	0.017136
943.328651	0.018003
943.506423	0.017219
943.684176	0.016528
943.861912	0.016143
944.039629	0.015871
944.217328	0.015279
944.395009	0.015733
944.572672	0.015526
944.750317	0.013850
944.927943	0.012465
945.105551	0.011939
945.283141	0.011826
945.460712	0.011952
945.638265	0.011441
945.815801	0.010901
945.993317	0.010321
946.170816	0.009417
946.348297	0.009121
946.525759	0.008470
946.703203	0.008438
946.880629	0.006733
947.058036	0.005792
947.235425	0.005533
947.412797	0.005872
947.590149	0.005703
947.767484	0.005053
947.944800	0.005638
948.122099	0.005831
948.299379	0.005524
948.476640	0.006815
948.653884	0.006848
948.831109	0.007197
949.008316	0.007716
949.185505	0.008143
949.362676	0.009309
949.539828	0.008808
949.716962	0.010392
949.894078	0.009307
950.071176	0.009702
950.248256	0.010414
950.425317	0.010458
950.602360	0.009653
950.779385	0.010493
950.956391	0.009479
951.133380	0.010894
951.310350	0.008706
951.487302	0.009077
951.664235	0.010070
951.841151	0.008885
952.018048	0.007889
952.194927	0.008507
952.371788	0.008182
952.548631	0.008355
952.725455	0.007430
952.902261	0.007779
953.079049	0.008491
953.255819	0.006428
953.432570	0.007895
953.609303	0.010578
953.786018	0.009285
953.962715	0.008860
954.139394	0.011004
954.316054	0.011302
954.492696	0.011791
954.669320	0.013260
954.845926	0.014800
955.022513	0.012768
955.199083	0.010571
955.375634	0.011392
955.552166	0.011914
955.728681	0.011490
955.905177	0.010452
956.081655	0.010434
956.258115	0.009959
956.434557	0.009820
956.610980	0.011641
956.787385	0.012476
956.963772	0.012451
957.140141	0.012257
957.316492	0.012067
957.492824	0.012452
957.669138	0.011971
957.845434	0.011097
958.021712	0.010172
958.197971	0.010020
958.374212	0.009696
958.550435	0.009657
958.726640	0.007945
958.902826	0.007383
959.078995	0.008323
959.255145	0.010182
959.431277	0.011821
959.607390	0.013219
959.783486	0.014082
959.959563	0.014791
960.135622	0.015495
960.311662	0.016992
960.487685	0.017254
960.663689	0.018479
960.839675	0.016281
961.015643	0.014179
961.191593	0.013410
961.367524	0.013897
961.543437	0.013729
961.719332	0.014557
961.895209	0.015436
962.071067	0.017393
962.246907	0.017182
962.422730	0.019682
962.598533	0.021636
962.774319	0.022006
962.950086	0.022667
963.125835	0.023086
963.301566	0.021626
963.477279	0.021264
963.652973	0.019893
963.828650	0.019768
964.004308	0.020344
964.179947	0.019820
964.355569	0.020023
964.531172	0.019336
964.706757	0.017213
964.882324	0.018362
965.057873	0.020211
965.233403	0.019227
965.408916	0.017465
965.584410	0.017546
965.759885	0.018071
965.935343	0.018529
966.110782	0.017879
966.286203	0.020257
966.461606	0.020372
966.636991	0.018766
966.812357	0.020335
966.987705	0.021102
967.163035	0.019613
967.338347	0.019324
967.513641	0.020073
967.688916	0.020282
967.864173	0.021280
968.039412	0.021858
968.214632	0.022130
968.389835	0.022111
968.565019	0.022112
968.740185	0.023434
968.915333	0.023020
969.090462	0.022633
969.265573	0.022973
969.440667	0.021866
969.615741	0.022135
969.790798	0.022116
969.965836	0.021972
970.140856	0.023060
970.315858	0.023113
970.490842	0.024273
970.665808	0.024438
970.840755	0.023989
971.015684	0.022973
971.190595	0.022806
971.365487	0.022006
971.540362	0.021341
971.715218	0.021036
971.890056	0.020817
972.064875	0.020424
972.239677	0.017733
972.414460	0.019305
972.589225	0.020481
972.763972	0.019633
972.938700	0.021231
973.113411	0.020960
973.288103	0.022020
973.462777	0.021246
973.637432	0.022227
973.812070	0.027217
973.986689	0.027107
974.161290	0.027477
974.335873	0.027860
974.510437	0.026804
974.684984	0.027160
974.859512	0.025282
975.034022	0.026783
975.208513	0.026792
975.382987	0.024231
975.557442	0.023550
975.731879	0.025049
975.906298	0.026344
976.080698	0.027708
976.255080	0.027761
976.429445	0.029977
976.603790	0.028941
976.778118	0.028677
976.952427	0.028168
977.126719	0.026885
977.300992	0.026316
977.475246	0.025787
977.649483	0.024330
977.823701	0.024489
977.997901	0.024630
978.172083	0.025639
978.346247	0.024285
978.520392	0.026279
978.694519	0.026809
978.868628	0.025713
979.042719	0.024355
979.216791	0.025593
979.390845	0.024408
979.564882	0.021849
979.738899	0.020522
979.912899	0.020657
980.086880	0.019187
980.260843	0.017912
980.434788	0.015864
980.608715	0.016418
980.782623	0.014852
980.956514	0.016677
981.130386	0.017900
981.304240	0.019880
981.478075	0.020607
981.651892	0.021241
981.825692	0.023172
981.999472	0.025394
982.173235	0.024437
982.346980	0.023032
982.520706	0.023345
982.694414	0.023510
982.868104	0.020618
983.041775	0.020944
983.215428	0.019124
983.389064	0.019224
983.562680	0.019849
983.736279	0.020575
983.909860	0.023791
984.083422	0.022689
984.256966	0.020914
984.430491	0.021920
984.603999	0.021279
984.777488	0.022814
984.950959	0.022178
985.124412	0.023747
985.297847	0.024105
985.471263	0.022260
985.644661	0.023407
985.818041	0.024897
985.991403	0.026331
986.164747	0.026157
986.338072	0.025377
986.511379	0.027541
986.684668	0.023862
986.857938	0.022094
987.031191	0.023371
987.204425	0.023689
987.377641	0.022350
987.550839	0.020561
987.724018	0.020725
987.897179	0.019480
988.070322	0.017775
988.243447	0.019316
988.416554	0.020276
988.589642	0.020042
988.762712	0.019739
988.935764	0.021847
989.108798	0.022172
989.281813	0.022142
989.454811	0.025559
989.627790	0.024204
989.800751	0.023115
989.973693	0.024595
990.146617	0.025245
990.319524	0.023015
990.492412	0.023018
990.665281	0.020915
990.838133	0.019946
991.010966	0.017945
991.183781	0.020191
991.356578	0.020639
991.529356	0.018736
991.702117	0.018045
991.874859	0.019502
992.047583	0.017590
992.220288	0.018626
992.392976	0.021268
992.565645	0.021033
992.738296	0.019010
992.910929	0.018573
993.083543	0.018628
993.256139	0.019212
993.428718	0.019368
993.601277	0.019447
993.773819	0.019414
993.946342	0.016725
994.118848	0.017828
994.291335	0.018775
994.463803	0.019143
994.636254	0.018255
994.808686	0.017201
994.981100	0.015006
995.153496	0.014771
995.325874	0.014615
995.498233	0.016735
995.670574	0.016746
995.842897	0.015661
996.015202	0.017235
996.187488	0.017848
996.359757	0.018435
996.532007	0.020575
996.704239	0.021714
996.876452	0.022520
997.048648	0.021211
997.220825	0.019644
997.392984	0.021194
997.565124	0.020174
997.737247	0.022563
997.909351	0.021801
998.081437	0.020533
998.253505	0.019179
998.425554	0.018925
998.597586	0.019240
998.769599	0.017897
998.941594	0.016492
999.113571	0.015934
999.285529	0.013201
999.457469	0.013180
999.629391	0.013237
999.801295	0.014976
999.973181	0.014163
1000.145048	0.014178
1000.316897	0.015876
1000.488728	0.016544
1000.660541	0.015409
1000.832335	0.015662
1001.004111	0.016434
1001.175869	0.017598
1001.347609	0.017007
1001.519331	0.019016
1001.691034	0.017910
1001.862719	0.016947
1002.034386	0.016277
1002.206035	0.017145
1002.377665	0.017969
1002.549277	0.018199
1002.720871	0.017430
1002.892447	0.017622
1003.064004	0.016988
1003.235544	0.017268
1003.407065	0.018175
1003.578568	0.018673
1003.750052	0.019425
1003.921519	0.018417
1004.092967	0.015552
1004.264397	0.016478
1004.435809	0.015207
1004.607202	0.013702
1004.778577	0.015129
1004.949934	0.016019
1005.121273	0.015958
1005.292594	0.016056
1005.463896	0.015447
1005.635180	0.016497
1005.806446	0.015917
1005.977694	0.017934
1006.148923	0.020113
1006.320135	0.018771
1006.491328	0.018602
1006.662503	0.019842
1006.833659	0.018364
1007.004798	0.019535
1007.175918	0.020084
1007.347020	0.019000
1007.518103	0.018583
1007.689169	0.017897
1007.860216	0.017647
1008.031245	0.017552
1008.202256	0.017491
1008.373248	0.018494
1008.544223	0.019153
1008.715179	0.019695
1008.886117	0.021843
1009.057036	0.021152
1009.227938	0.021513
1009.398821	0.020610
1009.569686	0.018537
1009.740533	0.018225
1009.911361	0.018268
1010.082172	0.017550
1010.252964	0.017914
1010.423738	0.016071
1010.594493	0.014815
1010.765231	0.015149
1010.935950	0.016922
1011.106651	0.017903
1011.277334	0.016957
1011.447998	0.016496
1011.618645	0.017516
1011.789273	0.016922
1011.959882	0.017290
1012.130474	0.019089
1012.301048	0.018152
1012.471603	0.016580
1012.642140	0.017009
1012.812658	0.017254
1012.983159	0.016422
1013.153641	0.015466
1013.324105	0.014365
1013.494551	0.015315
1013.664979	0.013997
1013.835388	0.013408
1014.005779	0.015199
1014.176152	0.014945
1014.346507	0.014160
1014.516843	0.013725
1014.687162	0.013683
1014.857462	0.014407
1015.027744	0.013115
1015.198007	0.014245
1015.368252	0.013869
1015.538480	0.012264
1015.708689	0.013232
1015.878879	0.013684
1016.049052	0.015750
1016.219206	0.014277
1016.389342	0.013245
1016.559460	0.013632
1016.729559	0.012238
1016.899641	0.013987
1017.069704	0.014816
1017.239749	0.013307
1017.409775	0.013165
1017.579784	0.011381
1017.749774	0.011764
1017.919746	0.012643
1018.089700	0.013075
1018.259635	0.013090
1018.429553	0.012349
1018.599452	0.012850
1018.769333	0.014281
1018.939195	0.014468
1019.109040	0.015208
1019.278866	0.016972
1019.448674	0.016638
1019.618464	0.016656
1019.788235	0.017274
1019.957989	0.017078
1020.127724	0.015985
1020.297441	0.014158
1020.467139	0.014525
1020.636820	0.013947
1020.806482	0.012667
1020.976126	0.013917
1021.145752	0.012456
1021.315359	0.012104
1021.484948	0.011622
1021.654519	0.011374
1021.824072	0.011478
1021.993607	0.011056
1022.163123	0.010921
1022.332621	0.010834
1022.502101	0.009681
1022.671563	0.011121
1022.841007	0.010990
1023.010432	0.010732
1023.179839	0.012516
1023.349228	0.013647
1023.518598	0.012876
1023.687951	0.013218
1023.857285	0.015680
1024.026601	0.016739
1024.195899	0.015254
1024.365178	0.015174
1024.534439	0.016837
1024.703682	0.016118
1024.872907	0.015373
1025.042114	0.017023
1025.211302	0.018659
1025.380472	0.016456
1025.549624	0.015459
1025.718758	0.016597
1025.887873	0.017695
1026.056970	0.017516
1026.226049	0.016491
1026.395110	0.016696
1026.564153	0.015272
1026.733177	0.014178
1026.902183	0.014856
1027.071171	0.014876
1027.240141	0.015553
1027.409092	0.014936
1027.578026	0.014049
1027.746940	0.014469
1027.915837	0.013543
1028.084716	0.014282
1028.253576	0.013835
1028.422418	0.012683
1028.591242	0.012273
1028.760048	0.010669
1028.928835	0.009165
1029.097604	0.008453
1029.266355	0.010001
1029.435088	0.011130
1029.603803	0.013272
1029.772499	0.015026
1029.941177	0.015748
1030.109837	0.016027
1030.278478	0.015237
1030.447102	0.016637
1030.615707	0.018146
1030.784294	0.015785
1030.952863	0.016373
1031.121413	0.012988
1031.289945	0.012824
1031.458460	0.011915
1031.626955	0.010655
1031.795433	0.011858
1031.963892	0.011565
1032.132334	0.010338
1032.300756	0.011755
1032.469161	0.011790
1032.637548	0.014558
1032.805916	0.013969
1032.974266	0.014802
1033.142598	0.017134
1033.310911	0.017213
1033.479207	0.017407
1033.647484	0.017899
1033.815743	0.016476
1033.983983	0.015999
1034.152206	0.014265
1034.320410	0.012676
1034.488596	0.012298
1034.656764	0.011048
1034.824914	0.011004
1034.993045	0.010922
1035.161158	0.010853
1035.329253	0.011457
1035.497330	0.010664
1035.665388	0.009831
1035.833428	0.010786
1036.001450	0.012447
1036.169454	0.011230
1036.337440	0.010422
1036.505407	0.011152
1036.673356	0.011537
1036.841287	0.011755
1037.009200	0.011803
1037.177094	0.012909
1037.344970	0.012469
1037.512828	0.012158
1037.680668	0.014084
1037.848489	0.012889
1038.016293	0.012642
1038.184078	0.011842
1038.351845	0.010995
1038.519593	0.012243
1038.687324	0.013216
1038.855036	0.014392
1039.022730	0.013430
1039.190406	0.013950
1039.358063	0.015321
1039.525702	0.015750
1039.693323	0.015867
1039.860926	0.016272
1040.028511	0.014083
1040.196077	0.012741
1040.363625	0.012232
1040.531155	0.012717
1040.698667	0.012291
1040.866161	0.012243
1041.033636	0.011899
1041.201093	0.011305
1041.368532	0.011778
1041.535952	0.012100
1041.703355	0.011592
1041.870739	0.010674
1042.038105	0.010104
1042.205452	0.008320
1042.372782	0.009047
1042.540093	0.008754
1042.707386	0.011591
1042.874661	0.011970
1043.041918	0.013395
1043.209156	0.013595
1043.376376	0.014324
1043.543578	0.015012
1043.710762	0.017323
1043.877927	0.018955
1044.045074	0.018595
1044.212203	0.014986
1044.379314	0.014371
1044.546407	0.014173
1044.713481	0.013929
1044.880537	0.013986
1045.047575	0.013019
1045.214595	0.011300
1045.381596	0.011172
1045.548579	0.010396
1045.715544	0.012432
1045.882491	0.013044
1046.049420	0.012800
1046.216330	0.012033
1046.383222	0.013006
1046.550096	0.014016
1046.716951	0.016286
1046.883789	0.016160
1047.050608	0.016527
1047.217409	0.015189
1047.384192	0.013769
1047.550956	0.013812
1047.717703	0.015412
1047.884431	0.014180
1048.051140	0.015599
1048.217832	0.014091
1048.384505	0.012448
1048.551161	0.013590
1048.717798	0.013430
1048.884416	0.014749
1049.051017	0.013571
1049.217599	0.012523
1049.384163	0.013861
1049.550709	0.012499
1049.717237	0.011149
1049.883746	0.011049
1050.050237	0.010501
1050.216710	0.010785
1050.383165	0.009781
1050.549601	0.010111
1050.716019	0.010322
1050.882420	0.009205
1051.048801	0.008291
1051.215165	0.009815
1051.381510	0.009555
1051.547837	0.008597
1051.714146	0.008219
1051.880437	0.008370
1052.046709	0.008292
1052.212964	0.009550
1052.379200	0.009863
1052.545417	0.009280
1052.711617	0.010109
1052.877798	0.010100
1053.043961	0.010924
1053.210106	0.013404
1053.376233	0.012491
1053.542341	0.011108
1053.708432	0.011230
1053.874504	0.011703
1054.040557	0.011536
1054.206593	0.010970
1054.372610	0.011411
1054.538609	0.011383
1054.704590	0.008691
1054.870553	0.009491
1055.036497	0.010875
1055.202424	0.009853
1055.368331	0.009088
1055.534221	0.010568
1055.700093	0.009931
1055.865946	0.009805
1056.031781	0.009496
1056.197598	0.009358
1056.363397	0.010342
1056.529177	0.011558
1056.694939	0.011089
1056.860683	0.010109
1057.026409	0.009152
1057.192116	0.009634
1057.357806	0.009639
1057.523477	0.008728
1057.689130	0.009978
1057.854764	0.009104
1058.020381	0.008593
1058.185979	0.008646
1058.351559	0.010709
1058.517120	0.009191
1058.682664	0.008846
1058.848189	0.008844
1059.013696	0.009910
1059.179185	0.009894
1059.344656	0.010525
1059.510108	0.010705
1059.675542	0.010619
1059.840958	0.010088
1060.006356	0.012506
1060.171735	0.011563
1060.337096	0.011861
1060.502439	0.011943
1060.667764	0.012387
1060.833071	0.011388
1060.998359	0.011758
1061.163629	0.009618
1061.328881	0.008902
1061.494115	0.007063
1061.659330	0.008808
1061.824527	0.007660
1061.989706	0.006752
1062.154867	0.006148
1062.320010	0.006609
1062.485134	0.006733
1062.650240	0.008756
1062.815328	0.007609
1062.980398	0.008719
1063.145449	0.007899
1063.310482	0.008533
1063.475497	0.009600
1063.640494	0.010958
1063.805473	0.010756
1063.970433	0.009674
1064.135375	0.009820
1064.300299	0.012184
1064.465204	0.011362
1064.630092	0.011247
1064.794961	0.011257
1064.959812	0.011990
1065.124645	0.010242
1065.289459	0.011778
1065.454256	0.012064
1065.619034	0.012387
1065.783793	0.009945
1065.948535	0.012024
1066.113258	0.014353
1066.277964	0.013362
1066.442651	0.011168
1066.607319	0.011544
1066.771970	0.009982
1066.936602	0.010128
1067.101216	0.008904
1067.265812	0.009625
1067.430389	0.008583
1067.594949	0.006172
1067.759490	0.006671
1067.924013	0.008494
1068.088518	0.009726
1068.253004	0.012157
1068.417472	0.011972
1068.581922	0.014757
1068.746354	0.013861
1068.910768	0.014943
1069.075163	0.015023
1069.239540	0.014471
1069.403899	0.012800
1069.568240	0.011384
1069.732562	0.009361
1069.896866	0.008808
1070.061152	0.008135
1070.225420	0.007483
1070.389670	0.006956
1070.553901	0.006300
1070.718114	0.006888
1070.882309	0.007164
1071.046486	0.008044
1071.210644	0.007898
1071.374784	0.008397
1071.538906	0.006261
1071.703010	0.008414
1071.867096	0.006366
1072.031163	0.008523
1072.195212	0.009229
1072.359243	0.011023
1072.523256	0.008658
1072.687250	0.007633
1072.851226	0.007993
1073.015184	0.009323
1073.179124	0.009361
1073.343045	0.009350
1073.506949	0.008829
1073.670834	0.008872
1073.834701	0.007179
1073.998549	0.010121
1074.162380	0.010996
1074.326192	0.009810
1074.489986	0.008629
1074.653761	0.007575
1074.817519	0.007360
1074.981258	0.005211
1075.144979	0.004500
1075.308682	0.004478
1075.472367	0.001901
1075.636033	0.002695
1075.799681	0.002745
1075.963311	0.004315
1076.126923	0.005566
1076.290516	0.007349
1076.454092	0.008619
1076.617649	0.008890
1076.781187	0.008737
1076.944708	0.008955
1077.108210	0.009928
1077.271695	0.012888
1077.435160	0.011976
1077.598608	0.011000
1077.762038	0.010499
1077.925449	0.009613
1078.088842	0.010353
1078.252217	0.009990
1078.415573	0.010978
1078.578912	0.008982
1078.742232	0.007802
1078.905534	0.008348
1079.068817	0.008911
1079.232083	0.007701
1079.395330	0.007835
1079.558559	0.006417
1079.721770	0.008305
1079.884962	0.008126
1080.048136	0.006766
1080.211293	0.005792
1080.374430	0.004879
1080.537550	0.004003
1080.700651	0.006355
1080.863735	0.006796
1081.026800	0.007721
1081.189846	0.004828
1081.352875	0.005299
1081.515885	0.005876
1081.678877	0.006401
1081.841851	0.005812
1082.004807	0.005919
1082.167744	0.001457
1082.330663	0.000389
1082.493564	-0.001899
1082.656447	-0.000419
1082.819312	0.000307
1082.982158	0.000229
1083.144986	-0.000995
1083.307796	-0.001247
1083.470587	-0.001690
1083.633361	0.000557
1083.796116	0.000934
1083.958853	0.004752
1084.121571	0.004575
1084.284272	0.003371
1084.446954	0.003382
1084.609618	0.004072
1084.772264	0.007725
1084.934892	0.006007
1085.097501	0.005593
1085.260092	0.007274
1085.422665	0.003781
1085.585220	0.003249
1085.747756	0.002998
1085.910274	0.003692
1086.072774	0.004105
1086.235256	0.002237
1086.397720	0.005020
1086.560165	0.007462
1086.722592	0.006707
1086.885001	0.006424
1087.047392	0.007880
1087.209764	0.008515
1087.372119	0.009232
1087.534455	0.010067
1087.696772	0.008245
1087.859072	0.007997
1088.021353	0.007369
1088.183616	0.005750
1088.345861	0.006470
1088.508088	0.003327
1088.670296	0.002528
1088.832486	0.001261
1088.994658	0.000844
1089.156812	0.001188
1089.318948	0.002883
1089.481065	0.001077
1089.643164	0.000568
1089.805245	0.000447
1089.967308	0.003927
1090.129352	0.004258
1090.291378	0.006074
1090.453386	0.005291
1090.615376	0.007426
1090.777347	0.003852
1090.939301	0.003509
1091.101236	0.004495
1091.263153	0.007603
1091.425051	0.006783
1091.586932	0.006960
1091.748794	0.005167
1091.910638	0.004886
1092.072463	0.003852
1092.234271	0.002497
1092.396060	0.004062
1092.557831	0.003452
1092.719584	-0.001390
1092.881319	-0.000251
1093.043035	-0.000413
1093.204733	-0.000611
1093.366413	0.000000
1093.528075	0.000173
1093.689718	0.000859
1093.851343	0.000603
1094.012950	0.003240
1094.174539	0.007372
1094.336110	0.005143
1094.497662	0.004875
1094.659196	0.006106
1094.820712	0.004637
1094.982210	0.004072
1095.143689	0.006506
1095.305151	0.005348
1095.466594	0.003215
1095.628018	0.005373
1095.789425	0.008080
1095.950813	0.005877
1096.112183	0.005432
1096.273535	0.005081
1096.434869	0.003473
1096.596184	0.001780
1096.757482	0.002927
1096.918761	0.004419
1097.080021	0.002770
1097.241264	0.000091
1097.402488	0.004174
1097.563694	0.002943
1097.724882	0.002877
1097.886052	0.004632
1098.047203	0.004001
1098.208336	0.002857
1098.369451	0.002286
1098.530548	-0.000296
1098.691627	-0.001486
1098.852687	-0.003459
1099.013729	-0.001494
1099.174753	0.000186
1099.335758	-0.001610
1099.496746	-0.002801
1099.657715	-0.001183
1099.818666	-0.001955
1099.979599	0.000072
1100.140513	0.000867
1100.301409	-0.001314
1100.462287	-0.000851
1100.623147	-0.002129
1100.783989	-0.004204
1100.944812	-0.002896
1101.105617	-0.001906
1101.266404	-0.003434
1101.427173	-0.003295
1101.587923	-0.004989
1101.748656	-0.004755
1101.909370	-0.006967
1102.070066	-0.008434
1102.230743	-0.006107
1102.391403	-0.003691
1102.552044	-0.004149
1102.712667	-0.002213
1102.873271	-0.001139
1103.033858	-0.000474
1103.194426	0.000425
1103.354976	-0.001515
1103.515508	-0.000923
1103.676021	-0.000794
1103.836517	-0.000566
1103.996994	0.000075
1104.157453	0.000360
1104.317893	-0.005154
1104.478316	-0.004195
1104.638720	-0.004075
1104.799106	-0.000755
1104.959474	0.001088
1105.119823	0.001560
1105.280155	0.001010
1105.440468	0.000062
1105.600763	0.001150
1105.761039	0.004814
1105.921298	0.006340
1106.081538	0.006930
1106.241760	0.003781
1106.401964	0.002056
1106.562149	0.004379
1106.722316	0.001914
1106.882465	0.001720
1107.042596	0.002364
1107.202709	0.003455
1107.362803	0.004669
1107.522879	0.005141
1107.682937	0.005849
1107.842977	0.003689
1108.002999	0.001361
1108.163002	0.004016
1108.322987	0.003452
1108.482954	-0.001491
1108.642902	-0.005240
1108.802833	-0.007856
1108.962745	-0.007601
1109.122639	-0.007238
1109.282515	-0.003188
1109.442372	-0.005335
1109.602211	-0.007633
1109.762032	-0.004673
1109.921835	0.001931
1110.081620	0.004274
1110.241386	0.004868
1110.401134	0.006692
1110.560864	0.004993
1110.720576	0.002623
1110.880269	0.010562
1111.039945	0.010351
1111.199602	0.007884
1111.359240	0.005656
1111.518861	0.006401
1111.678463	0.009407
1111.838047	0.009477
1111.997613	0.013732
1112.157161	0.012085
1112.316690	0.009072
1112.476202	0.010494
1112.635695	0.010098
1112.795169	0.011368
1112.954626	0.009894
1113.114064	0.009277
1113.273484	0.007760
1113.432886	0.004152
1113.592270	0.007566
1113.751635	0.003381
1113.910983	0.004525
1114.070312	0.004050
1114.229622	0.001674
1114.388915	0.000862
1114.548189	0.000480
1114.707445	0.000572
1114.866683	0.001760
1115.025903	0.002678
1115.185104	0.005907
1115.344287	0.004053
1115.503452	0.008231
1115.662599	0.008144
1115.821727	0.011995
1115.980838	0.010915
1116.139930	0.007839
1116.299004	0.011125
1116.458059	0.009991
1116.617097	0.009283
1116.776116	0.012336
1116.935117	0.009796
1117.094099	0.008322
1117.253064	0.000801
1117.412010	-0.000786
1117.570938	0.001277
1117.729848	0.001629
1117.888740	0.002955
1118.047613	0.002275
1118.206468	-0.000311
1118.365305	-0.000701
1118.524124	0.002162
1118.682924	0.006329
1118.841707	0.007252
1119.000471	0.005026
1119.159216	0.005246
1119.317944	0.003907
1119.476653	0.004797
1119.635344	0.008539
1119.794017	0.006711
1119.952672	0.002823
1120.111308	0.003357
1120.269927	0.003544
1120.428527	0.008438
1120.587108	0.008648
1120.745672	0.006625
1120.904217	0.005793
1121.062744	0.003824
1121.221253	0.006290
1121.379744	0.007699
1121.538216	0.008162
1121.696671	0.007857
1121.855107	0.005856
1122.013524	0.003662
1122.171924	0.006606
1122.330305	0.007394
1122.488668	0.005741
1122.647013	0.005688
1122.805340	0.008994
1122.963648	0.005348
1123.121938	0.002978
1123.280210	0.007798
1123.438464	0.009710
1123.596700	0.007672
1123.754917	0.006248
1123.913116	0.006797
1124.071297	0.006341
1124.229459	0.005331
1124.387604	0.013796
1124.545730	0.018589
1124.703838	0.011901
1124.861928	0.009261
1125.019999	0.008893
1125.178052	0.011552
1125.336088	0.009390
1125.494104	0.006390
1125.652103	0.005572
1125.810083	-0.000808
1125.968045	-0.002809
1126.125989	-0.003682
1126.283915	-0.001536
1126.441823	0.003719
1126.599712	0.002190
1126.757583	0.002880
1126.915436	0.007003
1127.073270	0.004659
1127.231087	0.010568
1127.388885	0.009948
1127.546665	0.008816
1127.704426	0.007510
1127.862170	0.005189
1128.019895	0.003704
1128.177602	0.005495
1128.335291	0.003279
1128.492961	0.005538
1128.650614	0.002132
1128.808248	0.001322
1128.965864	0.002569
1129.123461	0.004661
1129.281041	0.006821
1129.438602	0.005517
1129.596145	0.004624
1129.753670	0.002156
1129.911176	0.003125
1130.068665	0.000287
1130.226135	0.004264
1130.383587	0.005022
1130.541020	0.003381
1130.698436	0.003160
1130.855833	0.004411
1131.013212	0.008433
1131.170573	0.011095
1131.327915	0.006910
1131.485239	0.010981
1131.642545	0.009303
1131.799833	0.007822
1131.957103	0.009671
1132.114354	0.005163
1132.271588	0.002763
1132.428803	-0.001257
1132.585999	0.004309
1132.743178	0.006112
1132.900338	0.007762
1133.057480	0.008432
1133.214604	0.012447
1133.371710	0.008800
1133.528797	0.012985
1133.685866	0.020525
1133.842917	0.017324
1133.999950	0.012918
1134.156964	0.013153
1134.313960	0.013494
1134.470938	0.012193
1134.627898	0.011002
1134.784840	0.013572
1134.941763	0.009951
1135.098668	0.007752
1135.255555	0.010307
1135.412424	0.007759
1135.569274	0.009276
1135.726107	0.002781
1135.882921	0.005019
1136.039716	0.006619
1136.196494	0.004872
1136.353253	0.004286
1136.509995	0.001595
1136.666717	0.005798
1136.823422	0.009891
1136.980109	0.006036
1137.136777	0.006658
1137.293427	0.001699
1137.450059	0.002161
1137.606672	0.003305
1137.763267	0.009237
1137.919844	0.012558
1138.076403	0.009058
1138.232944	0.007623
1138.389466	0.008825
1138.545971	0.012360
1138.702457	0.019454
1138.858924	0.019825
1139.015374	0.020016
1139.171805	0.020280
1139.328218	0.013158
1139.484613	0.016596
1139.640990	0.015611
1139.797348	0.015411
1139.953688	0.012810
1140.110010	0.008964
1140.266314	0.008357
1140.422600	0.003703
1140.578867	-0.004700
1140.735116	0.003092
1140.891347	0.002240
1141.047559	0.006093
1141.203754	0.005324
1141.359930	0.002345
1141.516088	0.005865
1141.672228	0.004274
1141.828349	0.007827
1141.984452	0.012632
1142.140537	0.004941
1142.296604	0.005468
1142.452653	0.003392
1142.608683	0.008577
1142.764695	0.011880
1142.920689	0.006990
1143.076665	0.004040
1143.232622	0.006110
1143.388562	0.001683
1143.544483	0.009305
1143.700385	0.003957
1143.856270	-0.001143
1144.012136	-0.000110
1144.167985	-0.001201
1144.323814	0.008758
1144.479626	0.016623
1144.635420	0.015854
1144.791195	0.019451
1144.946952	0.017503
1145.102691	0.019698
1145.258411	0.021551
1145.414113	0.023355
1145.569798	0.022226
1145.725463	0.009516
1145.881111	0.003530
1146.036741	-0.000711
1146.192352	-0.000723
1146.347945	0.000401
1146.503519	0.002748
1146.659076	0.005057
1146.814614	0.000625
1146.970134	-0.001628
1147.125636	0.003736
1147.281120	-0.001267
1147.436585	0.001412
1147.592032	0.002832
1147.747461	-0.002147
1147.902872	-0.003567
1148.058265	-0.008046
1148.213639	-0.005437
1148.368995	0.000332
1148.524333	-0.002577
1148.679653	0.002399
1148.834954	0.002382
1148.990237	0.000459
1149.145502	0.002155
1149.300749	0.002676
1149.455977	0.005586
1149.611188	0.000032
1149.766380	0.001475
1149.921553	0.002237
1150.076709	0.002056
1150.231846	0.000387
1150.386966	-0.002637
1150.542066	-0.001824
1150.697149	-0.002251
1150.852214	-0.000305
1151.007260	0.001097
1151.162288	-0.001065
1151.317298	-0.005550
1151.472289	-0.001832
1151.627263	0.006271
1151.782218	0.008902
1151.937155	0.007901
1152.092073	0.009045
1152.246974	0.006778
1152.401856	0.012105
1152.556720	0.017207
1152.711566	0.019089
1152.866393	0.017944
1153.021203	0.012478
1153.175994	0.008627
1153.330767	0.012363
1153.485521	0.015105
1153.640258	0.015156
1153.794976	0.012204
1153.949676	0.008717
1154.104358	0.015105
1154.259021	0.017203
1154.413667	0.013920
1154.568294	0.015815
1154.722903	0.012881
1154.877493	0.009355
1155.032066	0.008358
1155.186620	0.006774
1155.341156	0.009603
1155.495674	0.005951
1155.650173	0.004256
1155.804654	0.002090
1155.959118	-0.000625
1156.113562	0.002239
1156.267989	0.004567
1156.422397	0.006815
1156.576788	0.001742
1156.731160	-0.004111
1156.885513	-0.006007
1157.039849	-0.007006
1157.194166	-0.000711
1157.348465	0.005170
1157.502746	0.000005
1157.657009	-0.000296
1157.811253	-0.000122
1157.965479	0.002292
1158.119687	0.002833
1158.273877	0.004391
1158.428048	0.005410
1158.582201	0.000930
1158.736337	0.003056
1158.890453	0.004336
1159.044552	0.000746
1159.198632	-0.000759
1159.352694	0.000089
1159.506738	0.001484
1159.660764	-0.004999
1159.814771	0.000095
1159.968761	0.005671
1160.122732	0.001692
1160.276685	0.007626
1160.430619	0.007196
1160.584535	0.013215
1160.738434	0.023184
1160.892313	0.027339
1161.046175	0.039293
1161.200019	0.022156
1161.353844	0.024302
1161.507651	0.023107
1161.661440	0.014241
1161.815210	0.017988
1161.968962	0.015764
1162.122697	0.008580
1162.276412	0.002936
1162.430110	-0.000064
1162.583789	0.015715
1162.737451	0.005786
1162.891094	0.010610
1163.044718	0.022907
1163.198325	0.016692
1163.351913	0.008264
1163.505483	0.004370
1163.659035	0.004218
1163.812569	0.016844
1163.966084	0.005212
1164.119581	0.008932
1164.273060	0.006707
1164.426521	0.002422
1164.579964	0.006112
1164.733388	0.007714
1164.886794	0.002615
1165.040182	-0.002349
1165.193551	-0.013321
1165.346903	-0.005250
1165.500236	-0.006509
1165.653551	-0.008347
1165.806848	-0.002755
1165.960126	-0.000603
1166.113386	0.007874
1166.266628	0.015380
1166.419852	0.021197
1166.573058	0.009712
1166.726245	0.002901
1166.879414	0.009374
1167.032565	0.011169
1167.185698	0.003594
1167.338812	-0.000261
1167.491909	-0.001084
1167.644987	0.002718
1167.798046	0.002596
1167.951088	0.002274
1168.104111	0.001658
1168.257117	0.000138
1168.410103	0.004177
1168.563072	-0.003420
1168.716023	-0.003837
1168.868955	-0.003532
1169.021869	-0.006412
1169.174765	-0.008285
1169.327642	0.000555
1169.480501	0.008608
1169.633343	0.005554
1169.786165	0.000686
1169.938970	0.007452
1170.091757	0.013154
1170.244525	0.002788
1170.397275	0.007692
1170.550007	0.012235
1170.702720	0.024535
1170.855415	0.021127
1171.008092	0.010556
1171.160751	0.001784
1171.313392	-0.008063
1171.466014	0.015914
1171.618619	-0.072471
1171.771205	-0.072471
1171.923772	-0.072471
