sample name	sample
index	1226
start time	 04-29-2021  10:56:30 AM


Wavelength (nm)	Absorbance
494.344910	-0.679216
494.563924	-0.679216
494.782919	-0.679216
495.001897	-0.407607
495.220856	-0.246354
495.439797	-0.173175
495.658719	-0.069447
495.877624	-0.049233
496.096510	-0.011924
496.315378	0.005579
496.534227	0.002885
496.753059	0.074954
496.971872	-0.013327
497.190667	0.014968
497.409444	0.011918
497.628203	0.012351
497.846943	0.013341
498.065665	0.013311
498.284369	0.012593
498.503055	0.011960
498.721723	0.010508
498.940372	0.010330
499.159003	0.009581
499.377616	0.009564
499.596210	0.008393
499.814787	0.008403
500.033345	0.008426
500.251885	0.008110
500.470406	0.008801
500.688910	0.008679
500.907395	0.009240
501.125862	0.009067
501.344311	0.008454
501.562742	0.009091
501.781154	0.008881
501.999548	0.008158
502.217924	0.008275
502.436282	0.008403
502.654621	0.008885
502.872942	0.008415
503.091245	0.008918
503.309530	0.009632
503.527797	0.009910
503.746045	0.009638
503.964275	0.009946
504.182487	0.009957
504.400681	0.009849
504.618856	0.010273
504.837013	0.010436
505.055152	0.010394
505.273273	0.009944
505.491376	0.008740
505.709460	0.008559
505.927526	0.008803
506.145574	0.008629
506.363604	0.008175
506.581615	0.007572
506.799608	0.007036
507.017583	0.006923
507.235540	0.007753
507.453478	0.008807
507.671399	0.009199
507.889301	0.009169
508.107185	0.009135
508.325050	0.008478
508.542898	0.008243
508.760727	0.009466
508.978538	0.009179
509.196330	0.007912
509.414105	0.007621
509.631861	0.007640
509.849599	0.007057
510.067319	0.006831
510.285021	0.007609
510.502704	0.008115
510.720369	0.007191
510.938016	0.007703
511.155645	0.008147
511.373255	0.007515
511.590848	0.007634
511.808422	0.007645
512.025977	0.007777
512.243515	0.008201
512.461034	0.008426
512.678536	0.008737
512.896018	0.007899
513.113483	0.007660
513.330930	0.008492
513.548358	0.008137
513.765768	0.008241
513.983160	0.007842
514.200533	0.007780
514.417889	0.007272
514.635226	0.006394
514.852545	0.006620
515.069845	0.006859
515.287128	0.006652
515.504392	0.006920
515.721638	0.006707
515.938866	0.006506
516.156075	0.005621
516.373267	0.005371
516.590440	0.006437
516.807594	0.006574
517.024731	0.005890
517.241850	0.005734
517.458950	0.005288
517.676032	0.005665
517.893095	0.005968
518.110141	0.006057
518.327168	0.006515
518.544177	0.005863
518.761168	0.005954
518.978141	0.006448
519.195095	0.006707
519.412031	0.006626
519.628949	0.006505
519.845849	0.006558
520.062731	0.007416
520.279594	0.006941
520.496439	0.007473
520.713266	0.007194
520.930074	0.007937
521.146865	0.007588
521.363637	0.007589
521.580391	0.007614
521.797127	0.008242
522.013844	0.007293
522.230543	0.007760
522.447224	0.007233
522.663887	0.007610
522.880532	0.006956
523.097158	0.006925
523.313766	0.006537
523.530356	0.006262
523.746928	0.005602
523.963481	0.006129
524.180017	0.005367
524.396534	0.005956
524.613032	0.005931
524.829513	0.005980
525.045975	0.005301
525.262420	0.005510
525.478845	0.005875
525.695253	0.006209
525.911643	0.005795
526.128014	0.006581
526.344367	0.006217
526.560702	0.006176
526.777018	0.006036
526.993316	0.006845
527.209597	0.007081
527.425858	0.006456
527.642102	0.006538
527.858328	0.006955
528.074535	0.006738
528.290724	0.006960
528.506894	0.006927
528.723047	0.007521
528.939181	0.007450
529.155297	0.007979
529.371395	0.008187
529.587475	0.007987
529.803536	0.008004
530.019579	0.008092
530.235604	0.007780
530.451611	0.007607
530.667600	0.006824
530.883570	0.006984
531.099522	0.006900
531.315456	0.006985
531.531372	0.006972
531.747269	0.006717
531.963148	0.007149
532.179009	0.007296
532.394852	0.007050
532.610676	0.007398
532.826482	0.007360
533.042271	0.006797
533.258040	0.006687
533.473792	0.006903
533.689525	0.006688
533.905240	0.006248
534.120937	0.006001
534.336616	0.006124
534.552277	0.006207
534.767919	0.006068
534.983543	0.006232
535.199149	0.006212
535.414736	0.006263
535.630306	0.006534
535.845857	0.006958
536.061390	0.007105
536.276904	0.007340
536.492401	0.007454
536.707879	0.007242
536.923339	0.007327
537.138781	0.007212
537.354204	0.006927
537.569610	0.006730
537.784997	0.006128
538.000366	0.006154
538.215716	0.006029
538.431049	0.005693
538.646363	0.005700
538.861659	0.005732
539.076937	0.006041
539.292196	0.005531
539.507438	0.005888
539.722661	0.006170
539.937866	0.006257
540.153052	0.006168
540.368221	0.006255
540.583371	0.006486
540.798503	0.006509
541.013617	0.006977
541.228712	0.007638
541.443789	0.007437
541.658848	0.007134
541.873889	0.007149
542.088912	0.007492
542.303916	0.007263
542.518902	0.007002
542.733870	0.006890
542.948820	0.006308
543.163752	0.006323
543.378665	0.006413
543.593560	0.006820
543.808437	0.006938
544.023295	0.007248
544.238136	0.007429
544.452958	0.007770
544.667762	0.008188
544.882548	0.008469
545.097315	0.008218
545.312064	0.008052
545.526795	0.007821
545.741508	0.007602
545.956203	0.007041
546.170879	0.006811
546.385537	0.006528
546.600177	0.006366
546.814799	0.006229
547.029402	0.006651
547.243988	0.006672
547.458555	0.006816
547.673103	0.006755
547.887634	0.007076
548.102146	0.007574
548.316640	0.007894
548.531116	0.007531
548.745574	0.007268
548.960013	0.006902
549.174435	0.007168
549.388838	0.007319
549.603222	0.007588
549.817589	0.007505
550.031937	0.007168
550.246267	0.006849
550.460579	0.007090
550.674873	0.007294
550.889148	0.007354
551.103405	0.007330
551.317644	0.007121
551.531865	0.006908
551.746068	0.006613
551.960252	0.006846
552.174418	0.006956
552.388566	0.006817
552.602696	0.006810
552.816807	0.007052
553.030900	0.007123
553.244975	0.007406
553.459032	0.007526
553.673070	0.007561
553.887091	0.007656
554.101093	0.007652
554.315077	0.007461
554.529042	0.007576
554.742990	0.007709
554.956919	0.007650
555.170830	0.007385
555.384722	0.007260
555.598597	0.007074
555.812453	0.006839
556.026291	0.007133
556.240111	0.007281
556.453913	0.007355
556.667696	0.006870
556.881461	0.006430
557.095208	0.006279
557.308937	0.006260
557.522647	0.006535
557.736339	0.006492
557.950013	0.006055
558.163669	0.006216
558.377307	0.006269
558.590926	0.006281
558.804527	0.006397
559.018110	0.006433
559.231675	0.006237
559.445221	0.006211
559.658749	0.006373
559.872259	0.006475
560.085751	0.006341
560.299225	0.006313
560.512680	0.006432
560.726117	0.006704
560.939536	0.006584
561.152937	0.006755
561.366319	0.006835
561.579683	0.006672
561.793029	0.006513
562.006357	0.006287
562.219667	0.006169
562.432958	0.006080
562.646231	0.006019
562.859486	0.005983
563.072723	0.006040
563.285941	0.006116
563.499141	0.006068
563.712323	0.006355
563.925487	0.006763
564.138632	0.006875
564.351760	0.006645
564.564869	0.006569
564.777960	0.006765
564.991032	0.006975
565.204087	0.006897
565.417123	0.006951
565.630141	0.006874
565.843140	0.006763
566.056122	0.006818
566.269085	0.007217
566.482030	0.006989
566.694957	0.006897
566.907866	0.006827
567.120756	0.006908
567.333628	0.006926
567.546482	0.006730
567.759318	0.006765
567.972135	0.006528
568.184935	0.006351
568.397716	0.006667
568.610478	0.006742
568.823223	0.006763
569.035949	0.006607
569.248657	0.006758
569.461347	0.007112
569.674019	0.006852
569.886672	0.007100
570.099308	0.007169
570.311925	0.007307
570.524523	0.007308
570.737104	0.007008
570.949666	0.006642
571.162210	0.006383
571.374736	0.006301
571.587244	0.006451
571.799733	0.006143
572.012205	0.005997
572.224658	0.005989
572.437092	0.006101
572.649509	0.006279
572.861907	0.006563
573.074287	0.006751
573.286649	0.006456
573.498993	0.006281
573.711318	0.006460
573.923625	0.006535
574.135914	0.006145
574.348185	0.005993
574.560438	0.005921
574.772672	0.006039
574.984888	0.005676
575.197086	0.005904
575.409266	0.006294
575.621427	0.006007
575.833570	0.006096
576.045695	0.006169
576.257802	0.006358
576.469890	0.006279
576.681961	0.005996
576.894013	0.006363
577.106046	0.006635
577.318062	0.006578
577.530059	0.006641
577.742039	0.006372
577.954000	0.006558
578.165942	0.006208
578.377867	0.006133
578.589773	0.006543
578.801661	0.006484
579.013531	0.006121
579.225382	0.006048
579.437216	0.006187
579.649031	0.006451
579.860828	0.006380
580.072606	0.006579
580.284367	0.006659
580.496109	0.006376
580.707833	0.006281
580.919539	0.006334
581.131227	0.006231
581.342896	0.006227
581.554547	0.005869
581.766180	0.005769
581.977795	0.005659
582.189391	0.005595
582.400969	0.005674
582.612529	0.005655
582.824071	0.005435
583.035595	0.005371
583.247100	0.005400
583.458587	0.005699
583.670056	0.005591
583.881506	0.005633
584.092939	0.005816
584.304353	0.005740
584.515749	0.005963
584.727127	0.006163
584.938486	0.006402
585.149828	0.006422
585.361151	0.006408
585.572456	0.006606
585.783742	0.006964
585.995011	0.007095
586.206261	0.007277
586.417493	0.007170
586.628706	0.007344
586.839902	0.007226
587.051079	0.007301
587.262238	0.007502
587.473379	0.007489
587.684502	0.007155
587.895606	0.007198
588.106692	0.007237
588.317760	0.007289
588.528810	0.007309
588.739841	0.007263
588.950855	0.007233
589.161850	0.006889
589.372827	0.007095
589.583785	0.006934
589.794726	0.006852
590.005648	0.006950
590.216552	0.006917
590.427437	0.006914
590.638305	0.006821
590.849154	0.006759
591.059985	0.007043
591.270798	0.006799
591.481592	0.007084
591.692369	0.007388
591.903127	0.007467
592.113867	0.007615
592.324588	0.007465
592.535292	0.007827
592.745977	0.008135
592.956644	0.007842
593.167293	0.008084
593.377923	0.008009
593.588536	0.007719
593.799130	0.007429
594.009706	0.007363
594.220263	0.007335
594.430803	0.007106
594.641324	0.006840
594.851827	0.007130
595.062312	0.007017
595.272778	0.007136
595.483227	0.007138
595.693657	0.007082
595.904069	0.007094
596.114462	0.007059
596.324838	0.007116
596.535195	0.007239
596.745534	0.007483
596.955855	0.007584
597.166157	0.007531
597.376441	0.007760
597.586707	0.008408
597.796955	0.008380
598.007185	0.008638
598.217396	0.009005
598.427589	0.008914
598.637764	0.008876
598.847921	0.008772
599.058060	0.008857
599.268180	0.008641
599.478282	0.008320
599.688366	0.008780
599.898431	0.008645
600.108479	0.008234
600.318508	0.008482
600.528519	0.008586
600.738511	0.008723
600.948486	0.008597
601.158442	0.008796
601.368380	0.008719
601.578300	0.008427
601.788202	0.008478
601.998085	0.008567
602.207950	0.008427
602.417797	0.008185
602.627626	0.008366
602.837436	0.008247
603.047228	0.007972
603.257002	0.008084
603.466758	0.008219
603.676496	0.008284
603.886215	0.008149
604.095916	0.008244
604.305599	0.008245
604.515264	0.007860
604.724910	0.007952
604.934538	0.008098
605.144148	0.008090
605.353740	0.007888
605.563314	0.007961
605.772869	0.008285
605.982406	0.008118
606.191925	0.008200
606.401425	0.008318
606.610908	0.008610
606.820372	0.008656
607.029818	0.008690
607.239246	0.008934
607.448655	0.008800
607.658047	0.008729
607.867420	0.008900
608.076775	0.008716
608.286111	0.008830
608.495430	0.008628
608.704730	0.008631
608.914012	0.008525
609.123275	0.008379
609.332521	0.008494
609.541748	0.008541
609.750957	0.008404
609.960148	0.008606
610.169321	0.008644
610.378475	0.008824
610.587611	0.008824
610.796729	0.009076
611.005829	0.009003
611.214910	0.008981
611.423974	0.009012
611.633019	0.009059
611.842045	0.008971
612.051054	0.008981
612.260044	0.009062
612.469017	0.009294
612.677970	0.009014
612.886906	0.008932
613.095824	0.008805
613.304723	0.008626
613.513604	0.008682
613.722467	0.008665
613.931311	0.008490
614.140138	0.008350
614.348946	0.008094
614.557736	0.008021
614.766507	0.008041
614.975261	0.008199
615.183996	0.008391
615.392713	0.008380
615.601412	0.008612
615.810092	0.008720
616.018754	0.008823
616.227399	0.008940
616.436024	0.008960
616.644632	0.009086
616.853222	0.008990
617.061793	0.008807
617.270346	0.008822
617.478880	0.008620
617.687397	0.008529
617.895895	0.008287
618.104375	0.008101
618.312837	0.008198
618.521281	0.008100
618.729706	0.008042
618.938113	0.007979
619.146502	0.007932
619.354873	0.008002
619.563226	0.008074
619.771560	0.008187
619.979876	0.008173
620.188174	0.008232
620.396453	0.008413
620.604715	0.008665
620.812958	0.008883
621.021183	0.008906
621.229390	0.008885
621.437578	0.009086
621.645748	0.008982
621.853900	0.009154
622.062034	0.009168
622.270150	0.009333
622.478247	0.009247
622.686326	0.009310
622.894387	0.009424
623.102430	0.009717
623.310454	0.009597
623.518461	0.009776
623.726449	0.009979
623.934418	0.009991
624.142370	0.009707
624.350303	0.009853
624.558218	0.009864
624.766115	0.009780
624.973994	0.009424
625.181855	0.009426
625.389697	0.009494
625.597521	0.009188
625.805327	0.009172
626.013114	0.009394
626.220883	0.009382
626.428634	0.009209
626.636367	0.009178
626.844082	0.009534
627.051778	0.009742
627.259457	0.009782
627.467117	0.009932
627.674758	0.009979
627.882382	0.010112
628.089987	0.010025
628.297574	0.010223
628.505143	0.010230
628.712694	0.010172
628.920226	0.010025
629.127740	0.010058
629.335236	0.010098
629.542714	0.009961
629.750174	0.009688
629.957615	0.009850
630.165038	0.009882
630.372443	0.010030
630.579829	0.009883
630.787198	0.009931
630.994548	0.009824
631.201880	0.009822
631.409194	0.010094
631.616489	0.010229
631.823766	0.010026
632.031025	0.009958
632.238266	0.009993
632.445489	0.009730
632.652693	0.009733
632.859879	0.009779
633.067047	0.009767
633.274197	0.009650
633.481329	0.009621
633.688442	0.009672
633.895537	0.009643
634.102614	0.009564
634.309672	0.009857
634.516713	0.009818
634.723735	0.009733
634.930739	0.009775
635.137724	0.009705
635.344692	0.009614
635.551641	0.009783
635.758572	0.009794
635.965485	0.009889
636.172379	0.009978
636.379256	0.010014
636.586114	0.010119
636.792954	0.009972
636.999775	0.010390
637.206579	0.010624
637.413364	0.010568
637.620131	0.010747
637.826880	0.010741
638.033610	0.010558
638.240323	0.010469
638.447017	0.010449
638.653692	0.010536
638.860350	0.010243
639.066990	0.010255
639.273611	0.010181
639.480214	0.010100
639.686798	0.010244
639.893365	0.010464
640.099913	0.010483
640.306443	0.010637
640.512955	0.010795
640.719449	0.010786
640.925924	0.011081
641.132381	0.011355
641.338820	0.011580
641.545241	0.011508
641.751644	0.011595
641.958028	0.011769
642.164394	0.011710
642.370742	0.011785
642.577071	0.012001
642.783383	0.011766
642.989676	0.011672
643.195951	0.011595
643.402207	0.011355
643.608446	0.011301
643.814666	0.011464
644.020868	0.011476
644.227052	0.011383
644.433218	0.011529
644.639365	0.011328
644.845494	0.011200
645.051605	0.011091
645.257698	0.011370
645.463772	0.011304
645.669828	0.011120
645.875866	0.011210
646.081886	0.011233
646.287888	0.010926
646.493871	0.010884
646.699836	0.010995
646.905783	0.010843
647.111712	0.010863
647.317622	0.010806
647.523514	0.010778
647.729388	0.010740
647.935244	0.010763
648.141082	0.010839
648.346901	0.010941
648.552702	0.010911
648.758485	0.011022
648.964250	0.010856
649.169996	0.010855
649.375724	0.010816
649.581434	0.010916
649.787126	0.010881
649.992800	0.010821
650.198455	0.010804
650.404092	0.010741
650.609711	0.010784
650.815311	0.010968
651.020894	0.010967
651.226458	0.010961
651.432004	0.010672
651.637532	0.010639
651.843041	0.010629
652.048532	0.010779
652.254006	0.010801
652.459460	0.010867
652.664897	0.010887
652.870315	0.011182
653.075716	0.011224
653.281097	0.011619
653.486461	0.011756
653.691807	0.011766
653.897134	0.011756
654.102443	0.011857
654.307734	0.011903
654.513006	0.011930
654.718261	0.011782
654.923497	0.011896
655.128715	0.011823
655.333915	0.012041
655.539096	0.012370
655.744259	0.012637
655.949404	0.012745
656.154531	0.012768
656.359640	0.012817
656.564730	0.012918
656.769802	0.012918
656.974856	0.012784
657.179892	0.012625
657.384909	0.012611
657.589908	0.012575
657.794889	0.012634
657.999852	0.012674
658.204797	0.012770
658.409723	0.013037
658.614631	0.013201
658.819521	0.013385
659.024393	0.013473
659.229246	0.013571
659.434081	0.013594
659.638898	0.013657
659.843697	0.013854
660.048478	0.013637
660.253240	0.013491
660.457984	0.013638
660.662710	0.013612
660.867417	0.013506
661.072107	0.013057
661.276778	0.012842
661.481431	0.012771
661.686066	0.012675
661.890682	0.012759
662.095281	0.012717
662.299861	0.012567
662.504422	0.012558
662.708966	0.012588
662.913491	0.012886
663.117999	0.012835
663.322488	0.012742
663.526958	0.012601
663.731411	0.012529
663.935845	0.012583
664.140261	0.012605
664.344659	0.012634
664.549038	0.012622
664.753400	0.012416
664.957743	0.012639
665.162068	0.012780
665.366375	0.012874
665.570663	0.013156
665.774933	0.013227
665.979185	0.013077
666.183419	0.013198
666.387635	0.013353
666.591832	0.013634
666.796011	0.013563
667.000172	0.013578
667.204315	0.013783
667.408439	0.013809
667.612545	0.013805
667.816634	0.014172
668.020703	0.014310
668.224755	0.014591
668.428788	0.014590
668.632803	0.014777
668.836800	0.014766
669.040779	0.014811
669.244739	0.014664
669.448681	0.014934
669.652605	0.015044
669.856511	0.015013
670.060399	0.014849
670.264268	0.014857
670.468119	0.014899
670.671952	0.015088
670.875767	0.015161
671.079563	0.015397
671.283341	0.015258
671.487101	0.015241
671.690843	0.015270
671.894567	0.015184
672.098272	0.015324
672.301959	0.015258
672.505628	0.015126
672.709278	0.015035
672.912911	0.015057
673.116525	0.014959
673.320121	0.014743
673.523699	0.014612
673.727258	0.014695
673.930799	0.014647
674.134322	0.014782
674.337827	0.014835
674.541314	0.014807
674.744782	0.014806
674.948232	0.014961
675.151664	0.015050
675.355078	0.014955
675.558474	0.014983
675.761851	0.014997
675.965210	0.014865
676.168551	0.014878
676.371873	0.014982
676.575178	0.014926
676.778464	0.014783
676.981732	0.014797
677.184981	0.014979
677.388213	0.014946
677.591426	0.014853
677.794621	0.014983
677.997798	0.014919
678.200956	0.014828
678.404097	0.014784
678.607219	0.014839
678.810323	0.014946
679.013408	0.014924
679.216476	0.015016
679.419525	0.015240
679.622556	0.015291
679.825569	0.015560
680.028563	0.015635
680.231540	0.015739
680.434498	0.015801
680.637438	0.015836
680.840359	0.015994
681.043263	0.016028
681.246148	0.015985
681.449015	0.015913
681.651864	0.015864
681.854694	0.015929
682.057506	0.015909
682.260301	0.015904
682.463076	0.015742
682.665834	0.015686
682.868573	0.015704
683.071295	0.015762
683.273998	0.015775
683.476682	0.015740
683.679349	0.015788
683.881997	0.015930
684.084627	0.016069
684.287239	0.016078
684.489833	0.016244
684.692408	0.016234
684.894965	0.016176
685.097504	0.016214
685.300025	0.016299
685.502527	0.016377
685.705012	0.016290
685.907478	0.016216
686.109925	0.016216
686.312355	0.016248
686.514766	0.016219
686.717159	0.016309
686.919534	0.016316
687.121891	0.016291
687.324230	0.016199
687.526550	0.016235
687.728852	0.016347
687.931136	0.016492
688.133401	0.016272
688.335649	0.016278
688.537878	0.016372
688.740089	0.016426
688.942281	0.016474
689.144456	0.016560
689.346612	0.016502
689.548750	0.016528
689.750870	0.016572
689.952971	0.016674
690.155055	0.016804
690.357120	0.016758
690.559167	0.016772
690.761195	0.016797
690.963206	0.016779
691.165198	0.016906
691.367172	0.016748
691.569128	0.016833
691.771065	0.016985
691.972984	0.017013
692.174885	0.017088
692.376768	0.016996
692.578633	0.016934
692.780479	0.016819
692.982308	0.016731
693.184118	0.016892
693.385909	0.016885
693.587683	0.016684
693.789438	0.016591
693.991175	0.016496
694.192894	0.016529
694.394595	0.016641
694.596277	0.016693
694.797941	0.016725
694.999587	0.016464
695.201215	0.016421
695.402824	0.016449
695.604416	0.016530
695.805989	0.016444
696.007543	0.016519
696.209080	0.016374
696.410598	0.016474
696.612099	0.016707
696.813580	0.016920
697.015044	0.016857
697.216490	0.017017
697.417917	0.016993
697.619326	0.017085
697.820717	0.017016
698.022089	0.017186
698.223444	0.017187
698.424780	0.017038
698.626098	0.017082
698.827397	0.017212
699.028679	0.017211
699.229942	0.017296
699.431187	0.017333
699.632414	0.017348
699.833622	0.017208
700.034813	0.017165
700.235985	0.017183
700.437139	0.017148
700.638274	0.016982
700.839392	0.016886
701.040491	0.016946
701.241572	0.016979
701.442635	0.017025
701.643679	0.017197
701.844706	0.017217
702.045714	0.017274
702.246704	0.017335
702.447675	0.017508
702.648629	0.017661
702.849564	0.017516
703.050481	0.017634
703.251380	0.017746
703.452260	0.017602
703.653122	0.017633
703.853966	0.017644
704.054792	0.017576
704.255600	0.017547
704.456389	0.017496
704.657160	0.017455
704.857913	0.017220
705.058648	0.017170
705.259365	0.017339
705.460063	0.017399
705.660743	0.017325
705.861405	0.017431
706.062048	0.017584
706.262674	0.017656
706.463281	0.017725
706.663870	0.017890
706.864441	0.017997
707.064993	0.017890
707.265527	0.017874
707.466043	0.018102
707.666541	0.018055
707.867021	0.018021
708.067482	0.017935
708.267925	0.018016
708.468350	0.018124
708.668757	0.018043
708.869145	0.018170
709.069516	0.018210
709.269868	0.018218
709.470201	0.018195
709.670517	0.018258
709.870814	0.018272
710.071093	0.018398
710.271354	0.018222
710.471597	0.018515
710.671821	0.018466
710.872028	0.018442
711.072216	0.018156
711.272385	0.018235
711.472537	0.018105
711.672670	0.018090
711.872785	0.017950
712.072882	0.017960
712.272961	0.017607
712.473021	0.017633
712.673063	0.017488
712.873087	0.017475
713.073093	0.017367
713.273081	0.017131
713.473050	0.017007
713.673001	0.016865
713.872934	0.016630
714.072849	0.016549
714.272745	0.016343
714.472623	0.016335
714.672483	0.016245
714.872325	0.016162
715.072148	0.016137
715.271954	0.016100
715.471741	0.016093
715.671509	0.016173
715.871260	0.016254
716.070992	0.016286
716.270707	0.016250
716.470403	0.016324
716.670080	0.016475
716.869740	0.016574
717.069381	0.016605
717.269004	0.016451
717.468609	0.016469
717.668195	0.016204
717.867764	0.016235
718.067314	0.016145
718.266846	0.016010
718.466360	0.015955
718.665855	0.015809
718.865332	0.015756
719.064791	0.015809
719.264232	0.015839
719.463655	0.016073
719.663059	0.015927
719.862445	0.015869
720.061813	0.015942
720.261163	0.015841
720.460494	0.015855
720.659807	0.015688
720.859102	0.015673
721.058379	0.015503
721.257638	0.015241
721.456878	0.015380
721.656100	0.015430
721.855304	0.015405
722.054490	0.015340
722.253657	0.015386
722.452806	0.015636
722.651937	0.015688
722.851050	0.015761
723.050145	0.015931
723.249221	0.015748
723.448279	0.015706
723.647319	0.015642
723.846340	0.015720
724.045344	0.015714
724.244329	0.015563
724.443296	0.015598
724.642245	0.015541
724.841175	0.015548
725.040088	0.015560
725.238982	0.015582
725.437857	0.015674
725.636715	0.015371
725.835554	0.015258
726.034376	0.015197
726.233179	0.015251
726.431963	0.015325
726.630730	0.015114
726.829478	0.014990
727.028208	0.014929
727.226920	0.014795
727.425614	0.014951
727.624289	0.014800
727.822946	0.014594
728.021585	0.014207
728.220206	0.013975
728.418808	0.013860
728.617392	0.013875
728.815958	0.013731
729.014506	0.013635
729.213036	0.013550
729.411547	0.013738
729.610040	0.013830
729.808515	0.014094
730.006972	0.014304
730.205410	0.014568
730.403831	0.014563
730.602233	0.014534
730.800616	0.014651
730.998982	0.014621
731.197329	0.014415
731.395658	0.014543
731.593969	0.014444
731.792262	0.014163
731.990536	0.013943
732.188793	0.013949
732.387031	0.013959
732.585250	0.013797
732.783452	0.013781
732.981635	0.013879
733.179800	0.013787
733.377947	0.013677
733.576076	0.013721
733.774186	0.013867
733.972278	0.013799
734.170352	0.013913
734.368408	0.013998
734.566446	0.014004
734.764465	0.014035
734.962466	0.013861
735.160449	0.013840
735.358413	0.013896
735.556360	0.013800
735.754288	0.013853
735.952198	0.013848
736.150090	0.013933
736.347963	0.014114
736.545818	0.014018
736.743655	0.014166
736.941474	0.014131
737.139275	0.014144
737.337057	0.014202
737.534821	0.014200
737.732567	0.014083
737.930295	0.014129
738.128005	0.014000
738.325696	0.014173
738.523369	0.014397
738.721024	0.014426
738.918660	0.014506
739.116279	0.014512
739.313879	0.014763
739.511461	0.014788
739.709024	0.014662
739.906570	0.014629
740.104097	0.014412
740.301606	0.014252
740.499097	0.014161
740.696569	0.013934
740.894024	0.013917
741.091460	0.013654
741.288878	0.013750
741.486277	0.013656
741.683659	0.013661
741.881022	0.013872
742.078367	0.013660
742.275694	0.013788
742.473002	0.013865
742.670293	0.013737
742.867565	0.013588
743.064819	0.013365
743.262054	0.013344
743.459272	0.013122
743.656471	0.012984
743.853652	0.013117
744.050815	0.012817
744.247959	0.012763
744.445085	0.012719
744.642194	0.012657
744.839283	0.012600
745.036355	0.012639
745.233408	0.012733
745.430444	0.012723
745.627461	0.012653
745.824459	0.012946
746.021440	0.012938
746.218402	0.013084
746.415346	0.013272
746.612272	0.013452
746.809180	0.013437
747.006069	0.013534
747.202940	0.013477
747.399793	0.013466
747.596628	0.013489
747.793444	0.013525
747.990243	0.013526
748.187023	0.013409
748.383784	0.013318
748.580528	0.013153
748.777253	0.012966
748.973960	0.013031
749.170649	0.013050
749.367320	0.012824
749.563973	0.013048
749.760607	0.012806
749.957223	0.012951
750.153821	0.013029
750.350400	0.013179
750.546962	0.013099
750.743505	0.013012
750.940030	0.012962
751.136536	0.013011
751.333025	0.012857
751.529495	0.012917
751.725947	0.012709
751.922381	0.012524
752.118796	0.012491
752.315194	0.012719
752.511573	0.012617
752.707934	0.012843
752.904276	0.012947
753.100601	0.013047
753.296907	0.013074
753.493195	0.013232
753.689465	0.013409
753.885716	0.013347
754.081949	0.013312
754.278164	0.013383
754.474361	0.013116
754.670540	0.013062
754.866700	0.012903
755.062843	0.012698
755.258967	0.012528
755.455072	0.012247
755.651160	0.012195
755.847229	0.012047
756.043280	0.011908
756.239313	0.011943
756.435328	0.011939
756.631324	0.011826
756.827302	0.011967
757.023262	0.011912
757.219204	0.012120
757.415127	0.011948
757.611033	0.011910
757.806920	0.011908
758.002788	0.011976
758.198639	0.011901
758.394471	0.011943
758.590286	0.011924
758.786081	0.011912
758.981859	0.011877
759.177619	0.011904
759.373360	0.012008
759.569083	0.012039
759.764788	0.012129
759.960474	0.012132
760.156143	0.012332
760.351793	0.012424
760.547425	0.012618
760.743038	0.012635
760.938634	0.012916
761.134211	0.013070
761.329770	0.013242
761.525311	0.013022
761.720833	0.012981
761.916338	0.012758
762.111824	0.012869
762.307292	0.012783
762.502741	0.012844
762.698173	0.012777
762.893586	0.012668
763.088981	0.012612
763.284358	0.012807
763.479716	0.013041
763.675057	0.013061
763.870379	0.013048
764.065683	0.013196
764.260968	0.013296
764.456236	0.013415
764.651485	0.013292
764.846716	0.013227
765.041929	0.013139
765.237123	0.012932
765.432299	0.013054
765.627457	0.012996
765.822597	0.013002
766.017719	0.013085
766.212822	0.013099
766.407907	0.013295
766.602974	0.013648
766.798023	0.013772
766.993054	0.013890
767.188066	0.013807
767.383060	0.013883
767.578036	0.013942
767.772993	0.013846
767.967933	0.013848
768.162854	0.014010
768.357757	0.013876
768.552642	0.013927
768.747508	0.014098
768.942356	0.014279
769.137186	0.014293
769.331998	0.014284
769.526792	0.014466
769.721567	0.014457
769.916324	0.014290
770.111063	0.014354
770.305784	0.014204
770.500486	0.014074
770.695171	0.013978
770.889837	0.013967
771.084484	0.013972
771.279114	0.013956
771.473725	0.013965
771.668318	0.014120
771.862893	0.013984
772.057450	0.014095
772.251988	0.014175
772.446509	0.014267
772.641011	0.014331
772.835494	0.014271
773.029960	0.014275
773.224407	0.014399
773.418836	0.014265
773.613247	0.014259
773.807640	0.014296
774.002014	0.014222
774.196370	0.014287
774.390708	0.014222
774.585028	0.014180
774.779330	0.013823
774.973613	0.013748
775.167878	0.013703
775.362125	0.013566
775.556354	0.013254
775.750564	0.013191
775.944756	0.012849
776.138930	0.012701
776.333086	0.012511
776.527223	0.012588
776.721343	0.012316
776.915444	0.012117
777.109526	0.012158
777.303591	0.012214
777.497637	0.012290
777.691666	0.012370
777.885676	0.012324
778.079667	0.012512
778.273641	0.012485
778.467596	0.012432
778.661533	0.012504
778.855452	0.012521
779.049352	0.012567
779.243235	0.012427
779.437099	0.012414
779.630945	0.012520
779.824773	0.012451
780.018582	0.012542
780.212373	0.012838
780.406146	0.013001
780.599901	0.013092
780.793638	0.013115
780.987356	0.013191
781.181056	0.013176
781.374738	0.013252
781.568402	0.013298
781.762047	0.013405
781.955674	0.013355
782.149283	0.013213
782.342874	0.013205
782.536447	0.013419
782.730001	0.013425
782.923537	0.013523
783.117055	0.013391
783.310555	0.013515
783.504036	0.013541
783.697499	0.013472
783.890944	0.013573
784.084371	0.013588
784.277780	0.013434
784.471170	0.013498
784.664542	0.013642
784.857896	0.013824
785.051231	0.013745
785.244549	0.013783
785.437848	0.013869
785.631129	0.013945
785.824392	0.013836
786.017636	0.014123
786.210863	0.014077
786.404071	0.014185
786.597260	0.014286
786.790432	0.014480
786.983585	0.014309
787.176721	0.014389
787.369838	0.014656
787.562936	0.014929
787.756017	0.014766
787.949079	0.014947
788.142123	0.014943
788.335149	0.014837
788.528156	0.014767
788.721146	0.014992
788.914117	0.015005
789.107070	0.014749
789.300005	0.014663
789.492921	0.014886
789.685819	0.014861
789.878699	0.014764
790.071561	0.014733
790.264405	0.014519
790.457230	0.014391
790.650037	0.014436
790.842826	0.014519
791.035597	0.014470
791.228349	0.014414
791.421084	0.014332
791.613800	0.014381
791.806497	0.014648
791.999177	0.014960
792.191838	0.015112
792.384481	0.015106
792.577106	0.014962
792.769713	0.015129
792.962301	0.015112
793.154871	0.015262
793.347423	0.015488
793.539957	0.015519
793.732473	0.015440
793.924970	0.015405
794.117449	0.015334
794.309910	0.015500
794.502353	0.015589
794.694777	0.015450
794.887183	0.015410
795.079571	0.015171
795.271941	0.014979
795.464293	0.015043
795.656626	0.015157
795.848941	0.015332
796.041238	0.015496
796.233516	0.015448
796.425777	0.015530
796.618019	0.015626
796.810243	0.015763
797.002449	0.015916
797.194636	0.015967
797.386805	0.016023
797.578956	0.016044
797.771089	0.016198
797.963204	0.016202
798.155300	0.016288
798.347378	0.016436
798.539438	0.016377
798.731480	0.016408
798.923503	0.016495
799.115509	0.016372
799.307496	0.016358
799.499465	0.016296
799.691415	0.016398
799.883348	0.016452
800.075262	0.016482
800.267158	0.016593
800.459035	0.016810
800.650895	0.016825
800.842736	0.016740
801.034559	0.016848
801.226364	0.016858
801.418150	0.016932
801.609919	0.016903
801.801669	0.016795
801.993401	0.016666
802.185114	0.016403
802.376810	0.016300
802.568487	0.016412
802.760146	0.016327
802.951787	0.016256
803.143409	0.016146
803.335014	0.016022
803.526600	0.015966
803.718168	0.016057
803.909717	0.016030
804.101249	0.016038
804.292762	0.015854
804.484257	0.015665
804.675734	0.015549
804.867192	0.015379
805.058632	0.015351
805.250054	0.015066
805.441458	0.015085
805.632844	0.014998
805.824211	0.014863
806.015561	0.015051
806.206891	0.015119
806.398204	0.015164
806.589499	0.015404
806.780775	0.015691
806.972033	0.016030
807.163273	0.016196
807.354495	0.016480
807.545698	0.016647
807.736883	0.016848
807.928050	0.016985
808.119199	0.017060
808.310329	0.017340
808.501441	0.017258
808.692535	0.017478
808.883611	0.017407
809.074669	0.017578
809.265708	0.017674
809.456729	0.017872
809.647732	0.018110
809.838717	0.018311
810.029683	0.018195
810.220632	0.018403
810.411562	0.018366
810.602474	0.018598
810.793367	0.018553
810.984242	0.018701
811.175100	0.018606
811.365938	0.018656
811.556759	0.018840
811.747562	0.018895
811.938346	0.018846
812.129112	0.018870
812.319860	0.018720
812.510589	0.018741
812.701300	0.018868
812.891994	0.018951
813.082668	0.019103
813.273325	0.019006
813.463964	0.019018
813.654584	0.019098
813.845186	0.019031
814.035769	0.019278
814.226335	0.019424
814.416882	0.019399
814.607411	0.019368
814.797922	0.019227
814.988415	0.019316
815.178889	0.019411
815.369345	0.019377
815.559783	0.019431
815.750203	0.019312
815.940605	0.019126
816.130988	0.018858
816.321353	0.018902
816.511700	0.019006
816.702028	0.019050
816.892339	0.019026
817.082631	0.019005
817.272905	0.019133
817.463161	0.019106
817.653398	0.019119
817.843617	0.019499
818.033819	0.019505
818.224001	0.019477
818.414166	0.019499
818.604312	0.019500
818.794440	0.019653
818.984550	0.019779
819.174642	0.019963
819.364716	0.019969
819.554771	0.019810
819.744808	0.019916
819.934827	0.020229
820.124827	0.020352
820.314810	0.020467
820.504774	0.020574
820.694720	0.020442
820.884647	0.020247
821.074557	0.020296
821.264448	0.020545
821.454321	0.020582
821.644176	0.020383
821.834012	0.020166
822.023831	0.020116
822.213631	0.020118
822.403413	0.020476
822.593176	0.020591
822.782922	0.020782
822.972649	0.020598
823.162358	0.020517
823.352049	0.020508
823.541721	0.020545
823.731376	0.020591
823.921012	0.020678
824.110629	0.020502
824.300229	0.020767
824.489811	0.020834
824.679374	0.021186
824.868919	0.021109
825.058445	0.021134
825.247954	0.021276
825.437444	0.021249
825.626916	0.021140
825.816370	0.021078
826.005806	0.021178
826.195223	0.021220
826.384622	0.021294
826.574003	0.021426
826.763366	0.021273
826.952711	0.021228
827.142037	0.021244
827.331345	0.021557
827.520635	0.021621
827.709906	0.021390
827.899160	0.021407
828.088395	0.021129
828.277612	0.021588
828.466810	0.021922
828.655991	0.022037
828.845153	0.022141
829.034297	0.022028
829.223423	0.022179
829.412531	0.022357
829.601620	0.022283
829.790691	0.022386
829.979744	0.021993
830.168779	0.021810
830.357795	0.021786
830.546793	0.021773
830.735773	0.021585
830.924735	0.021515
831.113679	0.021465
831.302604	0.021428
831.491511	0.021539
831.680400	0.021652
831.869271	0.021617
832.058123	0.021887
832.246957	0.021889
832.435773	0.022131
832.624571	0.022075
832.813351	0.021838
833.002112	0.021914
833.190855	0.021851
833.379580	0.021920
833.568287	0.022360
833.756975	0.022433
833.945645	0.022614
834.134297	0.022559
834.322931	0.022782
834.511547	0.023188
834.700144	0.023333
834.888723	0.023538
835.077284	0.023392
835.265826	0.023128
835.454351	0.023054
835.642857	0.022872
835.831345	0.022931
836.019815	0.022824
836.208266	0.022778
836.396699	0.022703
836.585114	0.022552
836.773511	0.022667
836.961890	0.022532
837.150250	0.022412
837.338592	0.022658
837.526916	0.022653
837.715222	0.022871
837.903510	0.022990
838.091779	0.023390
838.280030	0.023648
838.468263	0.023881
838.656477	0.024144
838.844674	0.024336
839.032852	0.024669
839.221012	0.024901
839.409153	0.024859
839.597277	0.025050
839.785382	0.024867
839.973469	0.024600
840.161538	0.024624
840.349589	0.024830
840.537621	0.025009
840.725635	0.024758
840.913631	0.024948
841.101609	0.025147
841.289568	0.025192
841.477509	0.025393
841.665432	0.025784
841.853337	0.025736
842.041224	0.025787
842.229092	0.025789
842.416942	0.025935
842.604774	0.025892
842.792588	0.026017
842.980383	0.025935
843.168160	0.025929
843.355919	0.025829
843.543660	0.026044
843.731382	0.026107
843.919087	0.026002
844.106773	0.026166
844.294441	0.026372
844.482090	0.026266
844.669722	0.026472
844.857335	0.026620
845.044930	0.027039
845.232507	0.027018
845.420065	0.027220
845.607605	0.027493
845.795127	0.027498
845.982631	0.027512
846.170117	0.027678
846.357584	0.027637
846.545033	0.027692
846.732464	0.027760
846.919877	0.028216
847.107272	0.028158
847.294648	0.028358
847.482006	0.028671
847.669346	0.028686
847.856667	0.028990
848.043971	0.029192
848.231256	0.029224
848.418523	0.028834
848.605771	0.028526
848.793002	0.028719
848.980214	0.028623
849.167408	0.028393
849.354584	0.028351
849.541742	0.028208
849.728881	0.027892
849.916002	0.027778
850.103105	0.028009
850.290190	0.028198
850.477256	0.028198
850.664304	0.028167
850.851334	0.028318
851.038346	0.028463
851.225340	0.028427
851.412315	0.028744
851.599272	0.029079
851.786211	0.029293
851.973132	0.029546
852.160034	0.029525
852.346918	0.029833
852.533784	0.029906
852.720632	0.030146
852.907462	0.030385
853.094273	0.030608
853.281066	0.030426
853.467841	0.030575
853.654598	0.030439
853.841336	0.030633
854.028056	0.030640
854.214758	0.030895
854.401442	0.030894
854.588107	0.031096
854.774755	0.031093
854.961384	0.031406
855.147995	0.031327
855.334587	0.031584
855.521162	0.032086
855.707718	0.032074
855.894256	0.032197
856.080775	0.032240
856.267277	0.032209
856.453760	0.032285
856.640225	0.032394
856.826672	0.032819
857.013101	0.032767
857.199511	0.032450
857.385903	0.032495
857.572277	0.032180
857.758633	0.032379
857.944970	0.032421
858.131290	0.032790
858.317591	0.032824
858.503873	0.032467
858.690138	0.032602
858.876384	0.032738
859.062612	0.032883
859.248822	0.033184
859.435014	0.033077
859.621188	0.033239
859.807343	0.033155
859.993480	0.033197
860.179599	0.033490
860.365699	0.033686
860.551781	0.033846
860.737846	0.033854
860.923891	0.033826
861.109919	0.033876
861.295929	0.033989
861.481920	0.034146
861.667893	0.034482
861.853848	0.034571
862.039784	0.034635
862.225702	0.034795
862.411603	0.034848
862.597484	0.035091
862.783348	0.035289
862.969193	0.035519
863.155021	0.035365
863.340830	0.035290
863.526620	0.035335
863.712393	0.035207
863.898147	0.034942
864.083883	0.035047
864.269601	0.035074
864.455301	0.035010
864.640982	0.035178
864.826645	0.035242
865.012290	0.035349
865.197917	0.035376
865.383526	0.035444
865.569116	0.035862
865.754688	0.035783
865.940242	0.035741
866.125777	0.035913
866.311295	0.035535
866.496794	0.036043
866.682275	0.035887
866.867737	0.036126
867.053182	0.036204
867.238608	0.035841
867.424016	0.036121
867.609406	0.036306
867.794778	0.036602
867.980131	0.036887
868.165466	0.036420
868.350783	0.036944
868.536082	0.037108
868.721362	0.037170
868.906625	0.037395
869.091869	0.037173
869.277094	0.037325
869.462302	0.037380
869.647491	0.037400
869.832662	0.038042
870.017815	0.038024
870.202950	0.038016
870.388066	0.038402
870.573165	0.038744
870.758245	0.039000
870.943306	0.039105
871.128350	0.039143
871.313375	0.039249
871.498382	0.038986
871.683371	0.038848
871.868342	0.038662
872.053294	0.038611
872.238229	0.038348
872.423144	0.038316
872.608042	0.038422
872.792922	0.038385
872.977783	0.038380
873.162626	0.038415
873.347451	0.038284
873.532258	0.038291
873.717046	0.038114
873.901816	0.038226
874.086568	0.038340
874.271302	0.038119
874.456017	0.037960
874.640715	0.038065
874.825394	0.038007
875.010055	0.038189
875.194697	0.038176
875.379322	0.038217
875.563928	0.038000
875.748516	0.038061
875.933085	0.038323
876.117637	0.038447
876.302170	0.038438
876.486685	0.038390
876.671182	0.038187
876.855661	0.038460
877.040121	0.038529
877.224563	0.038923
877.408987	0.038872
877.593393	0.038566
877.777780	0.038420
877.962150	0.038193
878.146501	0.038213
878.330833	0.038324
878.515148	0.038115
878.699444	0.038140
878.883722	0.037804
879.067982	0.037822
879.252224	0.037864
879.436447	0.038059
879.620653	0.038407
879.804840	0.038328
879.989008	0.038228
880.173159	0.038751
880.357291	0.038718
880.541405	0.038979
880.725501	0.039482
880.909579	0.039468
881.093638	0.039578
881.277680	0.039392
881.461703	0.039887
881.645707	0.040604
881.829694	0.040403
882.013662	0.040658
882.197612	0.040704
882.381544	0.040572
882.565458	0.040879
882.749353	0.041018
882.933230	0.041216
883.117089	0.040942
883.300930	0.040575
883.484753	0.040591
883.668557	0.040561
883.852343	0.040531
884.036111	0.040608
884.219861	0.040346
884.403592	0.040473
884.587305	0.040339
884.771000	0.040553
884.954677	0.040531
885.138335	0.040536
885.321976	0.040313
885.505598	0.040394
885.689201	0.040390
885.872787	0.040554
886.056354	0.040480
886.239904	0.040447
886.423434	0.040281
886.606947	0.040497
886.790442	0.040645
886.973918	0.040893
887.157376	0.040923
887.340816	0.040928
887.524237	0.041020
887.707641	0.041003
887.891026	0.040958
888.074393	0.040765
888.257741	0.040655
888.441072	0.040490
888.624384	0.040378
888.807678	0.040605
888.990954	0.040442
889.174211	0.040782
889.357451	0.040558
889.540672	0.040802
889.723875	0.040960
889.907059	0.041101
890.090226	0.041274
890.273374	0.041057
890.456504	0.041150
890.639616	0.041166
890.822709	0.040726
891.005785	0.040748
891.188842	0.040880
891.371881	0.041002
891.554901	0.040825
891.737904	0.040702
891.920888	0.040927
892.103854	0.040652
892.286802	0.040795
892.469731	0.040993
892.652643	0.041195
892.835536	0.040861
893.018410	0.040909
893.201267	0.040905
893.384106	0.040818
893.566926	0.040943
893.749728	0.040654
893.932511	0.040768
894.115277	0.040596
894.298024	0.040161
894.480753	0.040176
894.663464	0.040184
894.846157	0.039763
895.028831	0.039708
895.211487	0.039530
895.394125	0.039750
895.576745	0.039425
895.759346	0.039462
895.941930	0.039736
896.124495	0.039965
896.307041	0.039993
896.489570	0.040278
896.672080	0.040169
896.854573	0.040420
897.037046	0.040242
897.219502	0.040461
897.401940	0.040419
897.584359	0.040279
897.766760	0.040405
897.949143	0.040340
898.131507	0.040672
898.313854	0.040784
898.496182	0.040450
898.678492	0.040572
898.860783	0.040517
899.043057	0.040480
899.225312	0.040449
899.407549	0.040084
899.589768	0.040123
899.771968	0.039827
899.954151	0.039461
900.136315	0.039471
900.318461	0.039519
900.500588	0.039226
900.682698	0.039019
900.864789	0.039074
901.046862	0.038911
901.228917	0.038827
901.410953	0.038726
901.592971	0.038837
901.774972	0.038866
901.956953	0.038640
902.138917	0.038569
902.320862	0.038600
902.502790	0.038419
902.684699	0.038390
902.866589	0.038304
903.048462	0.038291
903.230316	0.037905
903.412152	0.037799
903.593970	0.037622
903.775770	0.037736
903.957551	0.037736
904.139314	0.037927
904.321059	0.037888
904.502786	0.037730
904.684494	0.037486
904.866185	0.037966
905.047857	0.037801
905.229510	0.038205
905.411146	0.037844
905.592763	0.037842
905.774363	0.037300
905.955943	0.037160
906.137506	0.036946
906.319051	0.037253
906.500577	0.036894
906.682085	0.037024
906.863575	0.036629
907.045046	0.036922
907.226500	0.036353
907.407935	0.036623
907.589352	0.036695
907.770750	0.036659
907.952131	0.036564
908.133493	0.036726
908.314837	0.036969
908.496163	0.037040
908.677470	0.036568
908.858760	0.036860
909.040031	0.036827
909.221284	0.036602
909.402518	0.036561
909.583735	0.036335
909.764933	0.036099
909.946113	0.035586
910.127275	0.035106
910.308418	0.035028
910.489544	0.034766
910.670651	0.034463
910.851740	0.034502
911.032810	0.034331
911.213863	0.034143
911.394897	0.034130
911.575913	0.034021
911.756911	0.034264
911.937890	0.034354
912.118851	0.034336
912.299794	0.034459
912.480719	0.034291
912.661626	0.034099
912.842514	0.033678
913.023384	0.033269
913.204236	0.033334
913.385070	0.033035
913.565886	0.032910
913.746683	0.033115
913.927462	0.032839
914.108223	0.032683
914.288965	0.032966
914.469690	0.032716
914.650396	0.032638
914.831084	0.032034
915.011754	0.032060
915.192405	0.031866
915.373038	0.031578
915.553653	0.031693
915.734250	0.031752
915.914829	0.031366
916.095389	0.031669
916.275931	0.031757
916.456455	0.032086
916.636961	0.032154
916.817448	0.032254
916.997917	0.031990
917.178368	0.032023
917.358801	0.032075
917.539216	0.032004
917.719612	0.032175
917.899990	0.031939
918.080350	0.031417
918.260692	0.031173
918.441015	0.030394
918.621320	0.030424
918.801607	0.030147
918.981876	0.029433
919.162127	0.028945
919.342359	0.028240
919.522573	0.027865
919.702769	0.027759
919.882947	0.027225
920.063106	0.027602
920.243247	0.027672
920.423370	0.027081
920.603475	0.027353
920.783562	0.027392
920.963630	0.027530
921.143680	0.027534
921.323712	0.027271
921.503725	0.027052
921.683721	0.026967
921.863698	0.026697
922.043657	0.026376
922.223598	0.025839
922.403520	0.025323
922.583424	0.025273
922.763311	0.025276
922.943178	0.025553
923.123028	0.025702
923.302859	0.025456
923.482673	0.024761
923.662467	0.025038
923.842244	0.025110
924.022003	0.025070
924.201743	0.024330
924.381465	0.023768
924.561169	0.022963
924.740854	0.022962
924.920522	0.022626
925.100171	0.022394
925.279802	0.022344
925.459414	0.022085
925.639009	0.021957
925.818585	0.022074
925.998143	0.022317
926.177683	0.022504
926.357205	0.022273
926.536708	0.022033
926.716193	0.022016
926.895660	0.021275
927.075109	0.020641
927.254539	0.020940
927.433951	0.020369
927.613345	0.019710
927.792721	0.019371
927.972079	0.019018
928.151418	0.018551
928.330739	0.018314
928.510042	0.018056
928.689327	0.018590
928.868593	0.018292
929.047841	0.018407
929.227071	0.018524
929.406283	0.018429
929.585476	0.018347
929.764652	0.018075
929.943809	0.017984
930.122948	0.018120
930.302068	0.017186
930.481171	0.016013
930.660255	0.016099
930.839321	0.015511
931.018369	0.014918
931.197398	0.014077
931.376409	0.014213
931.555402	0.013553
931.734377	0.013238
931.913334	0.013018
932.092272	0.013097
932.271192	0.012777
932.450094	0.012441
932.628978	0.011870
932.807844	0.012367
932.986691	0.011410
933.165520	0.011398
933.344331	0.010332
933.523123	0.009896
933.701898	0.009820
933.880654	0.009052
934.059392	0.008787
934.238111	0.009004
934.416813	0.007648
934.595496	0.007651
934.774161	0.007425
934.952808	0.007643
935.131437	0.007685
935.310047	0.007272
935.488639	0.007387
935.667213	0.007429
935.845769	0.007513
936.024306	0.008250
936.202825	0.008105
936.381326	0.008007
936.559809	0.007923
936.738274	0.007343
936.916720	0.006829
937.095148	0.006162
937.273558	0.006145
937.451950	0.005181
937.630323	0.003841
937.808678	0.003776
937.987015	0.003490
938.165334	0.003118
938.343635	0.003083
938.521917	0.003152
938.700181	0.003821
938.878427	0.002995
939.056655	0.003213
939.234864	0.003664
939.413055	0.003736
939.591228	0.003488
939.769383	0.003083
939.947519	0.002428
940.125638	0.002410
940.303738	0.001464
940.481820	0.001551
940.659883	0.000544
940.837929	0.000267
941.015956	-0.000629
941.193965	-0.000302
941.371955	-0.000678
941.549928	-0.000675
941.727882	-0.000595
941.905818	-0.001199
942.083736	-0.001090
942.261636	-0.000717
942.439517	-0.001118
942.617380	-0.001771
942.795225	-0.002897
942.973052	-0.002836
943.150860	-0.001918
943.328651	-0.001875
943.506423	-0.001926
943.684176	-0.002990
943.861912	-0.001891
944.039629	-0.001560
944.217328	-0.001221
944.395009	-0.001514
944.572672	-0.001784
944.750317	-0.003025
944.927943	-0.003976
945.105551	-0.004796
945.283141	-0.004261
945.460712	-0.005527
945.638265	-0.006122
945.815801	-0.006260
945.993317	-0.006563
946.170816	-0.007023
946.348297	-0.007154
946.525759	-0.008008
946.703203	-0.007933
946.880629	-0.008151
947.058036	-0.008520
947.235425	-0.010284
947.412797	-0.010189
947.590149	-0.010202
947.767484	-0.010102
947.944800	-0.010470
948.122099	-0.009537
948.299379	-0.008916
948.476640	-0.009161
948.653884	-0.008846
948.831109	-0.008276
949.008316	-0.008312
949.185505	-0.008814
949.362676	-0.008078
949.539828	-0.007702
949.716962	-0.009449
949.894078	-0.010358
950.071176	-0.010523
950.248256	-0.011200
950.425317	-0.011049
950.602360	-0.011585
950.779385	-0.010916
950.956391	-0.011148
951.133380	-0.010977
951.310350	-0.009514
951.487302	-0.009021
951.664235	-0.008455
951.841151	-0.007480
952.018048	-0.007043
952.194927	-0.006583
952.371788	-0.007754
952.548631	-0.008374
952.725455	-0.008888
952.902261	-0.009822
953.079049	-0.009598
953.255819	-0.009974
953.432570	-0.011324
953.609303	-0.012470
953.786018	-0.012949
953.962715	-0.009742
954.139394	-0.009102
954.316054	-0.008929
954.492696	-0.008400
954.669320	-0.008753
954.845926	-0.009005
955.022513	-0.008347
955.199083	-0.006993
955.375634	-0.005142
955.552166	-0.007003
955.728681	-0.007964
955.905177	-0.007908
956.081655	-0.008397
956.258115	-0.009527
956.434557	-0.010648
956.610980	-0.010790
956.787385	-0.011811
956.963772	-0.013421
957.140141	-0.013048
957.316492	-0.012251
957.492824	-0.011356
957.669138	-0.011254
957.845434	-0.010927
958.021712	-0.007964
958.197971	-0.008143
958.374212	-0.008318
958.550435	-0.009045
958.726640	-0.009099
958.902826	-0.009378
959.078995	-0.010914
959.255145	-0.010372
959.431277	-0.009769
959.607390	-0.010587
959.783486	-0.009601
959.959563	-0.008460
960.135622	-0.006894
960.311662	-0.006594
960.487685	-0.007310
960.663689	-0.006840
960.839675	-0.008032
961.015643	-0.007004
961.191593	-0.006567
961.367524	-0.007114
961.543437	-0.005779
961.719332	-0.006790
961.895209	-0.007644
962.071067	-0.005113
962.246907	-0.003428
962.422730	-0.001690
962.598533	-0.000045
962.774319	0.000012
962.950086	-0.000102
963.125835	-0.001961
963.301566	0.000077
963.477279	0.001108
963.652973	0.000536
963.828650	-0.000814
964.004308	-0.000815
964.179947	-0.001766
964.355569	-0.003709
964.531172	-0.001615
964.706757	0.001176
964.882324	0.000687
965.057873	0.000192
965.233403	0.000452
965.408916	0.000493
965.584410	0.000022
965.759885	-0.001468
965.935343	0.000969
966.110782	0.000407
966.286203	0.000462
966.461606	0.000680
966.636991	0.001847
966.812357	0.001219
966.987705	0.003419
967.163035	0.003442
967.338347	0.005706
967.513641	0.004502
967.688916	0.004162
967.864173	0.004376
968.039412	0.004210
968.214632	0.003853
968.389835	0.002318
968.565019	0.002271
968.740185	0.002070
968.915333	0.001291
969.090462	0.000797
969.265573	0.000572
969.440667	-0.000029
969.615741	0.001691
969.790798	0.001082
969.965836	0.002772
970.140856	0.002911
970.315858	0.003006
970.490842	0.004485
970.665808	0.007255
970.840755	0.008124
971.015684	0.009810
971.190595	0.009650
971.365487	0.009892
971.540362	0.010206
971.715218	0.009367
971.890056	0.010296
972.064875	0.010507
972.239677	0.009392
972.414460	0.009833
972.589225	0.007026
972.763972	0.004648
972.938700	0.004083
973.113411	0.004080
973.288103	0.004179
973.462777	0.004454
973.637432	0.003981
973.812070	0.004054
973.986689	0.003495
974.161290	0.004591
974.335873	0.006525
974.510437	0.007604
974.684984	0.007624
974.859512	0.006709
975.034022	0.007662
975.208513	0.006635
975.382987	0.006025
975.557442	0.005180
975.731879	0.004975
975.906298	0.004180
976.080698	0.004640
976.255080	0.004427
976.429445	0.004604
976.603790	0.004252
976.778118	0.003572
976.952427	0.004115
977.126719	0.004275
977.300992	0.004081
977.475246	0.001220
977.649483	0.001047
977.823701	0.001559
977.997901	0.001612
978.172083	0.001632
978.346247	0.003113
978.520392	0.001927
978.694519	0.000922
978.868628	0.000422
979.042719	0.002670
979.216791	0.001141
979.390845	0.001175
979.564882	0.000584
979.738899	0.000432
979.912899	-0.001241
980.086880	-0.001670
980.260843	-0.001041
980.434788	-0.000661
980.608715	-0.001165
980.782623	0.001303
980.956514	0.002517
981.130386	0.003243
981.304240	0.002739
981.478075	0.004911
981.651892	0.005878
981.825692	0.006069
981.999472	0.005618
982.173235	0.004733
982.346980	0.003891
982.520706	0.002407
982.694414	0.003469
982.868104	0.004509
983.041775	0.001317
983.215428	0.000888
983.389064	0.002372
983.562680	0.004139
983.736279	0.005355
983.909860	0.007288
984.083422	0.006765
984.256966	0.006782
984.430491	0.006350
984.603999	0.006998
984.777488	0.007481
984.950959	0.006191
985.124412	0.006270
985.297847	0.006645
985.471263	0.003122
985.644661	0.003789
985.818041	0.003281
985.991403	0.002741
986.164747	0.002137
986.338072	0.000099
986.511379	-0.000952
986.684668	-0.002278
986.857938	-0.001738
987.031191	-0.000932
987.204425	-0.002267
987.377641	-0.001892
987.550839	-0.001317
987.724018	0.000004
987.897179	0.002385
988.070322	0.003841
988.243447	0.004783
988.416554	0.003961
988.589642	0.004116
988.762712	0.004408
988.935764	0.004217
989.108798	0.003459
989.281813	0.004122
989.454811	0.003371
989.627790	0.001479
989.800751	0.001387
989.973693	0.001775
990.146617	0.001128
990.319524	0.002041
990.492412	0.003409
990.665281	0.004147
990.838133	0.004232
991.010966	0.007139
991.183781	0.008414
991.356578	0.006605
991.529356	0.007038
991.702117	0.006546
991.874859	0.005263
992.047583	0.003916
992.220288	0.002673
992.392976	0.001277
992.565645	-0.000808
992.738296	-0.000424
992.910929	0.002263
993.083543	0.001328
993.256139	0.002385
993.428718	0.003811
993.601277	0.003438
993.773819	0.004394
993.946342	0.005859
994.118848	0.004952
994.291335	0.004436
994.463803	0.002343
994.636254	0.002372
994.808686	0.002728
994.981100	0.003205
995.153496	0.001994
995.325874	0.002420
995.498233	0.002957
995.670574	0.004333
995.842897	0.003383
996.015202	0.003347
996.187488	0.003457
996.359757	0.002866
996.532007	0.001608
996.704239	0.003353
996.876452	0.003408
997.048648	0.002424
997.220825	0.001861
997.392984	0.005576
997.565124	0.005031
997.737247	0.003359
997.909351	0.003394
998.081437	0.003280
998.253505	0.003155
998.425554	0.002621
998.597586	0.002235
998.769599	-0.000244
998.941594	-0.003025
999.113571	-0.000385
999.285529	0.001835
999.457469	0.003059
999.629391	0.003133
999.801295	0.002552
999.973181	0.002556
1000.145048	0.002291
1000.316897	0.003711
1000.488728	0.004746
1000.660541	0.001612
1000.832335	0.000993
1001.004111	0.000446
1001.175869	0.001965
1001.347609	0.001631
1001.519331	0.000426
1001.691034	0.001005
1001.862719	0.003404
1002.034386	0.003234
1002.206035	0.005562
1002.377665	0.005946
1002.549277	0.005412
1002.720871	0.005007
1002.892447	0.006156
1003.064004	0.007618
1003.235544	0.007809
1003.407065	0.007162
1003.578568	0.007881
1003.750052	0.007840
1003.921519	0.006221
1004.092967	0.007401
1004.264397	0.006845
1004.435809	0.006388
1004.607202	0.006263
1004.778577	0.005182
1004.949934	0.003306
1005.121273	0.003570
1005.292594	0.002251
1005.463896	0.003173
1005.635180	0.000891
1005.806446	0.001108
1005.977694	0.000510
1006.148923	0.000715
1006.320135	0.000822
1006.491328	0.001551
1006.662503	0.001128
1006.833659	0.001930
1007.004798	0.001269
1007.175918	0.002892
1007.347020	0.001413
1007.518103	0.001003
1007.689169	-0.000568
1007.860216	0.001198
1008.031245	0.001832
1008.202256	0.000519
1008.373248	-0.000962
1008.544223	0.000004
1008.715179	-0.000713
1008.886117	0.001163
1009.057036	0.001243
1009.227938	0.003316
1009.398821	0.002844
1009.569686	0.000889
1009.740533	0.001418
1009.911361	0.002717
1010.082172	0.002526
1010.252964	0.002785
1010.423738	0.001974
1010.594493	0.002012
1010.765231	0.001252
1010.935950	0.000251
1011.106651	0.002776
1011.277334	0.002172
1011.447998	0.002424
1011.618645	0.002130
1011.789273	0.001107
1011.959882	-0.000148
1012.130474	0.000071
1012.301048	-0.000827
1012.471603	0.000144
1012.642140	0.000018
1012.812658	0.000570
1012.983159	-0.001524
1013.153641	-0.001254
1013.324105	-0.000618
1013.494551	0.000713
1013.664979	0.002187
1013.835388	0.001491
1014.005779	0.000373
1014.176152	-0.000280
1014.346507	-0.000888
1014.516843	0.001119
1014.687162	-0.000367
1014.857462	0.000863
1015.027744	0.002404
1015.198007	0.000583
1015.368252	0.001333
1015.538480	0.002560
1015.708689	0.001867
1015.878879	0.004291
1016.049052	0.002770
1016.219206	0.003619
1016.389342	0.002101
1016.559460	0.000715
1016.729559	0.001745
1016.899641	0.002300
1017.069704	0.001832
1017.239749	0.002100
1017.409775	0.000060
1017.579784	0.001692
1017.749774	0.003499
1017.919746	0.004268
1018.089700	0.003681
1018.259635	0.003437
1018.429553	0.003337
1018.599452	0.002559
1018.769333	0.002212
1018.939195	0.002247
1019.109040	0.000741
1019.278866	0.000172
1019.448674	0.000761
1019.618464	0.000056
1019.788235	-0.001488
1019.957989	-0.001682
1020.127724	-0.001804
1020.297441	-0.000208
1020.467139	-0.000339
1020.636820	0.001478
1020.806482	0.001766
1020.976126	0.000938
1021.145752	0.002171
1021.315359	0.003147
1021.484948	0.002756
1021.654519	0.001970
1021.824072	0.000035
1021.993607	0.000334
1022.163123	-0.000873
1022.332621	-0.001632
1022.502101	-0.000956
1022.671563	-0.001187
1022.841007	-0.001573
1023.010432	-0.001960
1023.179839	-0.000698
1023.349228	-0.000362
1023.518598	-0.000478
1023.687951	-0.000129
1023.857285	-0.000521
1024.026601	-0.001063
1024.195899	-0.002300
1024.365178	-0.000781
1024.534439	0.000453
1024.703682	-0.000171
1024.872907	0.000827
1025.042114	0.001086
1025.211302	0.001357
1025.380472	0.001800
1025.549624	0.002816
1025.718758	0.003608
1025.887873	0.001953
1026.056970	0.000682
1026.226049	0.002013
1026.395110	0.001731
1026.564153	0.001698
1026.733177	0.003346
1026.902183	0.002605
1027.071171	0.002585
1027.240141	0.003273
1027.409092	0.003902
1027.578026	0.005817
1027.746940	0.005073
1027.915837	0.004932
1028.084716	0.006659
1028.253576	0.004407
1028.422418	0.005177
1028.591242	0.003493
1028.760048	0.002763
1028.928835	0.001482
1029.097604	-0.000124
1029.266355	-0.000351
1029.435088	-0.001409
1029.603803	-0.003901
1029.772499	-0.002853
1029.941177	-0.002544
1030.109837	-0.001741
1030.278478	-0.002027
1030.447102	0.000030
1030.615707	0.001429
1030.784294	0.003390
1030.952863	0.005817
1031.121413	0.006456
1031.289945	0.005138
1031.458460	0.005412
1031.626955	0.004845
1031.795433	0.003376
1031.963892	0.001765
1032.132334	0.002258
1032.300756	0.000971
1032.469161	-0.002073
1032.637548	-0.003148
1032.805916	-0.002994
1032.974266	-0.003939
1033.142598	-0.003906
1033.310911	-0.002035
1033.479207	-0.002129
1033.647484	-0.004293
1033.815743	-0.004561
1033.983983	-0.002259
1034.152206	-0.000491
1034.320410	0.001605
1034.488596	0.001181
1034.656764	0.000856
1034.824914	0.001279
1034.993045	0.002931
1035.161158	0.004036
1035.329253	0.004141
1035.497330	0.003439
1035.665388	0.001791
1035.833428	-0.000035
1036.001450	0.000409
1036.169454	0.001089
1036.337440	0.000730
1036.505407	0.000523
1036.673356	0.000785
1036.841287	-0.000045
1037.009200	-0.000389
1037.177094	0.000188
1037.344970	-0.000405
1037.512828	-0.000476
1037.680668	-0.002090
1037.848489	-0.003310
1038.016293	-0.004038
1038.184078	-0.005227
1038.351845	-0.003759
1038.519593	-0.003962
1038.687324	-0.003399
1038.855036	-0.002552
1039.022730	-0.003009
1039.190406	-0.000908
1039.358063	0.001593
1039.525702	0.002403
1039.693323	0.003570
1039.860926	0.002075
1040.028511	0.003054
1040.196077	0.003277
1040.363625	0.004862
1040.531155	0.004361
1040.698667	0.003883
1040.866161	0.003984
1041.033636	0.005329
1041.201093	0.005277
1041.368532	0.005520
1041.535952	0.005998
1041.703355	0.005248
1041.870739	0.003400
1042.038105	0.005201
1042.205452	0.004559
1042.372782	0.002960
1042.540093	0.000787
1042.707386	0.000512
1042.874661	0.000782
1043.041918	-0.000480
1043.209156	0.000111
1043.376376	0.000070
1043.543578	-0.002173
1043.710762	-0.001969
1043.877927	-0.002546
1044.045074	-0.003044
1044.212203	-0.003748
1044.379314	-0.004547
1044.546407	-0.004771
1044.713481	-0.004737
1044.880537	-0.004160
1045.047575	-0.002944
1045.214595	-0.002365
1045.381596	-0.001189
1045.548579	-0.002213
1045.715544	-0.001565
1045.882491	-0.000490
1046.049420	-0.000363
1046.216330	-0.001014
1046.383222	-0.001793
1046.550096	-0.001751
1046.716951	-0.000806
1046.883789	-0.001522
1047.050608	0.000258
1047.217409	0.000215
1047.384192	0.000420
1047.550956	0.000805
1047.717703	0.001148
1047.884431	0.002781
1048.051140	0.002375
1048.217832	0.001118
1048.384505	0.001451
1048.551161	0.000174
1048.717798	0.001265
1048.884416	0.000696
1049.051017	0.002259
1049.217599	0.002574
1049.384163	0.001365
1049.550709	0.002062
1049.717237	0.001593
1049.883746	0.000353
1050.050237	0.000776
1050.216710	-0.000599
1050.383165	-0.000945
1050.549601	-0.002457
1050.716019	-0.003207
1050.882420	-0.003204
1051.048801	-0.002944
1051.215165	-0.002903
1051.381510	-0.002557
1051.547837	-0.001928
1051.714146	-0.002720
1051.880437	-0.001934
1052.046709	-0.001127
1052.212964	-0.000932
1052.379200	-0.001978
1052.545417	-0.003278
1052.711617	-0.003740
1052.877798	-0.001225
1053.043961	-0.000336
1053.210106	0.000713
1053.376233	0.001524
1053.542341	-0.000995
1053.708432	-0.000087
1053.874504	0.001509
1054.040557	0.002484
1054.206593	0.002471
1054.372610	0.000807
1054.538609	-0.001421
1054.704590	-0.000952
1054.870553	-0.001774
1055.036497	-0.000868
1055.202424	-0.003079
1055.368331	-0.004584
1055.534221	-0.004932
1055.700093	-0.005441
1055.865946	-0.006450
1056.031781	-0.005694
1056.197598	-0.006769
1056.363397	-0.007507
1056.529177	-0.006100
1056.694939	-0.005705
1056.860683	-0.005703
1057.026409	-0.006338
1057.192116	-0.004225
1057.357806	-0.004901
1057.523477	-0.003022
1057.689130	-0.000967
1057.854764	-0.000554
1058.020381	-0.001472
1058.185979	-0.000516
1058.351559	0.000180
1058.517120	0.003283
1058.682664	0.002588
1058.848189	0.004327
1059.013696	0.002685
1059.179185	0.002463
1059.344656	0.001628
1059.510108	0.002060
1059.675542	0.001053
1059.840958	0.001843
1060.006356	-0.000112
1060.171735	-0.001295
1060.337096	-0.001700
1060.502439	-0.001299
1060.667764	-0.004196
1060.833071	-0.004117
1060.998359	-0.005898
1061.163629	-0.006538
1061.328881	-0.007620
1061.494115	-0.009044
1061.659330	-0.007937
1061.824527	-0.008861
1061.989706	-0.008875
1062.154867	-0.007040
1062.320010	-0.006776
1062.485134	-0.005426
1062.650240	-0.005024
1062.815328	-0.004764
1062.980398	-0.003405
1063.145449	-0.003829
1063.310482	-0.001949
1063.475497	-0.000901
1063.640494	-0.002364
1063.805473	-0.001535
1063.970433	-0.002447
1064.135375	-0.002638
1064.300299	-0.001834
1064.465204	-0.001423
1064.630092	-0.002687
1064.794961	-0.003102
1064.959812	-0.005879
1065.124645	-0.004125
1065.289459	-0.005875
1065.454256	-0.005661
1065.619034	-0.005005
1065.783793	-0.006154
1065.948535	-0.007252
1066.113258	-0.006953
1066.277964	-0.006462
1066.442651	-0.005834
1066.607319	-0.006973
1066.771970	-0.004682
1066.936602	-0.004360
1067.101216	-0.004880
1067.265812	-0.004130
1067.430389	-0.003964
1067.594949	-0.003288
1067.759490	-0.004675
1067.924013	-0.003216
1068.088518	-0.003593
1068.253004	-0.003681
1068.417472	-0.004039
1068.581922	-0.005465
1068.746354	-0.004657
1068.910768	-0.004400
1069.075163	-0.003435
1069.239540	-0.003178
1069.403899	-0.003606
1069.568240	-0.003214
1069.732562	-0.004573
1069.896866	-0.004897
1070.061152	-0.002956
1070.225420	-0.005914
1070.389670	-0.006596
1070.553901	-0.008274
1070.718114	-0.008284
1070.882309	-0.006890
1071.046486	-0.006852
1071.210644	-0.005561
1071.374784	-0.005216
1071.538906	-0.005653
1071.703010	-0.005861
1071.867096	-0.005662
1072.031163	-0.004207
1072.195212	-0.003448
1072.359243	-0.005372
1072.523256	-0.004652
1072.687250	-0.005324
1072.851226	-0.006031
1073.015184	-0.005104
1073.179124	-0.004728
1073.343045	-0.006785
1073.506949	-0.008786
1073.670834	-0.010688
1073.834701	-0.011356
1073.998549	-0.012291
1074.162380	-0.013498
1074.326192	-0.013225
1074.489986	-0.014208
1074.653761	-0.012814
1074.817519	-0.011382
1074.981258	-0.011622
1075.144979	-0.011946
1075.308682	-0.010687
1075.472367	-0.011660
1075.636033	-0.009473
1075.799681	-0.007632
1075.963311	-0.007553
1076.126923	-0.009184
1076.290516	-0.009173
1076.454092	-0.005261
1076.617649	-0.003964
1076.781187	-0.003265
1076.944708	-0.002644
1077.108210	-0.004875
1077.271695	-0.007162
1077.435160	-0.006641
1077.598608	-0.003294
1077.762038	-0.001235
1077.925449	-0.003613
1078.088842	-0.003412
1078.252217	-0.005973
1078.415573	-0.005291
1078.578912	-0.006872
1078.742232	-0.005553
1078.905534	-0.005022
1079.068817	-0.006434
1079.232083	-0.007309
1079.395330	-0.007872
1079.558559	-0.006886
1079.721770	-0.006341
1079.884962	-0.006889
1080.048136	-0.006000
1080.211293	-0.005474
1080.374430	-0.002823
1080.537550	-0.004480
1080.700651	-0.006259
1080.863735	-0.005096
1081.026800	-0.007325
1081.189846	-0.008324
1081.352875	-0.008571
1081.515885	-0.009014
1081.678877	-0.008350
1081.841851	-0.010939
1082.004807	-0.008648
1082.167744	-0.006365
1082.330663	-0.009127
1082.493564	-0.008103
1082.656447	-0.005787
1082.819312	-0.006299
1082.982158	-0.002580
1083.144986	-0.005548
1083.307796	-0.005248
1083.470587	-0.006457
1083.633361	-0.008316
1083.796116	-0.006223
1083.958853	-0.006477
1084.121571	-0.007357
1084.284272	-0.006048
1084.446954	-0.008878
1084.609618	-0.005258
1084.772264	-0.005689
1084.934892	-0.006094
1085.097501	-0.006875
1085.260092	-0.009538
1085.422665	-0.009870
1085.585220	-0.010191
1085.747756	-0.007678
1085.910274	-0.009044
1086.072774	-0.011527
1086.235256	-0.012463
1086.397720	-0.013282
1086.560165	-0.011922
1086.722592	-0.008753
1086.885001	-0.008322
1087.047392	-0.007912
1087.209764	-0.009431
1087.372119	-0.007635
1087.534455	-0.010297
1087.696772	-0.008591
1087.859072	-0.006506
1088.021353	-0.005310
1088.183616	-0.006766
1088.345861	-0.006608
1088.508088	-0.007069
1088.670296	-0.008789
1088.832486	-0.008493
1088.994658	-0.005381
1089.156812	-0.006113
1089.318948	-0.005062
1089.481065	-0.006318
1089.643164	-0.005359
1089.805245	-0.006117
1089.967308	-0.004821
1090.129352	-0.002383
1090.291378	-0.003474
1090.453386	-0.003258
1090.615376	-0.005384
1090.777347	-0.006612
1090.939301	-0.005961
1091.101236	-0.004525
1091.263153	-0.005421
1091.425051	-0.004891
1091.586932	-0.007748
1091.748794	-0.006027
1091.910638	-0.004422
1092.072463	-0.004560
1092.234271	-0.009237
1092.396060	-0.010755
1092.557831	-0.010995
1092.719584	-0.010965
1092.881319	-0.010732
1093.043035	-0.008937
1093.204733	-0.010035
1093.366413	-0.014365
1093.528075	-0.010768
1093.689718	-0.008191
1093.851343	-0.005423
1094.012950	-0.007080
1094.174539	-0.005107
1094.336110	-0.007926
1094.497662	-0.008036
1094.659196	-0.006995
1094.820712	-0.005606
1094.982210	-0.010245
1095.143689	-0.008942
1095.305151	-0.009789
1095.466594	-0.009383
1095.628018	-0.012637
1095.789425	-0.010561
1095.950813	-0.011034
1096.112183	-0.010423
1096.273535	-0.008378
1096.434869	-0.005850
1096.596184	-0.007584
1096.757482	-0.007109
1096.918761	-0.007732
1097.080021	-0.004372
1097.241264	-0.005063
1097.402488	-0.006404
1097.563694	-0.004578
1097.724882	-0.010107
1097.886052	-0.010422
1098.047203	-0.008130
1098.208336	-0.009203
1098.369451	-0.011078
1098.530548	-0.010725
1098.691627	-0.010079
1098.852687	-0.010567
1099.013729	-0.013852
1099.174753	-0.007640
1099.335758	-0.006593
1099.496746	-0.007486
1099.657715	-0.008922
1099.818666	-0.006220
1099.979599	-0.007366
1100.140513	-0.006699
1100.301409	-0.005035
1100.462287	-0.004464
1100.623147	-0.007368
1100.783989	-0.009824
1100.944812	-0.010418
1101.105617	-0.009529
1101.266404	-0.010122
1101.427173	-0.008943
1101.587923	-0.011764
1101.748656	-0.013104
1101.909370	-0.010967
1102.070066	-0.007736
1102.230743	-0.006575
1102.391403	-0.005444
1102.552044	-0.008212
1102.712667	-0.008894
1102.873271	-0.010592
1103.033858	-0.008535
1103.194426	-0.007464
1103.354976	-0.014034
1103.515508	-0.018428
1103.676021	-0.020541
1103.836517	-0.018424
1103.996994	-0.016868
1104.157453	-0.016019
1104.317893	-0.015748
1104.478316	-0.014903
1104.638720	-0.012758
1104.799106	-0.008665
1104.959474	-0.007901
1105.119823	-0.009296
1105.280155	-0.012308
1105.440468	-0.011642
1105.600763	-0.012213
1105.761039	-0.011355
1105.921298	-0.012955
1106.081538	-0.014691
1106.241760	-0.014082
1106.401964	-0.014940
1106.562149	-0.007852
1106.722316	-0.011320
1106.882465	-0.008892
1107.042596	-0.008606
1107.202709	-0.010149
1107.362803	-0.010776
1107.522879	-0.014666
1107.682937	-0.016270
1107.842977	-0.013533
1108.002999	-0.015898
1108.163002	-0.012642
1108.322987	-0.014614
1108.482954	-0.012536
1108.642902	-0.010397
1108.802833	-0.009098
1108.962745	-0.006993
1109.122639	-0.005036
1109.282515	-0.007698
1109.442372	-0.013191
1109.602211	-0.015321
1109.762032	-0.013443
1109.921835	-0.016692
1110.081620	-0.017204
1110.241386	-0.019662
1110.401134	-0.023663
1110.560864	-0.023945
1110.720576	-0.021880
1110.880269	-0.016641
1111.039945	-0.014315
1111.199602	-0.014445
1111.359240	-0.012968
1111.518861	-0.014846
1111.678463	-0.010061
1111.838047	-0.003349
1111.997613	-0.008853
1112.157161	-0.010760
1112.316690	-0.010140
1112.476202	-0.011908
1112.635695	-0.015869
1112.795169	-0.016862
1112.954626	-0.017417
1113.114064	-0.021828
1113.273484	-0.024306
1113.432886	-0.021677
1113.592270	-0.022607
1113.751635	-0.021862
1113.910983	-0.021317
1114.070312	-0.019910
1114.229622	-0.017586
1114.388915	-0.012708
1114.548189	-0.012062
1114.707445	-0.013661
1114.866683	-0.012379
1115.025903	-0.008613
1115.185104	-0.011874
1115.344287	-0.012994
1115.503452	-0.011044
1115.662599	-0.011901
1115.821727	-0.017421
1115.980838	-0.016983
1116.139930	-0.013765
1116.299004	-0.010392
1116.458059	-0.014006
1116.617097	-0.008621
1116.776116	-0.006822
1116.935117	-0.009395
1117.094099	-0.012618
1117.253064	-0.005755
1117.412010	-0.007037
1117.570938	-0.006054
1117.729848	-0.010833
1117.888740	-0.008592
1118.047613	-0.013598
1118.206468	-0.012551
1118.365305	-0.014170
1118.524124	-0.013302
1118.682924	-0.017432
1118.841707	-0.017948
1119.000471	-0.020162
1119.159216	-0.016785
1119.317944	-0.015169
1119.476653	-0.018815
1119.635344	-0.018330
1119.794017	-0.019701
1119.952672	-0.018936
1120.111308	-0.019959
1120.269927	-0.017568
1120.428527	-0.014899
1120.587108	-0.020424
1120.745672	-0.022866
1120.904217	-0.019193
1121.062744	-0.019654
1121.221253	-0.012551
1121.379744	-0.011658
1121.538216	-0.010551
1121.696671	-0.013532
1121.855107	-0.016963
1122.013524	-0.015318
1122.171924	-0.015168
1122.330305	-0.013247
1122.488668	-0.015553
1122.647013	-0.020147
1122.805340	-0.020746
1122.963648	-0.020248
1123.121938	-0.017451
1123.280210	-0.018556
1123.438464	-0.015969
1123.596700	-0.016003
1123.754917	-0.018068
1123.913116	-0.017081
1124.071297	-0.014912
1124.229459	-0.013528
1124.387604	-0.018547
1124.545730	-0.019939
1124.703838	-0.014219
1124.861928	-0.011734
1125.019999	-0.014622
1125.178052	-0.013175
1125.336088	-0.012747
1125.494104	-0.013122
1125.652103	-0.015456
1125.810083	-0.008191
1125.968045	-0.006318
1126.125989	-0.010035
1126.283915	-0.015536
1126.441823	-0.016582
1126.599712	-0.016881
1126.757583	-0.016794
1126.915436	-0.015984
1127.073270	-0.012916
1127.231087	-0.019266
1127.388885	-0.019645
1127.546665	-0.016886
1127.704426	-0.013267
1127.862170	-0.007548
1128.019895	-0.003819
1128.177602	0.003047
1128.335291	-0.000695
1128.492961	-0.005977
1128.650614	-0.005517
1128.808248	-0.007485
1128.965864	-0.008408
1129.123461	-0.010328
1129.281041	-0.012057
1129.438602	-0.019207
1129.596145	-0.027135
1129.753670	-0.029605
1129.911176	-0.029316
1130.068665	-0.028302
1130.226135	-0.024690
1130.383587	-0.021742
1130.541020	-0.018853
1130.698436	-0.019013
1130.855833	-0.011611
1131.013212	-0.002896
1131.170573	0.002275
1131.327915	0.006639
1131.485239	0.009622
1131.642545	0.002135
1131.799833	-0.001804
1131.957103	-0.003716
1132.114354	-0.003996
1132.271588	-0.007891
1132.428803	-0.014783
1132.585999	-0.015499
1132.743178	-0.007697
1132.900338	-0.009298
1133.057480	-0.003540
1133.214604	-0.008927
1133.371710	-0.010202
1133.528797	-0.009123
1133.685866	-0.008602
1133.842917	-0.011759
1133.999950	-0.011951
1134.156964	-0.022907
1134.313960	-0.021555
1134.470938	-0.021792
1134.627898	-0.016387
1134.784840	-0.014569
1134.941763	-0.011374
1135.098668	-0.014889
1135.255555	-0.014353
1135.412424	-0.016377
1135.569274	-0.013877
1135.726107	-0.014216
1135.882921	-0.017000
1136.039716	-0.020828
1136.196494	-0.019316
1136.353253	-0.026023
1136.509995	-0.024545
1136.666717	-0.021850
1136.823422	-0.017492
1136.980109	-0.018166
1137.136777	-0.020899
1137.293427	-0.017675
1137.450059	-0.012175
1137.606672	-0.012662
1137.763267	-0.007695
1137.919844	-0.009009
1138.076403	-0.010935
1138.232944	-0.014872
1138.389466	-0.014044
1138.545971	-0.012390
1138.702457	-0.012744
1138.858924	-0.019087
1139.015374	-0.021957
1139.171805	-0.024314
1139.328218	-0.024048
1139.484613	-0.024491
1139.640990	-0.022025
1139.797348	-0.017222
1139.953688	-0.014756
1140.110010	-0.012617
1140.266314	-0.008230
1140.422600	-0.006246
1140.578867	-0.005609
1140.735116	-0.003303
1140.891347	0.000402
1141.047559	-0.000900
1141.203754	-0.003501
1141.359930	-0.001553
1141.516088	-0.001162
1141.672228	-0.008220
1141.828349	-0.013526
1141.984452	-0.012805
1142.140537	-0.014503
1142.296604	-0.017477
1142.452653	-0.016751
1142.608683	-0.017134
1142.764695	-0.022628
1142.920689	-0.018623
1143.076665	-0.022296
1143.232622	-0.018584
1143.388562	-0.014925
1143.544483	-0.016073
1143.700385	-0.011118
1143.856270	-0.009156
1144.012136	-0.014533
1144.167985	-0.011909
1144.323814	-0.018533
1144.479626	-0.005265
1144.635420	-0.004375
1144.791195	-0.012034
1144.946952	-0.006112
1145.102691	-0.006158
1145.258411	-0.009177
1145.414113	-0.005522
1145.569798	-0.007399
1145.725463	-0.008770
1145.881111	-0.019843
1146.036741	-0.023751
1146.192352	-0.013030
1146.347945	-0.015615
1146.503519	-0.019993
1146.659076	-0.019539
1146.814614	-0.019214
1146.970134	-0.016494
1147.125636	-0.016484
1147.281120	-0.013102
1147.436585	-0.001323
1147.592032	-0.010368
1147.747461	-0.013059
1147.902872	-0.009026
1148.058265	-0.005868
1148.213639	-0.010207
1148.368995	-0.007551
1148.524333	-0.000345
1148.679653	0.003612
1148.834954	0.000181
1148.990237	0.003650
1149.145502	0.002289
1149.300749	0.001550
1149.455977	-0.003130
1149.611188	-0.005233
1149.766380	-0.006104
1149.921553	-0.006799
1150.076709	-0.007781
1150.231846	-0.012274
1150.386966	-0.016037
1150.542066	-0.015014
1150.697149	-0.012929
1150.852214	-0.007562
1151.007260	0.000176
1151.162288	-0.004310
1151.317298	-0.016641
1151.472289	-0.017032
1151.627263	-0.020925
1151.782218	-0.022254
1151.937155	-0.015977
1152.092073	-0.022299
1152.246974	-0.028125
1152.401856	-0.028804
1152.556720	-0.025101
1152.711566	-0.015217
1152.866393	-0.016033
1153.021203	-0.009124
1153.175994	0.000334
1153.330767	0.003381
1153.485521	0.010630
1153.640258	0.012440
1153.794976	0.013920
1153.949676	0.005461
1154.104358	0.004836
1154.259021	0.009597
1154.413667	0.009601
1154.568294	-0.005846
1154.722903	-0.024026
1154.877493	-0.028620
1155.032066	-0.022472
1155.186620	-0.031595
1155.341156	-0.023999
1155.495674	-0.029474
1155.650173	-0.028018
1155.804654	-0.034103
1155.959118	-0.026299
1156.113562	-0.018992
1156.267989	-0.019338
1156.422397	-0.021772
1156.576788	-0.009141
1156.731160	-0.005535
1156.885513	-0.006109
1157.039849	-0.010358
1157.194166	-0.008401
1157.348465	-0.004366
1157.502746	-0.005860
1157.657009	-0.011261
1157.811253	-0.007566
1157.965479	-0.003215
1158.119687	-0.019411
1158.273877	-0.009282
1158.428048	-0.006589
1158.582201	-0.011338
1158.736337	-0.015902
1158.890453	-0.010524
1159.044552	0.000130
1159.198632	-0.004468
1159.352694	-0.010610
1159.506738	0.009967
1159.660764	0.007626
1159.814771	0.007475
1159.968761	0.013262
1160.122732	0.027338
1160.276685	0.027052
1160.430619	0.022679
1160.584535	0.018060
1160.738434	0.020896
1160.892313	0.006400
1161.046175	-0.004221
1161.200019	-0.018846
1161.353844	-0.021363
1161.507651	-0.025327
1161.661440	-0.020031
1161.815210	-0.022197
1161.968962	-0.011935
1162.122697	-0.024711
1162.276412	-0.014472
1162.430110	-0.006875
1162.583789	0.002045
1162.737451	0.007342
1162.891094	0.008104
1163.044718	0.000685
1163.198325	0.004781
1163.351913	-0.010054
1163.505483	-0.008981
1163.659035	-0.016811
1163.812569	-0.022770
1163.966084	-0.019665
1164.119581	-0.018291
1164.273060	-0.022209
1164.426521	-0.025414
1164.579964	-0.024975
1164.733388	-0.019365
1164.886794	-0.020600
1165.040182	-0.020489
1165.193551	-0.015395
1165.346903	-0.013204
1165.500236	-0.029265
1165.653551	-0.034172
1165.806848	-0.018498
1165.960126	-0.022422
1166.113386	-0.028281
1166.266628	-0.034571
1166.419852	-0.031051
1166.573058	-0.031233
1166.726245	-0.029779
1166.879414	-0.011799
1167.032565	-0.017845
1167.185698	-0.033354
1167.338812	-0.033721
1167.491909	-0.032303
1167.644987	-0.024942
1167.798046	-0.026171
1167.951088	-0.025163
1168.104111	-0.026357
1168.257117	-0.036467
1168.410103	-0.029579
1168.563072	-0.032960
1168.716023	-0.028638
1168.868955	-0.033474
1169.021869	-0.019279
1169.174765	-0.018107
1169.327642	-0.015932
1169.480501	-0.033919
1169.633343	-0.028001
1169.786165	-0.028131
1169.938970	-0.024153
1170.091757	-0.026452
1170.244525	-0.014057
1170.397275	-0.018997
1170.550007	-0.019353
1170.702720	-0.016011
1170.855415	-0.000345
1171.008092	-0.003233
1171.160751	-0.003768
1171.313392	-0.000402
1171.466014	-0.034690
1171.618619	-0.024709
1171.771205	-0.024709
1171.923772	-0.024709
