sample name	sample
index	810
start time	 03-31-2021  03:17:31 PM
880	0.076022
Peak Time (s)	92.537
Peak Height 	0.07602
calc peak height	90,93
Baseline Time (s)	10.037
Baseline Value 	-0.002152
subtract baseline	10,4
Abs	0.037831
Peak Time (s)	92.537
Peak Height 	0.03783
calc peak height	90,93
Baseline Time (s)	9.039
Baseline Value 	0.001138
subtract baseline	10,3
PK_550	0.014735
Peak Time (s)	91.537
Peak Height 	0.01473
calc peak height	90,93
Baseline Time (s)	10.037
Baseline Value 	-2.4137E-4
subtract baseline	10,2
PK_880	0.032473
Peak Time (s)	90.035
Peak Height 	0.03247
calc peak height	90,93
Baseline Time (s)	11.537
Baseline Value 	0.001171
subtract baseline	10,1


Time (s)	A880-A510	A880-A775	A880-A975	A880	I510	I775	I975	I880	
0.036000	-0.001318	-0.000047	-0.008075	0.001456	6703.083219	40074.271870	4052.763988	21996.742814
0.536500	-0.004407	-0.000144	-0.002622	0.003241	6663.342173	39914.715200	4060.738560	21919.370929
1.037000	-0.003981	0.000166	-0.002083	0.003398	6665.526125	39927.701957	4061.574719	21912.601192
1.534500	-0.000474	-0.000052	-0.002144	0.001396	6710.502244	40078.988829	4065.825108	21999.350745
2.034500	-0.002873	-0.000210	0.001619	0.001155	6692.819108	40086.044721	4074.653190	22009.831378
2.537000	-0.001176	0.001210	0.000940	0.002283	6697.464441	40110.808705	4070.657254	21960.842911
3.035000	-0.003375	-0.000730	-0.001208	0.004283	6663.259266	39777.268015	4061.550292	21874.364173
3.535000	-0.001357	-0.000243	-0.003152	-0.000797	6721.283020	40249.520352	4068.428760	22094.840072
4.035500	-0.000509	-0.000305	0.000155	-0.000973	6729.731223	40259.214666	4076.125484	22102.521795
4.536000	-0.000780	0.000574	-0.001020	0.000096	6718.681171	40242.998473	4071.160654	22055.904431
5.036000	-0.004064	-0.000062	-0.003036	0.005462	6648.148432	39734.233893	4055.003689	21823.591052
5.539000	-0.000643	0.000561	0.000319	-0.000286	6722.953273	40274.422015	4074.964914	22072.518503
6.036500	0.000374	0.000100	-0.000419	-0.000393	6732.238603	40244.250649	4073.568654	22077.202510
6.537000	0.001186	0.001046	-0.003104	0.000068	6735.140016	40285.690222	4066.632331	22057.104708
7.037000	-0.004719	-0.000429	-0.006163	0.004713	6648.907445	39766.371532	4049.856359	21855.824188
7.535000	-0.000052	0.000879	0.002799	0.000422	6721.994749	40241.172953	4078.900361	22041.701895
8.035000	0.000770	-0.000151	0.000242	-0.000410	6735.655939	40224.382391	4075.070779	22077.967549
8.535500	-0.001304	0.001496	-0.004516	0.000055	6714.701419	40325.255900	4063.563099	22057.658643
9.038500	-0.001365	0.000609	0.000000	0.000184	6713.140063	40238.411245	4073.217854	22052.039041
9.536000	0.000468	0.000754	0.000620	0.000309	6727.213615	40240.181888	4074.314939	22046.609005
10.036500	0.000758	0.000000	0.000005	0.000000	6732.159698	40202.208947	4073.637922	22060.072792
10.536500	0.000661	-0.000829	-0.005936	-0.000848	6738.375677	40203.867418	4062.432429	22097.066823
11.037000	-0.002069	-0.000373	0.000757	-0.001004	6717.123767	40255.979994	4077.530540	22103.848529
11.537000	0.000000	-0.000312	-0.001571	-0.000211	6727.641493	40193.617045	4070.621346	22069.256952
12.034500	-0.000570	0.000589	0.002008	0.000055	6720.751781	40247.739969	4077.957218	22057.678408
12.535000	-0.000313	0.000462	-0.000678	-0.000050	6723.729282	40245.833369	4072.236996	22062.240015
13.035500	-0.000057	0.000653	-0.001675	0.000714	6719.549871	40197.064836	4068.355429	22029.003385
13.539000	-0.001858	0.000829	0.002162	0.000886	6703.323344	40197.290552	4076.452167	22021.496433
14.036000	-0.002295	0.000161	0.000149	0.002609	6685.664665	39994.152801	4068.199077	21946.754345
14.540500	-0.002284	-0.000381	-0.001096	0.003580	6677.840738	39866.039411	4063.333191	21904.733484
15.036500	-0.001374	-0.000174	-0.003043	0.002520	6693.905402	39973.160652	4061.392442	21950.576209
15.537000	-0.003156	0.000114	-0.003545	0.002915	6676.150919	39964.179942	4059.436286	21933.489810
16.036000	-0.003065	0.000628	-0.004492	0.003272	6673.988706	39977.502791	4056.597409	21918.048343
16.537500	-0.001256	0.000606	-0.002310	0.004013	6682.690424	39912.900411	4059.736822	21886.039425
17.035000	0.001652	-0.000096	0.001621	-0.000503	6743.726612	40236.932713	4078.337160	22081.995254
17.534500	-0.001713	-0.000536	0.003755	0.003475	6683.346865	39861.838356	4074.247324	21909.277913
18.035500	-0.001800	-0.000197	-0.004393	0.003680	6680.966366	39873.125516	4055.925865	21900.419620
18.536000	-0.003017	0.000174	-0.005597	0.004225	6666.631096	39858.372254	4052.133483	21876.857464
19.036000	-0.004262	-0.000338	-0.002995	0.003690	6660.877334	39860.302584	4058.945143	21899.962576
19.535500	-0.002108	0.000400	0.000245	0.004183	6674.360406	39881.051146	4064.949891	21878.681826
20.037000	-0.002987	-0.000007	0.001062	0.003727	6670.920244	39885.165299	4067.746854	21898.371130
20.536500	-0.001604	0.000135	-0.002342	0.004513	6675.780257	39830.817613	4058.575719	21864.447610
21.037500	-0.003858	-0.000434	-0.000315	0.003566	6665.160009	39862.701320	4065.076481	21905.325682
21.538000	-0.002159	0.000495	-0.002979	0.004682	6669.885532	39846.913303	4056.821377	21857.146049
22.035000	-0.002481	0.000283	-0.004611	0.004390	6669.647383	39853.673826	4053.911940	21869.760904
22.535000	-0.001267	-0.000043	0.000698	0.004030	6682.457463	39856.604065	4066.280189	21885.294633
23.035500	-0.001938	0.000781	-0.001815	0.005037	6668.801955	39841.094500	4058.581726	21841.875681
23.536000	-0.004023	-0.000990	-0.001977	0.003612	6663.441534	39811.837423	4061.335792	21903.328809
24.036500	-0.001401	0.000080	-0.000176	0.004091	6680.867203	39861.807374	4064.230046	21882.644978
24.536000	-0.003396	-0.000226	-0.006053	0.004009	6665.312582	39842.885870	4051.615589	21886.195064
25.037000	-0.003333	-0.000319	0.000062	0.004959	6658.128791	39754.972201	4062.851584	21845.237369
25.537000	-0.002020	-0.000083	-0.005844	0.004728	6670.642025	39794.265745	4050.511962	21855.160968
26.034500	-0.003197	-0.000473	-0.002473	0.003940	6667.483837	39827.830464	4059.539294	21889.175963
26.535000	-0.002321	-0.000325	-0.000798	0.004101	6673.294715	39826.779138	4062.846179	21882.224122
27.035500	-0.001605	-0.000581	-0.001443	0.000780	6706.270114	40086.297811	4068.718846	22026.098259
27.538000	-0.000880	-0.001166	0.002479	0.002295	6699.794741	39908.271270	4074.034252	21960.344083
28.035500	-0.002606	0.000430	0.004900	0.003698	6674.260848	39924.640302	4076.290099	21899.645377
28.536000	-0.001358	0.000786	0.004772	0.004313	6679.403033	39902.704366	4074.640641	21873.067517
29.036500	-0.004987	-0.001202	-0.005048	0.008027	6620.103503	39423.632675	4045.122176	21713.525794
29.536500	-0.003477	-0.000482	-0.001684	0.003196	6671.253998	39889.909102	4062.888405	21921.332426
30.036500	-0.003598	-0.000121	-0.001235	0.003315	6669.308837	39910.444949	4063.610505	21916.183134
30.537000	-0.002898	-0.000143	-0.000050	0.004960	6661.638175	39769.691332	4062.603500	21845.193002
31.034000	-0.005278	-0.001138	-0.002743	0.007526	6621.779685	39470.848572	4051.167721	21734.973944
31.535000	-0.003887	0.000250	-0.002973	0.003432	6666.007858	39931.904771	4059.555819	21911.123783
32.041000	-0.000026	-0.000403	0.001101	0.003719	6695.122875	39852.366205	4067.849258	21898.697776
32.535500	-0.001599	-0.000013	0.001484	0.003697	6682.463689	39887.180390	4068.739882	21899.665197
33.038500	-0.000428	0.000075	0.000658	0.001254	6712.045863	40101.814298	4072.308675	22005.510984
33.536500	-0.002742	-0.000348	-0.000430	0.004164	6669.365558	39819.528988	4063.513506	21879.511449
34.036000	-0.001114	0.000225	-0.001006	0.005327	6673.143229	39769.778161	4059.712998	21829.381843
34.536500	-0.002887	-0.000531	-0.002526	0.004240	6667.571537	39797.632676	4058.769408	21876.228481
35.036500	-0.002747	-0.000153	-0.000956	0.005094	6661.779977	39757.570724	4060.332022	21839.429285
35.537500	-0.003219	-0.000042	-0.001557	0.004677	6661.333028	39802.044854	4059.930287	21857.388620
36.038000	-0.003891	-0.001009	-0.006986	0.004143	6660.212148	39765.516075	4049.310373	21880.403883
36.537500	-0.002820	-0.000864	-0.002932	0.004053	6669.626830	39785.293952	4058.291640	21884.293668
37.035500	-0.003816	0.000169	0.001721	0.005260	6651.788352	39770.736432	4065.826761	21832.277614
37.535500	-0.002745	-0.000841	0.001617	0.004232	6668.780561	39772.199638	4067.856695	21876.559275
38.035500	-0.003564	-0.000877	-0.001625	0.004019	6663.865063	39787.073054	4061.218049	21885.761514
38.536500	-0.002847	0.000584	0.000433	0.004940	6662.215957	39832.670562	4063.704647	21846.056162
39.036500	-0.001902	0.000360	-0.002019	0.004433	6674.008766	39856.568524	4059.453346	21867.909260
39.537000	-0.001258	0.000039	-0.000502	0.004622	6677.711683	39813.534768	4062.353607	21859.759578
40.037500	-0.003035	-0.000581	-0.002126	0.004544	6663.898809	39767.781949	4058.978280	21863.111941
40.537500	-0.002085	0.000098	-0.007350	0.005001	6667.903265	39786.557389	4046.679902	21843.431902
41.035000	-0.002517	-0.000786	-0.003657	0.004139	6671.394812	39784.619075	4056.526781	21880.565412
41.535000	-0.002463	0.000369	-0.000331	0.004840	6666.141014	39822.940872	4062.251874	21850.361815
42.035500	-0.001180	0.000408	-0.004337	0.004773	6677.113939	39831.959320	4053.677678	21853.258280
42.536000	-0.002788	0.000036	-0.001103	0.004732	6664.384445	39803.969087	4060.799944	21855.013905
43.035500	-0.002884	-0.000256	0.000905	0.004327	6666.882980	39813.496498	4066.082816	21872.454445
43.536500	0.000656	-0.000278	0.001409	-0.000351	6734.227343	40208.436317	4077.528733	22075.387954
44.036500	-0.004336	-0.000674	-0.001387	0.003159	6664.580250	39876.794188	4063.618389	21922.915691
44.537000	-0.000584	0.001387	0.007492	0.005282	6677.816429	39871.630998	4078.529800	21831.318823
45.037500	-0.001147	0.000197	-0.006654	0.003991	6683.752409	39880.094578	4050.355094	21886.973156
45.537500	-0.001648	-0.000364	0.006025	0.003535	6683.387380	39871.231551	4079.150924	21906.664269
46.035000	-0.001036	0.000096	-0.005275	0.004082	6683.916050	39863.880015	4053.140626	21883.040868
46.535000	-0.004338	-0.000884	-0.005325	0.003375	6662.810736	39840.870615	4054.565065	21913.580137
47.035500	-0.001088	0.000417	0.003946	0.005531	6671.694128	39768.744523	4070.125022	21820.617760
47.535500	-0.001861	-0.000384	-0.002449	0.004185	6676.352851	39814.686235	4059.055897	21878.580933
48.036000	-0.002323	-0.000818	-0.001467	0.003498	6678.187041	39836.091400	4062.701102	21908.277223
48.536500	-0.000708	0.000178	0.000555	0.003943	6687.730086	39882.638023	4066.158849	21889.052333
49.036500	0.000018	0.000450	-0.002584	0.002526	6705.267172	40025.611352	4062.383886	21950.328765
49.537500	-0.001796	0.000422	0.004590	0.000692	6705.434024	40179.185063	4082.291387	22029.948970
50.037000	-0.000396	0.000917	-0.000810	0.003399	6694.722025	39991.203152	4064.356343	21912.551891
50.537000	-0.019505	0.003877	0.013870	0.206300	5272.848804	26406.833999	3729.619151	14904.636866
51.035000	-0.044145	0.003393	-0.026122	-0.010399	6457.966505	41397.066737	4039.455455	22518.648567
51.535000	-0.058706	-0.023386	-0.033911	-0.195598	8053.879220	58222.901334	4507.122609	32825.684274
52.036000	-0.043239	-0.077550	-0.016636	-0.302078	9646.200977	65270.233321	4966.909713	41074.768061
52.536000	-0.037848	-0.094134	-0.012380	-0.320509	10012.939412	65535.000000	5066.353024	42719.477460
53.036000	-0.038201	-0.069024	-0.013617	-0.290043	9542.268866	64770.643599	4928.812095	40037.906687
53.536500	-0.025863	-0.049198	-0.003786	-0.262540	9322.628928	63691.256939	4856.391201	37773.470502
54.036500	-0.024937	-0.038081	-0.005629	-0.244620	9085.458724	62750.759905	4778.817864	36373.397489
54.537000	-0.014318	-0.046384	-0.004271	-0.260807	9463.854293	63842.209275	4847.509997	37635.560179
55.037000	-0.005742	-0.025728	-0.006063	-0.225278	9083.444242	61799.604464	4704.643300	34925.605712
55.535000	0.010608	-0.012542	-0.000974	-0.201275	8979.655712	60357.432818	4636.794900	33216.323970
56.035500	0.004202	-0.004309	0.004724	-0.152654	8284.942737	55279.253618	4493.353969	30030.460403
56.536000	0.003096	-0.000523	0.006330	-0.123650	7940.455646	52339.787897	4408.936730	28293.064675
57.035500	0.004327	0.004176	0.006596	-0.076428	7458.287950	47753.845656	4276.084609	25701.196950
57.536000	0.009347	0.006617	0.004896	-0.067347	7418.116507	47077.461921	4247.557743	25234.289113
58.036500	0.010400	0.010141	0.016144	-0.035193	7122.606877	44276.477297	4194.217968	23657.380754
58.537000	0.014922	0.011141	0.011487	-0.014838	6980.099216	42484.780178	4133.680721	22717.756814
59.037000	0.013877	0.013399	0.010837	0.002039	6824.935381	41183.602221	4093.293586	21971.458151
59.535000	0.012852	0.012092	0.015040	0.007841	6767.490842	40566.420883	4089.689917	21721.491532
60.034500	0.015942	0.012511	0.016379	0.018808	6702.328110	39669.130477	4068.265195	21258.042068
60.535000	0.013565	0.014534	0.020627	0.025996	6624.769637	39237.691709	4061.817915	20960.578862
61.035000	0.014930	0.015133	0.022108	0.030347	6600.912914	38927.439877	4055.566579	20782.923425
61.538500	0.023290	0.018748	0.015464	0.026897	6696.260554	39513.869914	4048.655440	20923.663223
62.035500	0.019687	0.017832	0.014437	0.011875	6790.947653	40713.569560	4079.310582	21549.646475
62.538500	0.023421	0.017513	0.017952	0.012189	6819.803770	40658.967758	4086.463196	21536.360731
63.036500	0.023642	0.017549	0.015744	0.011971	6823.515580	40680.862770	4082.009718	21545.574037
63.536500	0.026704	0.018825	0.017867	0.015104	6822.922431	40520.854247	4079.761152	21413.281659
64.037500	0.029069	0.019255	0.025113	0.017837	6819.804066	40323.292538	4089.863018	21298.619332
64.539500	0.026647	0.018931	0.016899	0.019839	6782.530775	40124.849315	4067.142185	21215.092561
65.035000	0.026953	0.019751	0.017290	0.022861	6759.832038	39938.060473	4061.376365	21089.743394
65.535000	0.028246	0.019395	0.018605	0.025091	6752.038892	39719.778821	4059.381220	20997.799609
66.035500	0.030997	0.020653	0.019831	0.028280	6748.392252	39557.566224	4055.110759	20867.110347
66.536000	0.030182	0.019740	0.022567	0.030110	6726.501640	39328.508792	4057.078327	20792.564958
67.035500	0.032085	0.020069	0.027235	0.032034	6726.329847	39196.009519	4063.064588	20714.526154
67.536500	0.029061	0.020109	0.017969	0.034108	6684.496946	39027.631844	4038.567689	20630.769293
68.037000	0.033049	0.019338	0.022629	0.035555	6705.284811	38844.991634	4045.444797	20572.587164
68.537000	0.032147	0.021097	0.022621	0.038619	6672.895199	38737.966524	4038.868293	20450.013236
69.040000	0.033264	0.021608	0.023966	0.040019	6670.588565	38665.240373	4038.751016	20394.278587
69.537500	0.033817	0.021789	0.030945	0.041061	6666.617756	38594.957782	4051.498828	20352.913363
70.035000	0.033195	0.021379	0.028829	0.041315	6659.513858	38540.790236	4046.387560	20342.844504
70.535000	0.032838	0.020108	0.026957	0.041138	6658.059372	38451.840293	4042.752649	20349.880360
71.036000	0.032387	0.019840	0.024381	0.041083	6654.849354	38434.499916	4037.366168	20352.034646
71.536000	0.036644	0.021600	0.025379	0.043167	6672.470286	38408.245021	4035.057492	20269.628736
72.036000	0.035358	0.021466	0.029432	0.044173	6653.891769	38315.908738	4041.552178	20229.996276
72.536500	0.035507	0.020805	0.024235	0.044394	6653.315370	38244.635063	4030.035099	20221.307156
73.037000	0.034590	0.021228	0.024738	0.045942	6633.439980	38153.819536	4027.831547	20160.512881
73.539000	0.033145	0.020830	0.028843	0.046741	6615.440531	38057.569766	4034.823540	20129.208457
74.037500	0.034848	0.021618	0.025183	0.048961	6611.308601	37942.690218	4022.421621	20042.575073
74.535000	0.035717	0.020854	0.028101	0.050197	6608.377840	37783.021395	4025.952027	19994.539348
75.035000	0.033348	0.021188	0.030719	0.052072	6574.666996	37660.367664	4027.515158	19921.898753
75.535500	0.033386	0.021182	0.027006	0.052739	6569.704214	37607.000660	4018.335692	19896.164532
76.035500	0.036340	0.021153	0.034360	0.054888	6576.067676	37434.754526	4029.257708	19813.446089
76.536000	0.033284	0.019915	0.029089	0.055695	6545.651883	37273.746789	4016.516575	19782.455581
77.036000	0.032515	0.020760	0.028919	0.057744	6523.637058	37179.334167	4011.909895	19704.117985
77.537000	0.030731	0.019493	0.032450	0.056492	6519.492776	37178.156515	4021.868043	19751.933732
78.036500	0.031777	0.019756	0.025968	0.056292	6529.201141	37214.488893	4008.810607	19759.604473
78.537000	0.033467	0.019867	0.029102	0.056990	6536.944681	37168.491974	4013.852073	19732.899218
79.037500	0.033666	0.019858	0.026869	0.056810	6539.908644	37181.819621	4009.600100	19739.774026
79.535000	0.034852	0.018540	0.032754	0.055488	6559.597369	37182.213777	4024.613089	19790.422135
80.035500	0.033452	0.019297	0.027282	0.056819	6538.162303	37137.261574	4010.434899	19739.428340
80.535500	0.034066	0.019500	0.031528	0.058743	6527.937125	37002.926124	4015.249848	19666.050683
81.036000	0.035043	0.018772	0.028871	0.059570	6529.109982	36882.099231	4008.037485	19634.621751
81.536000	0.035486	0.018392	0.034518	0.059690	6531.623045	36843.247871	4019.505350	19630.039416
82.036500	0.034926	0.018282	0.024768	0.060609	6520.106132	36763.586496	3997.498045	19595.190406
82.536500	0.033136	0.018324	0.026821	0.062267	6493.395972	36638.864866	3998.303236	19532.485562
83.037500	0.034482	0.018305	0.033038	0.063585	6493.609417	36535.964310	4008.352290	19482.809120
83.534500	0.034149	0.016931	0.030643	0.064087	6487.170952	36392.094948	4002.394812	19463.905973
84.035000	0.034514	0.017859	0.034231	0.065380	6480.035581	36364.275406	4007.111333	19415.387153
84.535000	0.032559	0.016661	0.031011	0.065672	6462.806706	36250.582572	3999.906045	19404.444243
85.035500	0.033831	0.016469	0.032296	0.066115	6469.151344	36202.195360	4001.626199	19387.840849
85.536000	0.031823	0.015624	0.030212	0.066352	6451.999150	36120.078760	3996.889985	19378.986198
86.036000	0.031706	0.015325	0.031826	0.067134	6445.144172	36038.123807	3998.583252	19349.744455
86.536000	0.031123	0.015457	0.036424	0.067531	6437.704939	36018.090772	4007.195628	19334.932696
87.036500	0.033558	0.015431	0.031284	0.068876	6445.990045	35914.522920	3993.937291	19284.857203
87.537000	0.032966	0.016664	0.034539	0.070360	6430.232257	35895.663213	3997.537636	19229.773707
88.038000	0.033990	0.015058	0.034438	0.069824	6442.063852	35815.099414	3998.425023	19249.646474
88.535000	0.030890	0.015790	0.037097	0.071699	6404.471036	35729.318684	4000.025198	19180.228358
89.035000	0.032060	0.016189	0.031507	0.072810	6404.920109	35675.997787	3986.437630	19139.235530
89.535000	0.031688	0.014864	0.036620	0.072635	6403.439189	35590.025123	3997.143182	19145.687105
90.035500	0.032473	0.014311	0.032590	0.072915	6407.238897	35527.914167	3988.409398	19135.385751
90.536000	0.030303	0.014434	0.031687	0.073786	6384.456017	35472.256406	3984.839331	19103.338903
91.035500	0.032042	0.014474	0.035617	0.074162	6394.639198	35447.257185	3992.004649	19089.492640
91.536500	0.032232	0.014735	0.034897	0.074936	6390.273764	35409.164382	3988.985818	19061.108259
92.036000	0.029940	0.014696	0.034428	0.075547	6368.626883	35360.897342	3986.806452	19038.693077
92.537000	0.031642	0.013549	0.037831	0.076022	6377.762012	35240.973238	3992.721413	19021.328134
93.054500	0.032545	0.013651	0.031535	0.076377	6381.845127	35222.311416	3979.345333	19008.345603
93.534500	0.031046	0.012270	0.033019	0.075488	6377.297622	35185.996616	3984.095438	19040.877081
94.035000	0.030241	0.013194	0.031472	0.076817	6361.437904	35156.173502	3978.342011	18992.274636
94.535000	0.031044	0.012629	0.035425	0.077013	6365.942720	35100.144144	3985.865186	18985.127453
95.036000	0.029341	0.012808	0.033093	0.077637	6348.713153	35067.464454	3979.940912	18962.378164
95.538500	0.029314	0.012961	0.040150	0.078656	6340.996294	35003.931050	3992.084211	18925.265107
