sample name	sample
index	350
start time	 03-01-2021  11:59:17 AM
880	-0.045051
Peak Time (s)	92.038
Peak Height 	-0.04505
calc peak height	90,93
Baseline Time (s)	10.539
Baseline Value 	-0.004758
subtract baseline	10,4
Abs	-0.008143
Peak Time (s)	91.038
Peak Height 	-0.008143
calc peak height	90,93
Baseline Time (s)	9.037
Baseline Value 	0.004387
subtract baseline	10,3
PK_550	-0.004918
Peak Time (s)	92.038
Peak Height 	-0.004918
calc peak height	90,93
Baseline Time (s)	9.037
Baseline Value 	4.8826E-4
subtract baseline	10,2
PK_880	-0.005689
Peak Time (s)	92.536
Peak Height 	-0.005689
calc peak height	90,93
Baseline Time (s)	9.538
Baseline Value 	0.002431
subtract baseline	10,1


Time (s)	A880-A510	A880-A775	A880-A975	A880	I510	I775	I975	I880	
0.037500	0.000129	0.000327	-0.004354	0.002594	6928.844073	47954.800444	3989.899508	25235.956454
0.535500	-0.004187	-0.000437	-0.003011	0.007043	6847.878789	47417.082836	3981.770839	25007.929139
1.035000	-0.002211	0.000006	-0.004000	0.004155	6892.600750	47759.918978	3986.733500	25155.677785
1.536000	-0.001591	-0.000067	-0.000667	0.001576	6922.289647	48019.513604	4002.320276	25288.427627
2.036500	-0.001164	-0.000748	0.001889	0.000961	6932.010760	48012.694836	4010.766005	25320.194906
2.536000	-0.003214	-0.000697	-0.003701	0.006341	6863.224115	47462.444209	3981.803373	25043.744912
3.037000	0.000538	-0.000340	-0.003948	-0.000690	6963.436462	48227.066957	3999.628352	25405.718162
3.540000	-0.000044	-0.000494	-0.004339	0.000588	6945.980308	48077.874259	3995.219045	25339.513495
4.037000	-0.002493	-0.000650	-0.005033	0.000324	6925.559399	48089.193866	3994.084313	25353.193685
4.534000	-0.004510	-0.000232	-0.005498	0.000578	6904.440547	48106.182476	3992.191728	25340.039697
5.035500	0.000237	-0.000430	-0.000399	0.000505	6949.385538	48093.132401	4005.877949	25343.783412
5.535000	-0.001197	-0.000687	-0.003196	0.000315	6937.742486	48086.168740	3998.958323	25353.647811
6.036000	0.000383	-0.000319	-0.004267	0.000154	6954.052216	48141.294429	3996.554592	25361.982973
6.536000	0.000112	-0.000500	-0.003879	0.000569	6947.621508	48079.219636	3996.483293	25340.496741
7.055500	0.001458	0.000527	-0.000773	0.001087	6955.382341	48132.228519	4003.338023	25313.694450
7.536500	-0.000767	0.000133	-0.001072	0.000680	6938.349321	48133.586329	4003.624649	25334.735668
8.037000	-0.000290	-0.000053	-0.001392	0.000819	6941.513487	48099.757425	4002.405708	25327.569773
8.540000	-0.000936	0.000029	0.002213	0.000097	6942.222598	48183.490197	4013.950346	25364.938125
9.037000	-0.000983	0.000000	0.000000	-0.000080	6943.444123	48198.960377	4008.503685	25374.121110
9.538000	0.000000	-0.000301	-0.002547	-0.000666	6958.160134	48228.742128	4003.283403	25404.519267
10.035500	0.000834	-0.000044	0.002019	-0.000257	6962.156438	48212.878030	4014.378900	25383.304935
10.538500	-0.001473	-0.000244	-0.000647	0.000000	6938.101340	48165.148336	4006.564744	25369.958853
11.036000	0.002129	0.000278	0.000776	0.000340	6968.721635	48184.138652	4009.455022	25352.358708
11.536000	0.000567	0.000703	-0.006498	0.000421	6953.275565	48219.980084	3989.974715	25348.160020
12.039500	0.000043	-0.000685	-0.000204	-0.000357	6955.651123	48156.362140	4008.696101	25388.451278
12.536000	0.000869	-0.000462	-0.002982	-0.000507	6964.831905	48195.218938	4001.704935	25396.239937
13.039500	0.000344	-0.000236	-0.002949	-0.001990	6973.867871	48373.953791	4005.734300	25473.336104
13.537000	-0.001692	-0.000675	-0.003898	0.002064	6916.814400	47905.848805	3992.489630	25263.252457
14.037500	-0.001130	-0.000464	0.000678	0.001798	6924.521526	47955.331783	4005.305075	25277.005021
14.535000	-0.000851	-0.000555	-0.000315	0.002486	6920.709120	47874.550801	4000.839788	25241.491171
15.035500	-0.002129	-0.000540	-0.000116	-0.000314	6934.912617	48167.054349	4008.819093	25386.258552
15.535500	-0.000753	-0.000785	-0.004035	0.001936	6926.742831	47907.623348	3992.466116	25269.846162
16.036000	-0.000504	-0.000399	0.000590	-0.000342	6950.380131	48184.663417	4010.779604	25387.683352
16.536000	-0.002845	-0.000688	-0.003545	-0.000617	6931.043985	48183.121475	4000.502432	25401.929988
17.036500	0.002050	0.000098	0.000389	-0.002811	6997.777016	48495.063823	4016.860833	25516.110395
17.537000	-0.001141	-0.000260	0.000038	0.001543	6926.800293	48002.998288	4004.281010	25290.160362
18.037000	-0.001901	-0.000063	-0.004593	0.001492	6920.191616	48028.689671	3992.165735	25292.770515
18.537000	-0.001807	-0.000788	-0.005651	0.001321	6922.653886	47971.150873	3989.834371	25301.609317
19.035000	-0.001744	-0.000027	-0.001413	0.001406	6922.446963	48041.296683	4000.791177	25297.199379
19.535000	-0.001584	0.000121	-0.000540	0.001769	6920.560598	48018.966994	4002.144540	25278.454697
20.035500	-0.002283	-0.000087	-0.003119	0.001384	6917.641645	48037.416760	3996.337613	25298.373939
20.535500	0.000772	-0.000221	-0.002319	0.001312	6946.836013	48030.935641	3998.642760	25302.073104
21.036000	-0.001373	-0.000423	-0.003115	0.001133	6928.464122	48028.667149	3997.012462	25311.349605
21.536500	0.000276	-0.000115	-0.008984	0.001300	6942.305950	48043.244573	3981.172781	25302.699803
22.036500	-0.001635	0.000135	0.003574	0.001501	6922.580021	48048.359002	4013.833516	25292.320872
22.536500	-0.003837	-0.001053	-0.000280	0.000581	6910.661911	48020.487183	4005.995381	25339.889235
23.037500	-0.000717	0.000329	-0.002093	0.001688	6929.391865	48049.086833	3998.244038	25282.643152
23.537500	-0.002185	-0.000791	-0.002777	0.001008	6922.056192	48003.361224	3998.234036	25317.788548
24.035000	-0.000011	-0.000364	-0.003162	0.001441	6938.296750	48002.678089	3996.072555	25295.394179
24.535500	-0.000258	-0.000049	-0.003363	0.001298	6937.332001	48050.389455	3995.919955	25302.818079
25.035500	-0.000728	0.000028	-0.001928	0.001392	6932.061898	48048.565217	3999.464184	25297.951992
25.536000	-0.001006	0.000144	0.001726	0.001374	6929.634115	48062.477378	4009.230296	25298.875381
26.036500	-0.000186	-0.000291	-0.002627	0.001280	6938.172191	48027.085088	3997.913602	25303.748686
26.536500	-0.002424	0.000238	-0.003605	0.001548	6914.798930	48054.173430	3994.620539	25289.874386
27.039500	-0.002855	0.000063	0.003309	0.001454	6911.673055	48045.736492	4013.248678	25294.731683
27.537000	0.000655	-0.000015	0.000523	-0.002289	6979.622029	48428.421889	4015.816715	25488.885023
28.034000	-0.000236	-0.000273	-0.004460	-0.000314	6952.631773	48194.834542	3997.278724	25386.216950
28.535000	0.002573	-0.000487	-0.003144	-0.000230	6978.294325	48163.796239	4000.542489	25381.897616
29.035000	-0.001756	0.000148	-0.001967	-0.000151	6936.867957	48221.819592	4003.453958	25377.789831
29.535500	-0.001728	-0.000321	0.001572	-0.000238	6937.947927	48181.866718	4013.129525	25382.288060
30.035500	-0.000002	0.000343	-0.003123	0.000181	6950.182349	48207.502327	3999.506186	25360.565933
30.536000	-0.000738	0.000831	-0.001536	0.002727	6919.515609	47993.217511	3996.970460	25229.071388
31.040000	-0.001896	-0.000304	-0.004073	0.002047	6915.080311	47946.144876	3992.075122	25264.159059
31.536500	0.000160	-0.000443	0.002706	-0.000463	6957.749994	48192.635832	4016.774059	25393.941323
32.036500	-0.000625	0.000167	-0.002785	-0.000108	6947.059932	48219.357283	4001.168640	25375.577041
32.537500	-0.003572	-0.001026	-0.009049	0.003948	6881.949523	47674.840554	3974.124827	25166.325338
33.037000	-0.001126	-0.000226	-0.001250	-0.000411	6945.200741	48209.887897	4006.052789	25391.283610
33.534500	-0.002134	-0.000463	0.000334	0.000747	6924.960025	48064.598743	4007.187142	25331.279104
34.035500	-0.003964	-0.000370	-0.003204	0.002009	6896.238003	47943.100909	3994.463205	25266.074982
34.538500	0.000206	-0.000543	-0.002713	0.001289	6941.749067	47999.877471	3997.659579	25303.246038
35.036000	0.000985	0.000347	0.001882	0.002261	6939.947980	47991.349840	4007.276327	25253.082103
35.536500	0.000674	-0.000481	-0.001569	0.001872	6940.671123	47945.825337	3999.143819	25273.150698
36.036000	-0.000635	0.000370	0.003884	0.002418	6923.353856	47977.413436	4012.205162	25244.987649
36.540000	-0.002129	-0.000353	-0.000206	0.002073	6912.655147	47938.247500	4002.224102	25262.767979
37.037500	-0.001848	-0.000311	-0.001635	0.001974	6916.200747	47952.938138	3998.701511	25267.922655
37.537000	-0.001996	-0.000512	-0.004040	0.001232	6921.726094	48009.057969	3994.309865	25306.232773
38.035000	-0.002871	0.000022	-0.002338	0.002007	6906.388772	47983.951173	3996.754375	25266.181229
38.538000	-0.001140	-0.000321	-0.002672	0.002103	6921.586466	47938.471238	3995.618749	25261.252276
39.035500	-0.002587	0.000465	-0.001970	0.002406	6905.327627	47988.613620	3996.673316	25245.651832
39.535000	-0.000312	-0.000036	-0.001218	0.002292	6927.538900	47948.350288	3998.961697	25251.477489
40.036000	-0.002158	0.000205	-0.003384	0.001956	6913.477798	48008.317705	3994.127141	25268.806184
40.536500	0.000303	-0.000182	-0.001334	0.002248	6933.696033	47937.837011	3998.771692	25253.772850
41.037500	0.000984	0.000452	0.002014	0.002450	6938.171648	47982.660379	4007.126584	25243.351507
41.537000	-0.000871	0.000137	-0.001323	0.002160	6923.552132	47980.055008	3999.032928	25258.283017
42.037000	-0.003530	-0.000322	0.001648	0.001709	6903.046537	47979.294053	4008.127875	25281.592856
42.537000	-0.001206	-0.000286	0.000209	0.001610	6925.566712	47993.348689	4004.557050	25286.704761
43.034500	-0.000506	0.000362	0.002612	0.002576	6923.089866	47960.288026	4008.386477	25236.886427
43.535500	-0.004994	-0.000708	-0.004780	0.003127	6876.414937	47792.372093	3987.383165	25208.524729
44.036000	-0.000765	0.000029	-0.000782	-0.000049	6945.187549	48198.721404	4006.337092	25372.513480
44.536000	-0.000709	0.000526	-0.001018	0.000522	6940.369632	48190.945134	4004.187471	25342.922140
45.036000	0.001503	0.000134	0.004610	0.000268	6963.507018	48176.698895	4019.933233	25356.096558
45.539500	-0.003873	-0.000672	-0.002198	0.004343	6875.542581	47670.608626	3990.968724	25146.048885
46.039500	-0.001538	-0.000850	-0.000705	-0.000540	6942.545778	48158.231294	4007.849287	25397.948757
46.536500	0.001549	0.000947	0.000050	0.001363	6953.643855	48147.137714	4004.790934	25299.414995
47.037500	-0.002141	-0.000356	-0.001107	0.002092	6912.382511	47936.013340	3999.787407	25261.839243
47.537500	-0.004898	-0.000767	-0.003787	0.002564	6882.485062	47844.453247	3991.466323	25237.474892
48.034500	-0.001180	0.000015	0.002295	-0.000350	6944.118449	48228.642023	4015.367952	25388.084321
48.535500	-0.001876	-0.000500	-0.000356	0.000310	6931.441080	48106.181836	4006.512672	25353.886533
49.036000	-0.000145	0.000408	-0.000194	0.000147	6949.167005	48217.805691	4007.379179	25362.346799
49.536000	-0.002260	0.000190	0.006267	-0.000541	6935.803797	48266.950526	4026.598318	25398.031748
50.036000	0.001366	0.000340	0.003211	0.012574	6848.081561	46932.396798	3983.574394	24727.706344
50.539000	0.027360	0.005828	0.005022	-0.005308	7270.254253	49367.094080	4036.181930	25646.714375
51.037000	-0.010086	-0.010390	-0.014598	0.169024	5574.735681	32862.066249	3608.752100	18114.483834
51.537500	-0.038732	-0.031201	-0.013010	-0.061281	7169.071080	51439.060228	4144.516875	28780.466531
52.034500	-0.028670	-0.043964	-0.021051	-0.156240	8343.274553	61553.473826	4431.449535	35114.116615
52.537500	-0.009860	-0.170314	-0.005804	-0.311111	11031.102101	65535.000000	5189.998326	48931.836861
53.035000	-0.028860	-0.303986	-0.013370	-0.444783	13495.175815	65535.000000	5978.558068	65535.000000
53.535500	-0.084285	-0.273312	-0.070363	-0.414109	11585.626795	65535.000000	5406.594577	61261.334293
54.035500	-0.017249	-0.106800	-0.001707	-0.247597	9802.827747	65535.000000	4890.731655	42664.226058
54.535500	-0.023735	-0.074228	-0.013983	-0.212578	9171.565798	65182.938993	4680.113644	39580.973200
55.039000	-0.012083	-0.070769	-0.012315	-0.210830	9316.763898	65428.870392	4679.777425	39433.511163
55.536000	-0.008535	-0.067710	-0.008154	-0.207820	9324.749984	65435.959500	4684.636321	39180.918717
56.037000	-0.004288	-0.070609	-0.009933	-0.211250	9439.736990	65512.469919	4691.625009	39468.922799
56.537500	-0.003636	-0.065810	-0.008774	-0.205716	9366.382534	65406.656536	4673.161933	39005.455976
57.037500	-0.002876	-0.054038	-0.004649	-0.190101	9148.164473	64855.996630	4625.548232	37729.134636
57.534500	-0.002646	-0.047250	-0.007524	-0.179783	9004.174656	64354.325130	4572.407259	36910.584715
58.038000	-0.002534	-0.036178	-0.009708	-0.163317	8777.726877	63595.715316	4499.986676	35643.905450
58.535500	-0.005984	-0.026100	-0.011951	-0.142784	8460.690874	62151.908582	4415.658914	34130.209333
59.036000	-0.004503	-0.023510	-0.014982	-0.137971	8418.013681	61849.232152	4387.624018	33785.613995
59.536000	-0.008267	-0.020089	-0.015652	-0.126159	8222.804790	60721.256220	4344.049908	32956.005019
60.036500	-0.011105	-0.014651	-0.020344	-0.108385	7975.005543	59101.863538	4268.704480	31749.376011
60.537000	-0.010295	-0.016100	-0.016231	-0.112794	8036.648121	59486.227347	4296.826822	32044.107746
61.037500	-0.012180	-0.018777	-0.016434	-0.120418	8105.280759	60134.469455	4321.767836	32560.843991
61.537500	-0.010559	-0.016141	-0.017572	-0.122140	8145.678839	60711.687499	4323.750587	32678.798075
62.037500	-0.012197	-0.016666	-0.020633	-0.129222	8212.139779	61591.328426	4337.461458	33168.979679
62.535500	-0.012641	-0.021582	-0.018742	-0.139391	8332.963553	62305.618799	4379.360789	33886.930239
63.039500	-0.011121	-0.022022	-0.019567	-0.141287	8376.049848	62505.092564	4383.139211	34022.652319
63.536000	-0.011792	-0.021334	-0.019665	-0.139138	8340.457432	62304.853229	4375.225800	33868.848985
64.036500	-0.010355	-0.021092	-0.019848	-0.139366	8361.444808	62369.301196	4375.384545	33885.162341
64.536000	-0.010501	-0.019546	-0.020286	-0.136893	8328.470249	62242.352786	4365.187556	33708.991713
65.037000	-0.009056	-0.018242	-0.017520	-0.133789	8307.676949	61996.966697	4364.008946	33489.348264
65.537000	-0.011784	-0.016336	-0.018511	-0.128785	8211.849257	61576.809907	4343.247866	33138.500120
66.034500	-0.011495	-0.015599	-0.019213	-0.127029	8193.863444	61439.319326	4334.817922	33016.363362
66.537500	-0.011717	-0.013988	-0.019120	-0.123079	8143.030398	61124.857374	4321.684074	32743.368006
67.035000	-0.011633	-0.012806	-0.020683	-0.119912	8105.765407	60859.296525	4305.735224	32526.241822
67.535500	-0.014206	-0.011927	-0.022049	-0.114576	8011.408555	60267.427704	4283.437229	32164.035424
68.035500	-0.013163	-0.012003	-0.018567	-0.113916	8015.943015	60170.421392	4292.786045	32119.561991
68.535500	-0.010049	-0.009762	-0.019271	-0.109607	8001.815854	59898.344303	4276.220821	31830.748648
69.038500	-0.014131	-0.009825	-0.019979	-0.106821	7921.408836	59525.572545	4264.788193	31645.520896
69.539500	-0.014233	-0.010081	-0.021815	-0.102778	7873.497904	58967.826406	4245.760195	31378.854143
70.036500	-0.014906	-0.010009	-0.020712	-0.101300	7848.806623	58786.514270	4244.554232	31281.948654
70.537000	-0.013226	-0.008993	-0.012906	-0.098755	7838.915644	58590.111223	4261.559595	31115.960532
71.037000	-0.012903	-0.009181	-0.017660	-0.097023	7822.835417	58344.416361	4240.626756	31003.499831
71.534500	-0.011691	-0.008703	-0.016047	-0.093914	7801.282462	58009.557668	4235.842172	30802.789880
72.035000	-0.012808	-0.008626	-0.016341	-0.092510	7772.787076	57841.355447	4230.433829	30712.614292
72.535500	-0.011565	-0.008638	-0.015306	-0.091206	7772.092096	57675.027635	4229.575964	30629.088751
73.035500	-0.009704	-0.007867	-0.015790	-0.089743	7776.586882	57587.986177	4223.404724	30535.763754
73.539000	-0.013841	-0.008267	-0.020827	-0.087148	7701.212707	57211.961289	4199.472213	30370.886121
74.036000	-0.014195	-0.007898	-0.019863	-0.085785	7682.179386	57087.831681	4198.230498	30284.684850
74.536500	-0.010667	-0.007356	-0.016871	-0.084757	7709.919366	57027.299929	4204.344261	30219.882659
75.037000	-0.011955	-0.007425	-0.015833	-0.083980	7686.990188	56921.825331	4205.159746	30170.964282
75.537000	-0.012684	-0.006859	-0.016991	-0.080196	7637.265769	56523.058049	4189.820005	29934.076810
76.034500	-0.014554	-0.007475	-0.013582	-0.079193	7605.884584	56323.555737	4197.266476	29871.686612
76.535000	-0.012878	-0.007125	-0.018493	-0.078971	7621.732987	56339.159347	4181.429205	29857.826961
77.035500	-0.014796	-0.007700	-0.019430	-0.078107	7591.440072	56162.459029	4175.920402	29804.212876
77.536000	-0.012956	-0.007271	-0.015602	-0.075660	7584.856840	55915.598583	4180.143009	29652.860902
78.036000	-0.016137	-0.007381	-0.014690	-0.072090	7512.243956	55468.178438	4172.025908	29433.556549
78.536000	-0.013808	-0.007262	-0.019085	-0.072300	7539.418703	55508.043183	4159.340599	29446.396164
79.036500	-0.014603	-0.007568	-0.015373	-0.071081	7517.850926	55323.668220	4166.882554	29371.906965
79.537000	-0.014157	-0.008187	-0.017072	-0.069692	7507.784151	55081.841140	4157.549971	29287.273166
80.037000	-0.013343	-0.007592	-0.011141	-0.067200	7489.914053	54854.317448	4167.946055	29136.060433
80.537000	-0.013610	-0.008451	-0.014441	-0.066229	7476.792453	54635.846079	4155.045419	29077.392833
81.034500	-0.014277	-0.008261	-0.012894	-0.064365	7450.059318	54436.727760	4154.089659	28965.120498
81.535500	-0.013319	-0.008399	-0.014429	-0.063222	7448.112378	54284.949173	4146.074067	28896.557300
82.035000	-0.014804	-0.007677	-0.012867	-0.058094	7379.038571	53766.251452	4135.471883	28590.998343
82.535000	-0.015446	-0.008410	-0.017546	-0.060382	7396.136268	53948.711705	4128.412051	28726.895371
83.036000	-0.012323	-0.007908	-0.015832	-0.059465	7419.140497	53899.908492	4130.757840	28672.326705
83.536500	-0.012610	-0.008381	-0.013312	-0.059086	7412.179587	53799.932920	4137.089943	28649.783951
84.036500	-0.014501	-0.007561	-0.014906	-0.053996	7339.865920	53301.873074	4117.425793	28349.363218
84.537000	-0.014326	-0.008630	-0.016044	-0.057450	7377.311302	53579.559364	4124.206279	28552.876233
85.037000	-0.011102	-0.007901	-0.012254	-0.056190	7397.715312	53517.605239	4131.652663	28478.457964
85.537500	-0.011633	-0.008334	-0.013211	-0.056029	7390.507410	53448.323473	4128.355848	28468.929920
86.035000	-0.015005	-0.008509	-0.018353	-0.051991	7314.160136	52960.440152	4101.607750	28231.998988
86.535500	-0.011455	-0.007755	-0.012589	-0.054968	7381.341351	53392.258446	4127.065073	28406.467440
87.035500	-0.010819	-0.006837	-0.010261	-0.054223	7380.216420	53412.512308	4131.730280	28362.703824
87.538500	-0.010506	-0.007322	-0.010826	-0.052718	7367.878141	53181.579113	4125.635074	28274.504114
88.036500	-0.013269	-0.007540	-0.015144	-0.049419	7305.621268	52775.932253	4103.446766	28082.231570
88.536500	-0.009303	-0.007042	-0.010699	-0.052971	7382.950436	53243.252334	4126.749063	28289.295663
89.036500	-0.009512	-0.007506	-0.007893	-0.052742	7378.416025	53163.029279	4134.352850	28275.919771
89.537000	-0.006880	-0.006453	-0.009482	-0.050143	7378.761489	52984.359574	4122.022093	28124.306788
90.037500	-0.011090	-0.006128	-0.013179	-0.046894	7302.100718	52648.266816	4101.833147	27936.043299
90.534500	-0.006805	-0.006077	-0.008954	-0.051156	7390.049986	53144.884641	4126.544322	28183.280642
91.037500	-0.008535	-0.005753	-0.008143	-0.050606	7366.404929	53118.626359	4127.311885	28151.196286
91.535500	-0.008187	-0.006038	-0.012681	-0.049133	7354.798489	52915.694915	4109.746489	28065.593791
92.038500	-0.009381	-0.004918	-0.010518	-0.045051	7300.721284	52575.794725	4104.191709	27829.838528
92.536000	-0.005689	-0.005631	-0.012566	-0.049635	7385.842412	53020.653463	4111.539751	28094.764122
93.036000	-0.008191	-0.005721	-0.012372	-0.049998	7363.681288	53052.047323	4113.158035	28115.838190
93.536500	-0.007332	-0.005020	-0.006875	-0.047856	7350.447481	52886.000927	4122.958402	27991.611486
94.037000	-0.010247	-0.004904	-0.010792	-0.044000	7281.243089	52457.291036	4100.368669	27769.492039
94.537500	-0.005888	-0.005864	-0.013866	-0.050310	7390.778020	53071.537154	4109.722820	28133.971364
95.035000	-0.006100	-0.005163	-0.011055	-0.049837	7383.666760	53098.025235	4116.526528	28106.489552
95.538000	-0.007685	-0.004859	-0.008359	-0.047917	7347.443497	52911.577960	4118.794700	27995.155736
96.035500	-0.006081	-0.004542	-0.007608	-0.049248	7377.758300	53101.609531	4124.893212	28072.274824
