sample name	sample
index	611
start time	 03-19-2021  01:56:21 PM


Wavelength (nm)	Absorbance
494.344910	-0.128456
494.563924	-0.128456
494.782919	-0.128456
495.001897	-0.016828
495.220856	-0.068676
495.439797	-0.055164
495.658719	-0.095154
495.877624	-0.066593
496.096510	-0.071138
496.315378	-0.089510
496.534227	-0.074291
496.753059	-0.099739
496.971872	-0.074097
497.190667	0.000789
497.409444	0.013030
497.628203	0.019762
497.846943	0.017173
498.065665	0.017653
498.284369	0.016490
498.503055	0.016855
498.721723	0.016788
498.940372	0.016493
499.159003	0.016396
499.377616	0.016620
499.596210	0.016356
499.814787	0.016671
500.033345	0.016272
500.251885	0.017005
500.470406	0.016908
500.688910	0.016738
500.907395	0.018208
501.125862	0.018953
501.344311	0.018160
501.562742	0.017461
501.781154	0.017408
501.999548	0.018436
502.217924	0.018403
502.436282	0.018132
502.654621	0.017686
502.872942	0.016811
503.091245	0.016141
503.309530	0.016996
503.527797	0.016954
503.746045	0.017025
503.964275	0.016261
504.182487	0.016197
504.400681	0.015700
504.618856	0.016293
504.837013	0.016289
505.055152	0.016826
505.273273	0.016473
505.491376	0.016256
505.709460	0.015908
505.927526	0.016606
506.145574	0.016676
506.363604	0.017030
506.581615	0.017548
506.799608	0.017480
507.017583	0.017686
507.235540	0.017551
507.453478	0.018379
507.671399	0.018452
507.889301	0.017861
508.107185	0.017853
508.325050	0.018000
508.542898	0.016891
508.760727	0.016458
508.978538	0.016422
509.196330	0.016338
509.414105	0.015894
509.631861	0.015940
509.849599	0.015482
510.067319	0.015184
510.285021	0.015632
510.502704	0.016596
510.720369	0.016203
510.938016	0.015474
511.155645	0.015290
511.373255	0.015025
511.590848	0.015154
511.808422	0.015248
512.025977	0.016254
512.243515	0.015371
512.461034	0.015337
512.678536	0.015789
512.896018	0.015915
513.113483	0.016277
513.330930	0.015821
513.548358	0.015141
513.765768	0.015923
513.983160	0.014856
514.200533	0.015053
514.417889	0.015026
514.635226	0.014736
514.852545	0.014214
515.069845	0.013339
515.287128	0.013614
515.504392	0.014389
515.721638	0.013665
515.938866	0.014165
516.156075	0.014845
516.373267	0.014516
516.590440	0.014678
516.807594	0.014437
517.024731	0.015087
517.241850	0.015345
517.458950	0.014928
517.676032	0.015068
517.893095	0.014744
518.110141	0.014751
518.327168	0.014356
518.544177	0.014290
518.761168	0.014461
518.978141	0.013986
519.195095	0.013950
519.412031	0.014555
519.628949	0.014960
519.845849	0.015123
520.062731	0.014874
520.279594	0.015402
520.496439	0.015211
520.713266	0.015473
520.930074	0.015866
521.146865	0.015711
521.363637	0.015183
521.580391	0.014674
521.797127	0.014570
522.013844	0.014115
522.230543	0.013593
522.447224	0.013407
522.663887	0.013375
522.880532	0.013237
523.097158	0.013242
523.313766	0.013283
523.530356	0.013436
523.746928	0.013731
523.963481	0.013814
524.180017	0.014342
524.396534	0.014365
524.613032	0.014062
524.829513	0.013575
525.045975	0.013522
525.262420	0.014077
525.478845	0.014172
525.695253	0.013972
525.911643	0.013415
526.128014	0.012973
526.344367	0.013632
526.560702	0.014037
526.777018	0.014224
526.993316	0.014545
527.209597	0.014182
527.425858	0.014615
527.642102	0.014475
527.858328	0.014986
528.074535	0.015362
528.290724	0.015103
528.506894	0.014675
528.723047	0.014926
528.939181	0.015163
529.155297	0.015657
529.371395	0.014856
529.587475	0.014869
529.803536	0.015108
530.019579	0.014864
530.235604	0.014256
530.451611	0.014652
530.667600	0.014720
530.883570	0.014223
531.099522	0.013296
531.315456	0.013029
531.531372	0.013247
531.747269	0.013732
531.963148	0.013499
532.179009	0.013710
532.394852	0.013544
532.610676	0.013248
532.826482	0.013430
533.042271	0.014150
533.258040	0.014743
533.473792	0.014356
533.689525	0.013661
533.905240	0.013672
534.120937	0.013912
534.336616	0.014385
534.552277	0.014893
534.767919	0.014996
534.983543	0.014663
535.199149	0.014343
535.414736	0.014130
535.630306	0.013673
535.845857	0.013979
536.061390	0.014008
536.276904	0.014047
536.492401	0.013747
536.707879	0.013519
536.923339	0.013281
537.138781	0.013504
537.354204	0.013518
537.569610	0.013872
537.784997	0.013294
538.000366	0.013594
538.215716	0.013215
538.431049	0.013341
538.646363	0.013602
538.861659	0.014031
539.076937	0.014021
539.292196	0.014433
539.507438	0.014469
539.722661	0.014496
539.937866	0.014151
540.153052	0.014527
540.368221	0.014145
540.583371	0.014044
540.798503	0.014043
541.013617	0.014051
541.228712	0.013855
541.443789	0.014069
541.658848	0.014197
541.873889	0.014462
542.088912	0.013937
542.303916	0.014371
542.518902	0.014420
542.733870	0.014063
542.948820	0.014158
543.163752	0.014022
543.378665	0.013746
543.593560	0.013900
543.808437	0.014171
544.023295	0.014363
544.238136	0.014106
544.452958	0.013991
544.667762	0.014361
544.882548	0.013813
545.097315	0.013871
545.312064	0.013847
545.526795	0.014120
545.741508	0.013635
545.956203	0.013711
546.170879	0.013771
546.385537	0.014099
546.600177	0.013752
546.814799	0.014249
547.029402	0.013923
547.243988	0.014382
547.458555	0.014169
547.673103	0.014251
547.887634	0.014367
548.102146	0.014290
548.316640	0.013800
548.531116	0.013880
548.745574	0.013838
548.960013	0.014110
549.174435	0.014093
549.388838	0.014168
549.603222	0.014025
549.817589	0.013770
550.031937	0.013832
550.246267	0.014263
550.460579	0.014391
550.674873	0.014468
550.889148	0.014663
551.103405	0.014476
551.317644	0.014274
551.531865	0.014405
551.746068	0.014409
551.960252	0.014946
552.174418	0.014558
552.388566	0.014568
552.602696	0.014265
552.816807	0.014040
553.030900	0.013838
553.244975	0.013815
553.459032	0.013466
553.673070	0.013203
553.887091	0.012791
554.101093	0.012925
554.315077	0.012709
554.529042	0.012709
554.742990	0.012788
554.956919	0.012785
555.170830	0.013381
555.384722	0.013710
555.598597	0.014117
555.812453	0.013795
556.026291	0.013603
556.240111	0.013641
556.453913	0.014204
556.667696	0.014317
556.881461	0.014375
557.095208	0.014174
557.308937	0.014173
557.522647	0.014252
557.736339	0.014440
557.950013	0.014785
558.163669	0.014773
558.377307	0.014281
558.590926	0.014472
558.804527	0.014676
559.018110	0.014415
559.231675	0.014068
559.445221	0.013825
559.658749	0.013657
559.872259	0.013536
560.085751	0.013434
560.299225	0.013559
560.512680	0.013242
560.726117	0.013120
560.939536	0.013187
561.152937	0.013632
561.366319	0.013921
561.579683	0.014190
561.793029	0.014315
562.006357	0.014705
562.219667	0.014697
562.432958	0.015014
562.646231	0.015020
562.859486	0.015032
563.072723	0.014875
563.285941	0.014620
563.499141	0.014531
563.712323	0.014200
563.925487	0.014008
564.138632	0.013963
564.351760	0.013867
564.564869	0.013815
564.777960	0.013548
564.991032	0.013645
565.204087	0.013558
565.417123	0.013285
565.630141	0.013461
565.843140	0.013526
566.056122	0.013383
566.269085	0.013316
566.482030	0.013639
566.694957	0.013710
566.907866	0.013596
567.120756	0.013773
567.333628	0.013935
567.546482	0.013955
567.759318	0.013849
567.972135	0.013885
568.184935	0.013873
568.397716	0.013651
568.610478	0.013567
568.823223	0.013640
569.035949	0.013221
569.248657	0.013028
569.461347	0.012993
569.674019	0.013027
569.886672	0.013294
570.099308	0.013558
570.311925	0.013532
570.524523	0.013927
570.737104	0.014015
570.949666	0.014097
571.162210	0.014392
571.374736	0.014265
571.587244	0.014107
571.799733	0.013731
572.012205	0.013527
572.224658	0.013435
572.437092	0.013074
572.649509	0.012991
572.861907	0.012978
573.074287	0.012986
573.286649	0.013140
573.498993	0.013027
573.711318	0.013433
573.923625	0.013472
574.135914	0.013537
574.348185	0.013755
574.560438	0.013746
574.772672	0.013908
574.984888	0.014021
575.197086	0.014167
575.409266	0.014534
575.621427	0.014473
575.833570	0.014403
576.045695	0.014345
576.257802	0.014294
576.469890	0.014285
576.681961	0.014539
576.894013	0.014578
577.106046	0.014335
577.318062	0.014139
577.530059	0.014199
577.742039	0.014153
577.954000	0.014302
578.165942	0.014246
578.377867	0.014427
578.589773	0.014380
578.801661	0.014298
579.013531	0.014370
579.225382	0.014564
579.437216	0.014409
579.649031	0.014597
579.860828	0.014446
580.072606	0.014751
580.284367	0.014618
580.496109	0.014523
580.707833	0.014477
580.919539	0.014487
581.131227	0.014475
581.342896	0.014625
581.554547	0.014499
581.766180	0.014651
581.977795	0.014307
582.189391	0.014240
582.400969	0.014338
582.612529	0.014320
582.824071	0.014323
583.035595	0.014266
583.247100	0.013888
583.458587	0.014047
583.670056	0.013807
583.881506	0.013829
584.092939	0.013882
584.304353	0.013839
584.515749	0.013602
584.727127	0.013657
584.938486	0.013702
585.149828	0.013954
585.361151	0.013911
585.572456	0.013752
585.783742	0.013851
585.995011	0.013655
586.206261	0.013744
586.417493	0.014009
586.628706	0.014078
586.839902	0.014290
587.051079	0.014514
587.262238	0.014364
587.473379	0.014602
587.684502	0.014691
587.895606	0.014995
588.106692	0.014919
588.317760	0.014861
588.528810	0.014922
588.739841	0.014605
588.950855	0.014189
589.161850	0.014216
589.372827	0.014387
589.583785	0.014313
589.794726	0.014414
590.005648	0.014309
590.216552	0.014388
590.427437	0.014182
590.638305	0.014141
590.849154	0.014129
591.059985	0.014248
591.270798	0.013957
591.481592	0.014067
591.692369	0.013917
591.903127	0.014231
592.113867	0.014114
592.324588	0.014144
592.535292	0.014455
592.745977	0.014735
592.956644	0.014732
593.167293	0.015101
593.377923	0.015011
593.588536	0.014949
593.799130	0.014687
594.009706	0.014670
594.220263	0.014694
594.430803	0.014535
594.641324	0.014584
594.851827	0.014451
595.062312	0.014615
595.272778	0.014589
595.483227	0.014618
595.693657	0.014724
595.904069	0.014955
596.114462	0.015148
596.324838	0.015117
596.535195	0.015043
596.745534	0.015149
596.955855	0.014722
597.166157	0.014745
597.376441	0.014497
597.586707	0.014654
597.796955	0.014663
598.007185	0.014744
598.217396	0.014610
598.427589	0.014792
598.637764	0.014724
598.847921	0.014925
599.058060	0.015039
599.268180	0.015284
599.478282	0.014913
599.688366	0.014796
599.898431	0.014642
600.108479	0.014804
600.318508	0.014468
600.528519	0.014537
600.738511	0.014515
600.948486	0.014391
601.158442	0.014354
601.368380	0.014526
601.578300	0.014543
601.788202	0.014403
601.998085	0.014177
602.207950	0.014323
602.417797	0.014195
602.627626	0.014081
602.837436	0.013925
603.047228	0.013842
603.257002	0.013781
603.466758	0.013761
603.676496	0.013911
603.886215	0.014171
604.095916	0.014064
604.305599	0.014070
604.515264	0.014285
604.724910	0.014571
604.934538	0.014504
605.144148	0.014662
605.353740	0.014680
605.563314	0.014611
605.772869	0.014684
605.982406	0.014611
606.191925	0.014720
606.401425	0.014556
606.610908	0.014372
606.820372	0.014526
607.029818	0.014359
607.239246	0.014341
607.448655	0.014301
607.658047	0.014355
607.867420	0.014825
608.076775	0.014764
608.286111	0.014781
608.495430	0.014983
608.704730	0.015119
608.914012	0.015192
609.123275	0.015078
609.332521	0.014969
609.541748	0.014757
609.750957	0.014532
609.960148	0.014494
610.169321	0.014376
610.378475	0.014376
610.587611	0.014575
610.796729	0.014739
611.005829	0.014868
611.214910	0.014968
611.423974	0.014915
611.633019	0.014680
611.842045	0.014868
612.051054	0.014965
612.260044	0.014788
612.469017	0.014595
612.677970	0.014428
612.886906	0.014514
613.095824	0.014748
613.304723	0.014936
613.513604	0.015067
613.722467	0.015025
613.931311	0.015021
614.140138	0.015195
614.348946	0.015329
614.557736	0.015604
614.766507	0.015618
614.975261	0.015653
615.183996	0.015652
615.392713	0.015772
615.601412	0.015760
615.810092	0.015885
616.018754	0.015757
616.227399	0.015696
616.436024	0.015383
616.644632	0.015246
616.853222	0.015056
617.061793	0.015157
617.270346	0.015071
617.478880	0.015019
617.687397	0.014783
617.895895	0.014846
618.104375	0.014699
618.312837	0.014718
618.521281	0.015004
618.729706	0.014966
618.938113	0.014904
619.146502	0.014820
619.354873	0.014944
619.563226	0.015217
619.771560	0.015279
619.979876	0.015491
620.188174	0.015544
620.396453	0.015255
620.604715	0.015501
620.812958	0.015630
621.021183	0.015759
621.229390	0.015781
621.437578	0.015937
621.645748	0.015740
621.853900	0.015452
622.062034	0.015677
622.270150	0.015850
622.478247	0.015751
622.686326	0.015641
622.894387	0.015551
623.102430	0.015557
623.310454	0.015373
623.518461	0.015517
623.726449	0.015602
623.934418	0.015598
624.142370	0.015642
624.350303	0.015761
624.558218	0.015689
624.766115	0.015858
624.973994	0.015852
625.181855	0.015886
625.389697	0.015907
625.597521	0.015877
625.805327	0.015641
626.013114	0.015432
626.220883	0.015335
626.428634	0.015424
626.636367	0.015443
626.844082	0.015509
627.051778	0.015392
627.259457	0.015491
627.467117	0.015529
627.674758	0.015629
627.882382	0.015757
628.089987	0.015819
628.297574	0.015880
628.505143	0.015692
628.712694	0.015586
628.920226	0.015612
629.127740	0.015664
629.335236	0.015791
629.542714	0.015709
629.750174	0.015507
629.957615	0.015398
630.165038	0.015291
630.372443	0.015501
630.579829	0.015477
630.787198	0.015461
630.994548	0.015379
631.201880	0.015307
631.409194	0.015326
631.616489	0.015403
631.823766	0.015451
632.031025	0.015491
632.238266	0.015519
632.445489	0.015567
632.652693	0.015735
632.859879	0.015690
633.067047	0.015848
633.274197	0.015964
633.481329	0.016035
633.688442	0.016076
633.895537	0.015884
634.102614	0.015681
634.309672	0.015768
634.516713	0.015859
634.723735	0.015992
634.930739	0.015836
635.137724	0.015841
635.344692	0.015850
635.551641	0.015793
635.758572	0.015899
635.965485	0.015991
636.172379	0.015903
636.379256	0.015713
636.586114	0.015459
636.792954	0.015620
636.999775	0.015624
637.206579	0.015732
637.413364	0.015728
637.620131	0.015684
637.826880	0.015735
638.033610	0.015769
638.240323	0.015753
638.447017	0.015913
638.653692	0.015706
638.860350	0.015810
639.066990	0.015649
639.273611	0.015771
639.480214	0.015947
639.686798	0.015927
639.893365	0.015747
640.099913	0.015705
640.306443	0.015725
640.512955	0.015919
640.719449	0.015819
640.925924	0.016005
641.132381	0.015801
641.338820	0.015839
641.545241	0.015771
641.751644	0.015876
641.958028	0.015995
642.164394	0.015944
642.370742	0.015910
642.577071	0.015786
642.783383	0.015740
642.989676	0.015826
643.195951	0.015778
643.402207	0.015783
643.608446	0.015896
643.814666	0.015866
644.020868	0.015950
644.227052	0.015971
644.433218	0.016212
644.639365	0.016334
644.845494	0.016379
645.051605	0.016264
645.257698	0.016326
645.463772	0.016275
645.669828	0.016329
645.875866	0.016202
646.081886	0.016229
646.287888	0.016022
646.493871	0.016032
646.699836	0.016028
646.905783	0.016166
647.111712	0.016159
647.317622	0.016264
647.523514	0.016185
647.729388	0.016347
647.935244	0.016417
648.141082	0.016567
648.346901	0.016550
648.552702	0.016671
648.758485	0.016719
648.964250	0.016878
649.169996	0.016887
649.375724	0.016990
649.581434	0.017133
649.787126	0.017112
649.992800	0.017188
650.198455	0.017247
650.404092	0.017287
650.609711	0.017298
650.815311	0.017281
651.020894	0.017181
651.226458	0.017284
651.432004	0.017241
651.637532	0.017136
651.843041	0.017014
652.048532	0.016922
652.254006	0.016775
652.459460	0.016607
652.664897	0.016563
652.870315	0.016707
653.075716	0.016611
653.281097	0.016610
653.486461	0.016698
653.691807	0.016741
653.897134	0.016745
654.102443	0.016687
654.307734	0.016901
654.513006	0.016822
654.718261	0.016739
654.923497	0.016827
655.128715	0.016912
655.333915	0.016752
655.539096	0.016861
655.744259	0.016759
655.949404	0.016858
656.154531	0.016881
656.359640	0.016928
656.564730	0.016971
656.769802	0.016988
656.974856	0.016887
657.179892	0.017073
657.384909	0.016980
657.589908	0.017084
657.794889	0.017050
657.999852	0.017067
658.204797	0.016932
658.409723	0.016964
658.614631	0.016863
658.819521	0.016799
659.024393	0.016753
659.229246	0.016685
659.434081	0.016811
659.638898	0.016836
659.843697	0.016810
660.048478	0.017217
660.253240	0.017312
660.457984	0.017399
660.662710	0.017494
660.867417	0.017612
661.072107	0.017714
661.276778	0.017769
661.481431	0.017781
661.686066	0.017684
661.890682	0.017595
662.095281	0.017391
662.299861	0.017425
662.504422	0.017391
662.708966	0.017308
662.913491	0.017372
663.117999	0.017281
663.322488	0.017341
663.526958	0.017464
663.731411	0.017589
663.935845	0.017763
664.140261	0.017782
664.344659	0.017850
664.549038	0.017906
664.753400	0.017793
664.957743	0.017834
665.162068	0.017815
665.366375	0.017783
665.570663	0.017479
665.774933	0.017467
665.979185	0.017412
666.183419	0.017367
666.387635	0.017401
666.591832	0.017404
666.796011	0.017452
667.000172	0.017630
667.204315	0.017637
667.408439	0.017727
667.612545	0.017826
667.816634	0.017840
668.020703	0.017876
668.224755	0.017718
668.428788	0.017835
668.632803	0.017712
668.836800	0.017597
669.040779	0.017583
669.244739	0.017557
669.448681	0.017451
669.652605	0.017500
669.856511	0.017469
670.060399	0.017547
670.264268	0.017520
670.468119	0.017495
670.671952	0.017501
670.875767	0.017585
671.079563	0.017769
671.283341	0.017848
671.487101	0.017815
671.690843	0.018023
671.894567	0.018001
672.098272	0.018141
672.301959	0.018317
672.505628	0.018293
672.709278	0.018204
672.912911	0.018200
673.116525	0.018072
673.320121	0.018120
673.523699	0.017805
673.727258	0.017949
673.930799	0.017789
674.134322	0.017750
674.337827	0.017744
674.541314	0.017855
674.744782	0.017712
674.948232	0.017656
675.151664	0.017590
675.355078	0.017817
675.558474	0.017859
675.761851	0.018023
675.965210	0.017995
676.168551	0.018089
676.371873	0.017983
676.575178	0.018033
676.778464	0.018019
676.981732	0.018080
677.184981	0.018064
677.388213	0.017888
677.591426	0.017942
677.794621	0.017988
677.997798	0.017967
678.200956	0.017927
678.404097	0.018058
678.607219	0.018209
678.810323	0.018125
679.013408	0.018144
679.216476	0.018227
679.419525	0.018080
679.622556	0.018064
679.825569	0.018051
680.028563	0.018071
680.231540	0.017898
680.434498	0.017985
680.637438	0.018173
680.840359	0.018285
681.043263	0.018305
681.246148	0.018338
681.449015	0.018354
681.651864	0.018468
681.854694	0.018547
682.057506	0.018704
682.260301	0.018669
682.463076	0.018599
682.665834	0.018377
682.868573	0.018283
683.071295	0.018327
683.273998	0.018341
683.476682	0.018236
683.679349	0.018134
683.881997	0.018180
684.084627	0.018228
684.287239	0.018203
684.489833	0.018284
684.692408	0.018461
684.894965	0.018454
685.097504	0.018475
685.300025	0.018559
685.502527	0.018768
685.705012	0.018619
685.907478	0.018573
686.109925	0.018659
686.312355	0.018597
686.514766	0.018541
686.717159	0.018732
686.919534	0.018618
687.121891	0.018520
687.324230	0.018521
687.526550	0.018530
687.728852	0.018527
687.931136	0.018478
688.133401	0.018502
688.335649	0.018360
688.537878	0.018138
688.740089	0.018328
688.942281	0.018482
689.144456	0.018441
689.346612	0.018548
689.548750	0.018690
689.750870	0.018758
689.952971	0.018827
690.155055	0.019130
690.357120	0.019233
690.559167	0.019189
690.761195	0.019089
690.963206	0.019173
691.165198	0.019172
691.367172	0.019095
691.569128	0.019070
691.771065	0.019241
691.972984	0.019127
692.174885	0.019127
692.376768	0.019157
692.578633	0.019189
692.780479	0.019101
692.982308	0.019072
693.184118	0.019068
693.385909	0.019027
693.587683	0.018766
693.789438	0.018806
693.991175	0.018815
694.192894	0.018755
694.394595	0.018650
694.596277	0.018664
694.797941	0.018701
694.999587	0.018671
695.201215	0.018667
695.402824	0.018762
695.604416	0.018757
695.805989	0.018832
696.007543	0.018820
696.209080	0.018985
696.410598	0.019013
696.612099	0.019092
696.813580	0.018972
697.015044	0.018882
697.216490	0.018891
697.417917	0.018826
697.619326	0.018673
697.820717	0.018618
698.022089	0.018456
698.223444	0.018419
698.424780	0.018355
698.626098	0.018351
698.827397	0.018618
699.028679	0.018704
699.229942	0.018706
699.431187	0.018838
699.632414	0.018899
699.833622	0.019013
700.034813	0.019137
700.235985	0.019353
700.437139	0.019555
700.638274	0.019426
700.839392	0.019290
701.040491	0.019403
701.241572	0.019245
701.442635	0.019130
701.643679	0.019109
701.844706	0.018804
702.045714	0.018507
702.246704	0.018479
702.447675	0.018453
702.648629	0.018591
702.849564	0.018549
703.050481	0.018633
703.251380	0.018674
703.452260	0.018746
703.653122	0.019040
703.853966	0.018988
704.054792	0.019009
704.255600	0.019120
704.456389	0.019092
704.657160	0.019077
704.857913	0.018942
705.058648	0.019035
705.259365	0.018819
705.460063	0.018633
705.660743	0.018759
705.861405	0.018699
706.062048	0.018590
706.262674	0.018526
706.463281	0.018513
706.663870	0.018624
706.864441	0.018660
707.064993	0.018893
707.265527	0.018954
707.466043	0.018841
707.666541	0.018940
707.867021	0.018966
708.067482	0.018982
708.267925	0.018851
708.468350	0.018905
708.668757	0.018860
708.869145	0.018789
709.069516	0.018883
709.269868	0.018989
709.470201	0.018834
709.670517	0.019143
709.870814	0.019268
710.071093	0.019442
710.271354	0.019350
710.471597	0.019509
710.671821	0.019621
710.872028	0.019571
711.072216	0.019613
711.272385	0.019757
711.472537	0.019589
711.672670	0.019343
711.872785	0.019412
712.072882	0.019449
712.272961	0.019283
712.473021	0.019123
712.673063	0.019123
712.873087	0.019187
713.073093	0.019157
713.273081	0.019044
713.473050	0.019255
713.673001	0.019168
713.872934	0.019299
714.072849	0.019375
714.272745	0.019418
714.472623	0.019464
714.672483	0.019328
714.872325	0.019386
715.072148	0.019383
715.271954	0.019317
715.471741	0.019369
715.671509	0.019243
715.871260	0.019258
716.070992	0.019233
716.270707	0.019229
716.470403	0.019351
716.670080	0.019102
716.869740	0.019179
717.069381	0.019201
717.269004	0.019203
717.468609	0.019114
717.668195	0.019120
717.867764	0.019095
718.067314	0.019185
718.266846	0.019099
718.466360	0.019277
718.665855	0.019215
718.865332	0.019009
719.064791	0.018999
719.264232	0.019020
719.463655	0.018898
719.663059	0.019001
719.862445	0.018951
720.061813	0.019066
720.261163	0.019106
720.460494	0.019029
720.659807	0.019115
720.859102	0.018995
721.058379	0.018930
721.257638	0.018925
721.456878	0.018744
721.656100	0.018575
721.855304	0.018580
722.054490	0.018425
722.253657	0.018450
722.452806	0.018420
722.651937	0.018328
722.851050	0.018427
723.050145	0.018568
723.249221	0.018708
723.448279	0.018869
723.647319	0.018731
723.846340	0.018718
724.045344	0.018722
724.244329	0.018781
724.443296	0.018786
724.642245	0.018844
724.841175	0.018744
725.040088	0.018668
725.238982	0.018556
725.437857	0.018451
725.636715	0.018501
725.835554	0.018430
726.034376	0.018414
726.233179	0.018532
726.431963	0.018528
726.630730	0.018579
726.829478	0.018576
727.028208	0.018530
727.226920	0.018580
727.425614	0.018471
727.624289	0.018554
727.822946	0.018492
728.021585	0.018604
728.220206	0.018474
728.418808	0.018477
728.617392	0.018449
728.815958	0.018410
729.014506	0.018237
729.213036	0.018434
729.411547	0.018282
729.610040	0.018475
729.808515	0.018227
730.006972	0.018201
730.205410	0.018121
730.403831	0.018119
730.602233	0.018124
730.800616	0.018404
730.998982	0.018203
731.197329	0.018255
731.395658	0.018055
731.593969	0.018024
731.792262	0.018055
731.990536	0.017925
732.188793	0.017979
732.387031	0.017980
732.585250	0.017837
732.783452	0.017935
732.981635	0.017867
733.179800	0.017973
733.377947	0.017878
733.576076	0.017863
733.774186	0.017983
733.972278	0.017789
734.170352	0.017693
734.368408	0.017844
734.566446	0.017711
734.764465	0.017766
734.962466	0.017589
735.160449	0.017692
735.358413	0.017543
735.556360	0.017429
735.754288	0.017458
735.952198	0.017541
736.150090	0.017204
736.347963	0.017021
736.545818	0.016884
736.743655	0.016948
736.941474	0.016914
737.139275	0.017032
737.337057	0.016962
737.534821	0.016930
737.732567	0.016886
737.930295	0.016917
738.128005	0.017177
738.325696	0.017260
738.523369	0.017204
738.721024	0.017111
738.918660	0.017129
739.116279	0.017078
739.313879	0.017250
739.511461	0.017281
739.709024	0.017135
739.906570	0.017050
740.104097	0.016947
740.301606	0.016820
740.499097	0.016807
740.696569	0.016771
740.894024	0.016810
741.091460	0.016756
741.288878	0.016660
741.486277	0.016810
741.683659	0.016829
741.881022	0.016889
742.078367	0.016957
742.275694	0.017021
742.473002	0.017056
742.670293	0.017068
742.867565	0.017028
743.064819	0.017264
743.262054	0.017355
743.459272	0.017308
743.656471	0.017282
743.853652	0.017230
744.050815	0.017344
744.247959	0.017165
744.445085	0.017231
744.642194	0.017059
744.839283	0.016876
745.036355	0.016727
745.233408	0.016766
745.430444	0.016864
745.627461	0.016984
745.824459	0.016969
746.021440	0.017077
746.218402	0.016908
746.415346	0.016918
746.612272	0.016755
746.809180	0.016897
747.006069	0.016927
747.202940	0.016852
747.399793	0.016934
747.596628	0.016804
747.793444	0.016881
747.990243	0.017054
748.187023	0.017284
748.383784	0.017417
748.580528	0.017293
748.777253	0.017270
748.973960	0.017282
749.170649	0.017122
749.367320	0.017118
749.563973	0.016919
749.760607	0.016784
749.957223	0.016695
750.153821	0.016669
750.350400	0.016616
750.546962	0.016492
750.743505	0.016464
750.940030	0.016585
751.136536	0.016650
751.333025	0.016863
751.529495	0.016740
751.725947	0.016700
751.922381	0.016691
752.118796	0.016830
752.315194	0.016878
752.511573	0.016889
752.707934	0.016784
752.904276	0.016774
753.100601	0.016745
753.296907	0.016962
753.493195	0.016907
753.689465	0.016823
753.885716	0.016678
754.081949	0.016741
754.278164	0.016616
754.474361	0.016569
754.670540	0.016521
754.866700	0.016323
755.062843	0.016346
755.258967	0.016531
755.455072	0.016561
755.651160	0.016721
755.847229	0.016704
756.043280	0.016733
756.239313	0.016820
756.435328	0.016807
756.631324	0.017061
756.827302	0.016872
757.023262	0.016698
757.219204	0.016786
757.415127	0.016961
757.611033	0.016884
757.806920	0.017021
758.002788	0.017020
758.198639	0.017103
758.394471	0.016855
758.590286	0.016894
758.786081	0.016869
758.981859	0.017019
759.177619	0.016870
759.373360	0.016930
759.569083	0.016855
759.764788	0.016868
759.960474	0.016812
760.156143	0.016836
760.351793	0.016857
760.547425	0.016872
760.743038	0.016694
760.938634	0.016580
761.134211	0.016503
761.329770	0.016395
761.525311	0.016342
761.720833	0.016436
761.916338	0.016556
762.111824	0.016562
762.307292	0.016407
762.502741	0.016402
762.698173	0.016481
762.893586	0.016535
763.088981	0.016577
763.284358	0.016713
763.479716	0.016625
763.675057	0.016495
763.870379	0.016498
764.065683	0.016681
764.260968	0.016658
764.456236	0.016328
764.651485	0.016346
764.846716	0.016386
765.041929	0.016209
765.237123	0.016203
765.432299	0.016236
765.627457	0.016296
765.822597	0.016358
766.017719	0.016613
766.212822	0.016912
766.407907	0.016983
766.602974	0.016940
766.798023	0.016965
766.993054	0.016916
767.188066	0.016859
767.383060	0.016930
767.578036	0.016877
767.772993	0.016661
767.967933	0.016519
768.162854	0.016485
768.357757	0.016604
768.552642	0.016546
768.747508	0.016533
768.942356	0.016504
769.137186	0.016465
769.331998	0.016454
769.526792	0.016442
769.721567	0.016440
769.916324	0.016391
770.111063	0.016428
770.305784	0.016456
770.500486	0.016642
770.695171	0.016744
770.889837	0.016867
771.084484	0.016982
771.279114	0.016919
771.473725	0.017063
771.668318	0.016935
771.862893	0.016890
772.057450	0.016873
772.251988	0.016747
772.446509	0.016681
772.641011	0.016625
772.835494	0.016519
773.029960	0.016633
773.224407	0.016722
773.418836	0.016871
773.613247	0.016942
773.807640	0.017017
774.002014	0.016994
774.196370	0.017078
774.390708	0.017102
774.585028	0.017123
774.779330	0.017154
774.973613	0.017038
775.167878	0.017033
775.362125	0.017116
775.556354	0.017105
775.750564	0.017099
775.944756	0.017281
776.138930	0.017314
776.333086	0.017270
776.527223	0.017131
776.721343	0.017208
776.915444	0.017122
777.109526	0.016877
777.303591	0.016935
777.497637	0.017149
777.691666	0.017132
777.885676	0.017154
778.079667	0.017279
778.273641	0.017510
778.467596	0.017566
778.661533	0.017714
778.855452	0.017859
779.049352	0.018009
779.243235	0.017880
779.437099	0.017700
779.630945	0.017671
779.824773	0.017658
780.018582	0.017579
780.212373	0.017391
780.406146	0.017313
780.599901	0.017310
780.793638	0.017225
780.987356	0.017216
781.181056	0.017190
781.374738	0.017121
781.568402	0.017242
781.762047	0.017065
781.955674	0.017253
782.149283	0.017233
782.342874	0.017225
782.536447	0.017213
782.730001	0.017230
782.923537	0.017415
783.117055	0.017117
783.310555	0.016965
783.504036	0.016943
783.697499	0.016888
783.890944	0.017081
784.084371	0.017069
784.277780	0.017138
784.471170	0.017190
784.664542	0.017179
784.857896	0.017478
785.051231	0.017547
785.244549	0.017608
785.437848	0.017767
785.631129	0.017520
785.824392	0.017634
786.017636	0.017679
786.210863	0.017661
786.404071	0.017754
786.597260	0.017777
786.790432	0.017658
786.983585	0.017709
787.176721	0.017535
787.369838	0.017612
787.562936	0.017435
787.756017	0.017337
787.949079	0.017464
788.142123	0.017366
788.335149	0.017286
788.528156	0.017208
788.721146	0.017449
788.914117	0.017482
789.107070	0.017469
789.300005	0.017452
789.492921	0.017555
789.685819	0.017355
789.878699	0.017427
790.071561	0.017636
790.264405	0.017686
790.457230	0.017562
790.650037	0.017603
790.842826	0.017690
791.035597	0.017667
791.228349	0.017544
791.421084	0.017486
791.613800	0.017325
791.806497	0.017291
791.999177	0.017448
792.191838	0.017496
792.384481	0.017296
792.577106	0.017461
792.769713	0.017672
792.962301	0.017790
793.154871	0.018006
793.347423	0.018152
793.539957	0.018032
793.732473	0.018007
793.924970	0.017978
794.117449	0.018386
794.309910	0.018301
794.502353	0.018344
794.694777	0.018388
794.887183	0.018390
795.079571	0.018432
795.271941	0.018414
795.464293	0.018447
795.656626	0.018288
795.848941	0.018133
796.041238	0.018060
796.233516	0.018010
796.425777	0.017957
796.618019	0.017900
796.810243	0.017865
797.002449	0.017962
797.194636	0.018117
797.386805	0.018312
797.578956	0.018243
797.771089	0.018307
797.963204	0.018377
798.155300	0.018557
798.347378	0.018552
798.539438	0.018563
798.731480	0.018716
798.923503	0.018742
799.115509	0.018541
799.307496	0.018700
799.499465	0.018807
799.691415	0.018876
799.883348	0.018682
800.075262	0.018635
800.267158	0.018665
800.459035	0.018402
800.650895	0.018156
800.842736	0.018475
801.034559	0.018480
801.226364	0.018161
801.418150	0.018008
801.609919	0.018064
801.801669	0.018081
801.993401	0.018168
802.185114	0.018378
802.376810	0.018637
802.568487	0.018555
802.760146	0.018702
802.951787	0.019036
803.143409	0.019017
803.335014	0.019163
803.526600	0.019367
803.718168	0.019363
803.909717	0.019229
804.101249	0.019179
804.292762	0.019247
804.484257	0.019125
804.675734	0.019174
804.867192	0.019287
805.058632	0.019115
805.250054	0.019157
805.441458	0.019095
805.632844	0.019449
805.824211	0.019364
806.015561	0.019339
806.206891	0.019437
806.398204	0.019393
806.589499	0.019564
806.780775	0.019628
806.972033	0.019605
807.163273	0.019752
807.354495	0.019654
807.545698	0.019778
807.736883	0.019901
807.928050	0.019738
808.119199	0.019876
808.310329	0.019845
808.501441	0.019887
808.692535	0.019958
808.883611	0.019863
809.074669	0.019964
809.265708	0.020133
809.456729	0.020110
809.647732	0.020243
809.838717	0.020217
810.029683	0.020265
810.220632	0.020245
810.411562	0.020273
810.602474	0.020330
810.793367	0.020336
810.984242	0.020364
811.175100	0.020374
811.365938	0.020379
811.556759	0.020523
811.747562	0.020429
811.938346	0.020612
812.129112	0.020698
812.319860	0.020632
812.510589	0.020529
812.701300	0.020322
812.891994	0.020451
813.082668	0.020628
813.273325	0.020566
813.463964	0.020610
813.654584	0.020530
813.845186	0.020540
814.035769	0.020601
814.226335	0.020617
814.416882	0.020762
814.607411	0.020656
814.797922	0.020690
814.988415	0.020801
815.178889	0.021043
815.369345	0.021161
815.559783	0.021251
815.750203	0.021539
815.940605	0.021569
816.130988	0.021743
816.321353	0.021858
816.511700	0.021821
816.702028	0.021895
816.892339	0.021922
817.082631	0.021990
817.272905	0.022110
817.463161	0.022141
817.653398	0.022223
817.843617	0.022271
818.033819	0.022201
818.224001	0.022172
818.414166	0.022035
818.604312	0.021766
818.794440	0.021579
818.984550	0.021241
819.174642	0.020982
819.364716	0.021212
819.554771	0.021126
819.744808	0.021201
819.934827	0.021161
820.124827	0.021241
820.314810	0.021522
820.504774	0.021782
820.694720	0.022098
820.884647	0.022444
821.074557	0.022202
821.264448	0.022195
821.454321	0.022067
821.644176	0.022238
821.834012	0.022308
822.023831	0.022147
822.213631	0.022080
822.403413	0.021932
822.593176	0.021786
822.782922	0.021701
822.972649	0.021820
823.162358	0.022107
823.352049	0.022149
823.541721	0.022198
823.731376	0.022316
823.921012	0.022405
824.110629	0.022534
824.300229	0.022724
824.489811	0.023097
824.679374	0.022994
824.868919	0.023066
825.058445	0.023084
825.247954	0.023206
825.437444	0.023258
825.626916	0.023092
825.816370	0.023149
826.005806	0.022863
826.195223	0.022732
826.384622	0.022811
826.574003	0.022800
826.763366	0.022788
826.952711	0.022436
827.142037	0.022536
827.331345	0.022715
827.520635	0.022507
827.709906	0.022378
827.899160	0.022372
828.088395	0.022321
828.277612	0.022069
828.466810	0.022147
828.655991	0.022298
828.845153	0.022293
829.034297	0.022296
829.223423	0.022714
829.412531	0.023150
829.601620	0.023161
829.790691	0.023208
829.979744	0.023492
830.168779	0.023316
830.357795	0.023311
830.546793	0.023390
830.735773	0.023174
830.924735	0.022873
831.113679	0.022829
831.302604	0.022889
831.491511	0.022876
831.680400	0.022708
831.869271	0.022803
832.058123	0.022919
832.246957	0.022837
832.435773	0.023298
832.624571	0.023501
832.813351	0.023456
833.002112	0.023343
833.190855	0.023468
833.379580	0.023574
833.568287	0.023536
833.756975	0.023473
833.945645	0.023566
834.134297	0.023448
834.322931	0.023400
834.511547	0.023475
834.700144	0.023519
834.888723	0.023531
835.077284	0.023686
835.265826	0.023708
835.454351	0.023622
835.642857	0.023658
835.831345	0.023692
836.019815	0.023714
836.208266	0.023609
836.396699	0.023827
836.585114	0.023777
836.773511	0.023731
836.961890	0.023940
837.150250	0.024235
837.338592	0.024184
837.526916	0.024192
837.715222	0.024259
837.903510	0.024536
838.091779	0.024529
838.280030	0.024697
838.468263	0.024931
838.656477	0.024949
838.844674	0.025049
839.032852	0.025026
839.221012	0.024987
839.409153	0.025159
839.597277	0.025064
839.785382	0.025220
839.973469	0.025048
840.161538	0.025035
840.349589	0.024960
840.537621	0.025000
840.725635	0.025271
840.913631	0.025559
841.101609	0.025506
841.289568	0.025725
841.477509	0.025844
841.665432	0.026373
841.853337	0.026199
842.041224	0.026294
842.229092	0.026146
842.416942	0.026073
842.604774	0.025939
842.792588	0.025697
842.980383	0.025669
843.168160	0.025385
843.355919	0.025201
843.543660	0.025413
843.731382	0.025661
843.919087	0.025727
844.106773	0.025763
844.294441	0.025855
844.482090	0.026278
844.669722	0.026336
844.857335	0.026533
845.044930	0.026525
845.232507	0.026522
845.420065	0.026439
845.607605	0.026662
845.795127	0.026725
845.982631	0.026825
846.170117	0.026768
846.357584	0.026701
846.545033	0.026722
846.732464	0.026712
846.919877	0.026699
847.107272	0.026885
847.294648	0.026787
847.482006	0.026776
847.669346	0.026670
847.856667	0.026533
848.043971	0.026369
848.231256	0.026338
848.418523	0.026409
848.605771	0.026494
848.793002	0.026436
848.980214	0.026574
849.167408	0.026643
849.354584	0.026753
849.541742	0.026883
849.728881	0.027202
849.916002	0.027386
850.103105	0.027431
850.290190	0.027465
850.477256	0.027468
850.664304	0.027549
850.851334	0.027499
851.038346	0.027580
851.225340	0.027681
851.412315	0.027741
851.599272	0.027915
851.786211	0.027976
851.973132	0.028116
852.160034	0.028270
852.346918	0.028111
852.533784	0.028264
852.720632	0.028231
852.907462	0.028198
853.094273	0.028421
853.281066	0.028388
853.467841	0.028235
853.654598	0.028307
853.841336	0.028395
854.028056	0.028541
854.214758	0.028627
854.401442	0.028716
854.588107	0.028960
854.774755	0.029009
854.961384	0.029004
855.147995	0.029244
855.334587	0.029220
855.521162	0.029224
855.707718	0.029245
855.894256	0.029244
856.080775	0.029309
856.267277	0.029446
856.453760	0.029396
856.640225	0.029202
856.826672	0.029234
857.013101	0.029365
857.199511	0.029359
857.385903	0.029285
857.572277	0.029612
857.758633	0.029638
857.944970	0.029617
858.131290	0.029611
858.317591	0.030060
858.503873	0.030244
858.690138	0.030428
858.876384	0.030382
859.062612	0.030739
859.248822	0.030616
859.435014	0.030716
859.621188	0.030623
859.807343	0.030405
859.993480	0.030294
860.179599	0.030175
860.365699	0.030020
860.551781	0.030251
860.737846	0.030051
860.923891	0.030172
861.109919	0.030302
861.295929	0.030290
861.481920	0.030471
861.667893	0.030606
861.853848	0.030819
862.039784	0.030748
862.225702	0.030701
862.411603	0.031097
862.597484	0.030931
862.783348	0.030871
862.969193	0.031027
863.155021	0.031270
863.340830	0.031372
863.526620	0.031389
863.712393	0.031756
863.898147	0.031871
864.083883	0.031694
864.269601	0.031677
864.455301	0.032154
864.640982	0.032268
864.826645	0.032450
865.012290	0.032504
865.197917	0.032498
865.383526	0.032420
865.569116	0.032456
865.754688	0.032613
865.940242	0.032655
866.125777	0.032253
866.311295	0.032317
866.496794	0.032276
866.682275	0.032152
866.867737	0.032502
867.053182	0.032496
867.238608	0.032411
867.424016	0.032348
867.609406	0.032737
867.794778	0.032716
867.980131	0.033005
868.165466	0.033036
868.350783	0.033194
868.536082	0.033001
868.721362	0.033171
868.906625	0.033362
869.091869	0.033581
869.277094	0.033296
869.462302	0.033423
869.647491	0.033296
869.832662	0.033219
870.017815	0.033489
870.202950	0.033449
870.388066	0.033467
870.573165	0.033732
870.758245	0.033834
870.943306	0.034107
871.128350	0.034161
871.313375	0.034050
871.498382	0.033861
871.683371	0.033434
871.868342	0.033410
872.053294	0.033399
872.238229	0.033325
872.423144	0.033203
872.608042	0.033148
872.792922	0.033077
872.977783	0.033192
873.162626	0.033428
873.347451	0.033623
873.532258	0.033784
873.717046	0.034172
873.901816	0.034098
874.086568	0.034239
874.271302	0.034443
874.456017	0.034695
874.640715	0.035051
874.825394	0.035260
875.010055	0.035325
875.194697	0.035466
875.379322	0.035006
875.563928	0.034985
875.748516	0.034741
875.933085	0.034687
876.117637	0.034734
876.302170	0.034700
876.486685	0.034683
876.671182	0.034713
876.855661	0.034473
877.040121	0.034901
877.224563	0.034946
877.408987	0.035336
877.593393	0.035371
877.777780	0.035477
877.962150	0.035418
878.146501	0.035388
878.330833	0.035581
878.515148	0.035742
878.699444	0.035575
878.883722	0.035890
879.067982	0.035702
879.252224	0.035795
879.436447	0.035709
879.620653	0.035644
879.804840	0.035714
879.989008	0.035455
880.173159	0.035630
880.357291	0.035552
880.541405	0.035747
880.725501	0.036011
880.909579	0.036052
881.093638	0.036032
881.277680	0.036090
881.461703	0.036314
881.645707	0.036774
881.829694	0.036600
882.013662	0.036778
882.197612	0.036649
882.381544	0.036751
882.565458	0.036829
882.749353	0.037114
882.933230	0.037103
883.117089	0.037019
883.300930	0.036760
883.484753	0.037072
883.668557	0.036970
883.852343	0.036655
884.036111	0.036563
884.219861	0.036470
884.403592	0.036238
884.587305	0.036304
884.771000	0.036246
884.954677	0.036329
885.138335	0.036483
885.321976	0.036354
885.505598	0.036790
885.689201	0.036683
885.872787	0.036516
886.056354	0.036390
886.239904	0.036438
886.423434	0.036391
886.606947	0.036385
886.790442	0.036230
886.973918	0.036538
887.157376	0.035912
887.340816	0.036070
887.524237	0.036127
887.707641	0.036332
887.891026	0.036242
888.074393	0.036415
888.257741	0.036319
888.441072	0.036383
888.624384	0.036155
888.807678	0.036358
888.990954	0.036160
889.174211	0.036496
889.357451	0.036596
889.540672	0.036546
889.723875	0.036470
889.907059	0.036429
890.090226	0.036345
890.273374	0.036402
890.456504	0.036496
890.639616	0.036556
890.822709	0.036202
891.005785	0.036142
891.188842	0.036106
891.371881	0.036178
891.554901	0.036578
891.737904	0.036692
891.920888	0.036702
892.103854	0.036468
892.286802	0.036391
892.469731	0.036489
892.652643	0.036381
892.835536	0.036379
893.018410	0.036364
893.201267	0.036047
893.384106	0.036082
893.566926	0.035851
893.749728	0.035776
893.932511	0.035616
894.115277	0.035498
894.298024	0.035347
894.480753	0.035619
894.663464	0.035587
894.846157	0.035483
895.028831	0.035485
895.211487	0.035840
895.394125	0.036051
895.576745	0.036212
895.759346	0.036263
895.941930	0.036722
896.124495	0.036600
896.307041	0.036638
896.489570	0.036581
896.672080	0.036289
896.854573	0.036181
897.037046	0.036298
897.219502	0.036274
897.401940	0.036018
897.584359	0.035919
897.766760	0.035739
897.949143	0.035709
898.131507	0.036041
898.313854	0.035904
898.496182	0.035999
898.678492	0.035934
898.860783	0.035865
899.043057	0.036395
899.225312	0.036272
899.407549	0.036349
899.589768	0.036338
899.771968	0.035981
899.954151	0.036076
900.136315	0.035991
900.318461	0.035840
900.500588	0.036071
900.682698	0.035894
900.864789	0.035875
901.046862	0.035935
901.228917	0.035720
901.410953	0.035859
901.592971	0.035923
901.774972	0.035905
901.956953	0.035831
902.138917	0.035814
902.320862	0.035794
902.502790	0.035534
902.684699	0.035516
902.866589	0.035332
903.048462	0.035136
903.230316	0.035322
903.412152	0.035327
903.593970	0.035519
903.775770	0.035355
903.957551	0.035009
904.139314	0.035151
904.321059	0.035004
904.502786	0.035052
904.684494	0.035175
904.866185	0.034691
905.047857	0.034739
905.229510	0.034635
905.411146	0.034609
905.592763	0.034709
905.774363	0.034687
905.955943	0.034757
906.137506	0.035292
906.319051	0.035189
906.500577	0.035665
906.682085	0.035326
906.863575	0.035164
907.045046	0.034932
907.226500	0.034894
907.407935	0.034791
907.589352	0.034864
907.770750	0.034374
907.952131	0.034427
908.133493	0.033900
908.314837	0.033864
908.496163	0.034331
908.677470	0.034740
908.858760	0.034759
909.040031	0.034577
909.221284	0.034257
909.402518	0.034039
909.583735	0.033854
909.764933	0.033864
909.946113	0.034085
910.127275	0.033645
910.308418	0.033368
910.489544	0.033267
910.670651	0.033416
910.851740	0.033242
911.032810	0.033263
911.213863	0.033296
911.394897	0.033144
911.575913	0.032976
911.756911	0.032815
911.937890	0.032690
912.118851	0.032633
912.299794	0.032465
912.480719	0.032437
912.661626	0.032420
912.842514	0.032222
913.023384	0.032230
913.204236	0.032028
913.385070	0.032049
913.565886	0.032079
913.746683	0.032144
913.927462	0.032307
914.108223	0.032315
914.288965	0.032224
914.469690	0.032380
914.650396	0.032536
914.831084	0.032619
915.011754	0.032088
915.192405	0.031828
915.373038	0.031560
915.553653	0.031376
915.734250	0.031037
915.914829	0.031057
916.095389	0.031075
916.275931	0.030901
916.456455	0.031064
916.636961	0.031377
916.817448	0.030976
916.997917	0.031122
917.178368	0.030957
917.358801	0.031341
917.539216	0.031007
917.719612	0.031219
917.899990	0.031052
918.080350	0.030504
918.260692	0.030648
918.441015	0.030866
918.621320	0.030467
918.801607	0.030544
918.981876	0.030227
919.162127	0.030333
919.342359	0.029885
919.522573	0.029964
919.702769	0.029774
919.882947	0.029488
920.063106	0.029207
920.243247	0.029110
920.423370	0.028785
920.603475	0.028770
920.783562	0.028625
920.963630	0.028171
921.143680	0.027882
921.323712	0.027865
921.503725	0.028079
921.683721	0.028408
921.863698	0.028482
922.043657	0.028286
922.223598	0.028261
922.403520	0.028032
922.583424	0.028222
922.763311	0.028012
922.943178	0.027987
923.123028	0.027546
923.302859	0.026962
923.482673	0.027079
923.662467	0.026805
923.842244	0.026501
924.022003	0.026567
924.201743	0.026462
924.381465	0.026796
924.561169	0.026762
924.740854	0.027082
924.920522	0.027848
925.100171	0.027090
925.279802	0.027427
925.459414	0.027408
925.639009	0.027055
925.818585	0.026767
925.998143	0.026406
926.177683	0.026584
926.357205	0.025671
926.536708	0.025065
926.716193	0.025487
926.895660	0.025488
927.075109	0.025243
927.254539	0.025150
927.433951	0.025200
927.613345	0.025036
927.792721	0.024295
927.972079	0.024689
928.151418	0.024811
928.330739	0.024218
928.510042	0.024148
928.689327	0.024140
928.868593	0.024153
929.047841	0.023804
929.227071	0.023483
929.406283	0.023478
929.585476	0.022995
929.764652	0.022290
929.943809	0.022743
930.122948	0.022403
930.302068	0.022006
930.481171	0.021882
930.660255	0.021617
930.839321	0.021487
931.018369	0.021365
931.197398	0.021666
931.376409	0.021170
931.555402	0.020602
931.734377	0.020118
931.913334	0.020027
932.092272	0.019864
932.271192	0.019715
932.450094	0.019519
932.628978	0.019372
932.807844	0.019157
932.986691	0.019236
933.165520	0.018972
933.344331	0.018802
933.523123	0.018960
933.701898	0.019139
933.880654	0.019246
934.059392	0.019098
934.238111	0.018711
934.416813	0.017957
934.595496	0.018135
934.774161	0.018868
934.952808	0.018466
935.131437	0.017680
935.310047	0.017781
935.488639	0.017621
935.667213	0.017135
935.845769	0.016675
936.024306	0.016625
936.202825	0.016548
936.381326	0.015826
936.559809	0.016087
936.738274	0.016777
936.916720	0.015416
937.095148	0.014898
937.273558	0.015106
937.451950	0.015459
937.630323	0.015493
937.808678	0.015420
937.987015	0.014775
938.165334	0.014318
938.343635	0.014284
938.521917	0.014462
938.700181	0.014956
938.878427	0.014773
939.056655	0.014525
939.234864	0.014408
939.413055	0.014190
939.591228	0.014830
939.769383	0.014777
939.947519	0.013186
940.125638	0.013953
940.303738	0.013496
940.481820	0.013138
940.659883	0.013124
940.837929	0.012412
941.015956	0.012113
941.193965	0.011744
941.371955	0.012077
941.549928	0.011699
941.727882	0.010707
941.905818	0.009616
942.083736	0.009778
942.261636	0.009558
942.439517	0.009745
942.617380	0.009964
942.795225	0.009475
942.973052	0.009419
943.150860	0.010124
943.328651	0.010178
943.506423	0.010287
943.684176	0.010243
943.861912	0.010993
944.039629	0.011642
944.217328	0.010995
944.395009	0.010577
944.572672	0.009898
944.750317	0.010193
944.927943	0.009835
945.105551	0.011040
945.283141	0.010270
945.460712	0.009956
945.638265	0.008870
945.815801	0.008487
945.993317	0.008749
946.170816	0.009086
946.348297	0.007598
946.525759	0.007305
946.703203	0.006183
946.880629	0.006545
947.058036	0.006635
947.235425	0.006094
947.412797	0.006796
947.590149	0.007489
947.767484	0.006852
947.944800	0.008234
948.122099	0.007971
948.299379	0.008480
948.476640	0.009323
948.653884	0.008951
948.831109	0.010075
949.008316	0.009639
949.185505	0.009236
949.362676	0.010805
949.539828	0.010252
949.716962	0.011079
949.894078	0.010763
950.071176	0.009965
950.248256	0.009968
950.425317	0.009673
950.602360	0.008832
950.779385	0.008951
950.956391	0.007585
951.133380	0.008995
951.310350	0.009275
951.487302	0.009533
951.664235	0.009843
951.841151	0.009250
952.018048	0.009241
952.194927	0.009920
952.371788	0.009854
952.548631	0.010541
952.725455	0.008483
952.902261	0.009333
953.079049	0.009133
953.255819	0.009179
953.432570	0.009107
953.609303	0.009674
953.786018	0.009533
953.962715	0.009344
954.139394	0.009852
954.316054	0.011816
954.492696	0.011511
954.669320	0.011803
954.845926	0.011616
955.022513	0.011734
955.199083	0.011803
955.375634	0.012133
955.552166	0.011623
955.728681	0.010836
955.905177	0.010247
956.081655	0.008711
956.258115	0.008620
956.434557	0.009964
956.610980	0.010569
956.787385	0.009708
956.963772	0.010417
957.140141	0.010900
957.316492	0.010373
957.492824	0.010029
957.669138	0.012112
957.845434	0.012652
958.021712	0.011449
958.197971	0.011548
958.374212	0.013555
958.550435	0.013416
958.726640	0.013990
958.902826	0.014521
959.078995	0.014871
959.255145	0.011729
959.431277	0.011811
959.607390	0.012434
959.783486	0.011963
959.959563	0.009068
960.135622	0.009547
960.311662	0.009989
960.487685	0.010103
960.663689	0.009748
960.839675	0.010164
961.015643	0.009429
961.191593	0.008470
961.367524	0.010563
961.543437	0.013337
961.719332	0.012700
961.895209	0.012047
962.071067	0.011212
962.246907	0.011830
962.422730	0.014548
962.598533	0.016340
962.774319	0.017154
962.950086	0.016284
963.125835	0.015196
963.301566	0.016375
963.477279	0.015865
963.652973	0.017640
963.828650	0.019166
964.004308	0.018684
964.179947	0.018538
964.355569	0.018431
964.531172	0.018296
964.706757	0.019860
964.882324	0.018020
965.057873	0.018651
965.233403	0.017691
965.408916	0.017405
965.584410	0.018788
965.759885	0.018648
965.935343	0.019092
966.110782	0.019275
966.286203	0.018397
966.461606	0.021483
966.636991	0.021302
966.812357	0.023596
966.987705	0.021294
967.163035	0.020278
967.338347	0.020327
967.513641	0.020514
967.688916	0.018943
967.864173	0.019781
968.039412	0.018050
968.214632	0.020212
968.389835	0.018508
968.565019	0.021061
968.740185	0.020028
968.915333	0.020324
969.090462	0.019939
969.265573	0.021840
969.440667	0.022847
969.615741	0.022165
969.790798	0.020256
969.965836	0.019195
970.140856	0.018342
970.315858	0.019836
970.490842	0.018506
970.665808	0.018237
970.840755	0.017006
971.015684	0.015878
971.190595	0.016804
971.365487	0.015589
971.540362	0.016371
971.715218	0.016075
971.890056	0.015912
972.064875	0.015928
972.239677	0.017429
972.414460	0.017488
972.589225	0.015455
972.763972	0.015003
972.938700	0.014718
973.113411	0.015979
973.288103	0.016926
973.462777	0.016600
973.637432	0.017053
973.812070	0.015239
973.986689	0.015314
974.161290	0.017634
974.335873	0.016754
974.510437	0.018152
974.684984	0.017462
974.859512	0.016434
975.034022	0.017693
975.208513	0.016609
975.382987	0.017145
975.557442	0.016677
975.731879	0.016296
975.906298	0.017873
976.080698	0.017679
976.255080	0.018225
976.429445	0.018735
976.603790	0.017003
976.778118	0.018959
976.952427	0.018486
977.126719	0.019378
977.300992	0.019359
977.475246	0.019713
977.649483	0.021240
977.823701	0.019157
977.997901	0.018639
978.172083	0.019631
978.346247	0.018969
978.520392	0.020571
978.694519	0.022002
978.868628	0.020740
979.042719	0.019896
979.216791	0.020170
979.390845	0.020846
979.564882	0.021055
979.738899	0.019679
979.912899	0.019582
980.086880	0.020124
980.260843	0.018526
980.434788	0.018688
980.608715	0.019485
980.782623	0.017709
980.956514	0.017482
981.130386	0.019068
981.304240	0.020467
981.478075	0.020943
981.651892	0.021229
981.825692	0.022044
981.999472	0.023714
982.173235	0.023185
982.346980	0.025884
982.520706	0.025997
982.694414	0.022860
982.868104	0.022652
983.041775	0.022184
983.215428	0.020047
983.389064	0.019533
983.562680	0.018390
983.736279	0.015975
983.909860	0.013381
984.083422	0.013597
984.256966	0.015826
984.430491	0.015568
984.603999	0.015655
984.777488	0.017457
984.950959	0.018070
985.124412	0.019337
985.297847	0.022364
985.471263	0.021512
985.644661	0.022121
985.818041	0.022273
985.991403	0.022244
986.164747	0.022268
986.338072	0.021149
986.511379	0.022264
986.684668	0.020253
986.857938	0.018681
987.031191	0.020345
987.204425	0.018786
987.377641	0.018076
987.550839	0.018101
987.724018	0.018785
987.897179	0.017042
988.070322	0.016732
988.243447	0.017876
988.416554	0.017400
988.589642	0.016109
988.762712	0.017125
988.935764	0.015504
989.108798	0.013937
989.281813	0.013060
989.454811	0.014262
989.627790	0.013208
989.800751	0.012286
989.973693	0.013026
990.146617	0.013965
990.319524	0.013533
990.492412	0.014441
990.665281	0.015078
990.838133	0.015251
991.010966	0.016072
991.183781	0.015573
991.356578	0.016795
991.529356	0.017384
991.702117	0.016379
991.874859	0.016089
992.047583	0.015842
992.220288	0.016728
992.392976	0.016838
992.565645	0.015879
992.738296	0.013944
992.910929	0.013926
993.083543	0.014815
993.256139	0.015806
993.428718	0.016532
993.601277	0.015857
993.773819	0.016499
993.946342	0.017746
994.118848	0.018887
994.291335	0.020799
994.463803	0.019733
994.636254	0.018681
994.808686	0.019066
994.981100	0.019100
995.153496	0.020726
995.325874	0.021255
995.498233	0.020283
995.670574	0.019094
995.842897	0.019957
996.015202	0.020968
996.187488	0.019184
996.359757	0.016816
996.532007	0.015417
996.704239	0.015652
996.876452	0.013903
997.048648	0.014790
997.220825	0.015784
997.392984	0.015606
997.565124	0.015093
997.737247	0.016251
997.909351	0.018151
998.081437	0.019071
998.253505	0.017330
998.425554	0.017189
998.597586	0.016491
998.769599	0.016091
998.941594	0.015733
999.113571	0.014972
999.285529	0.014921
999.457469	0.013018
999.629391	0.012930
999.801295	0.014188
999.973181	0.014659
1000.145048	0.014634
1000.316897	0.015144
1000.488728	0.015251
1000.660541	0.016146
1000.832335	0.016549
1001.004111	0.018729
1001.175869	0.019129
1001.347609	0.019485
1001.519331	0.019071
1001.691034	0.018860
1001.862719	0.018966
1002.034386	0.019521
1002.206035	0.020348
1002.377665	0.020418
1002.549277	0.020254
1002.720871	0.020330
1002.892447	0.018436
1003.064004	0.018762
1003.235544	0.018799
1003.407065	0.018330
1003.578568	0.017770
1003.750052	0.016617
1003.921519	0.015250
1004.092967	0.014310
1004.264397	0.015109
1004.435809	0.017170
1004.607202	0.016688
1004.778577	0.016209
1004.949934	0.016116
1005.121273	0.015830
1005.292594	0.014264
1005.463896	0.016548
1005.635180	0.018174
1005.806446	0.017405
1005.977694	0.015652
1006.148923	0.014762
1006.320135	0.016179
1006.491328	0.016426
1006.662503	0.016271
1006.833659	0.018522
1007.004798	0.016693
1007.175918	0.015273
1007.347020	0.014321
1007.518103	0.015919
1007.689169	0.016855
1007.860216	0.015922
1008.031245	0.015623
1008.202256	0.015097
1008.373248	0.014841
1008.544223	0.014510
1008.715179	0.014837
1008.886117	0.015380
1009.057036	0.014347
1009.227938	0.013865
1009.398821	0.013169
1009.569686	0.013552
1009.740533	0.013935
1009.911361	0.013414
1010.082172	0.014132
1010.252964	0.012978
1010.423738	0.013506
1010.594493	0.013064
1010.765231	0.013374
1010.935950	0.015059
1011.106651	0.014579
1011.277334	0.014499
1011.447998	0.014061
1011.618645	0.014465
1011.789273	0.015601
1011.959882	0.015733
1012.130474	0.017102
1012.301048	0.018739
1012.471603	0.017101
1012.642140	0.017772
1012.812658	0.018350
1012.983159	0.018700
1013.153641	0.018862
1013.324105	0.018510
1013.494551	0.017433
1013.664979	0.017586
1013.835388	0.017808
1014.005779	0.017703
1014.176152	0.015323
1014.346507	0.015476
1014.516843	0.014071
1014.687162	0.013259
1014.857462	0.014392
1015.027744	0.014763
1015.198007	0.014444
1015.368252	0.013593
1015.538480	0.013829
1015.708689	0.016272
1015.878879	0.015833
1016.049052	0.017909
1016.219206	0.018918
1016.389342	0.019536
1016.559460	0.020025
1016.729559	0.020152
1016.899641	0.020054
1017.069704	0.019607
1017.239749	0.016857
1017.409775	0.016377
1017.579784	0.016930
1017.749774	0.016978
1017.919746	0.015775
1018.089700	0.016314
1018.259635	0.014812
1018.429553	0.012250
1018.599452	0.012822
1018.769333	0.013632
1018.939195	0.014753
1019.109040	0.012272
1019.278866	0.010438
1019.448674	0.009841
1019.618464	0.008918
1019.788235	0.009434
1019.957989	0.010769
1020.127724	0.010116
1020.297441	0.011166
1020.467139	0.008850
1020.636820	0.009921
1020.806482	0.009244
1020.976126	0.010362
1021.145752	0.009630
1021.315359	0.010602
1021.484948	0.010851
1021.654519	0.012025
1021.824072	0.012016
1021.993607	0.014887
1022.163123	0.014299
1022.332621	0.014954
1022.502101	0.014661
1022.671563	0.016782
1022.841007	0.015739
1023.010432	0.017463
1023.179839	0.016102
1023.349228	0.016228
1023.518598	0.012965
1023.687951	0.013293
1023.857285	0.014731
1024.026601	0.015502
1024.195899	0.014096
1024.365178	0.015386
1024.534439	0.013812
1024.703682	0.014785
1024.872907	0.014760
1025.042114	0.016899
1025.211302	0.015844
1025.380472	0.014741
1025.549624	0.012602
1025.718758	0.013082
1025.887873	0.012818
1026.056970	0.014143
1026.226049	0.013478
1026.395110	0.013431
1026.564153	0.012367
1026.733177	0.014783
1026.902183	0.014704
1027.071171	0.015909
1027.240141	0.015088
1027.409092	0.014405
1027.578026	0.012085
1027.746940	0.012750
1027.915837	0.013042
1028.084716	0.013011
1028.253576	0.010681
1028.422418	0.011671
1028.591242	0.010718
1028.760048	0.012102
1028.928835	0.012763
1029.097604	0.013682
1029.266355	0.013657
1029.435088	0.013893
1029.603803	0.013970
1029.772499	0.015235
1029.941177	0.015910
1030.109837	0.016981
1030.278478	0.015315
1030.447102	0.014611
1030.615707	0.014037
1030.784294	0.012693
1030.952863	0.011231
1031.121413	0.012687
1031.289945	0.013123
1031.458460	0.013188
1031.626955	0.012251
1031.795433	0.013022
1031.963892	0.015398
1032.132334	0.017601
1032.300756	0.019183
1032.469161	0.020558
1032.637548	0.019947
1032.805916	0.020126
1032.974266	0.016947
1033.142598	0.017817
1033.310911	0.017302
1033.479207	0.014469
1033.647484	0.013386
1033.815743	0.013205
1033.983983	0.011090
1034.152206	0.012142
1034.320410	0.010701
1034.488596	0.012388
1034.656764	0.011117
1034.824914	0.011157
1034.993045	0.011233
1035.161158	0.011310
1035.329253	0.012433
1035.497330	0.016166
1035.665388	0.015789
1035.833428	0.016555
1036.001450	0.017091
1036.169454	0.018370
1036.337440	0.018486
1036.505407	0.019344
1036.673356	0.018495
1036.841287	0.016601
1037.009200	0.014025
1037.177094	0.013888
1037.344970	0.013967
1037.512828	0.014979
1037.680668	0.014694
1037.848489	0.015870
1038.016293	0.014505
1038.184078	0.014047
1038.351845	0.013378
1038.519593	0.014584
1038.687324	0.013632
1038.855036	0.012937
1039.022730	0.012301
1039.190406	0.011767
1039.358063	0.011591
1039.525702	0.012259
1039.693323	0.012716
1039.860926	0.013455
1040.028511	0.011143
1040.196077	0.012044
1040.363625	0.013218
1040.531155	0.012275
1040.698667	0.012860
1040.866161	0.012420
1041.033636	0.010644
1041.201093	0.011443
1041.368532	0.011579
1041.535952	0.013106
1041.703355	0.012060
1041.870739	0.011644
1042.038105	0.013911
1042.205452	0.013450
1042.372782	0.012485
1042.540093	0.014308
1042.707386	0.015359
1042.874661	0.016226
1043.041918	0.015644
1043.209156	0.016124
1043.376376	0.016665
1043.543578	0.014866
1043.710762	0.015534
1043.877927	0.015157
1044.045074	0.016143
1044.212203	0.015306
1044.379314	0.014403
1044.546407	0.015352
1044.713481	0.015286
1044.880537	0.014746
1045.047575	0.014272
1045.214595	0.013002
1045.381596	0.013942
1045.548579	0.012342
1045.715544	0.012119
1045.882491	0.012044
1046.049420	0.010076
1046.216330	0.011277
1046.383222	0.010855
1046.550096	0.011653
1046.716951	0.013434
1046.883789	0.013961
1047.050608	0.014082
1047.217409	0.012794
1047.384192	0.011997
1047.550956	0.013725
1047.717703	0.012395
1047.884431	0.012496
1048.051140	0.011451
1048.217832	0.009582
1048.384505	0.008600
1048.551161	0.008950
1048.717798	0.010265
1048.884416	0.010251
1049.051017	0.008931
1049.217599	0.010452
1049.384163	0.011385
1049.550709	0.011438
1049.717237	0.013058
1049.883746	0.014419
1050.050237	0.013985
1050.216710	0.014417
1050.383165	0.015054
1050.549601	0.017303
1050.716019	0.015859
1050.882420	0.014687
1051.048801	0.015682
1051.215165	0.014834
1051.381510	0.012858
1051.547837	0.012745
1051.714146	0.011654
1051.880437	0.013183
1052.046709	0.011059
1052.212964	0.011160
1052.379200	0.011547
1052.545417	0.011311
1052.711617	0.011919
1052.877798	0.013336
1053.043961	0.014453
1053.210106	0.013957
1053.376233	0.013734
1053.542341	0.014521
1053.708432	0.013772
1053.874504	0.014043
1054.040557	0.014277
1054.206593	0.013465
1054.372610	0.012509
1054.538609	0.012148
1054.704590	0.013061
1054.870553	0.010947
1055.036497	0.010814
1055.202424	0.011885
1055.368331	0.011828
1055.534221	0.011700
1055.700093	0.012616
1055.865946	0.012489
1056.031781	0.012592
1056.197598	0.013509
1056.363397	0.014787
1056.529177	0.015304
1056.694939	0.016095
1056.860683	0.013985
1057.026409	0.013436
1057.192116	0.011760
1057.357806	0.012170
1057.523477	0.011837
1057.689130	0.011371
1057.854764	0.010554
1058.020381	0.008747
1058.185979	0.006711
1058.351559	0.009489
1058.517120	0.008656
1058.682664	0.010874
1058.848189	0.009742
1059.013696	0.010296
1059.179185	0.009454
1059.344656	0.009738
1059.510108	0.011127
1059.675542	0.012670
1059.840958	0.012270
1060.006356	0.013466
1060.171735	0.012543
1060.337096	0.014488
1060.502439	0.014537
1060.667764	0.016002
1060.833071	0.015318
1060.998359	0.016181
1061.163629	0.015769
1061.328881	0.015708
1061.494115	0.015971
1061.659330	0.016412
1061.824527	0.017102
1061.989706	0.017120
1062.154867	0.013955
1062.320010	0.015081
1062.485134	0.014528
1062.650240	0.014920
1062.815328	0.013174
1062.980398	0.011500
1063.145449	0.009050
1063.310482	0.009010
1063.475497	0.008078
1063.640494	0.009986
1063.805473	0.009877
1063.970433	0.007745
1064.135375	0.006508
1064.300299	0.007089
1064.465204	0.008600
1064.630092	0.009771
1064.794961	0.009615
1064.959812	0.010233
1065.124645	0.008745
1065.289459	0.008948
1065.454256	0.010175
1065.619034	0.010154
1065.783793	0.010390
1065.948535	0.010706
1066.113258	0.010106
1066.277964	0.009277
1066.442651	0.009811
1066.607319	0.010410
1066.771970	0.010299
1066.936602	0.010839
1067.101216	0.012590
1067.265812	0.010813
1067.430389	0.010151
1067.594949	0.012924
1067.759490	0.013120
1067.924013	0.012114
1068.088518	0.011941
1068.253004	0.009657
1068.417472	0.010405
1068.581922	0.008477
1068.746354	0.010209
1068.910768	0.011044
1069.075163	0.010391
1069.239540	0.009372
1069.403899	0.009581
1069.568240	0.012073
1069.732562	0.015239
1069.896866	0.014959
1070.061152	0.015181
1070.225420	0.015420
1070.389670	0.011861
1070.553901	0.010753
1070.718114	0.010900
1070.882309	0.011713
1071.046486	0.009563
1071.210644	0.006578
1071.374784	0.006048
1071.538906	0.006116
1071.703010	0.006785
1071.867096	0.008421
1072.031163	0.008699
1072.195212	0.009109
1072.359243	0.009810
1072.523256	0.008413
1072.687250	0.011751
1072.851226	0.011614
1073.015184	0.011106
1073.179124	0.011490
1073.343045	0.013071
1073.506949	0.014757
1073.670834	0.015066
1073.834701	0.012429
1073.998549	0.016663
1074.162380	0.013713
1074.326192	0.012926
1074.489986	0.014403
1074.653761	0.014038
1074.817519	0.011768
1074.981258	0.008497
1075.144979	0.007126
1075.308682	0.008179
1075.472367	0.007678
1075.636033	0.009933
1075.799681	0.011007
1075.963311	0.011892
1076.126923	0.010272
1076.290516	0.011355
1076.454092	0.010181
1076.617649	0.010881
1076.781187	0.010497
1076.944708	0.007250
1077.108210	0.006658
1077.271695	0.007703
1077.435160	0.006377
1077.598608	0.006612
1077.762038	0.008310
1077.925449	0.010746
1078.088842	0.010587
1078.252217	0.012336
1078.415573	0.014442
1078.578912	0.013709
1078.742232	0.013655
1078.905534	0.013415
1079.068817	0.015400
1079.232083	0.015733
1079.395330	0.014120
1079.558559	0.013649
1079.721770	0.012491
1079.884962	0.012246
1080.048136	0.012861
1080.211293	0.010388
1080.374430	0.010687
1080.537550	0.008236
1080.700651	0.007034
1080.863735	0.009792
1081.026800	0.010437
1081.189846	0.011198
1081.352875	0.009996
1081.515885	0.009288
1081.678877	0.011062
1081.841851	0.010790
1082.004807	0.012446
1082.167744	0.011951
1082.330663	0.011246
1082.493564	0.010723
1082.656447	0.010427
1082.819312	0.010307
1082.982158	0.009429
1083.144986	0.008629
1083.307796	0.008375
1083.470587	0.009338
1083.633361	0.011024
1083.796116	0.012181
1083.958853	0.012349
1084.121571	0.011803
1084.284272	0.011986
1084.446954	0.013780
1084.609618	0.014959
1084.772264	0.014084
1084.934892	0.013318
1085.097501	0.012009
1085.260092	0.010863
1085.422665	0.011078
1085.585220	0.010875
1085.747756	0.012460
1085.910274	0.011259
1086.072774	0.010064
1086.235256	0.009874
1086.397720	0.008556
1086.560165	0.009680
1086.722592	0.009387
1086.885001	0.011265
1087.047392	0.012335
1087.209764	0.010613
1087.372119	0.011652
1087.534455	0.012261
1087.696772	0.012476
1087.859072	0.013096
1088.021353	0.012171
1088.183616	0.011413
1088.345861	0.011652
1088.508088	0.011158
1088.670296	0.012660
1088.832486	0.011246
1088.994658	0.012885
1089.156812	0.015065
1089.318948	0.014350
1089.481065	0.013054
1089.643164	0.012561
1089.805245	0.011995
1089.967308	0.011448
1090.129352	0.008932
1090.291378	0.010132
1090.453386	0.008246
1090.615376	0.007372
1090.777347	0.008534
1090.939301	0.008198
1091.101236	0.007168
1091.263153	0.007452
1091.425051	0.007256
1091.586932	0.007051
1091.748794	0.007813
1091.910638	0.007155
1092.072463	0.006275
1092.234271	0.005236
1092.396060	0.007624
1092.557831	0.009441
1092.719584	0.006964
1092.881319	0.006257
1093.043035	0.008702
1093.204733	0.007389
1093.366413	0.007920
1093.528075	0.009295
1093.689718	0.008980
1093.851343	0.008361
1094.012950	0.010190
1094.174539	0.012600
1094.336110	0.014335
1094.497662	0.014332
1094.659196	0.012890
1094.820712	0.013242
1094.982210	0.012380
1095.143689	0.012631
1095.305151	0.008987
1095.466594	0.008498
1095.628018	0.005017
1095.789425	0.004591
1095.950813	0.005724
1096.112183	0.007082
1096.273535	0.007269
1096.434869	0.008545
1096.596184	0.008834
1096.757482	0.013037
1096.918761	0.009982
1097.080021	0.009724
1097.241264	0.009087
1097.402488	0.009622
1097.563694	0.009693
1097.724882	0.009931
1097.886052	0.009606
1098.047203	0.009579
1098.208336	0.009214
1098.369451	0.010339
1098.530548	0.011170
1098.691627	0.011957
1098.852687	0.009377
1099.013729	0.011557
1099.174753	0.012641
1099.335758	0.012593
1099.496746	0.013326
1099.657715	0.013666
1099.818666	0.015961
1099.979599	0.018951
1100.140513	0.017867
1100.301409	0.017261
1100.462287	0.016663
1100.623147	0.014456
1100.783989	0.013160
1100.944812	0.013284
1101.105617	0.013081
1101.266404	0.010295
1101.427173	0.006543
1101.587923	0.007954
1101.748656	0.007451
1101.909370	0.007310
1102.070066	0.008766
1102.230743	0.009579
1102.391403	0.008126
1102.552044	0.006798
1102.712667	0.008150
1102.873271	0.012272
1103.033858	0.012397
1103.194426	0.013108
1103.354976	0.013587
1103.515508	0.009490
1103.676021	0.009590
1103.836517	0.010267
1103.996994	0.010080
1104.157453	0.011969
1104.317893	0.012764
1104.478316	0.013092
1104.638720	0.016369
1104.799106	0.016117
1104.959474	0.016562
1105.119823	0.016429
1105.280155	0.019325
1105.440468	0.021156
1105.600763	0.020403
1105.761039	0.019897
1105.921298	0.016677
1106.081538	0.015955
1106.241760	0.017982
1106.401964	0.021510
1106.562149	0.018776
1106.722316	0.016585
1106.882465	0.012949
1107.042596	0.012857
1107.202709	0.012380
1107.362803	0.013140
1107.522879	0.009720
1107.682937	0.009379
1107.842977	0.010260
1108.002999	0.013317
1108.163002	0.011697
1108.322987	0.012441
1108.482954	0.012467
1108.642902	0.010193
1108.802833	0.011921
1108.962745	0.014756
1109.122639	0.009696
1109.282515	0.007189
1109.442372	0.006622
1109.602211	0.008782
1109.762032	0.010548
1109.921835	0.008640
1110.081620	0.009854
1110.241386	0.009992
1110.401134	0.008444
1110.560864	0.009808
1110.720576	0.009853
1110.880269	0.009832
1111.039945	0.009364
1111.199602	0.010887
1111.359240	0.009805
1111.518861	0.009861
1111.678463	0.008076
1111.838047	0.010522
1111.997613	0.011568
1112.157161	0.012451
1112.316690	0.010630
1112.476202	0.011162
1112.635695	0.009122
1112.795169	0.011157
1112.954626	0.009109
1113.114064	0.008189
1113.273484	0.007062
1113.432886	0.009208
1113.592270	0.011548
1113.751635	0.012034
1113.910983	0.011553
1114.070312	0.010468
1114.229622	0.013332
1114.388915	0.016287
1114.548189	0.020668
1114.707445	0.020789
1114.866683	0.018604
1115.025903	0.013269
1115.185104	0.012910
1115.344287	0.011850
1115.503452	0.011741
1115.662599	0.007526
1115.821727	0.005848
1115.980838	0.003427
1116.139930	-0.000798
1116.299004	-0.000613
1116.458059	0.001068
1116.617097	0.000027
1116.776116	-0.003324
1116.935117	-0.003107
1117.094099	-0.003266
1117.253064	-0.002760
1117.412010	-0.001284
1117.570938	-0.000787
1117.729848	0.003144
1117.888740	0.004868
1118.047613	0.004290
1118.206468	0.008000
1118.365305	0.012853
1118.524124	0.014439
1118.682924	0.014043
1118.841707	0.013278
1119.000471	0.015300
1119.159216	0.012199
1119.317944	0.012464
1119.476653	0.016749
1119.635344	0.015747
1119.794017	0.012172
1119.952672	0.011444
1120.111308	0.014912
1120.269927	0.014967
1120.428527	0.014738
1120.587108	0.012909
1120.745672	0.010588
1120.904217	0.009444
1121.062744	0.010017
1121.221253	0.012152
1121.379744	0.014228
1121.538216	0.010989
1121.696671	0.010758
1121.855107	0.012038
1122.013524	0.009086
1122.171924	0.012636
1122.330305	0.012084
1122.488668	0.013459
1122.647013	0.010873
1122.805340	0.010219
1122.963648	0.008482
1123.121938	0.007815
1123.280210	0.007169
1123.438464	0.010934
1123.596700	0.005722
1123.754917	0.005996
1123.913116	0.004810
1124.071297	0.006205
1124.229459	0.005114
1124.387604	0.005996
1124.545730	0.006997
1124.703838	0.010814
1124.861928	0.008748
1125.019999	0.012237
1125.178052	0.011589
1125.336088	0.014002
1125.494104	0.012800
1125.652103	0.012188
1125.810083	0.009863
1125.968045	0.009861
1126.125989	0.006623
1126.283915	0.007060
1126.441823	0.006364
1126.599712	0.007651
1126.757583	0.005821
1126.915436	0.006925
1127.073270	0.007399
1127.231087	0.009423
1127.388885	0.003366
1127.546665	0.003257
1127.704426	0.005737
1127.862170	0.006280
1128.019895	0.001257
1128.177602	0.000797
1128.335291	0.000775
1128.492961	0.002016
1128.650614	0.005138
1128.808248	0.010887
1128.965864	0.014941
1129.123461	0.009296
1129.281041	0.007989
1129.438602	0.014256
1129.596145	0.012416
1129.753670	0.010195
1129.911176	0.010467
1130.068665	0.008842
1130.226135	0.009658
1130.383587	0.007485
1130.541020	0.010885
1130.698436	0.009824
1130.855833	0.007831
1131.013212	0.007730
1131.170573	0.005555
1131.327915	0.000869
1131.485239	0.001371
1131.642545	-0.000239
1131.799833	-0.003960
1131.957103	-0.000044
1132.114354	0.000927
1132.271588	0.001996
1132.428803	0.004220
1132.585999	0.006327
1132.743178	0.010893
1132.900338	0.012828
1133.057480	0.011988
1133.214604	0.012033
1133.371710	0.009167
1133.528797	0.010483
1133.685866	0.009186
1133.842917	0.007136
1133.999950	0.005596
1134.156964	0.005341
1134.313960	0.000290
1134.470938	-0.002664
1134.627898	0.002088
1134.784840	0.001960
1134.941763	0.003716
1135.098668	0.002087
1135.255555	0.004101
1135.412424	0.009456
1135.569274	0.008006
1135.726107	0.013489
1135.882921	0.015678
1136.039716	0.012736
1136.196494	0.013042
1136.353253	0.007066
1136.509995	0.005750
1136.666717	0.009361
1136.823422	0.008437
1136.980109	0.011607
1137.136777	0.009984
1137.293427	0.012353
1137.450059	0.009207
1137.606672	0.003670
1137.763267	0.007876
1137.919844	0.007980
1138.076403	0.003584
1138.232944	0.004699
1138.389466	0.001522
1138.545971	-0.002403
1138.702457	-0.003268
1138.858924	-0.000736
1139.015374	-0.000887
1139.171805	0.000149
1139.328218	0.002030
1139.484613	0.001390
1139.640990	0.000436
1139.797348	0.001322
1139.953688	0.005704
1140.110010	0.003639
1140.266314	0.008565
1140.422600	0.016009
1140.578867	0.012360
1140.735116	0.011720
1140.891347	0.015932
1141.047559	0.013528
1141.203754	0.009973
1141.359930	0.010144
1141.516088	0.009178
1141.672228	0.007215
1141.828349	0.008307
1141.984452	0.010537
1142.140537	0.010639
1142.296604	0.009081
1142.452653	0.009028
1142.608683	0.011514
1142.764695	0.006214
1142.920689	0.008526
1143.076665	0.001302
1143.232622	-0.005717
1143.388562	-0.001320
1143.544483	0.002798
1143.700385	-0.000045
1143.856270	-0.000719
1144.012136	-0.000432
1144.167985	0.001328
1144.323814	-0.002796
1144.479626	-0.001384
1144.635420	0.007815
1144.791195	0.000664
1144.946952	0.001444
1145.102691	0.002787
1145.258411	-0.001978
1145.414113	0.000638
1145.569798	0.006757
1145.725463	0.010841
1145.881111	0.015050
1146.036741	0.015375
1146.192352	0.014184
1146.347945	0.014304
1146.503519	0.016191
1146.659076	0.026696
1146.814614	0.023159
1146.970134	0.009436
1147.125636	0.007563
1147.281120	0.009482
1147.436585	0.003874
1147.592032	0.005595
1147.747461	0.002706
1147.902872	0.004077
1148.058265	-0.000426
1148.213639	0.000526
1148.368995	0.011543
1148.524333	0.013167
1148.679653	0.011670
1148.834954	0.007113
1148.990237	0.008033
1149.145502	0.006492
1149.300749	0.004239
1149.455977	0.007385
1149.611188	0.009993
1149.766380	0.008792
1149.921553	0.006745
1150.076709	0.007735
1150.231846	0.009726
1150.386966	0.013434
1150.542066	0.012216
1150.697149	0.011626
1150.852214	0.007582
1151.007260	-0.000150
1151.162288	-0.003464
1151.317298	0.000097
1151.472289	-0.003647
1151.627263	-0.002735
1151.782218	-0.008227
1151.937155	-0.003551
1152.092073	0.001073
1152.246974	-0.006506
1152.401856	-0.000109
1152.556720	0.002029
1152.711566	-0.004556
1152.866393	-0.002773
1153.021203	0.001820
1153.175994	0.002832
1153.330767	0.001704
1153.485521	-0.003218
1153.640258	0.009147
1153.794976	0.003654
1153.949676	-0.001868
1154.104358	0.004140
1154.259021	-0.002036
1154.413667	-0.008884
1154.568294	-0.007460
1154.722903	-0.007766
1154.877493	-0.007819
1155.032066	-0.014372
1155.186620	-0.009865
1155.341156	0.000870
1155.495674	0.000230
1155.650173	0.009028
1155.804654	0.010363
1155.959118	0.012393
1156.113562	0.011616
1156.267989	0.010752
1156.422397	0.015850
1156.576788	0.018459
1156.731160	0.009624
1156.885513	0.008252
1157.039849	0.002340
1157.194166	0.000324
1157.348465	-0.000068
1157.502746	-0.003957
1157.657009	0.000947
1157.811253	0.004030
1157.965479	0.001592
1158.119687	0.004916
1158.273877	0.007712
1158.428048	0.005107
1158.582201	0.015582
1158.736337	0.008790
1158.890453	0.014270
1159.044552	0.010673
1159.198632	0.005148
1159.352694	0.002537
1159.506738	0.000442
1159.660764	0.001115
1159.814771	-0.000066
1159.968761	-0.001287
1160.122732	0.009641
1160.276685	0.002915
1160.430619	0.003880
1160.584535	0.004237
1160.738434	0.007786
1160.892313	0.009388
1161.046175	0.004211
1161.200019	0.010824
1161.353844	0.003954
1161.507651	-0.000875
1161.661440	0.006037
1161.815210	0.010284
1161.968962	0.006593
1162.122697	0.005481
1162.276412	0.005001
1162.430110	0.006219
1162.583789	0.003972
1162.737451	0.005039
1162.891094	0.003102
1163.044718	-0.002572
1163.198325	-0.007339
1163.351913	-0.004066
1163.505483	-0.005557
1163.659035	-0.009332
1163.812569	-0.007154
1163.966084	-0.008196
1164.119581	-0.012621
1164.273060	-0.013159
1164.426521	-0.016320
1164.579964	-0.016277
1164.733388	-0.018288
1164.886794	-0.013871
1165.040182	-0.013750
1165.193551	-0.020342
1165.346903	-0.019795
1165.500236	-0.015279
1165.653551	-0.011789
1165.806848	-0.001337
1165.960126	-0.010044
1166.113386	-0.010917
1166.266628	-0.012913
1166.419852	-0.009743
1166.573058	-0.007455
1166.726245	0.000423
1166.879414	0.000174
1167.032565	-0.009173
1167.185698	-0.013518
1167.338812	-0.003754
1167.491909	0.001386
1167.644987	0.003525
1167.798046	0.000742
1167.951088	0.007796
1168.104111	-0.003452
1168.257117	-0.004781
1168.410103	0.003915
1168.563072	-0.002971
1168.716023	-0.003023
1168.868955	-0.011470
1169.021869	-0.008729
1169.174765	-0.014064
1169.327642	-0.016048
1169.480501	-0.013917
1169.633343	-0.017762
1169.786165	-0.014862
1169.938970	-0.007843
1170.091757	-0.017253
1170.244525	-0.005951
1170.397275	-0.015079
1170.550007	-0.001892
1170.702720	-0.007034
1170.855415	0.003055
1171.008092	0.009404
1171.160751	0.005701
1171.313392	0.006575
1171.466014	0.062290
1171.618619	0.008503
1171.771205	0.008503
1171.923772	0.008503
