sample name	sample
index	1335
start time	 05-03-2021  11:58:15 AM


Wavelength (nm)	Absorbance
494.344910	0.004783
494.563924	0.004783
494.782919	0.004783
495.001897	0.270679
495.220856	0.014353
495.439797	-0.009257
495.658719	-0.015808
495.877624	-0.029566
496.096510	-0.070359
496.315378	-0.065126
496.534227	-0.056853
496.753059	-0.048692
496.971872	-0.054924
497.190667	-0.026031
497.409444	-0.013886
497.628203	-0.011736
497.846943	-0.010380
498.065665	-0.008714
498.284369	-0.008677
498.503055	-0.009428
498.721723	-0.009771
498.940372	-0.009483
499.159003	-0.009062
499.377616	-0.009454
499.596210	-0.009905
499.814787	-0.010114
500.033345	-0.010908
500.251885	-0.011644
500.470406	-0.011678
500.688910	-0.011479
500.907395	-0.012196
501.125862	-0.012924
501.344311	-0.012673
501.562742	-0.013397
501.781154	-0.012988
501.999548	-0.012626
502.217924	-0.012423
502.436282	-0.012654
502.654621	-0.012030
502.872942	-0.011806
503.091245	-0.012630
503.309530	-0.012140
503.527797	-0.011017
503.746045	-0.011212
503.964275	-0.010949
504.182487	-0.010839
504.400681	-0.010328
504.618856	-0.011173
504.837013	-0.011402
505.055152	-0.009993
505.273273	-0.011066
505.491376	-0.011632
505.709460	-0.011986
505.927526	-0.011560
506.145574	-0.012059
506.363604	-0.012148
506.581615	-0.012062
506.799608	-0.011317
507.017583	-0.011343
507.235540	-0.009806
507.453478	-0.009314
507.671399	-0.009093
507.889301	-0.009790
508.107185	-0.009146
508.325050	-0.009201
508.542898	-0.009289
508.760727	-0.009528
508.978538	-0.008998
509.196330	-0.009918
509.414105	-0.009786
509.631861	-0.009259
509.849599	-0.008502
510.067319	-0.008396
510.285021	-0.008170
510.502704	-0.008142
510.720369	-0.007552
510.938016	-0.008013
511.155645	-0.007561
511.373255	-0.008495
511.590848	-0.009041
511.808422	-0.008895
512.025977	-0.008615
512.243515	-0.008307
512.461034	-0.007985
512.678536	-0.008720
512.896018	-0.009537
513.113483	-0.009242
513.330930	-0.008152
513.548358	-0.007874
513.765768	-0.008888
513.983160	-0.008713
514.200533	-0.009240
514.417889	-0.008955
514.635226	-0.008730
514.852545	-0.008496
515.069845	-0.009184
515.287128	-0.009512
515.504392	-0.009053
515.721638	-0.008578
515.938866	-0.007703
516.156075	-0.006951
516.373267	-0.007086
516.590440	-0.007041
516.807594	-0.006461
517.024731	-0.006126
517.241850	-0.005963
517.458950	-0.006575
517.676032	-0.006482
517.893095	-0.007315
518.110141	-0.007719
518.327168	-0.007673
518.544177	-0.008151
518.761168	-0.008585
518.978141	-0.008930
519.195095	-0.008264
519.412031	-0.008010
519.628949	-0.008038
519.845849	-0.008473
520.062731	-0.008140
520.279594	-0.007720
520.496439	-0.006909
520.713266	-0.005751
520.930074	-0.005395
521.146865	-0.005499
521.363637	-0.004593
521.580391	-0.004280
521.797127	-0.003824
522.013844	-0.003965
522.230543	-0.003940
522.447224	-0.004211
522.663887	-0.005108
522.880532	-0.005300
523.097158	-0.005247
523.313766	-0.006359
523.530356	-0.006191
523.746928	-0.005765
523.963481	-0.005311
524.180017	-0.005634
524.396534	-0.005145
524.613032	-0.004221
524.829513	-0.003440
525.045975	-0.003312
525.262420	-0.002873
525.478845	-0.003272
525.695253	-0.003326
525.911643	-0.003740
526.128014	-0.003588
526.344367	-0.003888
526.560702	-0.003788
526.777018	-0.004025
526.993316	-0.003999
527.209597	-0.003286
527.425858	-0.002704
527.642102	-0.002047
527.858328	-0.001824
528.074535	-0.000977
528.290724	-0.000549
528.506894	-0.000094
528.723047	0.000532
528.939181	0.001074
529.155297	0.001021
529.371395	0.001706
529.587475	0.001150
529.803536	0.001329
530.019579	0.000991
530.235604	0.001207
530.451611	0.001034
530.667600	0.000839
530.883570	0.000375
531.099522	0.000412
531.315456	0.000577
531.531372	0.000944
531.747269	0.001569
531.963148	0.001779
532.179009	0.002157
532.394852	0.001811
532.610676	0.002025
532.826482	0.003025
533.042271	0.003793
533.258040	0.003239
533.473792	0.003338
533.689525	0.003522
533.905240	0.004049
534.120937	0.004443
534.336616	0.004806
534.552277	0.005028
534.767919	0.004589
534.983543	0.004415
535.199149	0.005293
535.414736	0.005605
535.630306	0.005554
535.845857	0.005493
536.061390	0.005447
536.276904	0.005736
536.492401	0.005924
536.707879	0.006362
536.923339	0.006150
537.138781	0.005663
537.354204	0.005708
537.569610	0.005487
537.784997	0.005421
538.000366	0.005496
538.215716	0.005597
538.431049	0.005384
538.646363	0.005332
538.861659	0.005744
539.076937	0.006112
539.292196	0.006655
539.507438	0.007268
539.722661	0.007562
539.937866	0.008040
540.153052	0.008390
540.368221	0.008831
540.583371	0.008993
540.798503	0.009420
541.013617	0.009665
541.228712	0.009371
541.443789	0.009439
541.658848	0.009893
541.873889	0.009659
542.088912	0.010067
542.303916	0.010345
542.518902	0.010583
542.733870	0.010307
542.948820	0.010335
543.163752	0.010652
543.378665	0.010663
543.593560	0.010635
543.808437	0.010484
544.023295	0.010342
544.238136	0.010398
544.452958	0.010471
544.667762	0.010590
544.882548	0.011259
545.097315	0.011070
545.312064	0.011091
545.526795	0.011146
545.741508	0.011420
545.956203	0.011294
546.170879	0.010680
546.385537	0.010836
546.600177	0.010908
546.814799	0.010640
547.029402	0.010659
547.243988	0.010957
547.458555	0.011171
547.673103	0.011232
547.887634	0.011231
548.102146	0.012065
548.316640	0.011832
548.531116	0.011825
548.745574	0.011692
548.960013	0.011713
549.174435	0.011395
549.388838	0.011242
549.603222	0.011361
549.817589	0.011557
550.031937	0.011341
550.246267	0.011679
550.460579	0.012081
550.674873	0.012573
550.889148	0.012769
551.103405	0.012924
551.317644	0.013251
551.531865	0.013442
551.746068	0.013550
551.960252	0.013869
552.174418	0.013912
552.388566	0.013988
552.602696	0.013722
552.816807	0.013535
553.030900	0.013830
553.244975	0.013943
553.459032	0.014233
553.673070	0.014313
553.887091	0.014569
554.101093	0.014693
554.315077	0.014635
554.529042	0.014905
554.742990	0.015733
554.956919	0.016058
555.170830	0.016101
555.384722	0.015896
555.598597	0.016375
555.812453	0.016371
556.026291	0.016729
556.240111	0.017004
556.453913	0.017211
556.667696	0.017187
556.881461	0.016950
557.095208	0.016777
557.308937	0.017285
557.522647	0.017012
557.736339	0.017111
557.950013	0.017034
558.163669	0.016984
558.377307	0.016806
558.590926	0.016511
558.804527	0.016831
559.018110	0.017181
559.231675	0.016752
559.445221	0.016736
559.658749	0.016587
559.872259	0.016592
560.085751	0.016765
560.299225	0.017115
560.512680	0.017305
560.726117	0.017279
560.939536	0.016710
561.152937	0.016865
561.366319	0.016849
561.579683	0.016760
561.793029	0.016734
562.006357	0.016545
562.219667	0.016371
562.432958	0.016498
562.646231	0.016370
562.859486	0.016728
563.072723	0.016612
563.285941	0.016686
563.499141	0.016971
563.712323	0.017193
563.925487	0.017097
564.138632	0.017260
564.351760	0.017565
564.564869	0.017873
564.777960	0.018061
564.991032	0.018707
565.204087	0.019287
565.417123	0.019189
565.630141	0.018862
565.843140	0.019305
566.056122	0.019459
566.269085	0.019524
566.482030	0.019312
566.694957	0.019347
566.907866	0.019120
567.120756	0.019012
567.333628	0.019276
567.546482	0.019867
567.759318	0.019917
567.972135	0.019786
568.184935	0.019238
568.397716	0.019185
568.610478	0.019142
568.823223	0.019017
569.035949	0.018803
569.248657	0.018749
569.461347	0.018552
569.674019	0.018385
569.886672	0.017994
570.099308	0.018796
570.311925	0.019374
570.524523	0.019319
570.737104	0.019508
570.949666	0.019381
571.162210	0.019495
571.374736	0.019297
571.587244	0.019432
571.799733	0.019963
572.012205	0.019745
572.224658	0.019462
572.437092	0.019645
572.649509	0.019348
572.861907	0.019710
573.074287	0.019810
573.286649	0.020099
573.498993	0.019863
573.711318	0.019791
573.923625	0.019759
574.135914	0.019906
574.348185	0.020044
574.560438	0.020273
574.772672	0.020083
574.984888	0.019959
575.197086	0.019906
575.409266	0.020065
575.621427	0.020100
575.833570	0.020170
576.045695	0.019948
576.257802	0.019884
576.469890	0.020108
576.681961	0.020310
576.894013	0.020460
577.106046	0.020513
577.318062	0.020698
577.530059	0.020871
577.742039	0.020780
577.954000	0.020917
578.165942	0.021025
578.377867	0.021038
578.589773	0.021019
578.801661	0.020960
579.013531	0.020702
579.225382	0.020791
579.437216	0.020848
579.649031	0.020865
579.860828	0.021224
580.072606	0.021153
580.284367	0.021334
580.496109	0.021155
580.707833	0.021176
580.919539	0.021492
581.131227	0.021358
581.342896	0.021387
581.554547	0.021468
581.766180	0.021419
581.977795	0.021150
582.189391	0.020854
582.400969	0.021070
582.612529	0.021002
582.824071	0.021059
583.035595	0.021316
583.247100	0.020968
583.458587	0.020841
583.670056	0.020760
583.881506	0.021323
584.092939	0.021441
584.304353	0.021625
584.515749	0.021825
584.727127	0.021876
584.938486	0.021613
585.149828	0.021767
585.361151	0.021869
585.572456	0.022098
585.783742	0.021929
585.995011	0.022098
586.206261	0.021947
586.417493	0.022066
586.628706	0.022318
586.839902	0.022367
587.051079	0.022489
587.262238	0.022409
587.473379	0.022181
587.684502	0.021963
587.895606	0.021579
588.106692	0.021753
588.317760	0.021882
588.528810	0.021576
588.739841	0.021642
588.950855	0.021574
589.161850	0.021756
589.372827	0.021970
589.583785	0.022264
589.794726	0.022187
590.005648	0.022208
590.216552	0.022261
590.427437	0.021995
590.638305	0.021878
590.849154	0.022001
591.059985	0.021991
591.270798	0.021900
591.481592	0.022083
591.692369	0.022600
591.903127	0.022653
592.113867	0.022974
592.324588	0.023488
592.535292	0.023947
592.745977	0.024110
592.956644	0.024335
593.167293	0.024355
593.377923	0.024462
593.588536	0.024459
593.799130	0.024413
594.009706	0.024137
594.220263	0.023936
594.430803	0.024019
594.641324	0.024080
594.851827	0.024213
595.062312	0.024378
595.272778	0.024414
595.483227	0.024460
595.693657	0.024870
595.904069	0.024858
596.114462	0.025284
596.324838	0.025307
596.535195	0.025137
596.745534	0.024934
596.955855	0.025071
597.166157	0.025371
597.376441	0.025400
597.586707	0.025153
597.796955	0.025140
598.007185	0.025029
598.217396	0.024921
598.427589	0.025332
598.637764	0.025416
598.847921	0.025728
599.058060	0.025298
599.268180	0.025244
599.478282	0.025493
599.688366	0.025650
599.898431	0.025937
600.108479	0.026086
600.318508	0.026330
600.528519	0.026639
600.738511	0.026481
600.948486	0.026707
601.158442	0.027070
601.368380	0.027066
601.578300	0.027044
601.788202	0.026980
601.998085	0.027100
602.207950	0.027009
602.417797	0.027442
602.627626	0.027666
602.837436	0.027940
603.047228	0.028024
603.257002	0.028000
603.466758	0.028249
603.676496	0.028321
603.886215	0.028324
604.095916	0.028355
604.305599	0.028071
604.515264	0.027675
604.724910	0.027737
604.934538	0.027832
605.144148	0.028295
605.353740	0.028368
605.563314	0.028297
605.772869	0.028412
605.982406	0.028501
606.191925	0.028531
606.401425	0.028612
606.610908	0.028560
606.820372	0.028386
607.029818	0.027800
607.239246	0.027646
607.448655	0.027398
607.658047	0.027363
607.867420	0.027030
608.076775	0.026905
608.286111	0.027297
608.495430	0.027294
608.704730	0.027525
608.914012	0.027901
609.123275	0.028108
609.332521	0.028692
609.541748	0.028894
609.750957	0.029282
609.960148	0.029639
610.169321	0.029559
610.378475	0.029601
610.587611	0.029847
610.796729	0.030025
611.005829	0.030104
611.214910	0.030217
611.423974	0.030226
611.633019	0.030513
611.842045	0.030756
612.051054	0.030831
612.260044	0.031140
612.469017	0.031157
612.677970	0.031272
612.886906	0.031083
613.095824	0.031061
613.304723	0.031423
613.513604	0.031139
613.722467	0.030995
613.931311	0.030972
614.140138	0.031003
614.348946	0.030618
614.557736	0.030560
614.766507	0.030579
614.975261	0.030540
615.183996	0.030508
615.392713	0.030853
615.601412	0.030789
615.810092	0.031021
616.018754	0.030891
616.227399	0.031417
616.436024	0.031599
616.644632	0.031903
616.853222	0.032117
617.061793	0.031982
617.270346	0.031828
617.478880	0.031798
617.687397	0.031793
617.895895	0.031931
618.104375	0.031824
618.312837	0.031914
618.521281	0.032010
618.729706	0.032071
618.938113	0.032324
619.146502	0.032426
619.354873	0.032866
619.563226	0.033163
619.771560	0.033463
619.979876	0.033723
620.188174	0.033905
620.396453	0.034097
620.604715	0.034110
620.812958	0.034060
621.021183	0.034374
621.229390	0.034393
621.437578	0.034683
621.645748	0.034535
621.853900	0.034600
622.062034	0.034603
622.270150	0.034725
622.478247	0.034843
622.686326	0.035193
622.894387	0.035155
623.102430	0.035110
623.310454	0.034943
623.518461	0.035263
623.726449	0.035213
623.934418	0.035350
624.142370	0.035282
624.350303	0.035417
624.558218	0.035472
624.766115	0.035561
624.973994	0.035705
625.181855	0.035625
625.389697	0.035567
625.597521	0.035694
625.805327	0.035795
626.013114	0.036119
626.220883	0.036116
626.428634	0.036145
626.636367	0.036163
626.844082	0.036016
627.051778	0.036132
627.259457	0.036113
627.467117	0.036337
627.674758	0.036363
627.882382	0.036588
628.089987	0.036624
628.297574	0.036638
628.505143	0.036781
628.712694	0.037164
628.920226	0.037354
629.127740	0.037605
629.335236	0.037453
629.542714	0.037363
629.750174	0.037169
629.957615	0.037471
630.165038	0.037686
630.372443	0.037955
630.579829	0.037904
630.787198	0.038134
630.994548	0.038315
631.201880	0.038753
631.409194	0.039059
631.616489	0.039201
631.823766	0.039205
632.031025	0.039372
632.238266	0.039419
632.445489	0.039549
632.652693	0.039734
632.859879	0.039742
633.067047	0.039481
633.274197	0.039334
633.481329	0.039263
633.688442	0.039287
633.895537	0.039357
634.102614	0.039571
634.309672	0.039689
634.516713	0.039612
634.723735	0.039633
634.930739	0.039947
635.137724	0.040363
635.344692	0.040492
635.551641	0.040507
635.758572	0.040444
635.965485	0.040247
636.172379	0.040269
636.379256	0.040143
636.586114	0.040153
636.792954	0.040220
636.999775	0.039963
637.206579	0.040096
637.413364	0.040146
637.620131	0.039958
637.826880	0.040056
638.033610	0.040173
638.240323	0.040380
638.447017	0.040288
638.653692	0.040293
638.860350	0.040368
639.066990	0.040384
639.273611	0.040668
639.480214	0.041097
639.686798	0.041033
639.893365	0.041095
640.099913	0.041052
640.306443	0.041446
640.512955	0.041438
640.719449	0.041657
640.925924	0.041948
641.132381	0.041800
641.338820	0.041768
641.545241	0.041946
641.751644	0.041944
641.958028	0.042285
642.164394	0.042303
642.370742	0.042416
642.577071	0.042427
642.783383	0.042418
642.989676	0.042588
643.195951	0.042638
643.402207	0.042884
643.608446	0.043227
643.814666	0.042838
644.020868	0.043074
644.227052	0.043258
644.433218	0.043568
644.639365	0.043631
644.845494	0.043705
645.051605	0.043772
645.257698	0.043805
645.463772	0.043696
645.669828	0.044290
645.875866	0.044378
646.081886	0.044457
646.287888	0.044457
646.493871	0.044550
646.699836	0.044619
646.905783	0.044683
647.111712	0.044724
647.317622	0.045078
647.523514	0.044988
647.729388	0.044962
647.935244	0.044978
648.141082	0.045174
648.346901	0.045041
648.552702	0.045211
648.758485	0.045336
648.964250	0.045343
649.169996	0.045124
649.375724	0.045240
649.581434	0.045570
649.787126	0.045834
649.992800	0.045893
650.198455	0.046231
650.404092	0.046453
650.609711	0.046565
650.815311	0.046856
651.020894	0.047085
651.226458	0.047271
651.432004	0.047299
651.637532	0.047307
651.843041	0.047296
652.048532	0.047368
652.254006	0.047452
652.459460	0.047404
652.664897	0.047408
652.870315	0.047303
653.075716	0.047243
653.281097	0.047229
653.486461	0.047168
653.691807	0.047223
653.897134	0.047459
654.102443	0.047519
654.307734	0.047823
654.513006	0.047985
654.718261	0.048373
654.923497	0.048575
655.128715	0.048841
655.333915	0.049121
655.539096	0.049386
655.744259	0.049632
655.949404	0.049954
656.154531	0.050079
656.359640	0.050213
656.564730	0.050283
656.769802	0.050402
656.974856	0.050442
657.179892	0.050480
657.384909	0.050377
657.589908	0.050226
657.794889	0.050140
657.999852	0.050234
658.204797	0.050219
658.409723	0.050258
658.614631	0.050251
658.819521	0.050050
659.024393	0.050029
659.229246	0.049942
659.434081	0.049817
659.638898	0.049756
659.843697	0.049697
660.048478	0.049770
660.253240	0.049602
660.457984	0.049604
660.662710	0.049681
660.867417	0.049795
661.072107	0.050032
661.276778	0.050161
661.481431	0.050237
661.686066	0.050276
661.890682	0.050504
662.095281	0.050840
662.299861	0.050907
662.504422	0.051079
662.708966	0.051163
662.913491	0.051302
663.117999	0.051501
663.322488	0.051458
663.526958	0.051595
663.731411	0.051356
663.935845	0.051306
664.140261	0.051253
664.344659	0.051216
664.549038	0.051190
664.753400	0.051005
664.957743	0.051139
665.162068	0.051343
665.366375	0.051396
665.570663	0.051739
665.774933	0.051732
665.979185	0.051976
666.183419	0.052232
666.387635	0.052531
666.591832	0.052790
666.796011	0.052934
667.000172	0.053102
667.204315	0.053358
667.408439	0.053491
667.612545	0.053784
667.816634	0.053945
668.020703	0.053909
668.224755	0.053822
668.428788	0.053817
668.632803	0.053805
668.836800	0.054022
669.040779	0.053966
669.244739	0.053841
669.448681	0.053930
669.652605	0.054086
669.856511	0.054300
670.060399	0.054531
670.264268	0.054813
670.468119	0.054888
670.671952	0.054906
670.875767	0.055156
671.079563	0.055339
671.283341	0.055669
671.487101	0.055821
671.690843	0.055884
671.894567	0.056057
672.098272	0.056038
672.301959	0.056285
672.505628	0.056353
672.709278	0.056448
672.912911	0.056559
673.116525	0.056691
673.320121	0.056773
673.523699	0.056967
673.727258	0.057205
673.930799	0.057533
674.134322	0.057638
674.337827	0.057843
674.541314	0.058018
674.744782	0.058096
674.948232	0.057786
675.151664	0.057994
675.355078	0.058090
675.558474	0.058090
675.761851	0.058199
675.965210	0.058308
676.168551	0.058396
676.371873	0.058444
676.575178	0.058573
676.778464	0.058760
676.981732	0.058696
677.184981	0.058764
677.388213	0.058949
677.591426	0.059089
677.794621	0.059006
677.997798	0.058955
678.200956	0.058952
678.404097	0.059015
678.607219	0.059259
678.810323	0.059347
679.013408	0.059315
679.216476	0.059261
679.419525	0.059200
679.622556	0.059399
679.825569	0.059497
680.028563	0.059554
680.231540	0.059785
680.434498	0.059751
680.637438	0.059762
680.840359	0.060103
681.043263	0.060243
681.246148	0.060274
681.449015	0.060329
681.651864	0.060454
681.854694	0.060727
682.057506	0.060813
682.260301	0.061117
682.463076	0.061287
682.665834	0.061367
682.868573	0.061363
683.071295	0.061552
683.273998	0.061771
683.476682	0.062050
683.679349	0.062092
683.881997	0.062066
684.084627	0.062023
684.287239	0.062045
684.489833	0.062160
684.692408	0.062296
684.894965	0.062216
685.097504	0.062155
685.300025	0.062129
685.502527	0.062083
685.705012	0.062120
685.907478	0.062186
686.109925	0.062246
686.312355	0.062150
686.514766	0.062182
686.717159	0.062472
686.919534	0.062383
687.121891	0.062547
687.324230	0.062782
687.526550	0.062956
687.728852	0.063012
687.931136	0.063217
688.133401	0.063184
688.335649	0.063244
688.537878	0.063201
688.740089	0.063420
688.942281	0.063297
689.144456	0.063390
689.346612	0.063554
689.548750	0.063647
689.750870	0.063861
689.952971	0.064028
690.155055	0.064209
690.357120	0.064574
690.559167	0.064840
690.761195	0.065072
690.963206	0.065135
691.165198	0.065088
691.367172	0.065236
691.569128	0.065189
691.771065	0.065418
691.972984	0.065522
692.174885	0.065485
692.376768	0.065558
692.578633	0.065694
692.780479	0.065712
692.982308	0.065853
693.184118	0.065785
693.385909	0.065829
693.587683	0.065737
693.789438	0.065659
693.991175	0.065641
694.192894	0.065645
694.394595	0.065553
694.596277	0.065476
694.797941	0.065649
694.999587	0.065796
695.201215	0.065949
695.402824	0.066228
695.604416	0.066528
695.805989	0.066817
696.007543	0.066810
696.209080	0.066908
696.410598	0.067157
696.612099	0.067253
696.813580	0.067367
697.015044	0.067367
697.216490	0.067354
697.417917	0.067337
697.619326	0.067062
697.820717	0.067373
698.022089	0.067204
698.223444	0.067243
698.424780	0.067257
698.626098	0.067261
698.827397	0.067235
699.028679	0.067315
699.229942	0.067372
699.431187	0.067450
699.632414	0.067171
699.833622	0.067516
700.034813	0.067531
700.235985	0.067515
700.437139	0.067517
700.638274	0.067633
700.839392	0.067564
701.040491	0.067609
701.241572	0.067794
701.442635	0.067990
701.643679	0.067967
701.844706	0.068028
702.045714	0.067886
702.246704	0.067921
702.447675	0.068062
702.648629	0.067924
702.849564	0.067791
703.050481	0.067793
703.251380	0.067656
703.452260	0.067739
703.653122	0.067546
703.853966	0.067608
704.054792	0.067777
704.255600	0.067660
704.456389	0.068001
704.657160	0.068045
704.857913	0.068038
705.058648	0.068026
705.259365	0.067739
705.460063	0.067727
705.660743	0.067723
705.861405	0.067497
706.062048	0.067424
706.262674	0.067080
706.463281	0.067031
706.663870	0.066816
706.864441	0.066709
707.064993	0.066870
707.265527	0.067023
707.466043	0.067067
707.666541	0.067131
707.867021	0.067177
708.067482	0.067101
708.267925	0.067106
708.468350	0.067201
708.668757	0.067348
708.869145	0.067388
709.069516	0.067323
709.269868	0.067295
709.470201	0.067203
709.670517	0.067188
709.870814	0.067383
710.071093	0.067327
710.271354	0.067450
710.471597	0.067367
710.671821	0.067261
710.872028	0.067156
711.072216	0.066938
711.272385	0.066930
711.472537	0.066856
711.672670	0.066791
711.872785	0.066710
712.072882	0.066590
712.272961	0.066560
712.473021	0.066449
712.673063	0.066514
712.873087	0.066629
713.073093	0.066679
713.273081	0.066612
713.473050	0.066484
713.673001	0.066600
713.872934	0.066650
714.072849	0.066615
714.272745	0.066851
714.472623	0.066812
714.672483	0.066973
714.872325	0.067067
715.072148	0.067197
715.271954	0.067377
715.471741	0.067375
715.671509	0.067454
715.871260	0.067587
716.070992	0.067509
716.270707	0.067437
716.470403	0.067306
716.670080	0.067032
716.869740	0.066907
717.069381	0.066773
717.269004	0.066578
717.468609	0.066325
717.668195	0.066163
717.867764	0.065921
718.067314	0.066020
718.266846	0.065899
718.466360	0.065897
718.665855	0.065759
718.865332	0.065738
719.064791	0.065634
719.264232	0.065454
719.463655	0.065013
719.663059	0.065032
719.862445	0.064658
720.061813	0.064275
720.261163	0.064018
720.460494	0.063911
720.659807	0.063652
720.859102	0.063552
721.058379	0.063355
721.257638	0.063474
721.456878	0.063156
721.656100	0.063121
721.855304	0.063247
722.054490	0.063282
722.253657	0.063053
722.452806	0.063050
722.651937	0.063062
722.851050	0.063049
723.050145	0.063056
723.249221	0.063137
723.448279	0.063251
723.647319	0.063149
723.846340	0.063117
724.045344	0.063171
724.244329	0.063088
724.443296	0.062835
724.642245	0.062875
724.841175	0.062801
725.040088	0.062600
725.238982	0.062348
725.437857	0.062244
725.636715	0.062175
725.835554	0.062032
726.034376	0.061995
726.233179	0.062071
726.431963	0.062187
726.630730	0.062370
726.829478	0.062436
727.028208	0.062398
727.226920	0.062408
727.425614	0.062364
727.624289	0.062509
727.822946	0.062520
728.021585	0.062514
728.220206	0.062337
728.418808	0.062219
728.617392	0.062261
728.815958	0.062152
729.014506	0.062180
729.213036	0.062271
729.411547	0.062179
729.610040	0.061967
729.808515	0.061988
730.006972	0.061751
730.205410	0.061434
730.403831	0.061098
730.602233	0.061143
730.800616	0.060946
730.998982	0.060711
731.197329	0.060527
731.395658	0.060549
731.593969	0.060264
731.792262	0.060225
731.990536	0.060372
732.188793	0.060532
732.387031	0.060513
732.585250	0.060485
732.783452	0.060426
732.981635	0.060387
733.179800	0.060348
733.377947	0.060312
733.576076	0.060377
733.774186	0.060096
733.972278	0.059830
734.170352	0.059815
734.368408	0.059720
734.566446	0.059615
734.764465	0.059535
734.962466	0.059396
735.160449	0.059495
735.358413	0.059340
735.556360	0.059474
735.754288	0.059486
735.952198	0.059235
736.150090	0.059217
736.347963	0.059199
736.545818	0.059190
736.743655	0.059298
736.941474	0.059384
737.139275	0.059506
737.337057	0.059377
737.534821	0.059360
737.732567	0.059399
737.930295	0.059236
738.128005	0.059387
738.325696	0.059351
738.523369	0.059380
738.721024	0.059053
738.918660	0.058844
739.116279	0.058764
739.313879	0.058775
739.511461	0.058629
739.709024	0.058549
739.906570	0.058333
740.104097	0.058363
740.301606	0.058191
740.499097	0.058215
740.696569	0.058287
740.894024	0.058410
741.091460	0.058527
741.288878	0.058688
741.486277	0.058702
741.683659	0.058733
741.881022	0.058546
742.078367	0.058429
742.275694	0.058390
742.473002	0.058243
742.670293	0.058048
742.867565	0.057837
743.064819	0.057765
743.262054	0.057840
743.459272	0.057760
743.656471	0.057739
743.853652	0.057854
744.050815	0.057769
744.247959	0.057751
744.445085	0.057741
744.642194	0.057847
744.839283	0.057817
745.036355	0.057930
745.233408	0.057813
745.430444	0.057862
745.627461	0.057675
745.824459	0.057540
746.021440	0.057682
746.218402	0.057519
746.415346	0.057288
746.612272	0.057196
746.809180	0.057027
747.006069	0.057111
747.202940	0.057106
747.399793	0.056973
747.596628	0.057188
747.793444	0.057049
747.990243	0.057289
748.187023	0.057424
748.383784	0.057301
748.580528	0.057211
748.777253	0.057012
748.973960	0.056898
749.170649	0.057060
749.367320	0.056983
749.563973	0.056759
749.760607	0.056544
749.957223	0.056435
750.153821	0.056586
750.350400	0.056688
750.546962	0.056621
750.743505	0.056481
750.940030	0.056277
751.136536	0.056032
751.333025	0.056072
751.529495	0.056083
751.725947	0.056023
751.922381	0.055817
752.118796	0.055700
752.315194	0.055701
752.511573	0.055784
752.707934	0.055589
752.904276	0.055694
753.100601	0.055542
753.296907	0.055401
753.493195	0.055319
753.689465	0.055349
753.885716	0.055101
754.081949	0.054997
754.278164	0.054895
754.474361	0.055065
754.670540	0.054971
754.866700	0.054965
755.062843	0.054894
755.258967	0.054674
755.455072	0.054473
755.651160	0.054289
755.847229	0.054167
756.043280	0.054053
756.239313	0.053782
756.435328	0.053623
756.631324	0.053453
756.827302	0.053384
757.023262	0.053278
757.219204	0.053198
757.415127	0.053312
757.611033	0.053286
757.806920	0.053233
758.002788	0.053122
758.198639	0.053026
758.394471	0.052899
758.590286	0.052801
758.786081	0.052909
758.981859	0.052921
759.177619	0.052864
759.373360	0.052802
759.569083	0.052856
759.764788	0.053004
759.960474	0.052994
760.156143	0.053199
760.351793	0.053320
760.547425	0.053296
760.743038	0.053151
760.938634	0.053194
761.134211	0.053507
761.329770	0.053289
761.525311	0.053077
761.720833	0.053133
761.916338	0.053050
762.111824	0.052847
762.307292	0.052864
762.502741	0.052951
762.698173	0.053015
762.893586	0.052762
763.088981	0.052951
763.284358	0.053156
763.479716	0.053031
763.675057	0.053067
763.870379	0.053049
764.065683	0.052894
764.260968	0.053004
764.456236	0.053121
764.651485	0.052910
764.846716	0.052750
765.041929	0.052565
765.237123	0.052550
765.432299	0.052412
765.627457	0.052525
765.822597	0.052601
766.017719	0.052536
766.212822	0.052143
766.407907	0.052235
766.602974	0.052305
766.798023	0.052455
766.993054	0.052359
767.188066	0.052419
767.383060	0.052335
767.578036	0.052475
767.772993	0.052397
767.967933	0.052531
768.162854	0.052448
768.357757	0.052348
768.552642	0.052098
768.747508	0.052007
768.942356	0.051789
769.137186	0.051707
769.331998	0.051457
769.526792	0.051383
769.721567	0.051519
769.916324	0.051571
770.111063	0.051620
770.305784	0.051892
770.500486	0.052268
770.695171	0.052630
770.889837	0.052813
771.084484	0.052835
771.279114	0.053096
771.473725	0.053029
771.668318	0.053090
771.862893	0.053006
772.057450	0.053002
772.251988	0.052896
772.446509	0.053003
772.641011	0.052766
772.835494	0.052680
773.029960	0.052574
773.224407	0.052306
773.418836	0.052237
773.613247	0.052307
773.807640	0.052006
774.002014	0.052012
774.196370	0.051534
774.390708	0.051617
774.585028	0.051591
774.779330	0.051223
774.973613	0.051201
775.167878	0.051381
775.362125	0.051294
775.556354	0.051287
775.750564	0.051234
775.944756	0.051314
776.138930	0.051104
776.333086	0.050928
776.527223	0.050833
776.721343	0.050804
776.915444	0.050568
777.109526	0.050375
777.303591	0.050526
777.497637	0.050478
777.691666	0.050505
777.885676	0.050701
778.079667	0.050979
778.273641	0.051202
778.467596	0.051486
778.661533	0.051494
778.855452	0.051856
779.049352	0.051965
779.243235	0.052094
779.437099	0.052195
779.630945	0.052168
779.824773	0.052173
780.018582	0.052390
780.212373	0.052454
780.406146	0.052582
780.599901	0.052463
780.793638	0.052398
780.987356	0.052652
781.181056	0.052717
781.374738	0.052955
781.568402	0.052970
781.762047	0.053015
781.955674	0.053032
782.149283	0.052856
782.342874	0.052814
782.536447	0.052799
782.730001	0.052544
782.923537	0.052554
783.117055	0.052377
783.310555	0.052409
783.504036	0.052247
783.697499	0.052114
783.890944	0.052119
784.084371	0.051973
784.277780	0.051983
784.471170	0.051840
784.664542	0.051580
784.857896	0.051632
785.051231	0.051482
785.244549	0.051605
785.437848	0.051640
785.631129	0.051628
785.824392	0.051747
786.017636	0.051704
786.210863	0.051613
786.404071	0.051570
786.597260	0.051631
786.790432	0.051733
786.983585	0.051478
787.176721	0.051496
787.369838	0.051692
787.562936	0.051860
787.756017	0.051957
787.949079	0.051996
788.142123	0.052255
788.335149	0.052140
788.528156	0.052188
788.721146	0.052443
788.914117	0.052523
789.107070	0.052654
789.300005	0.052618
789.492921	0.052835
789.685819	0.053119
789.878699	0.053151
790.071561	0.053440
790.264405	0.053481
790.457230	0.053549
790.650037	0.053489
790.842826	0.053434
791.035597	0.053486
791.228349	0.053182
791.421084	0.052997
791.613800	0.053204
791.806497	0.053057
791.999177	0.053206
792.191838	0.053193
792.384481	0.053363
792.577106	0.053435
792.769713	0.053678
792.962301	0.054067
793.154871	0.054452
793.347423	0.054393
793.539957	0.054573
793.732473	0.054752
793.924970	0.054921
794.117449	0.055023
794.309910	0.055200
794.502353	0.055219
794.694777	0.055364
794.887183	0.055440
795.079571	0.055362
795.271941	0.055608
795.464293	0.055729
795.656626	0.055774
795.848941	0.055912
796.041238	0.055857
796.233516	0.055944
796.425777	0.056085
796.618019	0.056110
796.810243	0.056381
797.002449	0.056251
797.194636	0.056210
797.386805	0.056210
797.578956	0.056271
797.771089	0.056316
797.963204	0.056222
798.155300	0.056015
798.347378	0.056091
798.539438	0.056141
798.731480	0.056382
798.923503	0.056431
799.115509	0.056490
799.307496	0.056313
799.499465	0.056232
799.691415	0.056348
799.883348	0.056557
800.075262	0.056248
800.267158	0.056327
800.459035	0.056100
800.650895	0.055874
800.842736	0.055896
801.034559	0.056005
801.226364	0.056251
801.418150	0.056373
801.609919	0.056133
801.801669	0.056350
801.993401	0.056395
802.185114	0.056411
802.376810	0.056844
802.568487	0.057160
802.760146	0.057356
802.951787	0.057449
803.143409	0.057626
803.335014	0.057947
803.526600	0.058355
803.718168	0.058450
803.909717	0.058891
804.101249	0.058872
804.292762	0.058917
804.484257	0.058782
804.675734	0.058935
804.867192	0.058878
805.058632	0.059077
805.250054	0.059029
805.441458	0.059115
805.632844	0.058886
805.824211	0.058767
806.015561	0.058574
806.206891	0.058879
806.398204	0.058789
806.589499	0.058863
806.780775	0.058743
806.972033	0.058583
807.163273	0.058561
807.354495	0.058767
807.545698	0.058980
807.736883	0.059096
807.928050	0.059228
808.119199	0.059402
808.310329	0.059459
808.501441	0.059661
808.692535	0.059907
808.883611	0.060144
809.074669	0.060204
809.265708	0.060481
809.456729	0.060774
809.647732	0.060912
809.838717	0.061229
810.029683	0.061696
810.220632	0.061906
810.411562	0.062167
810.602474	0.062545
810.793367	0.062642
810.984242	0.062689
811.175100	0.062799
811.365938	0.062849
811.556759	0.062860
811.747562	0.062908
811.938346	0.062918
812.129112	0.063059
812.319860	0.063040
812.510589	0.063301
812.701300	0.063404
812.891994	0.063470
813.082668	0.063663
813.273325	0.063687
813.463964	0.063484
813.654584	0.063332
813.845186	0.063428
814.035769	0.063379
814.226335	0.063394
814.416882	0.063390
814.607411	0.063463
814.797922	0.063625
814.988415	0.063548
815.178889	0.063761
815.369345	0.064214
815.559783	0.064131
815.750203	0.064039
815.940605	0.063894
816.130988	0.064060
816.321353	0.064010
816.511700	0.063923
816.702028	0.064205
816.892339	0.064285
817.082631	0.063976
817.272905	0.064090
817.463161	0.064183
817.653398	0.064636
817.843617	0.064760
818.033819	0.064981
818.224001	0.064870
818.414166	0.065024
818.604312	0.065016
818.794440	0.065497
818.984550	0.065631
819.174642	0.065750
819.364716	0.065631
819.554771	0.065723
819.744808	0.065959
819.934827	0.066273
820.124827	0.066066
820.314810	0.066390
820.504774	0.066115
820.694720	0.066104
820.884647	0.066278
821.074557	0.066374
821.264448	0.066444
821.454321	0.066435
821.644176	0.066533
821.834012	0.066933
822.023831	0.067092
822.213631	0.067275
822.403413	0.067434
822.593176	0.067625
822.782922	0.067688
822.972649	0.067809
823.162358	0.068053
823.352049	0.068059
823.541721	0.067989
823.731376	0.067811
823.921012	0.068063
824.110629	0.068320
824.300229	0.068479
824.489811	0.068484
824.679374	0.068755
824.868919	0.068906
825.058445	0.069115
825.247954	0.069164
825.437444	0.069289
825.626916	0.069400
825.816370	0.069280
826.005806	0.069260
826.195223	0.069740
826.384622	0.069560
826.574003	0.069673
826.763366	0.069786
826.952711	0.070214
827.142037	0.070569
827.331345	0.070475
827.520635	0.070519
827.709906	0.070645
827.899160	0.070622
828.088395	0.070595
828.277612	0.070335
828.466810	0.070442
828.655991	0.070443
828.845153	0.070259
829.034297	0.070501
829.223423	0.070679
829.412531	0.070749
829.601620	0.070739
829.790691	0.071159
829.979744	0.071612
830.168779	0.071574
830.357795	0.071595
830.546793	0.071901
830.735773	0.072093
830.924735	0.072301
831.113679	0.072475
831.302604	0.072718
831.491511	0.072814
831.680400	0.072807
831.869271	0.073152
832.058123	0.073389
832.246957	0.073483
832.435773	0.073695
832.624571	0.073895
832.813351	0.074259
833.002112	0.074631
833.190855	0.074813
833.379580	0.075081
833.568287	0.075456
833.756975	0.075568
833.945645	0.075769
834.134297	0.075761
834.322931	0.075898
834.511547	0.075999
834.700144	0.076315
834.888723	0.076190
835.077284	0.076075
835.265826	0.075739
835.454351	0.075840
835.642857	0.075930
835.831345	0.075995
836.019815	0.076259
836.208266	0.076331
836.396699	0.076010
836.585114	0.076491
836.773511	0.076916
836.961890	0.077506
837.150250	0.077919
837.338592	0.078265
837.526916	0.078914
837.715222	0.078956
837.903510	0.079373
838.091779	0.079777
838.280030	0.080060
838.468263	0.080323
838.656477	0.080231
838.844674	0.080271
839.032852	0.080546
839.221012	0.080416
839.409153	0.080733
839.597277	0.080726
839.785382	0.081062
839.973469	0.081144
840.161538	0.081088
840.349589	0.081309
840.537621	0.081717
840.725635	0.081429
840.913631	0.081813
841.101609	0.081980
841.289568	0.082456
841.477509	0.082578
841.665432	0.082568
841.853337	0.082815
842.041224	0.082809
842.229092	0.082711
842.416942	0.083255
842.604774	0.083305
842.792588	0.083632
842.980383	0.083441
843.168160	0.083404
843.355919	0.083752
843.543660	0.083801
843.731382	0.084437
843.919087	0.084739
844.106773	0.085119
844.294441	0.085351
844.482090	0.085257
844.669722	0.085267
844.857335	0.085491
845.044930	0.085793
845.232507	0.086187
845.420065	0.086310
845.607605	0.086480
845.795127	0.086206
845.982631	0.086327
846.170117	0.086702
846.357584	0.086977
846.545033	0.087086
846.732464	0.086943
846.919877	0.087085
847.107272	0.086929
847.294648	0.087144
847.482006	0.087439
847.669346	0.087673
847.856667	0.087597
848.043971	0.087943
848.231256	0.088191
848.418523	0.088579
848.605771	0.088794
848.793002	0.089419
848.980214	0.089485
849.167408	0.089679
849.354584	0.089773
849.541742	0.090016
849.728881	0.090160
849.916002	0.090232
850.103105	0.090284
850.290190	0.090348
850.477256	0.090162
850.664304	0.090418
850.851334	0.090389
851.038346	0.090303
851.225340	0.090437
851.412315	0.090511
851.599272	0.090740
851.786211	0.090806
851.973132	0.090908
852.160034	0.091071
852.346918	0.090945
852.533784	0.091015
852.720632	0.091257
852.907462	0.091443
853.094273	0.091346
853.281066	0.091297
853.467841	0.091344
853.654598	0.091147
853.841336	0.091268
854.028056	0.091366
854.214758	0.091520
854.401442	0.091655
854.588107	0.091579
854.774755	0.092029
854.961384	0.092258
855.147995	0.092768
855.334587	0.093277
855.521162	0.093344
855.707718	0.093577
855.894256	0.093855
856.080775	0.094225
856.267277	0.094445
856.453760	0.094424
856.640225	0.094553
856.826672	0.094445
857.013101	0.094658
857.199511	0.094855
857.385903	0.095372
857.572277	0.095288
857.758633	0.095127
857.944970	0.095318
858.131290	0.095467
858.317591	0.095654
858.503873	0.095964
858.690138	0.096121
858.876384	0.096403
859.062612	0.096465
859.248822	0.096942
859.435014	0.097411
859.621188	0.097780
859.807343	0.098089
859.993480	0.098083
860.179599	0.098284
860.365699	0.098201
860.551781	0.098270
860.737846	0.098398
860.923891	0.098377
861.109919	0.098450
861.295929	0.098482
861.481920	0.098446
861.667893	0.098675
861.853848	0.098597
862.039784	0.098802
862.225702	0.099221
862.411603	0.099302
862.597484	0.099736
862.783348	0.099796
862.969193	0.099923
863.155021	0.100133
863.340830	0.100574
863.526620	0.100684
863.712393	0.101140
863.898147	0.101027
864.083883	0.100971
864.269601	0.101054
864.455301	0.101175
864.640982	0.101398
864.826645	0.101284
865.012290	0.101156
865.197917	0.101242
865.383526	0.100478
865.569116	0.100097
865.754688	0.100089
865.940242	0.099938
866.125777	0.099746
866.311295	0.099554
866.496794	0.099770
866.682275	0.099750
866.867737	0.099689
867.053182	0.100183
867.238608	0.100530
867.424016	0.100306
867.609406	0.100226
867.794778	0.100655
867.980131	0.100708
868.165466	0.100808
868.350783	0.100985
868.536082	0.101265
868.721362	0.101709
868.906625	0.101481
869.091869	0.101790
869.277094	0.101910
869.462302	0.101856
869.647491	0.102016
869.832662	0.101966
870.017815	0.101906
870.202950	0.101694
870.388066	0.101820
870.573165	0.101932
870.758245	0.102065
870.943306	0.102043
871.128350	0.101930
871.313375	0.101883
871.498382	0.102030
871.683371	0.102156
871.868342	0.102855
872.053294	0.102407
872.238229	0.102895
872.423144	0.103114
872.608042	0.103234
872.792922	0.103511
872.977783	0.103857
873.162626	0.104138
873.347451	0.103865
873.532258	0.103578
873.717046	0.104150
873.901816	0.104278
874.086568	0.104442
874.271302	0.104638
874.456017	0.104767
874.640715	0.104734
874.825394	0.104835
875.010055	0.105559
875.194697	0.105866
875.379322	0.105833
875.563928	0.105925
875.748516	0.105845
875.933085	0.105995
876.117637	0.105887
876.302170	0.106114
876.486685	0.106335
876.671182	0.106365
876.855661	0.106302
877.040121	0.106324
877.224563	0.106181
877.408987	0.106069
877.593393	0.106342
877.777780	0.106833
877.962150	0.106591
878.146501	0.106345
878.330833	0.106307
878.515148	0.106561
878.699444	0.106274
878.883722	0.106355
879.067982	0.106702
879.252224	0.106897
879.436447	0.106782
879.620653	0.107312
879.804840	0.107453
879.989008	0.107592
880.173159	0.107139
880.357291	0.107596
880.541405	0.107774
880.725501	0.107791
880.909579	0.107314
881.093638	0.107583
881.277680	0.107394
881.461703	0.107236
881.645707	0.107099
881.829694	0.107309
882.013662	0.107090
882.197612	0.106898
882.381544	0.106792
882.565458	0.106982
882.749353	0.106484
882.933230	0.106261
883.117089	0.106146
883.300930	0.105945
883.484753	0.106040
883.668557	0.106491
883.852343	0.106425
884.036111	0.106169
884.219861	0.105917
884.403592	0.105911
884.587305	0.106226
884.771000	0.106481
884.954677	0.106353
885.138335	0.106231
885.321976	0.105901
885.505598	0.105983
885.689201	0.106138
885.872787	0.106269
886.056354	0.106541
886.239904	0.106325
886.423434	0.106262
886.606947	0.106580
886.790442	0.106560
886.973918	0.106408
887.157376	0.106393
887.340816	0.106445
887.524237	0.106010
887.707641	0.105837
887.891026	0.106139
888.074393	0.105983
888.257741	0.105811
888.441072	0.105714
888.624384	0.105473
888.807678	0.105588
888.990954	0.105586
889.174211	0.106009
889.357451	0.105833
889.540672	0.105103
889.723875	0.104960
889.907059	0.104857
890.090226	0.104784
890.273374	0.104942
890.456504	0.104846
890.639616	0.104794
890.822709	0.105099
891.005785	0.105258
891.188842	0.105452
891.371881	0.105911
891.554901	0.105666
891.737904	0.105633
891.920888	0.105566
892.103854	0.105337
892.286802	0.105038
892.469731	0.104626
892.652643	0.104495
892.835536	0.104440
893.018410	0.103944
893.201267	0.104275
893.384106	0.104310
893.566926	0.104338
893.749728	0.104396
893.932511	0.104436
894.115277	0.104450
894.298024	0.104203
894.480753	0.104111
894.663464	0.104120
894.846157	0.103974
895.028831	0.103725
895.211487	0.103805
895.394125	0.103408
895.576745	0.103298
895.759346	0.103409
895.941930	0.103390
896.124495	0.103229
896.307041	0.103076
896.489570	0.103040
896.672080	0.103338
896.854573	0.102773
897.037046	0.103277
897.219502	0.103182
897.401940	0.102503
897.584359	0.103010
897.766760	0.103088
897.949143	0.103021
898.131507	0.102953
898.313854	0.102762
898.496182	0.103007
898.678492	0.102731
898.860783	0.102616
899.043057	0.102633
899.225312	0.101894
899.407549	0.101995
899.589768	0.102033
899.771968	0.101906
899.954151	0.101874
900.136315	0.101828
900.318461	0.101785
900.500588	0.101820
900.682698	0.101523
900.864789	0.101399
901.046862	0.101152
901.228917	0.100588
901.410953	0.100104
901.592971	0.099285
901.774972	0.098977
901.956953	0.098143
902.138917	0.097661
902.320862	0.097751
902.502790	0.097778
902.684699	0.097311
902.866589	0.097262
903.048462	0.097156
903.230316	0.097058
903.412152	0.096498
903.593970	0.096657
903.775770	0.096299
903.957551	0.096255
904.139314	0.095879
904.321059	0.095552
904.502786	0.095437
904.684494	0.095350
904.866185	0.095541
905.047857	0.095677
905.229510	0.095283
905.411146	0.095370
905.592763	0.095092
905.774363	0.095199
905.955943	0.095190
906.137506	0.095108
906.319051	0.094781
906.500577	0.094595
906.682085	0.094893
906.863575	0.094987
907.045046	0.095137
907.226500	0.095151
907.407935	0.094752
907.589352	0.094555
907.770750	0.094012
907.952131	0.093845
908.133493	0.093334
908.314837	0.092752
908.496163	0.092724
908.677470	0.092397
908.858760	0.091882
909.040031	0.091214
909.221284	0.090888
909.402518	0.091314
909.583735	0.091109
909.764933	0.090818
909.946113	0.090362
910.127275	0.089652
910.308418	0.089264
910.489544	0.089111
910.670651	0.089099
910.851740	0.088893
911.032810	0.088344
911.213863	0.088201
911.394897	0.088365
911.575913	0.088284
911.756911	0.088300
911.937890	0.088145
912.118851	0.088155
912.299794	0.087794
912.480719	0.087669
912.661626	0.087208
912.842514	0.086595
913.023384	0.086214
913.204236	0.085941
913.385070	0.085610
913.565886	0.085283
913.746683	0.084665
913.927462	0.084154
914.108223	0.083801
914.288965	0.083708
914.469690	0.083624
914.650396	0.083181
914.831084	0.083167
915.011754	0.082988
915.192405	0.082909
915.373038	0.082252
915.553653	0.082449
915.734250	0.082110
915.914829	0.081617
916.095389	0.081273
916.275931	0.081115
916.456455	0.080161
916.636961	0.079503
916.817448	0.078832
916.997917	0.078987
917.178368	0.078463
917.358801	0.078473
917.539216	0.078252
917.719612	0.077867
917.899990	0.077402
918.080350	0.077601
918.260692	0.077606
918.441015	0.077306
918.621320	0.076711
918.801607	0.076084
918.981876	0.075052
919.162127	0.074763
919.342359	0.074376
919.522573	0.074339
919.702769	0.073748
919.882947	0.073209
920.063106	0.072901
920.243247	0.072761
920.423370	0.072863
920.603475	0.072927
920.783562	0.072595
920.963630	0.072372
921.143680	0.072081
921.323712	0.071861
921.503725	0.071556
921.683721	0.071432
921.863698	0.071120
922.043657	0.071085
922.223598	0.070703
922.403520	0.070197
922.583424	0.069973
922.763311	0.069588
922.943178	0.069002
923.123028	0.068816
923.302859	0.068523
923.482673	0.067802
923.662467	0.067682
923.842244	0.067101
924.022003	0.067040
924.201743	0.066788
924.381465	0.066019
924.561169	0.065383
924.740854	0.064675
924.920522	0.063777
925.100171	0.063712
925.279802	0.062879
925.459414	0.062619
925.639009	0.062237
925.818585	0.061550
925.998143	0.061268
926.177683	0.060669
926.357205	0.060468
926.536708	0.060498
926.716193	0.059698
926.895660	0.058771
927.075109	0.058247
927.254539	0.057596
927.433951	0.056619
927.613345	0.056090
927.792721	0.055653
927.972079	0.055091
928.151418	0.054178
928.330739	0.054218
928.510042	0.054149
928.689327	0.053523
928.868593	0.052714
929.047841	0.052799
929.227071	0.052247
929.406283	0.052141
929.585476	0.051212
929.764652	0.051049
929.943809	0.050442
930.122948	0.049758
930.302068	0.049699
930.481171	0.049258
930.660255	0.048525
930.839321	0.048188
931.018369	0.047641
931.197398	0.047648
931.376409	0.046683
931.555402	0.046465
931.734377	0.045986
931.913334	0.045026
932.092272	0.044625
932.271192	0.044382
932.450094	0.043520
932.628978	0.043309
932.807844	0.042276
932.986691	0.041847
933.165520	0.040805
933.344331	0.040125
933.523123	0.039566
933.701898	0.039354
933.880654	0.038506
934.059392	0.038280
934.238111	0.037838
934.416813	0.037854
934.595496	0.037908
934.774161	0.036980
934.952808	0.036401
935.131437	0.036295
935.310047	0.035325
935.488639	0.035539
935.667213	0.034236
935.845769	0.033410
936.024306	0.032698
936.202825	0.031679
936.381326	0.032110
936.559809	0.031362
936.738274	0.030773
936.916720	0.031130
937.095148	0.030020
937.273558	0.030585
937.451950	0.030257
937.630323	0.030386
937.808678	0.029917
937.987015	0.029202
938.165334	0.028915
938.343635	0.028507
938.521917	0.026567
938.700181	0.025902
938.878427	0.024975
939.056655	0.024361
939.234864	0.023205
939.413055	0.023110
939.591228	0.022564
939.769383	0.022927
939.947519	0.022747
940.125638	0.022962
940.303738	0.023027
940.481820	0.022383
940.659883	0.022162
940.837929	0.022717
941.015956	0.021621
941.193965	0.020711
941.371955	0.019959
941.549928	0.018983
941.727882	0.018436
941.905818	0.017080
942.083736	0.017093
942.261636	0.016213
942.439517	0.014843
942.617380	0.015282
942.795225	0.014942
942.973052	0.014225
943.150860	0.013452
943.328651	0.013673
943.506423	0.013335
943.684176	0.012292
943.861912	0.011203
944.039629	0.010245
944.217328	0.008483
944.395009	0.007812
944.572672	0.007100
944.750317	0.007005
944.927943	0.005725
945.105551	0.005227
945.283141	0.004407
945.460712	0.004253
945.638265	0.003229
945.815801	0.003971
945.993317	0.002887
946.170816	0.001849
946.348297	0.000340
946.525759	0.000487
946.703203	-0.000227
946.880629	-0.000035
947.058036	0.000138
947.235425	0.000623
947.412797	-0.000777
947.590149	-0.000688
947.767484	0.000094
947.944800	-0.000817
948.122099	-0.001380
948.299379	-0.001837
948.476640	-0.002749
948.653884	-0.003476
948.831109	-0.003576
949.008316	-0.004401
949.185505	-0.004091
949.362676	-0.004710
949.539828	-0.003941
949.716962	-0.004043
949.894078	-0.003404
950.071176	-0.003686
950.248256	-0.005009
950.425317	-0.005298
950.602360	-0.004933
950.779385	-0.006564
950.956391	-0.007576
951.133380	-0.008482
951.310350	-0.010417
951.487302	-0.011579
951.664235	-0.012415
951.841151	-0.011531
952.018048	-0.014507
952.194927	-0.016108
952.371788	-0.014728
952.548631	-0.016294
952.725455	-0.017203
952.902261	-0.016014
953.079049	-0.015835
953.255819	-0.016054
953.432570	-0.014694
953.609303	-0.012343
953.786018	-0.009817
953.962715	-0.012293
954.139394	-0.011150
954.316054	-0.008866
954.492696	-0.009096
954.669320	-0.008764
954.845926	-0.007898
955.022513	-0.010029
955.199083	-0.010545
955.375634	-0.011992
955.552166	-0.010745
955.728681	-0.010632
955.905177	-0.012946
956.081655	-0.014215
956.258115	-0.016009
956.434557	-0.017463
956.610980	-0.017863
956.787385	-0.018968
956.963772	-0.019675
957.140141	-0.018727
957.316492	-0.020616
957.492824	-0.019444
957.669138	-0.019631
957.845434	-0.018196
958.021712	-0.017811
958.197971	-0.017955
958.374212	-0.018071
958.550435	-0.018529
958.726640	-0.019961
958.902826	-0.019607
959.078995	-0.019694
959.255145	-0.019715
959.431277	-0.018480
959.607390	-0.019972
959.783486	-0.020470
959.959563	-0.019677
960.135622	-0.018971
960.311662	-0.020191
960.487685	-0.020170
960.663689	-0.019712
960.839675	-0.017542
961.015643	-0.018650
961.191593	-0.015977
961.367524	-0.015098
961.543437	-0.015683
961.719332	-0.015852
961.895209	-0.015344
962.071067	-0.014390
962.246907	-0.015213
962.422730	-0.015261
962.598533	-0.015660
962.774319	-0.017019
962.950086	-0.017736
963.125835	-0.017259
963.301566	-0.017032
963.477279	-0.015817
963.652973	-0.015326
963.828650	-0.014993
964.004308	-0.017103
964.179947	-0.019361
964.355569	-0.017952
964.531172	-0.016868
964.706757	-0.015894
964.882324	-0.016072
965.057873	-0.017127
965.233403	-0.017907
965.408916	-0.019278
965.584410	-0.020185
965.759885	-0.016416
965.935343	-0.019255
966.110782	-0.020995
966.286203	-0.020900
966.461606	-0.021051
966.636991	-0.020977
966.812357	-0.020188
966.987705	-0.018933
967.163035	-0.015962
967.338347	-0.017515
967.513641	-0.015798
967.688916	-0.014796
967.864173	-0.016194
968.039412	-0.017024
968.214632	-0.014619
968.389835	-0.013202
968.565019	-0.013462
968.740185	-0.014375
968.915333	-0.014667
969.090462	-0.014835
969.265573	-0.015444
969.440667	-0.014463
969.615741	-0.013979
969.790798	-0.015141
969.965836	-0.015308
970.140856	-0.014824
970.315858	-0.017408
970.490842	-0.017930
970.665808	-0.018732
970.840755	-0.017380
971.015684	-0.019914
971.190595	-0.019749
971.365487	-0.019948
971.540362	-0.021319
971.715218	-0.022529
971.890056	-0.020507
972.064875	-0.018027
972.239677	-0.015451
972.414460	-0.015886
972.589225	-0.011793
972.763972	-0.011309
972.938700	-0.010177
973.113411	-0.009904
973.288103	-0.007718
973.462777	-0.007068
973.637432	-0.007737
973.812070	-0.008696
973.986689	-0.009690
974.161290	-0.011702
974.335873	-0.012721
974.510437	-0.012516
974.684984	-0.013740
974.859512	-0.014725
975.034022	-0.015375
975.208513	-0.016190
975.382987	-0.016447
975.557442	-0.015293
975.731879	-0.015461
975.906298	-0.014274
976.080698	-0.017055
976.255080	-0.016007
976.429445	-0.017018
976.603790	-0.015931
976.778118	-0.015555
976.952427	-0.015090
977.126719	-0.016305
977.300992	-0.016007
977.475246	-0.014993
977.649483	-0.014398
977.823701	-0.013438
977.997901	-0.011983
978.172083	-0.013532
978.346247	-0.012284
978.520392	-0.010563
978.694519	-0.009633
978.868628	-0.008761
979.042719	-0.009133
979.216791	-0.008634
979.390845	-0.010219
979.564882	-0.010822
979.738899	-0.011185
979.912899	-0.012729
980.086880	-0.012083
980.260843	-0.012754
980.434788	-0.014407
980.608715	-0.014955
980.782623	-0.012939
980.956514	-0.011965
981.130386	-0.011954
981.304240	-0.012555
981.478075	-0.012520
981.651892	-0.015084
981.825692	-0.013826
981.999472	-0.012200
982.173235	-0.012083
982.346980	-0.014383
982.520706	-0.015322
982.694414	-0.015981
982.868104	-0.014965
983.041775	-0.014018
983.215428	-0.014916
983.389064	-0.015343
983.562680	-0.017466
983.736279	-0.018805
983.909860	-0.019873
984.083422	-0.018345
984.256966	-0.017245
984.430491	-0.017055
984.603999	-0.016393
984.777488	-0.013802
984.950959	-0.013818
985.124412	-0.012659
985.297847	-0.011799
985.471263	-0.009850
985.644661	-0.011274
985.818041	-0.011330
985.991403	-0.010577
986.164747	-0.011238
986.338072	-0.013247
986.511379	-0.013139
986.684668	-0.011849
986.857938	-0.011754
987.031191	-0.010971
987.204425	-0.011696
987.377641	-0.011566
987.550839	-0.013128
987.724018	-0.014645
987.897179	-0.014867
988.070322	-0.014505
988.243447	-0.013183
988.416554	-0.013639
988.589642	-0.014760
988.762712	-0.013288
988.935764	-0.014165
989.108798	-0.011944
989.281813	-0.011118
989.454811	-0.010505
989.627790	-0.011283
989.800751	-0.014283
989.973693	-0.013898
990.146617	-0.014307
990.319524	-0.015305
990.492412	-0.015009
990.665281	-0.017414
990.838133	-0.016380
991.010966	-0.017904
991.183781	-0.017660
991.356578	-0.016871
991.529356	-0.017375
991.702117	-0.016616
991.874859	-0.014864
992.047583	-0.014800
992.220288	-0.013188
992.392976	-0.014435
992.565645	-0.012858
992.738296	-0.014058
992.910929	-0.013943
993.083543	-0.014386
993.256139	-0.014735
993.428718	-0.016064
993.601277	-0.016273
993.773819	-0.016991
993.946342	-0.016955
994.118848	-0.017589
994.291335	-0.017223
994.463803	-0.018421
994.636254	-0.017361
994.808686	-0.017991
994.981100	-0.017986
995.153496	-0.018696
995.325874	-0.017012
995.498233	-0.017634
995.670574	-0.016228
995.842897	-0.014989
996.015202	-0.012301
996.187488	-0.011178
996.359757	-0.011090
996.532007	-0.012836
996.704239	-0.012377
996.876452	-0.013084
997.048648	-0.013148
997.220825	-0.012602
997.392984	-0.013454
997.565124	-0.015728
997.737247	-0.017561
997.909351	-0.016210
998.081437	-0.012503
998.253505	-0.011671
998.425554	-0.012503
998.597586	-0.011748
998.769599	-0.014242
998.941594	-0.014723
999.113571	-0.013708
999.285529	-0.011861
999.457469	-0.014561
999.629391	-0.016262
999.801295	-0.016548
999.973181	-0.017168
1000.145048	-0.017028
1000.316897	-0.016031
1000.488728	-0.014955
1000.660541	-0.016561
1000.832335	-0.017941
1001.004111	-0.015642
1001.175869	-0.014277
1001.347609	-0.015031
1001.519331	-0.015388
1001.691034	-0.014357
1001.862719	-0.013772
1002.034386	-0.015152
1002.206035	-0.015308
1002.377665	-0.015466
1002.549277	-0.016223
1002.720871	-0.019293
1002.892447	-0.020155
1003.064004	-0.018814
1003.235544	-0.019917
1003.407065	-0.019211
1003.578568	-0.018012
1003.750052	-0.016958
1003.921519	-0.016757
1004.092967	-0.016926
1004.264397	-0.016561
1004.435809	-0.013540
1004.607202	-0.014856
1004.778577	-0.015612
1004.949934	-0.016645
1005.121273	-0.015811
1005.292594	-0.014309
1005.463896	-0.014968
1005.635180	-0.015383
1005.806446	-0.014285
1005.977694	-0.015021
1006.148923	-0.013587
1006.320135	-0.012999
1006.491328	-0.014751
1006.662503	-0.015510
1006.833659	-0.017738
1007.004798	-0.017327
1007.175918	-0.016916
1007.347020	-0.017721
1007.518103	-0.019544
1007.689169	-0.019985
1007.860216	-0.019219
1008.031245	-0.017115
1008.202256	-0.017777
1008.373248	-0.016390
1008.544223	-0.016402
1008.715179	-0.017424
1008.886117	-0.015782
1009.057036	-0.014545
1009.227938	-0.015164
1009.398821	-0.015413
1009.569686	-0.017384
1009.740533	-0.017494
1009.911361	-0.018317
1010.082172	-0.017613
1010.252964	-0.015351
1010.423738	-0.016732
1010.594493	-0.017236
1010.765231	-0.017310
1010.935950	-0.018540
1011.106651	-0.017334
1011.277334	-0.017404
1011.447998	-0.017731
1011.618645	-0.017797
1011.789273	-0.018997
1011.959882	-0.018760
1012.130474	-0.017958
1012.301048	-0.017855
1012.471603	-0.016817
1012.642140	-0.016967
1012.812658	-0.016024
1012.983159	-0.016341
1013.153641	-0.017699
1013.324105	-0.017489
1013.494551	-0.016724
1013.664979	-0.017047
1013.835388	-0.018301
1014.005779	-0.017894
1014.176152	-0.018512
1014.346507	-0.019627
1014.516843	-0.018259
1014.687162	-0.016242
1014.857462	-0.016003
1015.027744	-0.016319
1015.198007	-0.017344
1015.368252	-0.017481
1015.538480	-0.017884
1015.708689	-0.017537
1015.878879	-0.017650
1016.049052	-0.016997
1016.219206	-0.018311
1016.389342	-0.018540
1016.559460	-0.018512
1016.729559	-0.018705
1016.899641	-0.017256
1017.069704	-0.017286
1017.239749	-0.018079
1017.409775	-0.016446
1017.579784	-0.018346
1017.749774	-0.018519
1017.919746	-0.019136
1018.089700	-0.019490
1018.259635	-0.018130
1018.429553	-0.017835
1018.599452	-0.018002
1018.769333	-0.017566
1018.939195	-0.019189
1019.109040	-0.018469
1019.278866	-0.017881
1019.448674	-0.017228
1019.618464	-0.017999
1019.788235	-0.019413
1019.957989	-0.020137
1020.127724	-0.021008
1020.297441	-0.019784
1020.467139	-0.020428
1020.636820	-0.019494
1020.806482	-0.018964
1020.976126	-0.019120
1021.145752	-0.017290
1021.315359	-0.015876
1021.484948	-0.015386
1021.654519	-0.014624
1021.824072	-0.015589
1021.993607	-0.015248
1022.163123	-0.016142
1022.332621	-0.017517
1022.502101	-0.018365
1022.671563	-0.019763
1022.841007	-0.020112
1023.010432	-0.020393
1023.179839	-0.020773
1023.349228	-0.020353
1023.518598	-0.021022
1023.687951	-0.022820
1023.857285	-0.021376
1024.026601	-0.020787
1024.195899	-0.020273
1024.365178	-0.020342
1024.534439	-0.020622
1024.703682	-0.020995
1024.872907	-0.021286
1025.042114	-0.021305
1025.211302	-0.019710
1025.380472	-0.020755
1025.549624	-0.020399
1025.718758	-0.021413
1025.887873	-0.022214
1026.056970	-0.019983
1026.226049	-0.019593
1026.395110	-0.019811
1026.564153	-0.017959
1026.733177	-0.017233
1026.902183	-0.017873
1027.071171	-0.018168
1027.240141	-0.018744
1027.409092	-0.017619
1027.578026	-0.019584
1027.746940	-0.019331
1027.915837	-0.019696
1028.084716	-0.020358
1028.253576	-0.020804
1028.422418	-0.020234
1028.591242	-0.020634
1028.760048	-0.018455
1028.928835	-0.018079
1029.097604	-0.017812
1029.266355	-0.016997
1029.435088	-0.016146
1029.603803	-0.014700
1029.772499	-0.014996
1029.941177	-0.014399
1030.109837	-0.013786
1030.278478	-0.015012
1030.447102	-0.015876
1030.615707	-0.016709
1030.784294	-0.017275
1030.952863	-0.016448
1031.121413	-0.017092
1031.289945	-0.015302
1031.458460	-0.014399
1031.626955	-0.016020
1031.795433	-0.016109
1031.963892	-0.018457
1032.132334	-0.017999
1032.300756	-0.019616
1032.469161	-0.021163
1032.637548	-0.022599
1032.805916	-0.025067
1032.974266	-0.026038
1033.142598	-0.024628
1033.310911	-0.025249
1033.479207	-0.023959
1033.647484	-0.024408
1033.815743	-0.023643
1033.983983	-0.022143
1034.152206	-0.021809
1034.320410	-0.021649
1034.488596	-0.021310
1034.656764	-0.021214
1034.824914	-0.020704
1034.993045	-0.019156
1035.161158	-0.017699
1035.329253	-0.017344
1035.497330	-0.019108
1035.665388	-0.019037
1035.833428	-0.018646
1036.001450	-0.019022
1036.169454	-0.018360
1036.337440	-0.020119
1036.505407	-0.020519
1036.673356	-0.021220
1036.841287	-0.021400
1037.009200	-0.021421
1037.177094	-0.021700
1037.344970	-0.021480
1037.512828	-0.021508
1037.680668	-0.021881
1037.848489	-0.020298
1038.016293	-0.020544
1038.184078	-0.020579
1038.351845	-0.019174
1038.519593	-0.018207
1038.687324	-0.017282
1038.855036	-0.018020
1039.022730	-0.019329
1039.190406	-0.019940
1039.358063	-0.017696
1039.525702	-0.018710
1039.693323	-0.017920
1039.860926	-0.019907
1040.028511	-0.021021
1040.196077	-0.020786
1040.363625	-0.020834
1040.531155	-0.020032
1040.698667	-0.020946
1040.866161	-0.022740
1041.033636	-0.022466
1041.201093	-0.022821
1041.368532	-0.022664
1041.535952	-0.022047
1041.703355	-0.023082
1041.870739	-0.022350
1042.038105	-0.023075
1042.205452	-0.023308
1042.372782	-0.023726
1042.540093	-0.023954
1042.707386	-0.025009
1042.874661	-0.024245
1043.041918	-0.022654
1043.209156	-0.020836
1043.376376	-0.019532
1043.543578	-0.016788
1043.710762	-0.015425
1043.877927	-0.015958
1044.045074	-0.015240
1044.212203	-0.015495
1044.379314	-0.015154
1044.546407	-0.016589
1044.713481	-0.018463
1044.880537	-0.019747
1045.047575	-0.022833
1045.214595	-0.021922
1045.381596	-0.021341
1045.548579	-0.020027
1045.715544	-0.019728
1045.882491	-0.020860
1046.049420	-0.020083
1046.216330	-0.020121
1046.383222	-0.019976
1046.550096	-0.018805
1046.716951	-0.019590
1046.883789	-0.018784
1047.050608	-0.019657
1047.217409	-0.018488
1047.384192	-0.017850
1047.550956	-0.018797
1047.717703	-0.018996
1047.884431	-0.018404
1048.051140	-0.017545
1048.217832	-0.018314
1048.384505	-0.017308
1048.551161	-0.017031
1048.717798	-0.017033
1048.884416	-0.015929
1049.051017	-0.015968
1049.217599	-0.015607
1049.384163	-0.016454
1049.550709	-0.018828
1049.717237	-0.017092
1049.883746	-0.018734
1050.050237	-0.018948
1050.216710	-0.019703
1050.383165	-0.020748
1050.549601	-0.021136
1050.716019	-0.021300
1050.882420	-0.022159
1051.048801	-0.021485
1051.215165	-0.024210
1051.381510	-0.022394
1051.547837	-0.021444
1051.714146	-0.020991
1051.880437	-0.021078
1052.046709	-0.019601
1052.212964	-0.019259
1052.379200	-0.018906
1052.545417	-0.015498
1052.711617	-0.014252
1052.877798	-0.014809
1053.043961	-0.014620
1053.210106	-0.015802
1053.376233	-0.016288
1053.542341	-0.016334
1053.708432	-0.015842
1053.874504	-0.015979
1054.040557	-0.021193
1054.206593	-0.021075
1054.372610	-0.022296
1054.538609	-0.024392
1054.704590	-0.022515
1054.870553	-0.023175
1055.036497	-0.025146
1055.202424	-0.025411
1055.368331	-0.024728
1055.534221	-0.022606
1055.700093	-0.021604
1055.865946	-0.022081
1056.031781	-0.020826
1056.197598	-0.022173
1056.363397	-0.019924
1056.529177	-0.019031
1056.694939	-0.019441
1056.860683	-0.019038
1057.026409	-0.018709
1057.192116	-0.019205
1057.357806	-0.017770
1057.523477	-0.019590
1057.689130	-0.018040
1057.854764	-0.019514
1058.020381	-0.019179
1058.185979	-0.017617
1058.351559	-0.017801
1058.517120	-0.017763
1058.682664	-0.019142
1058.848189	-0.020558
1059.013696	-0.019132
1059.179185	-0.021318
1059.344656	-0.022003
1059.510108	-0.021898
1059.675542	-0.022756
1059.840958	-0.022061
1060.006356	-0.022029
1060.171735	-0.021752
1060.337096	-0.020405
1060.502439	-0.019065
1060.667764	-0.019069
1060.833071	-0.018260
1060.998359	-0.018842
1061.163629	-0.020326
1061.328881	-0.021835
1061.494115	-0.022229
1061.659330	-0.020588
1061.824527	-0.019717
1061.989706	-0.021601
1062.154867	-0.022194
1062.320010	-0.022194
1062.485134	-0.020970
1062.650240	-0.018168
1062.815328	-0.017042
1062.980398	-0.015755
1063.145449	-0.015862
1063.310482	-0.016420
1063.475497	-0.015219
1063.640494	-0.012682
1063.805473	-0.011775
1063.970433	-0.011304
1064.135375	-0.011653
1064.300299	-0.012933
1064.465204	-0.014746
1064.630092	-0.016042
1064.794961	-0.016557
1064.959812	-0.018434
1065.124645	-0.019393
1065.289459	-0.019336
1065.454256	-0.019475
1065.619034	-0.018790
1065.783793	-0.017739
1065.948535	-0.015014
1066.113258	-0.013863
1066.277964	-0.014411
1066.442651	-0.012945
1066.607319	-0.014216
1066.771970	-0.015190
1066.936602	-0.015713
1067.101216	-0.016711
1067.265812	-0.016521
1067.430389	-0.018024
1067.594949	-0.018715
1067.759490	-0.018116
1067.924013	-0.019135
1068.088518	-0.017274
1068.253004	-0.016614
1068.417472	-0.017053
1068.581922	-0.018317
1068.746354	-0.018771
1068.910768	-0.017046
1069.075163	-0.017621
1069.239540	-0.015690
1069.403899	-0.014467
1069.568240	-0.014966
1069.732562	-0.014381
1069.896866	-0.014346
1070.061152	-0.012008
1070.225420	-0.011021
1070.389670	-0.014186
1070.553901	-0.013140
1070.718114	-0.016685
1070.882309	-0.015993
1071.046486	-0.014649
1071.210644	-0.013242
1071.374784	-0.012558
1071.538906	-0.012611
1071.703010	-0.012533
1071.867096	-0.009473
1072.031163	-0.009314
1072.195212	-0.008781
1072.359243	-0.009884
1072.523256	-0.010322
1072.687250	-0.013400
1072.851226	-0.013238
1073.015184	-0.013292
1073.179124	-0.013046
1073.343045	-0.014131
1073.506949	-0.014182
1073.670834	-0.010889
1073.834701	-0.008981
1073.998549	-0.009502
1074.162380	-0.009049
1074.326192	-0.009473
1074.489986	-0.009683
1074.653761	-0.009855
1074.817519	-0.009436
1074.981258	-0.007760
1075.144979	-0.008622
1075.308682	-0.008573
1075.472367	-0.008290
1075.636033	-0.006790
1075.799681	-0.005542
1075.963311	-0.005482
1076.126923	-0.005482
1076.290516	-0.005636
1076.454092	-0.008075
1076.617649	-0.007566
1076.781187	-0.006107
1076.944708	-0.006246
1077.108210	-0.005515
1077.271695	-0.006785
1077.435160	-0.009362
1077.598608	-0.010157
1077.762038	-0.009506
1077.925449	-0.007982
1078.088842	-0.008671
1078.252217	-0.011141
1078.415573	-0.012279
1078.578912	-0.012577
1078.742232	-0.011683
1078.905534	-0.009599
1079.068817	-0.008613
1079.232083	-0.008995
1079.395330	-0.010398
1079.558559	-0.012692
1079.721770	-0.014173
1079.884962	-0.011397
1080.048136	-0.010217
1080.211293	-0.011248
1080.374430	-0.012553
1080.537550	-0.013295
1080.700651	-0.011542
1080.863735	-0.010358
1081.026800	-0.005832
1081.189846	-0.003495
1081.352875	-0.005743
1081.515885	-0.008507
1081.678877	-0.008572
1081.841851	-0.007255
1082.004807	-0.008347
1082.167744	-0.010889
1082.330663	-0.011253
1082.493564	-0.013464
1082.656447	-0.016432
1082.819312	-0.014995
1082.982158	-0.014360
1083.144986	-0.014505
1083.307796	-0.013197
1083.470587	-0.011374
1083.633361	-0.010983
1083.796116	-0.009908
1083.958853	-0.009187
1084.121571	-0.005371
1084.284272	-0.005829
1084.446954	-0.006650
1084.609618	-0.004129
1084.772264	-0.004674
1084.934892	-0.003910
1085.097501	-0.002571
1085.260092	-0.003084
1085.422665	-0.005984
1085.585220	-0.006563
1085.747756	-0.006197
1085.910274	-0.003017
1086.072774	-0.003874
1086.235256	-0.006020
1086.397720	-0.006642
1086.560165	-0.009900
1086.722592	-0.010277
1086.885001	-0.007978
1087.047392	-0.009846
1087.209764	-0.008904
1087.372119	-0.012372
1087.534455	-0.011126
1087.696772	-0.010037
1087.859072	-0.012286
1088.021353	-0.009725
1088.183616	-0.010584
1088.345861	-0.010419
1088.508088	-0.008191
1088.670296	-0.007529
1088.832486	-0.006846
1088.994658	-0.009361
1089.156812	-0.008717
1089.318948	-0.006702
1089.481065	-0.006586
1089.643164	-0.006172
1089.805245	-0.009039
1089.967308	-0.010287
1090.129352	-0.013304
1090.291378	-0.013816
1090.453386	-0.014189
1090.615376	-0.013651
1090.777347	-0.014957
1090.939301	-0.016541
1091.101236	-0.015358
1091.263153	-0.013123
1091.425051	-0.013426
1091.586932	-0.010615
1091.748794	-0.009398
1091.910638	-0.009906
1092.072463	-0.010945
1092.234271	-0.009789
1092.396060	-0.010357
1092.557831	-0.012141
1092.719584	-0.013511
1092.881319	-0.014771
1093.043035	-0.017668
1093.204733	-0.016835
1093.366413	-0.015515
1093.528075	-0.016862
1093.689718	-0.016584
1093.851343	-0.013948
1094.012950	-0.012841
1094.174539	-0.013415
1094.336110	-0.013695
1094.497662	-0.014838
1094.659196	-0.016531
1094.820712	-0.015883
1094.982210	-0.012765
1095.143689	-0.012746
1095.305151	-0.013406
1095.466594	-0.012534
1095.628018	-0.008568
1095.789425	-0.007034
1095.950813	-0.004029
1096.112183	-0.001843
1096.273535	-0.001677
1096.434869	-0.004317
1096.596184	-0.003380
1096.757482	-0.004412
1096.918761	-0.004779
1097.080021	-0.006681
1097.241264	-0.006988
1097.402488	-0.007930
1097.563694	-0.007633
1097.724882	-0.009839
1097.886052	-0.006564
1098.047203	-0.007454
1098.208336	-0.007602
1098.369451	-0.008810
1098.530548	-0.010722
1098.691627	-0.011637
1098.852687	-0.012734
1099.013729	-0.014372
1099.174753	-0.012083
1099.335758	-0.014042
1099.496746	-0.015090
1099.657715	-0.014529
1099.818666	-0.015148
1099.979599	-0.013488
1100.140513	-0.013679
1100.301409	-0.012868
1100.462287	-0.012505
1100.623147	-0.010289
1100.783989	-0.011142
1100.944812	-0.007850
1101.105617	-0.005795
1101.266404	-0.005448
1101.427173	-0.005345
1101.587923	-0.003749
1101.748656	-0.002881
1101.909370	-0.005149
1102.070066	-0.009120
1102.230743	-0.010297
1102.391403	-0.016401
1102.552044	-0.017913
1102.712667	-0.016332
1102.873271	-0.016234
1103.033858	-0.015197
1103.194426	-0.014095
1103.354976	-0.011765
1103.515508	-0.014723
1103.676021	-0.012983
1103.836517	-0.014394
1103.996994	-0.016022
1104.157453	-0.017787
1104.317893	-0.017986
1104.478316	-0.019882
1104.638720	-0.020889
1104.799106	-0.019513
1104.959474	-0.011858
1105.119823	-0.013596
1105.280155	-0.009384
1105.440468	-0.010132
1105.600763	-0.011276
1105.761039	-0.010543
1105.921298	-0.008550
1106.081538	-0.008644
1106.241760	-0.009091
1106.401964	-0.012803
1106.562149	-0.011152
1106.722316	-0.008869
1106.882465	-0.005329
1107.042596	-0.001047
1107.202709	-0.002139
1107.362803	-0.003735
1107.522879	-0.002482
1107.682937	-0.003709
1107.842977	-0.002118
1108.002999	-0.003672
1108.163002	-0.004544
1108.322987	-0.008038
1108.482954	-0.008792
1108.642902	-0.005768
1108.802833	-0.006476
1108.962745	-0.005902
1109.122639	-0.005946
1109.282515	-0.008383
1109.442372	-0.007165
1109.602211	-0.009472
1109.762032	-0.007438
1109.921835	-0.008823
1110.081620	-0.013325
1110.241386	-0.010022
1110.401134	-0.008123
1110.560864	-0.008791
1110.720576	-0.008216
1110.880269	-0.009036
1111.039945	-0.008281
1111.199602	-0.010069
1111.359240	-0.009586
1111.518861	-0.009493
1111.678463	-0.010715
1111.838047	-0.014722
1111.997613	-0.013546
1112.157161	-0.012294
1112.316690	-0.011009
1112.476202	-0.008342
1112.635695	-0.006790
1112.795169	-0.004707
1112.954626	-0.002718
1113.114064	-0.003096
1113.273484	-0.004071
1113.432886	-0.003569
1113.592270	-0.007931
1113.751635	-0.007365
1113.910983	-0.010535
1114.070312	-0.010540
1114.229622	-0.012618
1114.388915	-0.011689
1114.548189	-0.012614
1114.707445	-0.008158
1114.866683	-0.009640
1115.025903	-0.005910
1115.185104	-0.007094
1115.344287	-0.002371
1115.503452	-0.001095
1115.662599	-0.000527
1115.821727	-0.003971
1115.980838	-0.001177
1116.139930	-0.004548
1116.299004	-0.005718
1116.458059	-0.006759
1116.617097	-0.005352
1116.776116	-0.009539
1116.935117	-0.010319
1117.094099	-0.010423
1117.253064	-0.005946
1117.412010	-0.005209
1117.570938	-0.004193
1117.729848	-0.000149
1117.888740	0.003128
1118.047613	0.002324
1118.206468	0.005289
1118.365305	0.005030
1118.524124	0.004393
1118.682924	0.002876
1118.841707	-0.000562
1119.000471	0.000678
1119.159216	-0.001947
1119.317944	-0.006322
1119.476653	-0.008596
1119.635344	-0.009606
1119.794017	-0.008218
1119.952672	-0.003643
1120.111308	-0.006283
1120.269927	-0.007514
1120.428527	-0.009713
1120.587108	-0.008420
1120.745672	-0.010882
1120.904217	-0.009168
1121.062744	-0.010668
1121.221253	-0.011892
1121.379744	-0.011217
1121.538216	-0.006945
1121.696671	-0.004891
1121.855107	-0.009390
1122.013524	-0.011322
1122.171924	-0.006508
1122.330305	-0.007982
1122.488668	-0.007695
1122.647013	-0.005008
1122.805340	-0.011408
1122.963648	-0.010861
1123.121938	-0.006125
1123.280210	-0.003301
1123.438464	0.001348
1123.596700	0.004600
1123.754917	0.004054
1123.913116	0.006326
1124.071297	0.009829
1124.229459	0.012055
1124.387604	0.007274
1124.545730	0.003749
1124.703838	0.003801
1124.861928	0.000896
1125.019999	-0.007860
1125.178052	-0.007686
1125.336088	-0.008288
1125.494104	-0.014799
1125.652103	-0.020662
1125.810083	-0.021351
1125.968045	-0.019779
1126.125989	-0.017581
1126.283915	-0.013723
1126.441823	-0.007649
1126.599712	-0.006998
1126.757583	-0.004686
1126.915436	-0.002263
1127.073270	0.002284
1127.231087	0.008580
1127.388885	0.008138
1127.546665	0.011253
1127.704426	0.009686
1127.862170	0.008980
1128.019895	0.011470
1128.177602	0.004356
1128.335291	0.004857
1128.492961	0.009492
1128.650614	0.008021
1128.808248	0.007291
1128.965864	0.004625
1129.123461	-0.002827
1129.281041	-0.002927
1129.438602	-0.000107
1129.596145	0.002780
1129.753670	0.005005
1129.911176	0.001526
1130.068665	-0.001125
1130.226135	-0.001180
1130.383587	0.000138
1130.541020	0.008724
1130.698436	0.007126
1130.855833	0.006160
1131.013212	0.006774
1131.170573	0.003140
1131.327915	0.002231
1131.485239	0.005813
1131.642545	0.004221
1131.799833	0.002800
1131.957103	0.003866
1132.114354	0.005058
1132.271588	0.003901
1132.428803	0.002215
1132.585999	0.002407
1132.743178	0.005869
1132.900338	0.003762
1133.057480	0.007329
1133.214604	0.008443
1133.371710	0.004058
1133.528797	0.002962
1133.685866	0.000899
1133.842917	0.005748
1133.999950	0.004597
1134.156964	-0.002060
1134.313960	-0.005538
1134.470938	-0.004269
1134.627898	-0.006220
1134.784840	-0.001489
1134.941763	-0.000791
1135.098668	-0.001721
1135.255555	-0.004003
1135.412424	-0.001188
1135.569274	0.003494
1135.726107	0.006158
1135.882921	0.000876
1136.039716	0.005434
1136.196494	-0.000123
1136.353253	-0.001818
1136.509995	-0.003914
1136.666717	-0.007371
1136.823422	-0.011218
1136.980109	-0.013250
1137.136777	-0.011952
1137.293427	-0.010271
1137.450059	-0.016033
1137.606672	-0.020427
1137.763267	-0.014900
1137.919844	-0.015102
1138.076403	-0.010468
1138.232944	-0.009240
1138.389466	-0.008110
1138.545971	-0.004624
1138.702457	-0.005794
1138.858924	-0.007384
1139.015374	-0.003274
1139.171805	-0.004612
1139.328218	-0.002491
1139.484613	-0.001603
1139.640990	-0.001331
1139.797348	0.001743
1139.953688	-0.001361
1140.110010	-0.002863
1140.266314	0.002944
1140.422600	0.006104
1140.578867	-0.000040
1140.735116	0.004585
1140.891347	0.001280
1141.047559	-0.003367
1141.203754	-0.007822
1141.359930	-0.005494
1141.516088	-0.007185
1141.672228	-0.010227
1141.828349	-0.014520
1141.984452	-0.013163
1142.140537	-0.013261
1142.296604	-0.009054
1142.452653	-0.000842
1142.608683	0.006405
1142.764695	0.005139
1142.920689	0.012677
1143.076665	0.012180
1143.232622	0.016960
1143.388562	0.022755
1143.544483	0.020271
1143.700385	0.015677
1143.856270	0.010261
1144.012136	0.006216
1144.167985	0.008668
1144.323814	0.000438
1144.479626	0.009877
1144.635420	0.011612
1144.791195	0.007845
1144.946952	0.010825
1145.102691	0.010060
1145.258411	0.006254
1145.414113	0.000832
1145.569798	-0.002913
1145.725463	0.000697
1145.881111	-0.009636
1146.036741	-0.009916
1146.192352	-0.003112
1146.347945	-0.005422
1146.503519	-0.002349
1146.659076	0.002641
1146.814614	0.006966
1146.970134	0.005828
1147.125636	0.009296
1147.281120	0.015624
1147.436585	0.010707
1147.592032	0.010399
1147.747461	0.014632
1147.902872	0.008613
1148.058265	0.007561
1148.213639	0.010490
1148.368995	0.009771
1148.524333	0.006962
1148.679653	0.007319
1148.834954	0.002304
1148.990237	-0.004159
1149.145502	-0.007533
1149.300749	-0.004717
1149.455977	-0.002920
1149.611188	-0.004709
1149.766380	-0.002501
1149.921553	-0.001629
1150.076709	-0.009276
1150.231846	-0.000771
1150.386966	0.001294
1150.542066	-0.000158
1150.697149	0.004710
1150.852214	0.007292
1151.007260	0.005263
1151.162288	0.004800
1151.317298	0.002634
1151.472289	0.009358
1151.627263	0.007809
1151.782218	0.003635
1151.937155	0.005906
1152.092073	0.003548
1152.246974	-0.001727
1152.401856	-0.006194
1152.556720	-0.004575
1152.711566	-0.007835
1152.866393	-0.010499
1153.021203	-0.008086
1153.175994	-0.005727
1153.330767	-0.015072
1153.485521	-0.012271
1153.640258	-0.010808
1153.794976	-0.003166
1153.949676	-0.002221
1154.104358	-0.002318
1154.259021	-0.004613
1154.413667	-0.010560
1154.568294	-0.008062
1154.722903	0.002688
1154.877493	0.000528
1155.032066	0.004648
1155.186620	-0.001444
1155.341156	-0.001462
1155.495674	0.000019
1155.650173	0.000808
1155.804654	0.007838
1155.959118	0.001863
1156.113562	-0.006773
1156.267989	-0.004869
1156.422397	-0.008357
1156.576788	-0.008871
1156.731160	-0.013672
1156.885513	-0.010696
1157.039849	-0.002603
1157.194166	-0.009123
1157.348465	-0.011391
1157.502746	-0.000891
1157.657009	0.000456
1157.811253	0.001748
1157.965479	0.005969
1158.119687	0.001680
1158.273877	-0.000460
1158.428048	-0.007989
1158.582201	-0.008602
1158.736337	0.000946
1158.890453	-0.003757
1159.044552	-0.004830
1159.198632	-0.001849
1159.352694	-0.000665
1159.506738	0.004751
1159.660764	0.003481
1159.814771	0.003432
1159.968761	0.011706
1160.122732	0.014496
1160.276685	0.014480
1160.430619	0.007864
1160.584535	0.006780
1160.738434	0.010860
1160.892313	0.010474
1161.046175	0.016113
1161.200019	0.015311
1161.353844	0.010084
1161.507651	0.004865
1161.661440	-0.002998
1161.815210	-0.003579
1161.968962	-0.009922
1162.122697	-0.011501
1162.276412	-0.008222
1162.430110	-0.008568
1162.583789	-0.005596
1162.737451	-0.003194
1162.891094	-0.002374
1163.044718	0.009613
1163.198325	0.008873
1163.351913	0.010138
1163.505483	0.009661
1163.659035	0.007365
1163.812569	0.016399
1163.966084	0.024800
1164.119581	0.022555
1164.273060	0.021939
1164.426521	0.023395
1164.579964	0.020640
1164.733388	0.018042
1164.886794	0.014450
1165.040182	0.016676
1165.193551	0.010117
1165.346903	0.001397
1165.500236	-0.007923
1165.653551	-0.006293
1165.806848	-0.015661
1165.960126	-0.016861
1166.113386	-0.012773
1166.266628	-0.012686
1166.419852	-0.014454
1166.573058	-0.016286
1166.726245	-0.015613
1166.879414	-0.003178
1167.032565	0.000550
1167.185698	0.003190
1167.338812	0.009485
1167.491909	0.006950
1167.644987	0.000247
1167.798046	-0.004383
1167.951088	-0.008634
1168.104111	-0.014076
1168.257117	-0.016371
1168.410103	-0.021658
1168.563072	-0.018144
1168.716023	-0.022720
1168.868955	-0.017329
1169.021869	-0.014168
1169.174765	-0.014110
1169.327642	-0.013091
1169.480501	-0.003754
1169.633343	0.001173
1169.786165	0.006214
1169.938970	0.007295
1170.091757	0.004278
1170.244525	-0.003243
1170.397275	0.002357
1170.550007	0.017776
1170.702720	0.012246
1170.855415	0.010878
1171.008092	0.003086
1171.160751	-0.004530
1171.313392	-0.011247
1171.466014	0.040234
1171.618619	-0.019277
1171.771205	-0.019277
1171.923772	-0.019277
