sample name	sample
index	1104
start time	 04-22-2021  12:46:23 PM
880	0.232098
Peak Time (s)	100.538
Peak Height 	0.2321
calc peak height	100,103
Baseline Time (s)	11.039
Baseline Value 	-0.004497
subtract baseline	10,4
Abs	0.144332
Peak Time (s)	101.538
Peak Height 	0.1443
calc peak height	100,103
Baseline Time (s)	10.536
Baseline Value 	0.003435
subtract baseline	10,3
PK_550	0.093279
Peak Time (s)	102.036
Peak Height 	0.09328
calc peak height	100,103
Baseline Time (s)	8.537
Baseline Value 	6.3069E-4
subtract baseline	10,2
PK_880	0.137622
Peak Time (s)	100.035
Peak Height 	0.1376
calc peak height	100,103
Baseline Time (s)	8.537
Baseline Value 	0.002046
subtract baseline	10,1


Time (s)	A880-A510	A880-A775	A880-A975	A880	I510	I775	I975	I880	
0.035000	-0.000086	-0.000854	-0.005348	0.001953	6278.103089	43198.267519	3899.403450	22682.770310
0.535500	-0.000715	-0.000540	-0.000300	0.004588	6252.988872	42983.848522	3904.956113	22563.237353
1.035500	-0.002644	-0.000130	-0.003237	0.004990	6235.169911	42984.515269	3897.278703	22545.071841
1.538500	-0.001214	0.000289	0.000985	0.002033	6268.786533	43296.822493	3913.856768	22679.132233
2.039500	0.001248	-0.000790	0.001258	0.001013	6295.702676	43291.363512	3916.873051	22725.569928
2.536500	-0.002633	0.000075	0.000117	0.000851	6266.961632	43386.777344	3914.588646	22732.954931
3.037000	-0.002397	-0.000915	-0.002755	-0.000244	6277.215615	43396.549589	3910.455448	22782.954833
3.537000	-0.001372	-0.000997	-0.003515	0.001091	6274.830817	43264.960649	3905.608877	22722.028327
4.037500	0.001767	0.001049	0.002788	0.001469	6296.192364	43419.977809	3919.382251	22704.791193
4.535000	0.000335	-0.000521	-0.001288	0.000880	6289.651722	43328.653685	3911.252531	22731.609668
5.035000	-0.000021	-0.000390	-0.002630	0.000717	6288.162156	43356.032104	3908.518227	22739.067678
5.536000	-0.000976	-0.000341	-0.002989	0.000595	6281.711240	43371.885434	3907.971260	22744.642157
6.036000	-0.000936	-0.000205	-0.007329	0.000821	6280.272861	43363.541753	3897.454886	22734.311931
6.536000	0.000524	0.000216	0.000262	0.000385	6294.953545	43443.302262	3916.012931	22754.208459
7.036500	-0.000926	-0.000832	-0.001427	-0.000291	6288.954470	43408.660931	3913.651735	22785.097174
7.537000	-0.000008	-0.000398	-0.003693	0.000152	6292.637178	43407.808111	3907.366299	22764.862658
8.034500	-0.000139	-0.000013	0.001177	0.000240	6290.933427	43435.466775	3918.487272	22760.823221
8.537500	0.000000	0.000000	-0.000429	0.000373	6290.984219	43424.281129	3914.428231	22754.754756
9.035000	-0.000305	0.000193	-0.001884	0.000191	6290.034292	43459.221309	3911.468014	22763.069640
9.535000	-0.000726	0.000519	-0.000811	0.000310	6285.850582	43478.589100	3913.688332	22757.649082
10.035500	0.001823	-0.000118	0.002222	-0.000289	6310.301441	43474.994256	3922.177784	22785.004857
10.536000	0.000175	-0.000366	0.000000	-0.000213	6296.887195	43444.770449	3916.796863	22781.533645
11.038500	0.000873	0.000149	0.001381	0.000000	6300.656417	43472.930368	3919.527707	22771.799522
11.536500	-0.001278	-0.000756	0.000161	-0.000800	6290.171301	43463.210529	3918.547073	22808.408578
12.036500	-0.002146	-0.000451	0.000964	-0.000005	6277.308256	43417.551717	3918.563908	22772.035265
12.536500	0.000218	0.000178	-0.000740	0.000162	6294.314299	43460.538910	3914.197205	22764.406126
13.035000	-0.001805	-0.000404	-0.001795	-0.000842	6286.412998	43499.898390	3914.078568	22810.317345
13.538500	-0.001153	0.000316	0.000154	0.001042	6276.890853	43391.458488	3914.229360	22724.233954
14.035500	-0.001591	0.000312	-0.004782	0.002388	6263.149374	43265.966418	3899.702626	22662.953581
14.535500	-0.002242	-0.000530	0.002148	0.001567	6264.459736	43264.007908	3917.655778	22700.320642
15.037500	0.000856	-0.000482	-0.006741	-0.000619	6305.334706	43471.753156	3902.111004	22800.090082
15.536000	-0.002747	0.000171	-0.000657	0.000070	6272.093342	43468.503377	3914.605395	22768.614163
16.036500	-0.001108	-0.001010	-0.001014	-0.001174	6294.383125	43474.295924	3916.672149	22825.500300
16.536500	0.000583	-0.000008	-0.002052	-0.000464	6302.012580	43501.541115	3912.600938	22793.007958
17.034000	0.004269	-0.000257	-0.000407	-0.003921	6358.025016	43802.133478	3924.534693	22951.810871
17.537500	-0.000760	-0.000093	-0.000778	0.000996	6280.278939	43357.628484	3912.168321	22726.325916
18.034500	-0.002255	-0.000335	-0.006421	0.000350	6273.735926	43395.284852	3900.620894	22755.833144
18.534500	-0.001830	-0.000744	-0.001094	0.000126	6278.736901	43378.009588	3913.457598	22766.046208
19.035000	-0.001110	-0.000062	0.002651	0.000930	6278.093652	43366.766391	3920.325238	22729.365289
19.535500	-0.000235	0.000723	0.000736	0.002260	6274.581897	43316.078003	3912.749544	22668.802006
20.036000	-0.003093	-0.000796	-0.006025	0.000648	6264.976845	43324.647986	3900.843812	22742.190920
20.539000	-0.001536	-0.000408	0.000358	0.000641	6277.037151	43361.445034	3915.639822	22742.551615
21.036500	-0.000390	0.000402	-0.004222	0.000941	6283.569789	43408.799872	3904.321097	22728.841767
21.537000	-0.001473	-0.000557	-0.002550	0.000364	6279.653922	43373.226820	3909.520947	22755.159100
22.037000	-0.002238	-0.000340	0.003243	0.000437	6273.192285	43386.695056	3922.868711	22751.836905
22.534000	-0.000897	-0.000279	0.001889	0.000980	6279.349665	43341.856801	3918.423857	22727.062619
23.034500	-0.001198	-0.000365	0.000575	0.000742	6278.860027	43355.989202	3915.908718	22737.902413
23.535500	-0.000955	-0.000076	-0.000258	0.001241	6276.884924	43336.465954	3912.806195	22715.152855
24.035500	-0.001449	0.000038	-0.000880	0.001016	6274.812437	43368.000897	3911.883795	22725.427044
24.535500	-0.001722	-0.000344	-0.000594	0.001737	6267.154226	43265.522055	3910.875515	22692.600417
25.038500	-0.004320	0.000023	-0.001691	0.001107	6252.034992	43358.063216	3909.789395	22721.268155
25.536000	-0.000830	-0.000603	-0.006261	0.000083	6286.806536	43395.210639	3901.601373	22768.017000
26.037000	-0.001116	0.000623	0.003945	0.001564	6273.152412	43371.464454	3921.871999	22700.471073
26.537000	-0.000996	-0.000632	-0.005995	0.000764	6280.253246	43329.165633	3900.645992	22736.915409
27.034000	-0.001234	-0.000092	0.003766	-0.000939	6291.591992	43538.087453	3927.340744	22814.762569
27.537000	0.000866	0.000469	0.002016	-0.001669	6313.596194	43658.792305	3924.936273	22848.192858
28.034500	-0.001109	-0.000460	-0.004847	-0.000484	6289.031745	43461.341137	3906.168083	22793.941598
28.535000	-0.003301	-0.000627	0.000734	0.003543	6241.198039	43072.157298	3909.765503	22610.564077
29.035500	-0.001514	0.000128	0.001191	0.000131	6281.133853	43458.731517	3918.774725	22765.792241
29.536000	-0.000107	0.000400	-0.000383	0.000321	6290.560096	43466.420593	3914.657467	22757.133321
30.036500	-0.003140	-0.000508	0.000968	-0.000596	6274.197203	43467.233953	3919.956416	22799.035424
30.535500	-0.002914	0.000283	0.000476	0.004606	6236.036881	43058.060292	3906.704378	22562.412329
31.037000	-0.003735	-0.000540	0.000190	0.002243	6247.817388	43200.465514	3911.518949	22669.560010
31.534500	-0.001194	-0.000020	0.005381	0.001049	6276.520388	43359.534809	3926.462067	22723.935138
32.037500	0.000691	-0.000629	0.003416	0.000019	6299.098519	43398.648762	3924.258274	22770.931452
32.534000	-0.001653	-0.000449	-0.002940	0.003032	6257.720522	43135.772770	3902.455865	22633.711723
33.035000	-0.000359	0.000493	0.000871	0.000570	6286.677827	43451.867869	3917.001293	22745.762842
33.535500	-0.001887	0.000161	0.001662	-0.002347	6297.450006	43693.482288	3925.700599	22879.341826
34.036000	0.001097	0.000018	-0.001255	0.001082	6293.998579	43359.992502	3910.859214	22722.422139
34.538500	-0.002182	-0.000200	0.002008	0.002829	6255.223567	43177.690180	3914.386161	22642.942535
35.036000	-0.000116	0.000168	-0.000751	0.001689	6279.903879	43317.508323	3910.620734	22694.752534
35.536000	-0.003418	-0.000567	-0.000641	0.001361	6257.008003	43279.781147	3911.638481	22709.722850
36.036500	-0.001321	-0.000641	-0.002005	0.000888	6276.785662	43316.828814	3909.570987	22731.273696
36.534500	-0.001508	0.000085	-0.005129	0.003551	6254.859921	43137.271957	3896.244121	22610.201213
37.037500	-0.001833	-0.000782	0.000971	0.001285	6269.780927	43266.813104	3915.568523	22713.182155
37.535000	-0.001829	-0.000588	-0.000085	0.001036	6271.723322	43308.001547	3913.686077	22724.521678
38.035000	-0.003293	-0.000755	-0.002773	0.000841	6261.954579	43310.521242	3907.899134	22733.395163
38.535500	0.000713	-0.000207	0.002013	0.001263	6289.614468	43322.288948	3918.050748	22714.167922
39.036000	-0.002252	-0.000769	-0.001720	0.000473	6272.803242	43343.497511	3911.195347	22750.204881
39.536000	-0.002454	-0.000283	0.000513	0.001042	6266.865038	43335.727173	3915.065278	22724.237627
40.036500	-0.004745	-0.000991	-0.002651	0.000440	6253.892256	43325.918930	3909.110949	22751.711258
40.536500	-0.001921	-0.000304	-0.000491	0.001544	6267.108375	43287.138946	3911.561777	22701.380318
41.037000	-0.000949	-0.001154	-0.001004	0.001120	6277.862371	43247.581142	3911.352836	22720.664468
41.541000	-0.001761	0.000085	0.002353	0.001772	6266.573627	43302.101864	3917.654728	22690.972364
42.034500	-0.001793	-0.000056	0.004125	0.001644	6267.321473	43300.872705	3922.105882	22696.819315
42.539500	-0.002350	0.000191	0.001885	0.001468	6264.387600	43340.149861	3917.273357	22704.814716
43.035500	-0.002471	-0.000405	0.000149	0.001067	6266.535138	43322.034027	3914.157527	22723.081748
43.539500	-0.002337	-0.000503	-0.002481	0.000578	6271.337985	43358.351243	3909.184882	22745.395739
44.039000	0.000867	0.000759	0.000290	-0.003041	6324.332997	43814.893530	3924.104934	22911.258336
44.537000	-0.004171	-0.000778	-0.002018	0.004511	6227.197512	42969.001510	3901.175522	22566.738168
45.036000	-0.000982	-0.000069	-0.000165	-0.000335	6288.862570	43483.917141	3916.696868	22787.130716
45.536500	-0.000240	-0.000250	-0.003228	0.000701	6286.588250	43370.458190	3907.171784	22739.794307
46.037000	0.000012	0.000533	-0.001157	-0.000214	6295.628959	43528.733168	3914.101634	22781.577233
46.537000	-0.006564	-0.000904	0.002158	0.005003	6205.323896	42912.121951	3909.680915	22544.487707
47.035000	-0.000835	-0.000974	0.000778	-0.000197	6288.931890	43386.715271	3918.577731	22780.808612
47.535500	-0.001935	0.000427	0.001456	0.002614	6258.770007	43255.636870	3913.600421	22652.695485
48.035000	0.001460	0.001199	0.000629	0.001273	6295.334534	43452.213996	3914.798413	22713.724297
48.536000	-0.004654	-0.000674	0.000336	0.005136	6218.772679	42921.001312	3905.158375	22538.474981
49.036500	0.000569	0.000095	-0.000102	0.000162	6297.034531	43452.781847	3915.682650	22764.392317
49.536500	-0.001784	-0.000222	-0.000976	-0.001064	6288.300747	43537.657335	3916.504832	22820.488448
50.036500	-0.001073	0.000053	0.001840	-0.000301	6287.890360	43492.048071	3921.308506	22785.550399
50.537000	-0.002337	-0.001030	0.004804	0.024296	6093.469386	41165.666454	3871.814459	21692.040975
51.037000	0.025517	-0.015588	0.013108	0.569290	3887.935180	13503.539831	3184.338914	8276.206975
51.534500	-0.008411	-0.019654	-0.020639	-0.047695	6612.851380	46159.352805	3981.454984	25075.509541
52.035000	-0.011326	-0.034289	-0.019983	-0.172127	7803.654314	58581.509067	4341.530191	32424.268917
52.535500	-0.019009	-0.058918	-0.013040	-0.238407	8508.436237	64178.588412	4605.768303	37287.845808
53.035500	-0.003316	-0.025376	0.001269	-0.178340	7966.099028	60552.399942	4435.461531	32849.327739
53.538500	0.002932	-0.018833	0.002600	-0.150948	7726.521643	57853.562060	4346.187651	31020.238916
54.036000	-0.002935	-0.012378	0.004748	-0.102682	7163.783832	52816.371826	4200.762317	28065.170864
54.536500	-0.001199	-0.011147	0.000479	-0.113938	7292.516961	54270.219825	4221.813414	28725.232635
55.037000	0.008951	-0.008812	0.015028	-0.143104	7706.394765	58129.400034	4361.506959	30517.398961
55.537000	0.013624	0.000092	0.011338	-0.099475	7296.147593	53890.930913	4210.916031	27880.256400
56.034000	0.022166	0.006312	0.027573	-0.084516	7232.026391	52876.639648	4214.762069	27035.328985
56.537500	0.026916	0.010967	0.023866	-0.058056	7021.998473	50433.039403	4126.719989	25610.296268
57.035500	0.036835	0.015756	0.036413	-0.035844	6907.643697	48566.602252	4099.779097	24479.236692
57.535500	0.042259	0.020171	0.043331	-0.000253	6640.364575	45408.466142	4023.298645	22783.343444
58.038500	0.048688	0.025743	0.045584	0.028643	6453.031293	43189.606714	3956.617735	21505.117156
58.536500	0.050171	0.027963	0.049843	0.068444	6155.057911	39855.960353	3873.804423	19878.129936
59.036500	0.055817	0.029407	0.063128	0.101925	5954.510042	37233.139985	3829.679214	18620.333390
59.537000	0.062073	0.034806	0.068219	0.148048	5688.758234	34166.634118	3746.108049	17038.991568
60.037000	0.063230	0.036443	0.066432	0.156233	5644.385194	33699.852810	3726.964341	16775.502353
60.536500	0.060921	0.039723	0.064652	0.160722	5602.146156	33614.405480	3715.151546	16633.082253
61.034500	0.061711	0.041918	0.067390	0.156886	5630.816893	34042.888850	3727.542637	16754.684696
61.535000	0.067693	0.045749	0.073881	0.154466	5683.681910	34493.318795	3744.640558	16831.962371
62.035000	0.068681	0.047229	0.079667	0.150154	5717.560742	34916.528268	3764.448512	16970.738290
62.536000	0.067760	0.049274	0.071411	0.154365	5684.750615	34757.572555	3740.061523	16835.213062
63.036000	0.072149	0.051406	0.076248	0.148129	5753.109630	35375.924385	3761.686562	17036.366102
63.535500	0.074299	0.051515	0.075695	0.145585	5783.849049	35574.484869	3765.632750	17119.278417
64.036500	0.074177	0.051366	0.077333	0.142402	5804.075387	35803.066314	3775.265352	17223.692309
64.536500	0.073139	0.052095	0.074366	0.144900	5780.725199	35669.549114	3764.354817	17141.674467
65.036500	0.077418	0.054645	0.079445	0.139632	5844.202856	36263.510443	3785.129875	17315.155794
65.537500	0.077074	0.056129	0.081613	0.138309	5850.796760	36479.405536	3792.251917	17359.078326
66.037500	0.077496	0.056419	0.082981	0.136038	5868.995178	36677.575197	3799.736326	17434.750387
66.535000	0.076582	0.057217	0.084460	0.135802	5864.398709	36757.848186	3803.285668	17442.614757
67.035000	0.079268	0.058778	0.087867	0.135786	5882.743326	36880.764089	3810.411463	17443.160116
67.538500	0.083109	0.059492	0.090253	0.138134	5892.930855	36753.431650	3810.490422	17364.873570
68.036000	0.084275	0.059963	0.089843	0.138734	5896.802897	36743.367241	3808.381150	17344.932369
68.536000	0.083662	0.060705	0.089699	0.143249	5861.916280	36451.287860	3798.718356	17195.815357
69.036500	0.089144	0.061219	0.091322	0.142975	5901.107855	36512.137192	3802.641030	17204.838676
69.536500	0.087741	0.061782	0.096635	0.146542	5867.240683	36280.872390	3806.266473	17088.032888
70.037000	0.090415	0.061491	0.093848	0.147314	5880.149135	36199.422189	3798.891010	17062.864820
70.534500	0.088778	0.061803	0.096744	0.151499	5840.798910	35904.515749	3796.237025	16927.313808
71.035000	0.093315	0.064198	0.100908	0.153508	5857.821061	35933.789965	3800.680966	16862.691176
71.535000	0.092960	0.064467	0.096460	0.156475	5835.469072	35729.611581	3785.478574	16767.785832
72.035500	0.096049	0.065671	0.105491	0.158432	5843.063497	35672.901689	3799.976149	16705.560593
72.538500	0.096177	0.067420	0.100109	0.163476	5810.222144	35425.733074	3778.691615	16546.455100
73.036000	0.096631	0.066955	0.107320	0.163445	5813.442883	35393.310282	3793.421730	16547.418190
73.536000	0.098509	0.068595	0.101548	0.166770	5803.833433	35267.849414	3774.959636	16443.539735
74.037000	0.099722	0.070577	0.103050	0.169195	5795.810835	35234.883253	3773.106108	16368.267717
74.536000	0.097706	0.070738	0.103403	0.170238	5775.659598	35169.428877	3771.725633	16336.016441
75.037000	0.098371	0.069905	0.100061	0.172057	5768.092051	34973.415445	3761.457705	16279.954962
75.537000	0.099021	0.071124	0.104370	0.174306	5757.639150	34897.628389	3765.541758	16210.989108
76.035000	0.100005	0.072414	0.103892	0.177132	5745.646928	34784.848270	3759.001696	16124.807389
76.535000	0.101602	0.072788	0.109850	0.183639	5713.934854	34338.843943	3757.920844	15928.537821
77.038000	0.103240	0.073142	0.113037	0.182417	5732.360847	34452.866734	3766.646882	15965.164444
77.535500	0.104007	0.075351	0.107157	0.185636	5716.557356	34379.752525	3748.733923	15868.882248
78.036000	0.104221	0.074018	0.115416	0.187049	5708.860359	34181.740592	3762.175519	15826.829049
78.536500	0.105138	0.074918	0.115520	0.193151	5675.818308	33810.223977	3750.388046	15646.857347
79.036500	0.106727	0.075664	0.114922	0.192357	5690.957750	33919.719600	3750.770915	15670.129853
79.537000	0.105688	0.074759	0.114684	0.193952	5674.230222	33742.113838	3747.198593	15623.402576
80.034500	0.106323	0.075306	0.112893	0.195947	5665.633250	33639.668742	3739.868436	15565.207662
80.534500	0.105136	0.075927	0.110379	0.201123	5625.766361	33319.756488	3725.177086	15415.478027
81.035000	0.110088	0.076236	0.115727	0.200166	5662.768647	33408.312752	3737.203108	15443.021024
81.536000	0.109395	0.075931	0.119897	0.201636	5649.166352	33284.245345	3742.409189	15400.734701
82.035500	0.111116	0.076670	0.116060	0.203650	5647.327221	33195.311442	3731.170938	15343.004140
82.536000	0.111114	0.077763	0.118967	0.208849	5614.915968	32910.956054	3726.810466	15195.240637
83.036500	0.111850	0.077441	0.117612	0.206784	5632.324592	33031.376963	3728.158494	15253.726431
83.536500	0.114229	0.078693	0.124481	0.209559	5629.852192	32926.122331	3735.976868	15175.200981
84.036500	0.112001	0.078780	0.128928	0.210702	5608.935470	32853.377302	3742.339920	15143.003520
84.536500	0.114598	0.078596	0.122534	0.214276	5602.906997	32595.961317	3723.288856	15042.885323
85.034500	0.117627	0.079417	0.131144	0.214961	5617.403634	32605.220514	3738.398845	15023.782200
85.537500	0.112663	0.079396	0.129110	0.217270	5572.679696	32446.682723	3730.083768	14959.628733
86.036000	0.116355	0.079305	0.126290	0.217999	5590.808794	32391.048840	3723.350465	14939.444450
86.538500	0.118328	0.079641	0.127371	0.221449	5581.757264	32180.884055	3718.885333	14844.390209
87.036000	0.118334	0.080156	0.127835	0.221336	5582.487669	32223.197854	3719.971901	14847.494983
87.536500	0.120888	0.080396	0.130399	0.223941	5582.171752	32064.294747	3719.893234	14776.188194
88.036500	0.120276	0.081582	0.135950	0.225777	5567.240567	32020.849440	3726.914903	14726.218613
88.537000	0.118748	0.081033	0.130486	0.228522	5541.361111	31801.341686	3711.480641	14651.850425
89.037000	0.121198	0.081580	0.131285	0.227900	5559.937405	31879.067916	3714.132749	14668.669139
89.537000	0.119366	0.082786	0.125639	0.230178	5535.117267	31807.788693	3699.460937	14607.231562
90.034500	0.124992	0.082891	0.131251	0.230519	5567.078507	31792.115576	3709.190676	14598.074324
90.534500	0.123493	0.082739	0.136276	0.230797	5556.289134	31763.606784	3718.053770	14590.592461
91.038500	0.124636	0.082927	0.135212	0.231047	5561.704795	31759.461356	3715.590996	14583.881235
91.535500	0.123867	0.083294	0.136879	0.231954	5551.545527	31723.733176	3717.015057	14559.562221
92.036000	0.127358	0.084931	0.133666	0.233514	5563.257060	31728.854526	3708.114626	14517.853082
92.536000	0.128533	0.084725	0.131285	0.235103	5560.735450	31610.162950	3700.785072	14475.500282
93.036500	0.130753	0.086394	0.139359	0.234639	5577.083126	31751.239312	3716.631586	14487.863057
93.537000	0.127726	0.085501	0.138420	0.235101	5555.860516	31661.579867	3714.009757	14475.563842
94.037000	0.130144	0.086503	0.138770	0.234424	5574.679750	31772.700727	3715.930297	14493.588424
94.537000	0.131733	0.087535	0.137892	0.236516	5571.611387	31702.469351	3710.387463	14437.997920
95.035000	0.133667	0.088523	0.141498	0.235720	5588.299338	31820.782408	3718.615834	14459.121349
95.535500	0.130898	0.088100	0.145770	0.236143	5568.793178	31764.588364	3725.878754	14447.883559
96.035500	0.135119	0.088471	0.141947	0.235100	5601.036936	31858.483893	3720.625783	14475.577078
96.536000	0.133988	0.087161	0.143822	0.235146	5593.795535	31768.438185	3724.078951	14474.378245
97.036000	0.131918	0.089085	0.138017	0.234529	5584.880521	31937.407642	3714.325009	14490.796068
97.536000	0.136142	0.090768	0.140418	0.235364	5605.721154	31994.028947	3717.257134	14468.575929
98.036500	0.133565	0.090088	0.143018	0.233818	5599.366585	32051.964757	3725.071222	14509.743857
98.537000	0.134419	0.090352	0.142847	0.234469	5600.612024	32026.004006	3723.514546	14492.375423
99.037000	0.133931	0.090883	0.148541	0.232642	5608.877316	32184.245200	3737.853151	14541.152305
99.535000	0.137102	0.092434	0.147927	0.233210	5625.015253	32250.414572	3735.584377	14525.965286
100.035500	0.137622	0.091902	0.143578	0.231702	5637.654380	32316.286248	3730.153639	14566.322121
100.538000	0.136112	0.091416	0.142928	0.232098	5625.772388	32256.779254	3728.163830	14555.713825
101.035500	0.133273	0.092124	0.139405	0.230191	5619.979593	32433.604816	3725.096319	14606.877634
101.538500	0.135881	0.092991	0.144332	0.229724	5639.130408	32524.221177	3735.373026	14619.442974
102.036000	0.136413	0.093279	0.140699	0.229173	5645.907370	32581.350366	3729.485194	14634.287132
102.536500	0.133474	0.092038	0.140438	0.228793	5629.919635	32522.709594	3729.711641	14644.531450
103.036500	0.134958	0.093445	0.143938	0.227490	5647.337942	32707.687290	3738.908769	14679.748166
103.537000	0.133084	0.093474	0.143453	0.226607	5641.136984	32770.181819	3739.677294	14703.683382
104.037000	0.133675	0.094008	0.143723	0.226290	5646.816486	32828.626721	3740.808050	14712.276665
