sample name	sample
index	1511
start time	 05-18-2021  03:01:41 PM


Wavelength (nm)	Absorbance
494.344910	0.533107
494.563924	0.533107
494.782919	0.533107
495.001897	NaN
495.220856	-0.043890
495.439797	-0.188915
495.658719	-0.304086
495.877624	-0.348831
496.096510	-0.515611
496.315378	-0.470337
496.534227	-0.509187
496.753059	-0.348910
496.971872	-0.217155
497.190667	0.023677
497.409444	0.037125
497.628203	0.041212
497.846943	0.039679
498.065665	0.043151
498.284369	0.044009
498.503055	0.044069
498.721723	0.044705
498.940372	0.045082
499.159003	0.044340
499.377616	0.044919
499.596210	0.045862
499.814787	0.046834
500.033345	0.046457
500.251885	0.046152
500.470406	0.045493
500.688910	0.045083
500.907395	0.044234
501.125862	0.044539
501.344311	0.044399
501.562742	0.043296
501.781154	0.043732
501.999548	0.043090
502.217924	0.043130
502.436282	0.043767
502.654621	0.043925
502.872942	0.043485
503.091245	0.044471
503.309530	0.044035
503.527797	0.044391
503.746045	0.044293
503.964275	0.044897
504.182487	0.044513
504.400681	0.044172
504.618856	0.043742
504.837013	0.044378
505.055152	0.043897
505.273273	0.043110
505.491376	0.042035
505.709460	0.042419
505.927526	0.042298
506.145574	0.041688
506.363604	0.042296
506.581615	0.042721
506.799608	0.042351
507.017583	0.041760
507.235540	0.042440
507.453478	0.043654
507.671399	0.042878
507.889301	0.042164
508.107185	0.042246
508.325050	0.041743
508.542898	0.041634
508.760727	0.041734
508.978538	0.042219
509.196330	0.042323
509.414105	0.042035
509.631861	0.042209
509.849599	0.041993
510.067319	0.042560
510.285021	0.043216
510.502704	0.042380
510.720369	0.042142
510.938016	0.041864
511.155645	0.041837
511.373255	0.042183
511.590848	0.042761
511.808422	0.042855
512.025977	0.042517
512.243515	0.042220
512.461034	0.043059
512.678536	0.043949
512.896018	0.044080
513.113483	0.044633
513.330930	0.044788
513.548358	0.044582
513.765768	0.045070
513.983160	0.045691
514.200533	0.045696
514.417889	0.045608
514.635226	0.045878
514.852545	0.045831
515.069845	0.045971
515.287128	0.044908
515.504392	0.043851
515.721638	0.043886
515.938866	0.044189
516.156075	0.043728
516.373267	0.043327
516.590440	0.042400
516.807594	0.042508
517.024731	0.042076
517.241850	0.041741
517.458950	0.042521
517.676032	0.042942
517.893095	0.042204
518.110141	0.042626
518.327168	0.042837
518.544177	0.042551
518.761168	0.042522
518.978141	0.042299
519.195095	0.043478
519.412031	0.043921
519.628949	0.043919
519.845849	0.044396
520.062731	0.044335
520.279594	0.044640
520.496439	0.045284
520.713266	0.045725
520.930074	0.046096
521.146865	0.045863
521.363637	0.044995
521.580391	0.045146
521.797127	0.044956
522.013844	0.044771
522.230543	0.044533
522.447224	0.044374
522.663887	0.043927
522.880532	0.044334
523.097158	0.045024
523.313766	0.045882
523.530356	0.046108
523.746928	0.046152
523.963481	0.046422
524.180017	0.046562
524.396534	0.047418
524.613032	0.047330
524.829513	0.047597
525.045975	0.047166
525.262420	0.046901
525.478845	0.046096
525.695253	0.047035
525.911643	0.047868
526.128014	0.047781
526.344367	0.047585
526.560702	0.048083
526.777018	0.047772
526.993316	0.047846
527.209597	0.047691
527.425858	0.048310
527.642102	0.047695
527.858328	0.047536
528.074535	0.048217
528.290724	0.048417
528.506894	0.048444
528.723047	0.048484
528.939181	0.048950
529.155297	0.049740
529.371395	0.049854
529.587475	0.050015
529.803536	0.049271
530.019579	0.048929
530.235604	0.048588
530.451611	0.048617
530.667600	0.048536
530.883570	0.048464
531.099522	0.048697
531.315456	0.049180
531.531372	0.049148
531.747269	0.049859
531.963148	0.049991
532.179009	0.049873
532.394852	0.049825
532.610676	0.050111
532.826482	0.050582
533.042271	0.050224
533.258040	0.050553
533.473792	0.050764
533.689525	0.050922
533.905240	0.051296
534.120937	0.051642
534.336616	0.052269
534.552277	0.052615
534.767919	0.052733
534.983543	0.053115
535.199149	0.052709
535.414736	0.053061
535.630306	0.052986
535.845857	0.053411
536.061390	0.053743
536.276904	0.053830
536.492401	0.053508
536.707879	0.052859
536.923339	0.052719
537.138781	0.052441
537.354204	0.052111
537.569610	0.052332
537.784997	0.051819
538.000366	0.051265
538.215716	0.050780
538.431049	0.051561
538.646363	0.052055
538.861659	0.052199
539.076937	0.052531
539.292196	0.052745
539.507438	0.052702
539.722661	0.052569
539.937866	0.053032
540.153052	0.053843
540.368221	0.053533
540.583371	0.053515
540.798503	0.053267
541.013617	0.053289
541.228712	0.053365
541.443789	0.053454
541.658848	0.054038
541.873889	0.054362
542.088912	0.053917
542.303916	0.054010
542.518902	0.054011
542.733870	0.054190
542.948820	0.054156
543.163752	0.055064
543.378665	0.055142
543.593560	0.055192
543.808437	0.055248
544.023295	0.055498
544.238136	0.055312
544.452958	0.055372
544.667762	0.055586
544.882548	0.055456
545.097315	0.054978
545.312064	0.055243
545.526795	0.054884
545.741508	0.054885
545.956203	0.054944
546.170879	0.055580
546.385537	0.055942
546.600177	0.056238
546.814799	0.056250
547.029402	0.056280
547.243988	0.056193
547.458555	0.056740
547.673103	0.056696
547.887634	0.056936
548.102146	0.056740
548.316640	0.056263
548.531116	0.056187
548.745574	0.056664
548.960013	0.056459
549.174435	0.056438
549.388838	0.056035
549.603222	0.055990
549.817589	0.055440
550.031937	0.055204
550.246267	0.055199
550.460579	0.055427
550.674873	0.055189
550.889148	0.055353
551.103405	0.055544
551.317644	0.056019
551.531865	0.056244
551.746068	0.056857
551.960252	0.057324
552.174418	0.057385
552.388566	0.057225
552.602696	0.057639
552.816807	0.057774
553.030900	0.057688
553.244975	0.057568
553.459032	0.057584
553.673070	0.057645
553.887091	0.057446
554.101093	0.057634
554.315077	0.057885
554.529042	0.057789
554.742990	0.057783
554.956919	0.057818
555.170830	0.057693
555.384722	0.057481
555.598597	0.057074
555.812453	0.057013
556.026291	0.056876
556.240111	0.056673
556.453913	0.056861
556.667696	0.056750
556.881461	0.056750
557.095208	0.056989
557.308937	0.057115
557.522647	0.057101
557.736339	0.056943
557.950013	0.057298
558.163669	0.057307
558.377307	0.057016
558.590926	0.057050
558.804527	0.057064
559.018110	0.057116
559.231675	0.057458
559.445221	0.057981
559.658749	0.058568
559.872259	0.058897
560.085751	0.059068
560.299225	0.059155
560.512680	0.059395
560.726117	0.059539
560.939536	0.059451
561.152937	0.059208
561.366319	0.059141
561.579683	0.058925
561.793029	0.058876
562.006357	0.058789
562.219667	0.058857
562.432958	0.058639
562.646231	0.058568
562.859486	0.058652
563.072723	0.058531
563.285941	0.058423
563.499141	0.058367
563.712323	0.058221
563.925487	0.058242
564.138632	0.058401
564.351760	0.058271
564.564869	0.058426
564.777960	0.058443
564.991032	0.058545
565.204087	0.058392
565.417123	0.058199
565.630141	0.058060
565.843140	0.058181
566.056122	0.058370
566.269085	0.058740
566.482030	0.058789
566.694957	0.058780
566.907866	0.058855
567.120756	0.059313
567.333628	0.059485
567.546482	0.059404
567.759318	0.059079
567.972135	0.059181
568.184935	0.058999
568.397716	0.058922
568.610478	0.058696
568.823223	0.058692
569.035949	0.058561
569.248657	0.058971
569.461347	0.059367
569.674019	0.059650
569.886672	0.059222
570.099308	0.059295
570.311925	0.059416
570.524523	0.060184
570.737104	0.060575
570.949666	0.060521
571.162210	0.060210
571.374736	0.059966
571.587244	0.059765
571.799733	0.060218
572.012205	0.060197
572.224658	0.060355
572.437092	0.060161
572.649509	0.059987
572.861907	0.060049
573.074287	0.060127
573.286649	0.060344
573.498993	0.060485
573.711318	0.060016
573.923625	0.060271
574.135914	0.060089
574.348185	0.060114
574.560438	0.060116
574.772672	0.060396
574.984888	0.060560
575.197086	0.060549
575.409266	0.060813
575.621427	0.061536
575.833570	0.061757
576.045695	0.062088
576.257802	0.062019
576.469890	0.061817
576.681961	0.061771
576.894013	0.061945
577.106046	0.061969
577.318062	0.062032
577.530059	0.061576
577.742039	0.061240
577.954000	0.061458
578.165942	0.061753
578.377867	0.062186
578.589773	0.062503
578.801661	0.062295
579.013531	0.062517
579.225382	0.062580
579.437216	0.062950
579.649031	0.062955
579.860828	0.062642
580.072606	0.062496
580.284367	0.062376
580.496109	0.062048
580.707833	0.062177
580.919539	0.062538
581.131227	0.062584
581.342896	0.062690
581.554547	0.063088
581.766180	0.063157
581.977795	0.063397
582.189391	0.063521
582.400969	0.063693
582.612529	0.063649
582.824071	0.063353
583.035595	0.063335
583.247100	0.062784
583.458587	0.062834
583.670056	0.062867
583.881506	0.062899
584.092939	0.063207
584.304353	0.063285
584.515749	0.063341
584.727127	0.063352
584.938486	0.063154
585.149828	0.063950
585.361151	0.063902
585.572456	0.064059
585.783742	0.063846
585.995011	0.063724
586.206261	0.063714
586.417493	0.063734
586.628706	0.063946
586.839902	0.064429
587.051079	0.064169
587.262238	0.064174
587.473379	0.064128
587.684502	0.064263
587.895606	0.064443
588.106692	0.064761
588.317760	0.064981
588.528810	0.065243
588.739841	0.065423
588.950855	0.065346
589.161850	0.065442
589.372827	0.065496
589.583785	0.065497
589.794726	0.065507
590.005648	0.064873
590.216552	0.064651
590.427437	0.064155
590.638305	0.063820
590.849154	0.064136
591.059985	0.064187
591.270798	0.064361
591.481592	0.064606
591.692369	0.064426
591.903127	0.064852
592.113867	0.065301
592.324588	0.065755
592.535292	0.066148
592.745977	0.066538
592.956644	0.066792
593.167293	0.066734
593.377923	0.066529
593.588536	0.066728
593.799130	0.067013
594.009706	0.066959
594.220263	0.066830
594.430803	0.066878
594.641324	0.066686
594.851827	0.066476
595.062312	0.066688
595.272778	0.066656
595.483227	0.066558
595.693657	0.066613
595.904069	0.066677
596.114462	0.066817
596.324838	0.066900
596.535195	0.066859
596.745534	0.067150
596.955855	0.067141
597.166157	0.067395
597.376441	0.067660
597.586707	0.067532
597.796955	0.067834
598.007185	0.067755
598.217396	0.067680
598.427589	0.067817
598.637764	0.068018
598.847921	0.067939
599.058060	0.068175
599.268180	0.068461
599.478282	0.068505
599.688366	0.068463
599.898431	0.068633
600.108479	0.068642
600.318508	0.068615
600.528519	0.068339
600.738511	0.068496
600.948486	0.068318
601.158442	0.068132
601.368380	0.068456
601.578300	0.068473
601.788202	0.068516
601.998085	0.068492
602.207950	0.068858
602.417797	0.069271
602.627626	0.069511
602.837436	0.069732
603.047228	0.069989
603.257002	0.069989
603.466758	0.070271
603.676496	0.070210
603.886215	0.070542
604.095916	0.070519
604.305599	0.070577
604.515264	0.070643
604.724910	0.070904
604.934538	0.070839
605.144148	0.070913
605.353740	0.070697
605.563314	0.070995
605.772869	0.071059
605.982406	0.071121
606.191925	0.070907
606.401425	0.070907
606.610908	0.071013
606.820372	0.071003
607.029818	0.071191
607.239246	0.071221
607.448655	0.071166
607.658047	0.071197
607.867420	0.071122
608.076775	0.071567
608.286111	0.071688
608.495430	0.071530
608.704730	0.071616
608.914012	0.071472
609.123275	0.071617
609.332521	0.071767
609.541748	0.071605
609.750957	0.071591
609.960148	0.071419
610.169321	0.071269
610.378475	0.071091
610.587611	0.071068
610.796729	0.071206
611.005829	0.071288
611.214910	0.071225
611.423974	0.071476
611.633019	0.071614
611.842045	0.071615
612.051054	0.071898
612.260044	0.072327
612.469017	0.072362
612.677970	0.072395
612.886906	0.072232
613.095824	0.072339
613.304723	0.072408
613.513604	0.072455
613.722467	0.072513
613.931311	0.072274
614.140138	0.072186
614.348946	0.072522
614.557736	0.072432
614.766507	0.072572
614.975261	0.072659
615.183996	0.072745
615.392713	0.072566
615.601412	0.072446
615.810092	0.072678
616.018754	0.072693
616.227399	0.072563
616.436024	0.072817
616.644632	0.073037
616.853222	0.073306
617.061793	0.073336
617.270346	0.073786
617.478880	0.074067
617.687397	0.074210
617.895895	0.074220
618.104375	0.074362
618.312837	0.074356
618.521281	0.074281
618.729706	0.074206
618.938113	0.074118
619.146502	0.073989
619.354873	0.074047
619.563226	0.073897
619.771560	0.074189
619.979876	0.074021
620.188174	0.074043
620.396453	0.074216
620.604715	0.074101
620.812958	0.074362
621.021183	0.074544
621.229390	0.074700
621.437578	0.075024
621.645748	0.074975
621.853900	0.075378
622.062034	0.075570
622.270150	0.075680
622.478247	0.075816
622.686326	0.075780
622.894387	0.075966
623.102430	0.076264
623.310454	0.076332
623.518461	0.076330
623.726449	0.076164
623.934418	0.076109
624.142370	0.076309
624.350303	0.076496
624.558218	0.076594
624.766115	0.076157
624.973994	0.075738
625.181855	0.075629
625.389697	0.075767
625.597521	0.075568
625.805327	0.075447
626.013114	0.075282
626.220883	0.075147
626.428634	0.075068
626.636367	0.075405
626.844082	0.075538
627.051778	0.075343
627.259457	0.075300
627.467117	0.075612
627.674758	0.075570
627.882382	0.075639
628.089987	0.075687
628.297574	0.075827
628.505143	0.075746
628.712694	0.075978
628.920226	0.076281
629.127740	0.076298
629.335236	0.076391
629.542714	0.076472
629.750174	0.076563
629.957615	0.076640
630.165038	0.076856
630.372443	0.076897
630.579829	0.076898
630.787198	0.077321
630.994548	0.077444
631.201880	0.077544
631.409194	0.077890
631.616489	0.077946
631.823766	0.078249
632.031025	0.078278
632.238266	0.078389
632.445489	0.078458
632.652693	0.078065
632.859879	0.078077
633.067047	0.078214
633.274197	0.078059
633.481329	0.078120
633.688442	0.077983
633.895537	0.077887
634.102614	0.078091
634.309672	0.078353
634.516713	0.078778
634.723735	0.078953
634.930739	0.078994
635.137724	0.079343
635.344692	0.079471
635.551641	0.079667
635.758572	0.079710
635.965485	0.079852
636.172379	0.079709
636.379256	0.079543
636.586114	0.079707
636.792954	0.079740
636.999775	0.079808
637.206579	0.080039
637.413364	0.079928
637.620131	0.080103
637.826880	0.079907
638.033610	0.079962
638.240323	0.079901
638.447017	0.079692
638.653692	0.079672
638.860350	0.079470
639.066990	0.079251
639.273611	0.079190
639.480214	0.079054
639.686798	0.079075
639.893365	0.079050
640.099913	0.079243
640.306443	0.079449
640.512955	0.079489
640.719449	0.079837
640.925924	0.080107
641.132381	0.080506
641.338820	0.080652
641.545241	0.081064
641.751644	0.080972
641.958028	0.080875
642.164394	0.081023
642.370742	0.081134
642.577071	0.081100
642.783383	0.080938
642.989676	0.080939
643.195951	0.080959
643.402207	0.080937
643.608446	0.081440
643.814666	0.081582
644.020868	0.081594
644.227052	0.081481
644.433218	0.081650
644.639365	0.081599
644.845494	0.081579
645.051605	0.081653
645.257698	0.081407
645.463772	0.081202
645.669828	0.081400
645.875866	0.081472
646.081886	0.081676
646.287888	0.081625
646.493871	0.081898
646.699836	0.081885
646.905783	0.082032
647.111712	0.082234
647.317622	0.082402
647.523514	0.082466
647.729388	0.082457
647.935244	0.082624
648.141082	0.082628
648.346901	0.082788
648.552702	0.082992
648.758485	0.083109
648.964250	0.083106
649.169996	0.083236
649.375724	0.083367
649.581434	0.083602
649.787126	0.083709
649.992800	0.083830
650.198455	0.083706
650.404092	0.083878
650.609711	0.083877
650.815311	0.083998
651.020894	0.083966
651.226458	0.083860
651.432004	0.083740
651.637532	0.083681
651.843041	0.083717
652.048532	0.083740
652.254006	0.083544
652.459460	0.083529
652.664897	0.083618
652.870315	0.083779
653.075716	0.083990
653.281097	0.084140
653.486461	0.084130
653.691807	0.084117
653.897134	0.084194
654.102443	0.084358
654.307734	0.084442
654.513006	0.084405
654.718261	0.084364
654.923497	0.084223
655.128715	0.084314
655.333915	0.084496
655.539096	0.084681
655.744259	0.084965
655.949404	0.085419
656.154531	0.085645
656.359640	0.085840
656.564730	0.085997
656.769802	0.086305
656.974856	0.086394
657.179892	0.086472
657.384909	0.086658
657.589908	0.086590
657.794889	0.086302
657.999852	0.086393
658.204797	0.086567
658.409723	0.086492
658.614631	0.086545
658.819521	0.086545
659.024393	0.086573
659.229246	0.086728
659.434081	0.086816
659.638898	0.087173
659.843697	0.087305
660.048478	0.087389
660.253240	0.087548
660.457984	0.087713
660.662710	0.087857
660.867417	0.088091
661.072107	0.088048
661.276778	0.088080
661.481431	0.087864
661.686066	0.087798
661.890682	0.087704
662.095281	0.087752
662.299861	0.087733
662.504422	0.087773
662.708966	0.087851
662.913491	0.087810
663.117999	0.087920
663.322488	0.088074
663.526958	0.088136
663.731411	0.088255
663.935845	0.088222
664.140261	0.088408
664.344659	0.088383
664.549038	0.088325
664.753400	0.088298
664.957743	0.088411
665.162068	0.088445
665.366375	0.088593
665.570663	0.088566
665.774933	0.088655
665.979185	0.088519
666.183419	0.088724
666.387635	0.088853
666.591832	0.089048
666.796011	0.089060
667.000172	0.089372
667.204315	0.089508
667.408439	0.089870
667.612545	0.090127
667.816634	0.090322
668.020703	0.090409
668.224755	0.090395
668.428788	0.090355
668.632803	0.090720
668.836800	0.090520
669.040779	0.090535
669.244739	0.090574
669.448681	0.090534
669.652605	0.090581
669.856511	0.090676
670.060399	0.091015
670.264268	0.091361
670.468119	0.091253
670.671952	0.091503
670.875767	0.091727
671.079563	0.091922
671.283341	0.092273
671.487101	0.092414
671.690843	0.092468
671.894567	0.092571
672.098272	0.092527
672.301959	0.092591
672.505628	0.092649
672.709278	0.092564
672.912911	0.092450
673.116525	0.092439
673.320121	0.092619
673.523699	0.092601
673.727258	0.092494
673.930799	0.092614
674.134322	0.092555
674.337827	0.092485
674.541314	0.092612
674.744782	0.092958
674.948232	0.092860
675.151664	0.092682
675.355078	0.092835
675.558474	0.092894
675.761851	0.092883
675.965210	0.092991
676.168551	0.093089
676.371873	0.093115
676.575178	0.092921
676.778464	0.093042
676.981732	0.093495
677.184981	0.093755
677.388213	0.093965
677.591426	0.094086
677.794621	0.094335
677.997798	0.094538
678.200956	0.094700
678.404097	0.094964
678.607219	0.095149
678.810323	0.095045
679.013408	0.094767
679.216476	0.094988
679.419525	0.095073
679.622556	0.095095
679.825569	0.095302
680.028563	0.095266
680.231540	0.095128
680.434498	0.095393
680.637438	0.095283
680.840359	0.095375
681.043263	0.095035
681.246148	0.094963
681.449015	0.094958
681.651864	0.094670
681.854694	0.094656
682.057506	0.094779
682.260301	0.094468
682.463076	0.094653
682.665834	0.094955
682.868573	0.095312
683.071295	0.095402
683.273998	0.095589
683.476682	0.095703
683.679349	0.095750
683.881997	0.095887
684.084627	0.095900
684.287239	0.095932
684.489833	0.095806
684.692408	0.095695
684.894965	0.095681
685.097504	0.095667
685.300025	0.095764
685.502527	0.095778
685.705012	0.095618
685.907478	0.095775
686.109925	0.095785
686.312355	0.095780
686.514766	0.095912
686.717159	0.096188
686.919534	0.096097
687.121891	0.096199
687.324230	0.096311
687.526550	0.096451
687.728852	0.096471
687.931136	0.096501
688.133401	0.096479
688.335649	0.096355
688.537878	0.096281
688.740089	0.096382
688.942281	0.096519
689.144456	0.096616
689.346612	0.096589
689.548750	0.096679
689.750870	0.096744
689.952971	0.096890
690.155055	0.097136
690.357120	0.097201
690.559167	0.097214
690.761195	0.097239
690.963206	0.097323
691.165198	0.097468
691.367172	0.097306
691.569128	0.097280
691.771065	0.097426
691.972984	0.097267
692.174885	0.097358
692.376768	0.097384
692.578633	0.097322
692.780479	0.097189
692.982308	0.097056
693.184118	0.097227
693.385909	0.097282
693.587683	0.097245
693.789438	0.097455
693.991175	0.097456
694.192894	0.097605
694.394595	0.097492
694.596277	0.097572
694.797941	0.097909
694.999587	0.097866
695.201215	0.097894
695.402824	0.098106
695.604416	0.098183
695.805989	0.098179
696.007543	0.098214
696.209080	0.098316
696.410598	0.098505
696.612099	0.098428
696.813580	0.098550
697.015044	0.098562
697.216490	0.098371
697.417917	0.098209
697.619326	0.098178
697.820717	0.098193
698.022089	0.098215
698.223444	0.098119
698.424780	0.098112
698.626098	0.098181
698.827397	0.098390
699.028679	0.098608
699.229942	0.098444
699.431187	0.098579
699.632414	0.098537
699.833622	0.098662
700.034813	0.099018
700.235985	0.098945
700.437139	0.099116
700.638274	0.099163
700.839392	0.099127
701.040491	0.099514
701.241572	0.099611
701.442635	0.099926
701.643679	0.100036
701.844706	0.099914
702.045714	0.100138
702.246704	0.100235
702.447675	0.100254
702.648629	0.100278
702.849564	0.100355
703.050481	0.100277
703.251380	0.100082
703.452260	0.100219
703.653122	0.100357
703.853966	0.100178
704.054792	0.100087
704.255600	0.100018
704.456389	0.100013
704.657160	0.099927
704.857913	0.099987
705.058648	0.099897
705.259365	0.099708
705.460063	0.099324
705.660743	0.099428
705.861405	0.099314
706.062048	0.099159
706.262674	0.099202
706.463281	0.099060
706.663870	0.098963
706.864441	0.099135
707.064993	0.099128
707.265527	0.099255
707.466043	0.099512
707.666541	0.099471
707.867021	0.099649
708.067482	0.099502
708.267925	0.099759
708.468350	0.100074
708.668757	0.100118
708.869145	0.100209
709.069516	0.100348
709.269868	0.100099
709.470201	0.100169
709.670517	0.100237
709.870814	0.100602
710.071093	0.100654
710.271354	0.100509
710.471597	0.100350
710.671821	0.100332
710.872028	0.100150
711.072216	0.100175
711.272385	0.100240
711.472537	0.100084
711.672670	0.099822
711.872785	0.099501
712.072882	0.099596
712.272961	0.099740
712.473021	0.099678
712.673063	0.099810
712.873087	0.099602
713.073093	0.099689
713.273081	0.099716
713.473050	0.099808
713.673001	0.100094
713.872934	0.099843
714.072849	0.099881
714.272745	0.099834
714.472623	0.099608
714.672483	0.099685
714.872325	0.099734
715.072148	0.099607
715.271954	0.099572
715.471741	0.099516
715.671509	0.099780
715.871260	0.099714
716.070992	0.099865
716.270707	0.100178
716.470403	0.100417
716.670080	0.100256
716.869740	0.100474
717.069381	0.100608
717.269004	0.100565
717.468609	0.100604
717.668195	0.100674
717.867764	0.100802
718.067314	0.100821
718.266846	0.100921
718.466360	0.101164
718.665855	0.101229
718.865332	0.101098
719.064791	0.101104
719.264232	0.100913
719.463655	0.100833
719.663059	0.100491
719.862445	0.100414
720.061813	0.100282
720.261163	0.100127
720.460494	0.100044
720.659807	0.100105
720.859102	0.100286
721.058379	0.100375
721.257638	0.100504
721.456878	0.100727
721.656100	0.100781
721.855304	0.100709
722.054490	0.100663
722.253657	0.100534
722.452806	0.100305
722.651937	0.100025
722.851050	0.099866
723.050145	0.099550
723.249221	0.099472
723.448279	0.099272
723.647319	0.099170
723.846340	0.099182
724.045344	0.099038
724.244329	0.098997
724.443296	0.098911
724.642245	0.098674
724.841175	0.098545
725.040088	0.098377
725.238982	0.098377
725.437857	0.098464
725.636715	0.098112
725.835554	0.098007
726.034376	0.097945
726.233179	0.097718
726.431963	0.097679
726.630730	0.097663
726.829478	0.097715
727.028208	0.097488
727.226920	0.097224
727.425614	0.097190
727.624289	0.097265
727.822946	0.097218
728.021585	0.097240
728.220206	0.097280
728.418808	0.097350
728.617392	0.097186
728.815958	0.097149
729.014506	0.097060
729.213036	0.097077
729.411547	0.097131
729.610040	0.097315
729.808515	0.097436
730.006972	0.097534
730.205410	0.097413
730.403831	0.097380
730.602233	0.097580
730.800616	0.097520
730.998982	0.097541
731.197329	0.097395
731.395658	0.097013
731.593969	0.096965
731.792262	0.096710
731.990536	0.096622
732.188793	0.096413
732.387031	0.096272
732.585250	0.096405
732.783452	0.096306
732.981635	0.096205
733.179800	0.096514
733.377947	0.096521
733.576076	0.096477
733.774186	0.096538
733.972278	0.096760
734.170352	0.096671
734.368408	0.096630
734.566446	0.096568
734.764465	0.096678
734.962466	0.096435
735.160449	0.096161
735.358413	0.096277
735.556360	0.096137
735.754288	0.095912
735.952198	0.095821
736.150090	0.095458
736.347963	0.095301
736.545818	0.094939
736.743655	0.094788
736.941474	0.094672
737.139275	0.094581
737.337057	0.094466
737.534821	0.094348
737.732567	0.094173
737.930295	0.094224
738.128005	0.094061
738.325696	0.093919
738.523369	0.093965
738.721024	0.093948
738.918660	0.093797
739.116279	0.093660
739.313879	0.093465
739.511461	0.093659
739.709024	0.093746
739.906570	0.093943
740.104097	0.094250
740.301606	0.094241
740.499097	0.094265
740.696569	0.094096
740.894024	0.094005
741.091460	0.094223
741.288878	0.094173
741.486277	0.094052
741.683659	0.093934
741.881022	0.093712
742.078367	0.093696
742.275694	0.093662
742.473002	0.093794
742.670293	0.093985
742.867565	0.093890
743.064819	0.093606
743.262054	0.093338
743.459272	0.093248
743.656471	0.093355
743.853652	0.093108
744.050815	0.092946
744.247959	0.092634
744.445085	0.092557
744.642194	0.092403
744.839283	0.092468
745.036355	0.092535
745.233408	0.092535
745.430444	0.092325
745.627461	0.092573
745.824459	0.092664
746.021440	0.092948
746.218402	0.092844
746.415346	0.093178
746.612272	0.093091
746.809180	0.093233
747.006069	0.093261
747.202940	0.093305
747.399793	0.093085
747.596628	0.093041
747.793444	0.092897
747.990243	0.092965
748.187023	0.092667
748.383784	0.092761
748.580528	0.092541
748.777253	0.092242
748.973960	0.092213
749.170649	0.092192
749.367320	0.091874
749.563973	0.091715
749.760607	0.091861
749.957223	0.091787
750.153821	0.091518
750.350400	0.091631
750.546962	0.091713
750.743505	0.091553
750.940030	0.091297
751.136536	0.091405
751.333025	0.091309
751.529495	0.090732
751.725947	0.090639
751.922381	0.090785
752.118796	0.090526
752.315194	0.090411
752.511573	0.090249
752.707934	0.090157
752.904276	0.090015
753.100601	0.089994
753.296907	0.090084
753.493195	0.089989
753.689465	0.089602
753.885716	0.089632
754.081949	0.089630
754.278164	0.089681
754.474361	0.089605
754.670540	0.089753
754.866700	0.089893
755.062843	0.090013
755.258967	0.089954
755.455072	0.089998
755.651160	0.090021
755.847229	0.090087
756.043280	0.090264
756.239313	0.090242
756.435328	0.090001
756.631324	0.089647
756.827302	0.089426
757.023262	0.089206
757.219204	0.089083
757.415127	0.088833
757.611033	0.088575
757.806920	0.088331
758.002788	0.088096
758.198639	0.088167
758.394471	0.088249
758.590286	0.088175
758.786081	0.088239
758.981859	0.088355
759.177619	0.088049
759.373360	0.087999
759.569083	0.087865
759.764788	0.088021
759.960474	0.087787
760.156143	0.087663
760.351793	0.087525
760.547425	0.087465
760.743038	0.087368
760.938634	0.087507
761.134211	0.087340
761.329770	0.087313
761.525311	0.087425
761.720833	0.087312
761.916338	0.087306
762.111824	0.087608
762.307292	0.087588
762.502741	0.087477
762.698173	0.087685
762.893586	0.087916
763.088981	0.087934
763.284358	0.087879
763.479716	0.088094
763.675057	0.088323
763.870379	0.088059
764.065683	0.088235
764.260968	0.088335
764.456236	0.088283
764.651485	0.088186
764.846716	0.088344
765.041929	0.088119
765.237123	0.088109
765.432299	0.087968
765.627457	0.088008
765.822597	0.087817
766.017719	0.087644
766.212822	0.087772
766.407907	0.087694
766.602974	0.087534
766.798023	0.087840
766.993054	0.087610
767.188066	0.087548
767.383060	0.087625
767.578036	0.087715
767.772993	0.087883
767.967933	0.087866
768.162854	0.088240
768.357757	0.088473
768.552642	0.088390
768.747508	0.088461
768.942356	0.088601
769.137186	0.088496
769.331998	0.088516
769.526792	0.088583
769.721567	0.088562
769.916324	0.088120
770.111063	0.087614
770.305784	0.087410
770.500486	0.087462
770.695171	0.087218
770.889837	0.087143
771.084484	0.086841
771.279114	0.086639
771.473725	0.086536
771.668318	0.086453
771.862893	0.086479
772.057450	0.086448
772.251988	0.086417
772.446509	0.086468
772.641011	0.086486
772.835494	0.086499
773.029960	0.086411
773.224407	0.086279
773.418836	0.086604
773.613247	0.086780
773.807640	0.086505
774.002014	0.086538
774.196370	0.086458
774.390708	0.086399
774.585028	0.086497
774.779330	0.086494
774.973613	0.086385
775.167878	0.086090
775.362125	0.085879
775.556354	0.086126
775.750564	0.085968
775.944756	0.085823
776.138930	0.085709
776.333086	0.085650
776.527223	0.085719
776.721343	0.085771
776.915444	0.085731
777.109526	0.085816
777.303591	0.085804
777.497637	0.085924
777.691666	0.085835
777.885676	0.085810
778.079667	0.085832
778.273641	0.085718
778.467596	0.085787
778.661533	0.085750
778.855452	0.085765
779.049352	0.085713
779.243235	0.085546
779.437099	0.085752
779.630945	0.085857
779.824773	0.085911
780.018582	0.086093
780.212373	0.085933
780.406146	0.086186
780.599901	0.086176
780.793638	0.086370
780.987356	0.086528
781.181056	0.086593
781.374738	0.086717
781.568402	0.086687
781.762047	0.086708
781.955674	0.086958
782.149283	0.086723
782.342874	0.086905
782.536447	0.086833
782.730001	0.086639
782.923537	0.086784
783.117055	0.086807
783.310555	0.086931
783.504036	0.086864
783.697499	0.086873
783.890944	0.087039
784.084371	0.086968
784.277780	0.086979
784.471170	0.087342
784.664542	0.087178
784.857896	0.087086
785.051231	0.087193
785.244549	0.087347
785.437848	0.087309
785.631129	0.087392
785.824392	0.087451
786.017636	0.087481
786.210863	0.087349
786.404071	0.087565
786.597260	0.087335
786.790432	0.087240
786.983585	0.087213
787.176721	0.087285
787.369838	0.087492
787.562936	0.087420
787.756017	0.087534
787.949079	0.087818
788.142123	0.087815
788.335149	0.088276
788.528156	0.088165
788.721146	0.088288
788.914117	0.088299
789.107070	0.088348
789.300005	0.088458
789.492921	0.088387
789.685819	0.088191
789.878699	0.087993
790.071561	0.088055
790.264405	0.088206
790.457230	0.088073
790.650037	0.088230
790.842826	0.088147
791.035597	0.088006
791.228349	0.088347
791.421084	0.088255
791.613800	0.088573
791.806497	0.088590
791.999177	0.088737
792.191838	0.088985
792.384481	0.088823
792.577106	0.088890
792.769713	0.089053
792.962301	0.088970
793.154871	0.089245
793.347423	0.089216
793.539957	0.089331
793.732473	0.089370
793.924970	0.089283
794.117449	0.089406
794.309910	0.089481
794.502353	0.089633
794.694777	0.089608
794.887183	0.089552
795.079571	0.089433
795.271941	0.089198
795.464293	0.089290
795.656626	0.089220
795.848941	0.089188
796.041238	0.089214
796.233516	0.089191
796.425777	0.089213
796.618019	0.089328
796.810243	0.089527
797.002449	0.089785
797.194636	0.089729
797.386805	0.089804
797.578956	0.090000
797.771089	0.090029
797.963204	0.090388
798.155300	0.090427
798.347378	0.090619
798.539438	0.090779
798.731480	0.090840
798.923503	0.090795
799.115509	0.091009
799.307496	0.091033
799.499465	0.091008
799.691415	0.090791
799.883348	0.091113
800.075262	0.091094
800.267158	0.091072
800.459035	0.091145
800.650895	0.091489
800.842736	0.091438
801.034559	0.091613
801.226364	0.091826
801.418150	0.092137
801.609919	0.092280
801.801669	0.092501
801.993401	0.092686
802.185114	0.092925
802.376810	0.093067
802.568487	0.093319
802.760146	0.093483
802.951787	0.093559
803.143409	0.093408
803.335014	0.093532
803.526600	0.093631
803.718168	0.093907
803.909717	0.093844
804.101249	0.093858
804.292762	0.094058
804.484257	0.094237
804.675734	0.094655
804.867192	0.094927
805.058632	0.094916
805.250054	0.095077
805.441458	0.095068
805.632844	0.095326
805.824211	0.095633
806.015561	0.095835
806.206891	0.096000
806.398204	0.095864
806.589499	0.096292
806.780775	0.096485
806.972033	0.096628
807.163273	0.096822
807.354495	0.097034
807.545698	0.097292
807.736883	0.097337
807.928050	0.097541
808.119199	0.097778
808.310329	0.097761
808.501441	0.097800
808.692535	0.097668
808.883611	0.097676
809.074669	0.097707
809.265708	0.097624
809.456729	0.097713
809.647732	0.097432
809.838717	0.097402
810.029683	0.097243
810.220632	0.097187
810.411562	0.097513
810.602474	0.097783
810.793367	0.097851
810.984242	0.097784
811.175100	0.097969
811.365938	0.098141
811.556759	0.098149
811.747562	0.098229
811.938346	0.098741
812.129112	0.098749
812.319860	0.098680
812.510589	0.098895
812.701300	0.099065
812.891994	0.099171
813.082668	0.099479
813.273325	0.100029
813.463964	0.100255
813.654584	0.099921
813.845186	0.100227
814.035769	0.100506
814.226335	0.100344
814.416882	0.100428
814.607411	0.100567
814.797922	0.100786
814.988415	0.100678
815.178889	0.100900
815.369345	0.101291
815.559783	0.101306
815.750203	0.101361
815.940605	0.101541
816.130988	0.101502
816.321353	0.101465
816.511700	0.101211
816.702028	0.101134
816.892339	0.101334
817.082631	0.101273
817.272905	0.101117
817.463161	0.101122
817.653398	0.101066
817.843617	0.101285
818.033819	0.101239
818.224001	0.101221
818.414166	0.101208
818.604312	0.101166
818.794440	0.101356
818.984550	0.101543
819.174642	0.101527
819.364716	0.101908
819.554771	0.102135
819.744808	0.102135
819.934827	0.102543
820.124827	0.103174
820.314810	0.103381
820.504774	0.103515
820.694720	0.103840
820.884647	0.104056
821.074557	0.104077
821.264448	0.104267
821.454321	0.104527
821.644176	0.104756
821.834012	0.104689
822.023831	0.104773
822.213631	0.104791
822.403413	0.104825
822.593176	0.105083
822.782922	0.105350
822.972649	0.105652
823.162358	0.105771
823.352049	0.105585
823.541721	0.105597
823.731376	0.105809
823.921012	0.106009
824.110629	0.105939
824.300229	0.106154
824.489811	0.106322
824.679374	0.106362
824.868919	0.107003
825.058445	0.107464
825.247954	0.107680
825.437444	0.107739
825.626916	0.107779
825.816370	0.108176
826.005806	0.108510
826.195223	0.108785
826.384622	0.108592
826.574003	0.108597
826.763366	0.108935
826.952711	0.109277
827.142037	0.109630
827.331345	0.109965
827.520635	0.110334
827.709906	0.110175
827.899160	0.110355
828.088395	0.110930
828.277612	0.111231
828.466810	0.111266
828.655991	0.111474
828.845153	0.111664
829.034297	0.111940
829.223423	0.112120
829.412531	0.112613
829.601620	0.112910
829.790691	0.113102
829.979744	0.113155
830.168779	0.113367
830.357795	0.113064
830.546793	0.113271
830.735773	0.113366
830.924735	0.113408
831.113679	0.113410
831.302604	0.113441
831.491511	0.113471
831.680400	0.113619
831.869271	0.113757
832.058123	0.114051
832.246957	0.114055
832.435773	0.114276
832.624571	0.114474
832.813351	0.114669
833.002112	0.114663
833.190855	0.114959
833.379580	0.115198
833.568287	0.115301
833.756975	0.115594
833.945645	0.115536
834.134297	0.115799
834.322931	0.116177
834.511547	0.116344
834.700144	0.116798
834.888723	0.116877
835.077284	0.117170
835.265826	0.117570
835.454351	0.117929
835.642857	0.118516
835.831345	0.118597
836.019815	0.118451
836.208266	0.118749
836.396699	0.118910
836.585114	0.119187
836.773511	0.119135
836.961890	0.119315
837.150250	0.119504
837.338592	0.119467
837.526916	0.119965
837.715222	0.120418
837.903510	0.120544
838.091779	0.120849
838.280030	0.121038
838.468263	0.121500
838.656477	0.121675
838.844674	0.122184
839.032852	0.122575
839.221012	0.122600
839.409153	0.122860
839.597277	0.123282
839.785382	0.123614
839.973469	0.124045
840.161538	0.124307
840.349589	0.124697
840.537621	0.124792
840.725635	0.125407
840.913631	0.125584
841.101609	0.125750
841.289568	0.125870
841.477509	0.125887
841.665432	0.125998
841.853337	0.126312
842.041224	0.126478
842.229092	0.126576
842.416942	0.126628
842.604774	0.126811
842.792588	0.127148
842.980383	0.127328
843.168160	0.127759
843.355919	0.127835
843.543660	0.127992
843.731382	0.128099
843.919087	0.128462
844.106773	0.128472
844.294441	0.128916
844.482090	0.129204
844.669722	0.129461
844.857335	0.129589
845.044930	0.130063
845.232507	0.130185
845.420065	0.130364
845.607605	0.130551
845.795127	0.130895
845.982631	0.130810
846.170117	0.130728
846.357584	0.131053
846.545033	0.131052
846.732464	0.131331
846.919877	0.131614
847.107272	0.131876
847.294648	0.132218
847.482006	0.132523
847.669346	0.133080
847.856667	0.133569
848.043971	0.133736
848.231256	0.134032
848.418523	0.134139
848.605771	0.134140
848.793002	0.134265
848.980214	0.134218
849.167408	0.134244
849.354584	0.134474
849.541742	0.134897
849.728881	0.135011
849.916002	0.135365
850.103105	0.135650
850.290190	0.136028
850.477256	0.136790
850.664304	0.137288
850.851334	0.137748
851.038346	0.137901
851.225340	0.137889
851.412315	0.138329
851.599272	0.138385
851.786211	0.138458
851.973132	0.138690
852.160034	0.138499
852.346918	0.138586
852.533784	0.139011
852.720632	0.139229
852.907462	0.139566
853.094273	0.139483
853.281066	0.139858
853.467841	0.140038
853.654598	0.139963
853.841336	0.140204
854.028056	0.140159
854.214758	0.139832
854.401442	0.140082
854.588107	0.139984
854.774755	0.140097
854.961384	0.140141
855.147995	0.140346
855.334587	0.140567
855.521162	0.140748
855.707718	0.141243
855.894256	0.141672
856.080775	0.141706
856.267277	0.141915
856.453760	0.142301
856.640225	0.142608
856.826672	0.142656
857.013101	0.143118
857.199511	0.142889
857.385903	0.142909
857.572277	0.143024
857.758633	0.143080
857.944970	0.143441
858.131290	0.143581
858.317591	0.143461
858.503873	0.143518
858.690138	0.143747
858.876384	0.144222
859.062612	0.144488
859.248822	0.144477
859.435014	0.144915
859.621188	0.145149
859.807343	0.145680
859.993480	0.145821
860.179599	0.146449
860.365699	0.146435
860.551781	0.146709
860.737846	0.146606
860.923891	0.146645
861.109919	0.146816
861.295929	0.146618
861.481920	0.146423
861.667893	0.146907
861.853848	0.146878
862.039784	0.147056
862.225702	0.147502
862.411603	0.147705
862.597484	0.148345
862.783348	0.148635
862.969193	0.149199
863.155021	0.149601
863.340830	0.149923
863.526620	0.150282
863.712393	0.150650
863.898147	0.150766
864.083883	0.151278
864.269601	0.151504
864.455301	0.151771
864.640982	0.151799
864.826645	0.151823
865.012290	0.151977
865.197917	0.152238
865.383526	0.152399
865.569116	0.152362
865.754688	0.152526
865.940242	0.152533
866.125777	0.152648
866.311295	0.153004
866.496794	0.153205
866.682275	0.153280
866.867737	0.153388
867.053182	0.153584
867.238608	0.154035
867.424016	0.154158
867.609406	0.154178
867.794778	0.154082
867.980131	0.154077
868.165466	0.154217
868.350783	0.154405
868.536082	0.154500
868.721362	0.154548
868.906625	0.154445
869.091869	0.154614
869.277094	0.154541
869.462302	0.154699
869.647491	0.154811
869.832662	0.154930
870.017815	0.154814
870.202950	0.154842
870.388066	0.155009
870.573165	0.154995
870.758245	0.155098
870.943306	0.155529
871.128350	0.155560
871.313375	0.155411
871.498382	0.155882
871.683371	0.156623
871.868342	0.156581
872.053294	0.156830
872.238229	0.156954
872.423144	0.156831
872.608042	0.156892
872.792922	0.157007
872.977783	0.157151
873.162626	0.156794
873.347451	0.156141
873.532258	0.156217
873.717046	0.156236
873.901816	0.156577
874.086568	0.156622
874.271302	0.156745
874.456017	0.157125
874.640715	0.157492
874.825394	0.157578
875.010055	0.157949
875.194697	0.158306
875.379322	0.158191
875.563928	0.158056
875.748516	0.158437
875.933085	0.158572
876.117637	0.158781
876.302170	0.158971
876.486685	0.159294
876.671182	0.159449
876.855661	0.159876
877.040121	0.160103
877.224563	0.160742
877.408987	0.161044
877.593393	0.161358
877.777780	0.161836
877.962150	0.161848
878.146501	0.161849
878.330833	0.162131
878.515148	0.162015
878.699444	0.161978
878.883722	0.161621
879.067982	0.161366
879.252224	0.161118
879.436447	0.160750
879.620653	0.160624
879.804840	0.160863
879.989008	0.160701
880.173159	0.160691
880.357291	0.160886
880.541405	0.160737
880.725501	0.160692
880.909579	0.160619
881.093638	0.160464
881.277680	0.160463
881.461703	0.160436
881.645707	0.160437
881.829694	0.160410
882.013662	0.160263
882.197612	0.160586
882.381544	0.160660
882.565458	0.160672
882.749353	0.160975
882.933230	0.160883
883.117089	0.160425
883.300930	0.160777
883.484753	0.160884
883.668557	0.161076
883.852343	0.161229
884.036111	0.161399
884.219861	0.161590
884.403592	0.161525
884.587305	0.161931
884.771000	0.162329
884.954677	0.162022
885.138335	0.162064
885.321976	0.161876
885.505598	0.161404
885.689201	0.161101
885.872787	0.161443
886.056354	0.161242
886.239904	0.161053
886.423434	0.161035
886.606947	0.161558
886.790442	0.161703
886.973918	0.162487
887.157376	0.162513
887.340816	0.162844
887.524237	0.162609
887.707641	0.162720
887.891026	0.162868
888.074393	0.162851
888.257741	0.162428
888.441072	0.162278
888.624384	0.161575
888.807678	0.161884
888.990954	0.161788
889.174211	0.161699
889.357451	0.161689
889.540672	0.161366
889.723875	0.161572
889.907059	0.161466
890.090226	0.161223
890.273374	0.161201
890.456504	0.161035
890.639616	0.161039
890.822709	0.160993
891.005785	0.160955
891.188842	0.161442
891.371881	0.161230
891.554901	0.161391
891.737904	0.161494
891.920888	0.161505
892.103854	0.161533
892.286802	0.161442
892.469731	0.161556
892.652643	0.161216
892.835536	0.161083
893.018410	0.161097
893.201267	0.160913
893.384106	0.160876
893.566926	0.160968
893.749728	0.161006
893.932511	0.160941
894.115277	0.160750
894.298024	0.161185
894.480753	0.161151
894.663464	0.161369
894.846157	0.161081
895.028831	0.161130
895.211487	0.160863
895.394125	0.160620
895.576745	0.160580
895.759346	0.160663
895.941930	0.160635
896.124495	0.160434
896.307041	0.159771
896.489570	0.159704
896.672080	0.159610
896.854573	0.159857
897.037046	0.160157
897.219502	0.160143
897.401940	0.159845
897.584359	0.159584
897.766760	0.159499
897.949143	0.159617
898.131507	0.159765
898.313854	0.159266
898.496182	0.159236
898.678492	0.159229
898.860783	0.159057
899.043057	0.158707
899.225312	0.158650
899.407549	0.158271
899.589768	0.158115
899.771968	0.157638
899.954151	0.157629
900.136315	0.157121
900.318461	0.156497
900.500588	0.156326
900.682698	0.156399
900.864789	0.155842
901.046862	0.156207
901.228917	0.156161
901.410953	0.156269
901.592971	0.156156
901.774972	0.156087
901.956953	0.155881
902.138917	0.155812
902.320862	0.155601
902.502790	0.155619
902.684699	0.154964
902.866589	0.154810
903.048462	0.154433
903.230316	0.154445
903.412152	0.154359
903.593970	0.154296
903.775770	0.154009
903.957551	0.154258
904.139314	0.153979
904.321059	0.153641
904.502786	0.153420
904.684494	0.153315
904.866185	0.152979
905.047857	0.152714
905.229510	0.152607
905.411146	0.152304
905.592763	0.151702
905.774363	0.151199
905.955943	0.150993
906.137506	0.150828
906.319051	0.150999
906.500577	0.150721
906.682085	0.150413
906.863575	0.150310
907.045046	0.150081
907.226500	0.149627
907.407935	0.149776
907.589352	0.149709
907.770750	0.149600
907.952131	0.149342
908.133493	0.149098
908.314837	0.148751
908.496163	0.148438
908.677470	0.148650
908.858760	0.148928
909.040031	0.149051
909.221284	0.149332
909.402518	0.148796
909.583735	0.148470
909.764933	0.148209
909.946113	0.147889
910.127275	0.147402
910.308418	0.147222
910.489544	0.147279
910.670651	0.146902
910.851740	0.146452
911.032810	0.146611
911.213863	0.146705
911.394897	0.146650
911.575913	0.146734
911.756911	0.146924
911.937890	0.146188
912.118851	0.145954
912.299794	0.145885
912.480719	0.145604
912.661626	0.145193
912.842514	0.144737
913.023384	0.144414
913.204236	0.144181
913.385070	0.143678
913.565886	0.143807
913.746683	0.143290
913.927462	0.142758
914.108223	0.142624
914.288965	0.142097
914.469690	0.141745
914.650396	0.141009
914.831084	0.140793
915.011754	0.140587
915.192405	0.139791
915.373038	0.139073
915.553653	0.138689
915.734250	0.138269
915.914829	0.138157
916.095389	0.137729
916.275931	0.138200
916.456455	0.137654
916.636961	0.137475
916.817448	0.137176
916.997917	0.136978
917.178368	0.136323
917.358801	0.135610
917.539216	0.135161
917.719612	0.134256
917.899990	0.133752
918.080350	0.133521
918.260692	0.133252
918.441015	0.132986
918.621320	0.132716
918.801607	0.132885
918.981876	0.132738
919.162127	0.132000
919.342359	0.132011
919.522573	0.131582
919.702769	0.131331
919.882947	0.130575
920.063106	0.130417
920.243247	0.130109
920.423370	0.129298
920.603475	0.129444
920.783562	0.129712
920.963630	0.129673
921.143680	0.129309
921.323712	0.128835
921.503725	0.128631
921.683721	0.128265
921.863698	0.128021
922.043657	0.127998
922.223598	0.126959
922.403520	0.126169
922.583424	0.125625
922.763311	0.124754
922.943178	0.124169
923.123028	0.123140
923.302859	0.122759
923.482673	0.121687
923.662467	0.121106
923.842244	0.120632
924.022003	0.120127
924.201743	0.119485
924.381465	0.118992
924.561169	0.118377
924.740854	0.118169
924.920522	0.117822
925.100171	0.117550
925.279802	0.116763
925.459414	0.116064
925.639009	0.115886
925.818585	0.115349
925.998143	0.115284
926.177683	0.114939
926.357205	0.114444
926.536708	0.113947
926.716193	0.113404
926.895660	0.113003
927.075109	0.112964
927.254539	0.112255
927.433951	0.111480
927.613345	0.111017
927.792721	0.110482
927.972079	0.109776
928.151418	0.108489
928.330739	0.107905
928.510042	0.107300
928.689327	0.106728
928.868593	0.105939
929.047841	0.105634
929.227071	0.104864
929.406283	0.104841
929.585476	0.105015
929.764652	0.104670
929.943809	0.104868
930.122948	0.104554
930.302068	0.103524
930.481171	0.103742
930.660255	0.103045
930.839321	0.102242
931.018369	0.101289
931.197398	0.100290
931.376409	0.099517
931.555402	0.098509
931.734377	0.098423
931.913334	0.097699
932.092272	0.096519
932.271192	0.096545
932.450094	0.095886
932.628978	0.094784
932.807844	0.094485
932.986691	0.094670
933.165520	0.094439
933.344331	0.093542
933.523123	0.093610
933.701898	0.092904
933.880654	0.092212
934.059392	0.091598
934.238111	0.092571
934.416813	0.092147
934.595496	0.091808
934.774161	0.090982
934.952808	0.090478
935.131437	0.089985
935.310047	0.090124
935.488639	0.089678
935.667213	0.090096
935.845769	0.089222
936.024306	0.088400
936.202825	0.087884
936.381326	0.087406
936.559809	0.086458
936.738274	0.085613
936.916720	0.085437
937.095148	0.084358
937.273558	0.084191
937.451950	0.082647
937.630323	0.081965
937.808678	0.080455
937.987015	0.079946
938.165334	0.079810
938.343635	0.078840
938.521917	0.077354
938.700181	0.076795
938.878427	0.075157
939.056655	0.075072
939.234864	0.073384
939.413055	0.073122
939.591228	0.072675
939.769383	0.072068
939.947519	0.071334
940.125638	0.070963
940.303738	0.070931
940.481820	0.070847
940.659883	0.070018
940.837929	0.070301
941.015956	0.070137
941.193965	0.069259
941.371955	0.068554
941.549928	0.068749
941.727882	0.067453
941.905818	0.066764
942.083736	0.066649
942.261636	0.066011
942.439517	0.066073
942.617380	0.065927
942.795225	0.065784
942.973052	0.064912
943.150860	0.064606
943.328651	0.064751
943.506423	0.065140
943.684176	0.063351
943.861912	0.063940
944.039629	0.063469
944.217328	0.063089
944.395009	0.062385
944.572672	0.062009
944.750317	0.062241
944.927943	0.062611
945.105551	0.060719
945.283141	0.060655
945.460712	0.059568
945.638265	0.058369
945.815801	0.057792
945.993317	0.057279
946.170816	0.057425
946.348297	0.056016
946.525759	0.054412
946.703203	0.054711
946.880629	0.054872
947.058036	0.054205
947.235425	0.053757
947.412797	0.052490
947.590149	0.051243
947.767484	0.051912
947.944800	0.052848
948.122099	0.053175
948.299379	0.051498
948.476640	0.050284
948.653884	0.049679
948.831109	0.049973
949.008316	0.048460
949.185505	0.048628
949.362676	0.046831
949.539828	0.047283
949.716962	0.045791
949.894078	0.046506
950.071176	0.046506
950.248256	0.046822
950.425317	0.045386
950.602360	0.045677
950.779385	0.046068
950.956391	0.046218
951.133380	0.044839
951.310350	0.044677
951.487302	0.044818
951.664235	0.044797
951.841151	0.043061
952.018048	0.044695
952.194927	0.044992
952.371788	0.043753
952.548631	0.042485
952.725455	0.040981
952.902261	0.040203
953.079049	0.039952
953.255819	0.039189
953.432570	0.040376
953.609303	0.039082
953.786018	0.039302
953.962715	0.038406
954.139394	0.039829
954.316054	0.039551
954.492696	0.041143
954.669320	0.040482
954.845926	0.040848
955.022513	0.040362
955.199083	0.041912
955.375634	0.042636
955.552166	0.044870
955.728681	0.044084
955.905177	0.045418
956.081655	0.045711
956.258115	0.045825
956.434557	0.049065
956.610980	0.048227
956.787385	0.047489
956.963772	0.047244
957.140141	0.046023
957.316492	0.046862
957.492824	0.045384
957.669138	0.044299
957.845434	0.045081
958.021712	0.041159
958.197971	0.041228
958.374212	0.040880
958.550435	0.039842
958.726640	0.040302
958.902826	0.040302
959.078995	0.040654
959.255145	0.041253
959.431277	0.040170
959.607390	0.038954
959.783486	0.037819
959.959563	0.039225
960.135622	0.037830
960.311662	0.036862
960.487685	0.036046
960.663689	0.036222
960.839675	0.036417
961.015643	0.037838
961.191593	0.039509
961.367524	0.041755
961.543437	0.039841
961.719332	0.042653
961.895209	0.043278
962.071067	0.042592
962.246907	0.044577
962.422730	0.044258
962.598533	0.041970
962.774319	0.040348
962.950086	0.037599
963.125835	0.036660
963.301566	0.035407
963.477279	0.035579
963.652973	0.037357
963.828650	0.035862
964.004308	0.036141
964.179947	0.036353
964.355569	0.036881
964.531172	0.039237
964.706757	0.040922
964.882324	0.041401
965.057873	0.042360
965.233403	0.038555
965.408916	0.039570
965.584410	0.040620
965.759885	0.043577
965.935343	0.045073
966.110782	0.044579
966.286203	0.044832
966.461606	0.047042
966.636991	0.048032
966.812357	0.051172
966.987705	0.050139
967.163035	0.049408
967.338347	0.047417
967.513641	0.048144
967.688916	0.048798
967.864173	0.048945
968.039412	0.046929
968.214632	0.045815
968.389835	0.045578
968.565019	0.045214
968.740185	0.044998
968.915333	0.046387
969.090462	0.044651
969.265573	0.044849
969.440667	0.046052
969.615741	0.045584
969.790798	0.044446
969.965836	0.043896
970.140856	0.043967
970.315858	0.044154
970.490842	0.045248
970.665808	0.047479
970.840755	0.047591
971.015684	0.046593
971.190595	0.046962
971.365487	0.047706
971.540362	0.048424
971.715218	0.048655
971.890056	0.050192
972.064875	0.047562
972.239677	0.046569
972.414460	0.047089
972.589225	0.047134
972.763972	0.048422
972.938700	0.050278
973.113411	0.050074
973.288103	0.050725
973.462777	0.049642
973.637432	0.049462
973.812070	0.049725
973.986689	0.048149
974.161290	0.047450
974.335873	0.045538
974.510437	0.046542
974.684984	0.045601
974.859512	0.044693
975.034022	0.044676
975.208513	0.046937
975.382987	0.046022
975.557442	0.045181
975.731879	0.045294
975.906298	0.048791
976.080698	0.045135
976.255080	0.045888
976.429445	0.046255
976.603790	0.046343
976.778118	0.044683
976.952427	0.045606
977.126719	0.048894
977.300992	0.048553
977.475246	0.046710
977.649483	0.046408
977.823701	0.046305
977.997901	0.046897
978.172083	0.045331
978.346247	0.043844
978.520392	0.044064
978.694519	0.043028
978.868628	0.043518
979.042719	0.044177
979.216791	0.045599
979.390845	0.045593
979.564882	0.044987
979.738899	0.046854
979.912899	0.049441
980.086880	0.047867
980.260843	0.046853
980.434788	0.046342
980.608715	0.044959
980.782623	0.045718
980.956514	0.045893
981.130386	0.047536
981.304240	0.046193
981.478075	0.043389
981.651892	0.044232
981.825692	0.042703
981.999472	0.042177
982.173235	0.041875
982.346980	0.039950
982.520706	0.039704
982.694414	0.038376
982.868104	0.037630
983.041775	0.040965
983.215428	0.041397
983.389064	0.045311
983.562680	0.046123
983.736279	0.046026
983.909860	0.046361
984.083422	0.044799
984.256966	0.044216
984.430491	0.046611
984.603999	0.045586
984.777488	0.044992
984.950959	0.042965
985.124412	0.042646
985.297847	0.041064
985.471263	0.041386
985.644661	0.043315
985.818041	0.042841
985.991403	0.043207
986.164747	0.044642
986.338072	0.043615
986.511379	0.043846
986.684668	0.044510
986.857938	0.046315
987.031191	0.046041
987.204425	0.045543
987.377641	0.046055
987.550839	0.043038
987.724018	0.040913
987.897179	0.040786
988.070322	0.040769
988.243447	0.040677
988.416554	0.040397
988.589642	0.041108
988.762712	0.039811
988.935764	0.040046
989.108798	0.040421
989.281813	0.040062
989.454811	0.041250
989.627790	0.041074
989.800751	0.040687
989.973693	0.041949
990.146617	0.041767
990.319524	0.042799
990.492412	0.042591
990.665281	0.044446
990.838133	0.044837
991.010966	0.043611
991.183781	0.044239
991.356578	0.044125
991.529356	0.044621
991.702117	0.044016
991.874859	0.043905
992.047583	0.044106
992.220288	0.043644
992.392976	0.041022
992.565645	0.041507
992.738296	0.041516
992.910929	0.040563
993.083543	0.038794
993.256139	0.038422
993.428718	0.039888
993.601277	0.038591
993.773819	0.037541
993.946342	0.040387
994.118848	0.041109
994.291335	0.041254
994.463803	0.043957
994.636254	0.044650
994.808686	0.044720
994.981100	0.043565
995.153496	0.046015
995.325874	0.045326
995.498233	0.045964
995.670574	0.044567
995.842897	0.045155
996.015202	0.043146
996.187488	0.042792
996.359757	0.042181
996.532007	0.041581
996.704239	0.040334
996.876452	0.042237
997.048648	0.042748
997.220825	0.044223
997.392984	0.043837
997.565124	0.043687
997.737247	0.044019
997.909351	0.045456
998.081437	0.046112
998.253505	0.045473
998.425554	0.043737
998.597586	0.042327
998.769599	0.042028
998.941594	0.039772
999.113571	0.040189
999.285529	0.039223
999.457469	0.038358
999.629391	0.038346
999.801295	0.038160
999.973181	0.039148
1000.145048	0.038919
1000.316897	0.038835
1000.488728	0.040419
1000.660541	0.041035
1000.832335	0.041923
1001.004111	0.042175
1001.175869	0.040930
1001.347609	0.042120
1001.519331	0.040813
1001.691034	0.040942
1001.862719	0.040428
1002.034386	0.039135
1002.206035	0.037446
1002.377665	0.036052
1002.549277	0.035118
1002.720871	0.037795
1002.892447	0.035771
1003.064004	0.037121
1003.235544	0.037287
1003.407065	0.037842
1003.578568	0.038409
1003.750052	0.039391
1003.921519	0.040736
1004.092967	0.044417
1004.264397	0.043572
1004.435809	0.045494
1004.607202	0.044498
1004.778577	0.043506
1004.949934	0.044071
1005.121273	0.044647
1005.292594	0.044781
1005.463896	0.045319
1005.635180	0.043001
1005.806446	0.042989
1005.977694	0.042682
1006.148923	0.044868
1006.320135	0.046875
1006.491328	0.046552
1006.662503	0.045551
1006.833659	0.044871
1007.004798	0.043071
1007.175918	0.042469
1007.347020	0.042454
1007.518103	0.042289
1007.689169	0.041253
1007.860216	0.040983
1008.031245	0.040317
1008.202256	0.040005
1008.373248	0.041094
1008.544223	0.042857
1008.715179	0.045293
1008.886117	0.043399
1009.057036	0.042511
1009.227938	0.042388
1009.398821	0.041267
1009.569686	0.040860
1009.740533	0.041731
1009.911361	0.040349
1010.082172	0.038594
1010.252964	0.037615
1010.423738	0.037592
1010.594493	0.039262
1010.765231	0.039531
1010.935950	0.039503
1011.106651	0.040496
1011.277334	0.040412
1011.447998	0.041183
1011.618645	0.039403
1011.789273	0.038103
1011.959882	0.038280
1012.130474	0.036457
1012.301048	0.035584
1012.471603	0.034659
1012.642140	0.034158
1012.812658	0.033547
1012.983159	0.032134
1013.153641	0.033952
1013.324105	0.035455
1013.494551	0.036375
1013.664979	0.036676
1013.835388	0.036347
1014.005779	0.035154
1014.176152	0.035917
1014.346507	0.035213
1014.516843	0.036692
1014.687162	0.036334
1014.857462	0.035625
1015.027744	0.035706
1015.198007	0.036872
1015.368252	0.038388
1015.538480	0.041973
1015.708689	0.040857
1015.878879	0.040802
1016.049052	0.040756
1016.219206	0.041130
1016.389342	0.039514
1016.559460	0.039703
1016.729559	0.037826
1016.899641	0.038329
1017.069704	0.036773
1017.239749	0.037631
1017.409775	0.037825
1017.579784	0.037668
1017.749774	0.036868
1017.919746	0.037035
1018.089700	0.037060
1018.259635	0.039447
1018.429553	0.035479
1018.599452	0.035729
1018.769333	0.036081
1018.939195	0.035430
1019.109040	0.034485
1019.278866	0.034995
1019.448674	0.035777
1019.618464	0.033954
1019.788235	0.034140
1019.957989	0.037530
1020.127724	0.036357
1020.297441	0.037094
1020.467139	0.039599
1020.636820	0.039257
1020.806482	0.040603
1020.976126	0.040909
1021.145752	0.041065
1021.315359	0.039380
1021.484948	0.038939
1021.654519	0.039513
1021.824072	0.039301
1021.993607	0.037549
1022.163123	0.039497
1022.332621	0.039195
1022.502101	0.038340
1022.671563	0.038406
1022.841007	0.037864
1023.010432	0.037295
1023.179839	0.036593
1023.349228	0.035225
1023.518598	0.036124
1023.687951	0.035601
1023.857285	0.034809
1024.026601	0.034652
1024.195899	0.035525
1024.365178	0.035368
1024.534439	0.035288
1024.703682	0.035834
1024.872907	0.035139
1025.042114	0.035836
1025.211302	0.036211
1025.380472	0.036976
1025.549624	0.038224
1025.718758	0.037306
1025.887873	0.038845
1026.056970	0.039378
1026.226049	0.039527
1026.395110	0.039283
1026.564153	0.038019
1026.733177	0.035896
1026.902183	0.036389
1027.071171	0.034654
1027.240141	0.034396
1027.409092	0.033157
1027.578026	0.032637
1027.746940	0.032064
1027.915837	0.033303
1028.084716	0.032885
1028.253576	0.033781
1028.422418	0.032657
1028.591242	0.032787
1028.760048	0.033338
1028.928835	0.031923
1029.097604	0.033089
1029.266355	0.034313
1029.435088	0.033044
1029.603803	0.034528
1029.772499	0.036326
1029.941177	0.036745
1030.109837	0.036159
1030.278478	0.037048
1030.447102	0.038026
1030.615707	0.037919
1030.784294	0.036952
1030.952863	0.037738
1031.121413	0.036902
1031.289945	0.034583
1031.458460	0.033389
1031.626955	0.033857
1031.795433	0.032601
1031.963892	0.033397
1032.132334	0.032871
1032.300756	0.032626
1032.469161	0.032478
1032.637548	0.031102
1032.805916	0.031674
1032.974266	0.033355
1033.142598	0.034086
1033.310911	0.035520
1033.479207	0.035998
1033.647484	0.034512
1033.815743	0.034285
1033.983983	0.033409
1034.152206	0.035954
1034.320410	0.037858
1034.488596	0.036379
1034.656764	0.037351
1034.824914	0.036683
1034.993045	0.036783
1035.161158	0.037355
1035.329253	0.040198
1035.497330	0.040246
1035.665388	0.039136
1035.833428	0.037561
1036.001450	0.037597
1036.169454	0.035737
1036.337440	0.036605
1036.505407	0.035368
1036.673356	0.036407
1036.841287	0.033566
1037.009200	0.035904
1037.177094	0.035957
1037.344970	0.035710
1037.512828	0.036212
1037.680668	0.036535
1037.848489	0.035097
1038.016293	0.034875
1038.184078	0.034815
1038.351845	0.034444
1038.519593	0.033051
1038.687324	0.033594
1038.855036	0.031880
1039.022730	0.033691
1039.190406	0.033340
1039.358063	0.034149
1039.525702	0.034558
1039.693323	0.033621
1039.860926	0.035162
1040.028511	0.035132
1040.196077	0.033546
1040.363625	0.035466
1040.531155	0.033915
1040.698667	0.035057
1040.866161	0.033200
1041.033636	0.033447
1041.201093	0.034467
1041.368532	0.034145
1041.535952	0.033619
1041.703355	0.034804
1041.870739	0.035667
1042.038105	0.036367
1042.205452	0.036366
1042.372782	0.037069
1042.540093	0.037453
1042.707386	0.036914
1042.874661	0.036654
1043.041918	0.037928
1043.209156	0.035920
1043.376376	0.035333
1043.543578	0.034631
1043.710762	0.035079
1043.877927	0.034079
1044.045074	0.033093
1044.212203	0.032077
1044.379314	0.031511
1044.546407	0.030933
1044.713481	0.031603
1044.880537	0.031751
1045.047575	0.030583
1045.214595	0.029309
1045.381596	0.031824
1045.548579	0.033259
1045.715544	0.033972
1045.882491	0.034181
1046.049420	0.033066
1046.216330	0.034258
1046.383222	0.032854
1046.550096	0.035638
1046.716951	0.037977
1046.883789	0.037398
1047.050608	0.035728
1047.217409	0.033950
1047.384192	0.035402
1047.550956	0.035327
1047.717703	0.035266
1047.884431	0.036408
1048.051140	0.034028
1048.217832	0.031922
1048.384505	0.032790
1048.551161	0.033260
1048.717798	0.036625
1048.884416	0.034620
1049.051017	0.037407
1049.217599	0.035412
1049.384163	0.033743
1049.550709	0.035260
1049.717237	0.036820
1049.883746	0.034745
1050.050237	0.034361
1050.216710	0.032897
1050.383165	0.035150
1050.549601	0.033331
1050.716019	0.033772
1050.882420	0.036484
1051.048801	0.036538
1051.215165	0.035023
1051.381510	0.036989
1051.547837	0.038600
1051.714146	0.039305
1051.880437	0.038139
1052.046709	0.038362
1052.212964	0.039641
1052.379200	0.038934
1052.545417	0.037473
1052.711617	0.037477
1052.877798	0.035936
1053.043961	0.034870
1053.210106	0.034821
1053.376233	0.032905
1053.542341	0.032379
1053.708432	0.031525
1053.874504	0.031029
1054.040557	0.030446
1054.206593	0.031377
1054.372610	0.032404
1054.538609	0.032817
1054.704590	0.032575
1054.870553	0.033753
1055.036497	0.035242
1055.202424	0.035876
1055.368331	0.034897
1055.534221	0.034828
1055.700093	0.033458
1055.865946	0.031665
1056.031781	0.032707
1056.197598	0.031625
1056.363397	0.032610
1056.529177	0.030589
1056.694939	0.030677
1056.860683	0.031490
1057.026409	0.031657
1057.192116	0.032362
1057.357806	0.033808
1057.523477	0.033141
1057.689130	0.032926
1057.854764	0.031908
1058.020381	0.033161
1058.185979	0.034442
1058.351559	0.033352
1058.517120	0.033739
1058.682664	0.033035
1058.848189	0.033530
1059.013696	0.033060
1059.179185	0.034946
1059.344656	0.035160
1059.510108	0.034155
1059.675542	0.033001
1059.840958	0.033290
1060.006356	0.032876
1060.171735	0.034257
1060.337096	0.032146
1060.502439	0.031608
1060.667764	0.029025
1060.833071	0.028916
1060.998359	0.029676
1061.163629	0.030093
1061.328881	0.030438
1061.494115	0.030342
1061.659330	0.031238
1061.824527	0.031283
1061.989706	0.030667
1062.154867	0.031568
1062.320010	0.030506
1062.485134	0.029189
1062.650240	0.027252
1062.815328	0.028229
1062.980398	0.030717
1063.145449	0.029224
1063.310482	0.029694
1063.475497	0.030234
1063.640494	0.031635
1063.805473	0.033381
1063.970433	0.032876
1064.135375	0.034524
1064.300299	0.034276
1064.465204	0.030791
1064.630092	0.031379
1064.794961	0.032300
1064.959812	0.032031
1065.124645	0.030959
1065.289459	0.030470
1065.454256	0.032055
1065.619034	0.032457
1065.783793	0.031465
1065.948535	0.033792
1066.113258	0.033971
1066.277964	0.034784
1066.442651	0.035547
1066.607319	0.035953
1066.771970	0.035726
1066.936602	0.035781
1067.101216	0.035887
1067.265812	0.038455
1067.430389	0.038703
1067.594949	0.036711
1067.759490	0.035952
1067.924013	0.035728
1068.088518	0.035419
1068.253004	0.034894
1068.417472	0.034201
1068.581922	0.031980
1068.746354	0.029964
1068.910768	0.028919
1069.075163	0.030128
1069.239540	0.030833
1069.403899	0.031406
1069.568240	0.032233
1069.732562	0.033882
1069.896866	0.034465
1070.061152	0.036383
1070.225420	0.037348
1070.389670	0.038581
1070.553901	0.039168
1070.718114	0.038766
1070.882309	0.038413
1071.046486	0.035738
1071.210644	0.036513
1071.374784	0.035947
1071.538906	0.036845
1071.703010	0.034373
1071.867096	0.033284
1072.031163	0.032458
1072.195212	0.033777
1072.359243	0.034892
1072.523256	0.036831
1072.687250	0.035643
1072.851226	0.037642
1073.015184	0.034756
1073.179124	0.037038
1073.343045	0.035799
1073.506949	0.034675
1073.670834	0.032767
1073.834701	0.032863
1073.998549	0.032528
1074.162380	0.032783
1074.326192	0.030052
1074.489986	0.031610
1074.653761	0.033394
1074.817519	0.035030
1074.981258	0.035788
1075.144979	0.033751
1075.308682	0.031210
1075.472367	0.029288
1075.636033	0.026406
1075.799681	0.027782
1075.963311	0.027267
1076.126923	0.025565
1076.290516	0.025270
1076.454092	0.024972
1076.617649	0.028048
1076.781187	0.028082
1076.944708	0.029483
1077.108210	0.031011
1077.271695	0.032970
1077.435160	0.032661
1077.598608	0.032530
1077.762038	0.031581
1077.925449	0.031105
1078.088842	0.028594
1078.252217	0.029897
1078.415573	0.031700
1078.578912	0.033667
1078.742232	0.031505
1078.905534	0.031376
1079.068817	0.030305
1079.232083	0.032848
1079.395330	0.036815
1079.558559	0.038188
1079.721770	0.038835
1079.884962	0.039667
1080.048136	0.040260
1080.211293	0.043620
1080.374430	0.044897
1080.537550	0.045671
1080.700651	0.043810
1080.863735	0.039846
1081.026800	0.040322
1081.189846	0.038838
1081.352875	0.034679
1081.515885	0.033433
1081.678877	0.029065
1081.841851	0.028564
1082.004807	0.029231
1082.167744	0.029077
1082.330663	0.029800
1082.493564	0.030887
1082.656447	0.033252
1082.819312	0.035709
1082.982158	0.038019
1083.144986	0.039400
1083.307796	0.038525
1083.470587	0.038077
1083.633361	0.037759
1083.796116	0.038983
1083.958853	0.036726
1084.121571	0.035224
1084.284272	0.035924
1084.446954	0.033527
1084.609618	0.033029
1084.772264	0.034777
1084.934892	0.035582
1085.097501	0.034611
1085.260092	0.034520
1085.422665	0.033316
1085.585220	0.033354
1085.747756	0.034700
1085.910274	0.034298
1086.072774	0.035470
1086.235256	0.036676
1086.397720	0.035165
1086.560165	0.035021
1086.722592	0.031006
1086.885001	0.031287
1087.047392	0.030290
1087.209764	0.031246
1087.372119	0.031177
1087.534455	0.030130
1087.696772	0.028946
1087.859072	0.030725
1088.021353	0.033099
1088.183616	0.035979
1088.345861	0.038096
1088.508088	0.037918
1088.670296	0.036178
1088.832486	0.038383
1088.994658	0.039779
1089.156812	0.037449
1089.318948	0.035672
1089.481065	0.032768
1089.643164	0.032683
1089.805245	0.032372
1089.967308	0.032537
1090.129352	0.030493
1090.291378	0.026447
1090.453386	0.022840
1090.615376	0.024541
1090.777347	0.025839
1090.939301	0.029258
1091.101236	0.027103
1091.263153	0.031350
1091.425051	0.036240
1091.586932	0.036377
1091.748794	0.040855
1091.910638	0.044172
1092.072463	0.045621
1092.234271	0.042376
1092.396060	0.041397
1092.557831	0.042622
1092.719584	0.038871
1092.881319	0.032888
1093.043035	0.031032
1093.204733	0.027183
1093.366413	0.027902
1093.528075	0.026022
1093.689718	0.027890
1093.851343	0.026845
1094.012950	0.026822
1094.174539	0.023636
1094.336110	0.028434
1094.497662	0.028264
1094.659196	0.030579
1094.820712	0.028034
1094.982210	0.025345
1095.143689	0.023793
1095.305151	0.023806
1095.466594	0.023929
1095.628018	0.027220
1095.789425	0.023913
1095.950813	0.025843
1096.112183	0.025164
1096.273535	0.028665
1096.434869	0.035047
1096.596184	0.038923
1096.757482	0.039445
1096.918761	0.039270
1097.080021	0.037661
1097.241264	0.036580
1097.402488	0.037026
1097.563694	0.034859
1097.724882	0.032026
1097.886052	0.029480
1098.047203	0.024899
1098.208336	0.027405
1098.369451	0.025647
1098.530548	0.025079
1098.691627	0.023219
1098.852687	0.022742
1099.013729	0.024628
1099.174753	0.023436
1099.335758	0.024200
1099.496746	0.025091
1099.657715	0.021989
1099.818666	0.024812
1099.979599	0.026935
1100.140513	0.029093
1100.301409	0.030668
1100.462287	0.034036
1100.623147	0.036030
1100.783989	0.030901
1100.944812	0.030837
1101.105617	0.034960
1101.266404	0.035349
1101.427173	0.033730
1101.587923	0.029499
1101.748656	0.026462
1101.909370	0.020684
1102.070066	0.020498
1102.230743	0.025609
1102.391403	0.028959
1102.552044	0.027818
1102.712667	0.027040
1102.873271	0.030115
1103.033858	0.036876
1103.194426	0.039104
1103.354976	0.040174
1103.515508	0.038030
1103.676021	0.036034
1103.836517	0.033119
1103.996994	0.029037
1104.157453	0.028905
1104.317893	0.029373
1104.478316	0.026364
1104.638720	0.022953
1104.799106	0.022329
1104.959474	0.025122
1105.119823	0.027352
1105.280155	0.030456
1105.440468	0.032692
1105.600763	0.034021
1105.761039	0.032324
1105.921298	0.032522
1106.081538	0.038655
1106.241760	0.035614
1106.401964	0.032585
1106.562149	0.031124
1106.722316	0.027772
1106.882465	0.026199
1107.042596	0.028298
1107.202709	0.029794
1107.362803	0.032258
1107.522879	0.027797
1107.682937	0.027585
1107.842977	0.028525
1108.002999	0.028543
1108.163002	0.029787
1108.322987	0.029535
1108.482954	0.027876
1108.642902	0.026825
1108.802833	0.027429
1108.962745	0.033688
1109.122639	0.039509
1109.282515	0.036971
1109.442372	0.036545
1109.602211	0.034378
1109.762032	0.034805
1109.921835	0.030953
1110.081620	0.035148
1110.241386	0.028754
1110.401134	0.021307
1110.560864	0.021615
1110.720576	0.027691
1110.880269	0.029630
1111.039945	0.029313
1111.199602	0.031764
1111.359240	0.038709
1111.518861	0.032717
1111.678463	0.037649
1111.838047	0.036686
1111.997613	0.041164
1112.157161	0.041516
1112.316690	0.037108
1112.476202	0.040666
1112.635695	0.038203
1112.795169	0.033567
1112.954626	0.031600
1113.114064	0.032324
1113.273484	0.038703
1113.432886	0.032032
1113.592270	0.026882
1113.751635	0.031222
1113.910983	0.032278
1114.070312	0.038400
1114.229622	0.034785
1114.388915	0.033689
1114.548189	0.033954
1114.707445	0.031589
1114.866683	0.032255
1115.025903	0.034514
1115.185104	0.034033
1115.344287	0.032364
1115.503452	0.028635
1115.662599	0.033225
1115.821727	0.036129
1115.980838	0.035197
1116.139930	0.034806
1116.299004	0.034575
1116.458059	0.031713
1116.617097	0.029820
1116.776116	0.030947
1116.935117	0.031832
1117.094099	0.029147
1117.253064	0.027427
1117.412010	0.033131
1117.570938	0.035585
1117.729848	0.035123
1117.888740	0.038155
1118.047613	0.039562
1118.206468	0.038167
1118.365305	0.042255
1118.524124	0.042380
1118.682924	0.043719
1118.841707	0.041380
1119.000471	0.036656
1119.159216	0.043559
1119.317944	0.046209
1119.476653	0.045446
1119.635344	0.044698
1119.794017	0.039971
1119.952672	0.042843
1120.111308	0.040182
1120.269927	0.034663
1120.428527	0.039176
1120.587108	0.032895
1120.745672	0.031270
1120.904217	0.029904
1121.062744	0.034239
1121.221253	0.029462
1121.379744	0.022485
1121.538216	0.018791
1121.696671	0.017161
1121.855107	0.014504
1122.013524	0.012389
1122.171924	0.007572
1122.330305	0.006528
1122.488668	0.002060
1122.647013	0.007360
1122.805340	0.016064
1122.963648	0.025122
1123.121938	0.028896
1123.280210	0.032918
1123.438464	0.033475
1123.596700	0.036374
1123.754917	0.041886
1123.913116	0.043375
1124.071297	0.038199
1124.229459	0.040456
1124.387604	0.039190
1124.545730	0.040928
1124.703838	0.038849
1124.861928	0.037098
1125.019999	0.035554
1125.178052	0.029276
1125.336088	0.026652
1125.494104	0.027634
1125.652103	0.029538
1125.810083	0.032194
1125.968045	0.028424
1126.125989	0.026414
1126.283915	0.029820
1126.441823	0.026586
1126.599712	0.027777
1126.757583	0.032737
1126.915436	0.026719
1127.073270	0.016104
1127.231087	0.014998
1127.388885	0.015199
1127.546665	0.013393
1127.704426	0.008286
1127.862170	0.015472
1128.019895	0.018417
1128.177602	0.013107
1128.335291	0.018551
1128.492961	0.028159
1128.650614	0.025158
1128.808248	0.027788
1128.965864	0.034006
1129.123461	0.036763
1129.281041	0.030379
1129.438602	0.027594
1129.596145	0.029071
1129.753670	0.036356
1129.911176	0.035339
1130.068665	0.038316
1130.226135	0.038018
1130.383587	0.038064
1130.541020	0.037271
1130.698436	0.040908
1130.855833	0.038113
1131.013212	0.041083
1131.170573	0.030365
1131.327915	0.023095
1131.485239	0.022592
1131.642545	0.025275
1131.799833	0.024411
1131.957103	0.025266
1132.114354	0.028073
1132.271588	0.028405
1132.428803	0.025091
1132.585999	0.030761
1132.743178	0.036285
1132.900338	0.033277
1133.057480	0.030071
1133.214604	0.028878
1133.371710	0.033095
1133.528797	0.032102
1133.685866	0.036187
1133.842917	0.038668
1133.999950	0.031826
1134.156964	0.031328
1134.313960	0.038038
1134.470938	0.034037
1134.627898	0.027501
1134.784840	0.033493
1134.941763	0.039362
1135.098668	0.035300
1135.255555	0.031990
1135.412424	0.042550
1135.569274	0.044993
1135.726107	0.039699
1135.882921	0.045508
1136.039716	0.045424
1136.196494	0.037738
1136.353253	0.029763
1136.509995	0.031606
1136.666717	0.035396
1136.823422	0.032740
1136.980109	0.029877
1137.136777	0.034410
1137.293427	0.032595
1137.450059	0.042749
1137.606672	0.039904
1137.763267	0.040252
1137.919844	0.042965
1138.076403	0.049214
1138.232944	0.047250
1138.389466	0.048605
1138.545971	0.045717
1138.702457	0.041661
1138.858924	0.038681
1139.015374	0.045436
1139.171805	0.046648
1139.328218	0.046938
1139.484613	0.041434
1139.640990	0.040462
1139.797348	0.035693
1139.953688	0.035440
1140.110010	0.041590
1140.266314	0.046317
1140.422600	0.050376
1140.578867	0.054267
1140.735116	0.059301
1140.891347	0.060804
1141.047559	0.066467
1141.203754	0.068453
1141.359930	0.067014
1141.516088	0.070541
1141.672228	0.058944
1141.828349	0.039130
1141.984452	0.045942
1142.140537	0.036172
1142.296604	0.034575
1142.452653	0.023015
1142.608683	0.027419
1142.764695	0.025597
1142.920689	0.020438
1143.076665	0.023782
1143.232622	0.033597
1143.388562	0.024424
1143.544483	0.028101
1143.700385	0.031400
1143.856270	0.045004
1144.012136	0.039210
1144.167985	0.039410
1144.323814	0.039456
1144.479626	0.036472
1144.635420	0.035686
1144.791195	0.041398
1144.946952	0.041766
1145.102691	0.038880
1145.258411	0.032977
1145.414113	0.034584
1145.569798	0.039265
1145.725463	0.056318
1145.881111	0.056711
1146.036741	0.055153
1146.192352	0.045355
1146.347945	0.041433
1146.503519	0.042851
1146.659076	0.041324
1146.814614	0.047887
1146.970134	0.045492
1147.125636	0.021435
1147.281120	0.012283
1147.436585	0.024663
1147.592032	0.030903
1147.747461	0.037868
1147.902872	0.035621
1148.058265	0.043309
1148.213639	0.042311
1148.368995	0.040762
1148.524333	0.052532
1148.679653	0.071839
1148.834954	0.068157
1148.990237	0.066870
1149.145502	0.060818
1149.300749	0.053447
1149.455977	0.047543
1149.611188	0.037243
1149.766380	0.045107
1149.921553	0.048557
1150.076709	0.033803
1150.231846	0.025585
1150.386966	0.027968
1150.542066	0.032730
1150.697149	0.034393
1150.852214	0.032365
1151.007260	0.032180
1151.162288	0.021222
1151.317298	0.023842
1151.472289	0.040620
1151.627263	0.034137
1151.782218	0.029047
1151.937155	0.024443
1152.092073	0.039904
1152.246974	0.047653
1152.401856	0.050785
1152.556720	0.053870
1152.711566	0.038214
1152.866393	0.035879
1153.021203	0.056284
1153.175994	0.051050
1153.330767	0.067358
1153.485521	0.043609
1153.640258	0.032846
1153.794976	0.027293
1153.949676	0.036286
1154.104358	0.036000
1154.259021	0.045481
1154.413667	0.034378
1154.568294	0.030144
1154.722903	0.015670
1154.877493	0.021617
1155.032066	0.015504
1155.186620	0.025304
1155.341156	0.027951
1155.495674	0.045591
1155.650173	0.028222
1155.804654	0.026395
1155.959118	0.037559
1156.113562	0.048112
1156.267989	0.055287
1156.422397	0.063679
1156.576788	0.060971
1156.731160	0.062173
1156.885513	0.056315
1157.039849	0.074798
1157.194166	0.088053
1157.348465	0.094855
1157.502746	0.081938
1157.657009	0.081573
1157.811253	0.092527
1157.965479	0.092405
1158.119687	0.081605
1158.273877	0.084694
1158.428048	0.066376
1158.582201	0.058986
1158.736337	0.057714
1158.890453	0.061440
1159.044552	0.066549
1159.198632	0.074272
1159.352694	0.074713
1159.506738	0.063249
1159.660764	0.046076
1159.814771	0.042257
1159.968761	0.044090
1160.122732	0.023086
1160.276685	0.023338
1160.430619	0.019868
1160.584535	0.014247
1160.738434	0.027120
1160.892313	0.026254
1161.046175	0.045316
1161.200019	0.058025
1161.353844	0.048801
1161.507651	0.044201
1161.661440	0.052100
1161.815210	0.051292
1161.968962	0.056590
1162.122697	0.061466
1162.276412	0.069432
1162.430110	0.049193
1162.583789	0.030475
1162.737451	0.038866
1162.891094	0.066690
1163.044718	0.062135
1163.198325	0.041546
1163.351913	0.040149
1163.505483	0.027165
1163.659035	0.034379
1163.812569	0.031047
1163.966084	0.052914
1164.119581	0.052900
1164.273060	0.027221
1164.426521	0.010550
1164.579964	0.023615
1164.733388	0.027865
1164.886794	0.018408
1165.040182	-0.002108
1165.193551	-0.007410
1165.346903	-0.007820
1165.500236	-0.028872
1165.653551	-0.017525
1165.806848	-0.009546
1165.960126	-0.005679
1166.113386	-0.020873
1166.266628	-0.009328
1166.419852	0.015292
1166.573058	0.036430
1166.726245	0.037172
1166.879414	0.061472
1167.032565	0.071824
1167.185698	0.064976
1167.338812	0.064989
1167.491909	0.084658
1167.644987	0.067451
1167.798046	0.074456
1167.951088	0.056025
1168.104111	0.040531
1168.257117	0.040650
1168.410103	0.023178
1168.563072	0.043356
1168.716023	0.046079
1168.868955	0.030373
1169.021869	0.034098
1169.174765	0.014579
1169.327642	0.021309
1169.480501	0.024641
1169.633343	0.027536
1169.786165	0.040016
1169.938970	0.039066
1170.091757	0.014641
1170.244525	0.016769
1170.397275	0.033709
1170.550007	0.050281
1170.702720	0.038346
1170.855415	0.045186
1171.008092	0.066160
1171.160751	0.094385
1171.313392	0.110256
1171.466014	0.107283
1171.618619	0.306517
1171.771205	0.306517
1171.923772	0.306517
