sample name	sample
index	861
start time	 04-08-2021  12:29:01 PM


Wavelength (nm)	Absorbance
494.344910	-0.050411
494.563924	-0.050411
494.782919	-0.050411
495.001897	0.021981
495.220856	-0.013229
495.439797	-0.000505
495.658719	0.014487
495.877624	0.019056
496.096510	0.022236
496.315378	0.027519
496.534227	0.032867
496.753059	0.037814
496.971872	0.033468
497.190667	0.085028
497.409444	0.110700
497.628203	0.119356
497.846943	0.126640
498.065665	0.129138
498.284369	0.132828
498.503055	0.134290
498.721723	0.136121
498.940372	0.137893
499.159003	0.138849
499.377616	0.139093
499.596210	0.139363
499.814787	0.139576
500.033345	0.140099
500.251885	0.140310
500.470406	0.139525
500.688910	0.139825
500.907395	0.139500
501.125862	0.139346
501.344311	0.139825
501.562742	0.140721
501.781154	0.141862
501.999548	0.141692
502.217924	0.141765
502.436282	0.143269
502.654621	0.142564
502.872942	0.143030
503.091245	0.143922
503.309530	0.143969
503.527797	0.144511
503.746045	0.144215
503.964275	0.145843
504.182487	0.145154
504.400681	0.145565
504.618856	0.146358
504.837013	0.147065
505.055152	0.146127
505.273273	0.146681
505.491376	0.146511
505.709460	0.146155
505.927526	0.146227
506.145574	0.147003
506.363604	0.146737
506.581615	0.146602
506.799608	0.147009
507.017583	0.147261
507.235540	0.147030
507.453478	0.146779
507.671399	0.146572
507.889301	0.146965
508.107185	0.148306
508.325050	0.148078
508.542898	0.148570
508.760727	0.148492
508.978538	0.149260
509.196330	0.150080
509.414105	0.150378
509.631861	0.151623
509.849599	0.151317
510.067319	0.150540
510.285021	0.150701
510.502704	0.151636
510.720369	0.152588
510.938016	0.153472
511.155645	0.153232
511.373255	0.154143
511.590848	0.154050
511.808422	0.154924
512.025977	0.155046
512.243515	0.155813
512.461034	0.155780
512.678536	0.154928
512.896018	0.154787
513.113483	0.155495
513.330930	0.155408
513.548358	0.155865
513.765768	0.155531
513.983160	0.156247
514.200533	0.156238
514.417889	0.155930
514.635226	0.156790
514.852545	0.156944
515.069845	0.156821
515.287128	0.157184
515.504392	0.157164
515.721638	0.157336
515.938866	0.157777
516.156075	0.157446
516.373267	0.158670
516.590440	0.158769
516.807594	0.159723
517.024731	0.160022
517.241850	0.160307
517.458950	0.160439
517.676032	0.160735
517.893095	0.160251
518.110141	0.161281
518.327168	0.160939
518.544177	0.160911
518.761168	0.160279
518.978141	0.160525
519.195095	0.160223
519.412031	0.160618
519.628949	0.161191
519.845849	0.162446
520.062731	0.162538
520.279594	0.163311
520.496439	0.165172
520.713266	0.166179
520.930074	0.166645
521.146865	0.167373
521.363637	0.167862
521.580391	0.168479
521.797127	0.168368
522.013844	0.168916
522.230543	0.168939
522.447224	0.168493
522.663887	0.168256
522.880532	0.168605
523.097158	0.168564
523.313766	0.169563
523.530356	0.169657
523.746928	0.169969
523.963481	0.170146
524.180017	0.169896
524.396534	0.169470
524.613032	0.169821
524.829513	0.170019
525.045975	0.170870
525.262420	0.170406
525.478845	0.169665
525.695253	0.170435
525.911643	0.171219
526.128014	0.171912
526.344367	0.172502
526.560702	0.172842
526.777018	0.172977
526.993316	0.172472
527.209597	0.173092
527.425858	0.174194
527.642102	0.174052
527.858328	0.173834
528.074535	0.174091
528.290724	0.174786
528.506894	0.175643
528.723047	0.176078
528.939181	0.177100
529.155297	0.177790
529.371395	0.178470
529.587475	0.179036
529.803536	0.179521
530.019579	0.180612
530.235604	0.180576
530.451611	0.180481
530.667600	0.181221
530.883570	0.180870
531.099522	0.180876
531.315456	0.180535
531.531372	0.180829
531.747269	0.181533
531.963148	0.181563
532.179009	0.181904
532.394852	0.182620
532.610676	0.182965
532.826482	0.184253
533.042271	0.184862
533.258040	0.185744
533.473792	0.185935
533.689525	0.186245
533.905240	0.186238
534.120937	0.186950
534.336616	0.186549
534.552277	0.186954
534.767919	0.187337
534.983543	0.187436
535.199149	0.188054
535.414736	0.189348
535.630306	0.189922
535.845857	0.190796
536.061390	0.190670
536.276904	0.191659
536.492401	0.192143
536.707879	0.192394
536.923339	0.192693
537.138781	0.192842
537.354204	0.191938
537.569610	0.192263
537.784997	0.192637
538.000366	0.193252
538.215716	0.193462
538.431049	0.192994
538.646363	0.193535
538.861659	0.194543
539.076937	0.195394
539.292196	0.196302
539.507438	0.196226
539.722661	0.196450
539.937866	0.196899
540.153052	0.197644
540.368221	0.198357
540.583371	0.198332
540.798503	0.198753
541.013617	0.198454
541.228712	0.198784
541.443789	0.199435
541.658848	0.199740
541.873889	0.200033
542.088912	0.200540
542.303916	0.201025
542.518902	0.201323
542.733870	0.201052
542.948820	0.201638
543.163752	0.202238
543.378665	0.202675
543.593560	0.203297
543.808437	0.204135
544.023295	0.203900
544.238136	0.204315
544.452958	0.204754
544.667762	0.204560
544.882548	0.204652
545.097315	0.204768
545.312064	0.204810
545.526795	0.205073
545.741508	0.204792
545.956203	0.205086
546.170879	0.205436
546.385537	0.205569
546.600177	0.205659
546.814799	0.205941
547.029402	0.205839
547.243988	0.206112
547.458555	0.206041
547.673103	0.206362
547.887634	0.206545
548.102146	0.207189
548.316640	0.207996
548.531116	0.209001
548.745574	0.209895
548.960013	0.210659
549.174435	0.210888
549.388838	0.211356
549.603222	0.211940
549.817589	0.212547
550.031937	0.212100
550.246267	0.211951
550.460579	0.211976
550.674873	0.211680
550.889148	0.211468
551.103405	0.212136
551.317644	0.212199
551.531865	0.212353
551.746068	0.212813
551.960252	0.213375
552.174418	0.213662
552.388566	0.214511
552.602696	0.214389
552.816807	0.214670
553.030900	0.214802
553.244975	0.215031
553.459032	0.215273
553.673070	0.215429
553.887091	0.215458
554.101093	0.215701
554.315077	0.215252
554.529042	0.215967
554.742990	0.216357
554.956919	0.216554
555.170830	0.216872
555.384722	0.217306
555.598597	0.217083
555.812453	0.217281
556.026291	0.217456
556.240111	0.217623
556.453913	0.217821
556.667696	0.217960
556.881461	0.217785
557.095208	0.217962
557.308937	0.218083
557.522647	0.218371
557.736339	0.218705
557.950013	0.219039
558.163669	0.219259
558.377307	0.219218
558.590926	0.219595
558.804527	0.219878
559.018110	0.220455
559.231675	0.220284
559.445221	0.220507
559.658749	0.220665
559.872259	0.221070
560.085751	0.222416
560.299225	0.223100
560.512680	0.223563
560.726117	0.224049
560.939536	0.224174
561.152937	0.224443
561.366319	0.224730
561.579683	0.224789
561.793029	0.224962
562.006357	0.224437
562.219667	0.224468
562.432958	0.224726
562.646231	0.224653
562.859486	0.224630
563.072723	0.224751
563.285941	0.224582
563.499141	0.225148
563.712323	0.225304
563.925487	0.225292
564.138632	0.225573
564.351760	0.225381
564.564869	0.225826
564.777960	0.226013
564.991032	0.226491
565.204087	0.227076
565.417123	0.226862
565.630141	0.227213
565.843140	0.227730
566.056122	0.227825
566.269085	0.228185
566.482030	0.228490
566.694957	0.228719
566.907866	0.228786
567.120756	0.229130
567.333628	0.229636
567.546482	0.229512
567.759318	0.229567
567.972135	0.229596
568.184935	0.229745
568.397716	0.229656
568.610478	0.229793
568.823223	0.229980
569.035949	0.230089
569.248657	0.230286
569.461347	0.230703
569.674019	0.230615
569.886672	0.230951
570.099308	0.231112
570.311925	0.231111
570.524523	0.231324
570.737104	0.231822
570.949666	0.232352
571.162210	0.232396
571.374736	0.232212
571.587244	0.232595
571.799733	0.232818
572.012205	0.233232
572.224658	0.233740
572.437092	0.233871
572.649509	0.233700
572.861907	0.233583
573.074287	0.234179
573.286649	0.234802
573.498993	0.234937
573.711318	0.235021
573.923625	0.234841
574.135914	0.235541
574.348185	0.235994
574.560438	0.236382
574.772672	0.236554
574.984888	0.236575
575.197086	0.236411
575.409266	0.236612
575.621427	0.236516
575.833570	0.236396
576.045695	0.235806
576.257802	0.235792
576.469890	0.236046
576.681961	0.236462
576.894013	0.236151
577.106046	0.236162
577.318062	0.236424
577.530059	0.236859
577.742039	0.237701
577.954000	0.237874
578.165942	0.238023
578.377867	0.238231
578.589773	0.237735
578.801661	0.238213
579.013531	0.238292
579.225382	0.238363
579.437216	0.238724
579.649031	0.238910
579.860828	0.239346
580.072606	0.239697
580.284367	0.239959
580.496109	0.240402
580.707833	0.240622
580.919539	0.241022
581.131227	0.241540
581.342896	0.241703
581.554547	0.241740
581.766180	0.241867
581.977795	0.241765
582.189391	0.241697
582.400969	0.242244
582.612529	0.242376
582.824071	0.242149
583.035595	0.242140
583.247100	0.241969
583.458587	0.242252
583.670056	0.242548
583.881506	0.243354
584.092939	0.243783
584.304353	0.243765
584.515749	0.244132
584.727127	0.244817
584.938486	0.245024
585.149828	0.245438
585.361151	0.245633
585.572456	0.245573
585.783742	0.245258
585.995011	0.244990
586.206261	0.244559
586.417493	0.244887
586.628706	0.245148
586.839902	0.245491
587.051079	0.245567
587.262238	0.245638
587.473379	0.246265
587.684502	0.246307
587.895606	0.246778
588.106692	0.247536
588.317760	0.247290
588.528810	0.247409
588.739841	0.247476
588.950855	0.248160
589.161850	0.248366
589.372827	0.248006
589.583785	0.248002
589.794726	0.248249
590.005648	0.248412
590.216552	0.248274
590.427437	0.248420
590.638305	0.248631
590.849154	0.248251
591.059985	0.248331
591.270798	0.249002
591.481592	0.249457
591.692369	0.249292
591.903127	0.249730
592.113867	0.250432
592.324588	0.250447
592.535292	0.250332
592.745977	0.250693
592.956644	0.250950
593.167293	0.250866
593.377923	0.250722
593.588536	0.250757
593.799130	0.250646
594.009706	0.250758
594.220263	0.251357
594.430803	0.251812
594.641324	0.252203
594.851827	0.252476
595.062312	0.252715
595.272778	0.253016
595.483227	0.253460
595.693657	0.253516
595.904069	0.253804
596.114462	0.253885
596.324838	0.253660
596.535195	0.253662
596.745534	0.253846
596.955855	0.254018
597.166157	0.254350
597.376441	0.254467
597.586707	0.254597
597.796955	0.254553
598.007185	0.254779
598.217396	0.255286
598.427589	0.255472
598.637764	0.255684
598.847921	0.256000
599.058060	0.256211
599.268180	0.256525
599.478282	0.256848
599.688366	0.257122
599.898431	0.257231
600.108479	0.257214
600.318508	0.256941
600.528519	0.256788
600.738511	0.256730
600.948486	0.256863
601.158442	0.256807
601.368380	0.256943
601.578300	0.256973
601.788202	0.257265
601.998085	0.257568
602.207950	0.258211
602.417797	0.258588
602.627626	0.258601
602.837436	0.258834
603.047228	0.259253
603.257002	0.259323
603.466758	0.259324
603.676496	0.259398
603.886215	0.259390
604.095916	0.259150
604.305599	0.259231
604.515264	0.259506
604.724910	0.259426
604.934538	0.259367
605.144148	0.259649
605.353740	0.260051
605.563314	0.260221
605.772869	0.260704
605.982406	0.261069
606.191925	0.261164
606.401425	0.261397
606.610908	0.261747
606.820372	0.262471
607.029818	0.262806
607.239246	0.262700
607.448655	0.262809
607.658047	0.262520
607.867420	0.262683
608.076775	0.263111
608.286111	0.263106
608.495430	0.263166
608.704730	0.262652
608.914012	0.262672
609.123275	0.263073
609.332521	0.263047
609.541748	0.263503
609.750957	0.263693
609.960148	0.263434
610.169321	0.263662
610.378475	0.263944
610.587611	0.264322
610.796729	0.264469
611.005829	0.264741
611.214910	0.265034
611.423974	0.265050
611.633019	0.265239
611.842045	0.265641
612.051054	0.265718
612.260044	0.266085
612.469017	0.266062
612.677970	0.266193
612.886906	0.266299
613.095824	0.266184
613.304723	0.266256
613.513604	0.266422
613.722467	0.266275
613.931311	0.266666
614.140138	0.266509
614.348946	0.266850
614.557736	0.266910
614.766507	0.266980
614.975261	0.267289
615.183996	0.267541
615.392713	0.267494
615.601412	0.267782
615.810092	0.267968
616.018754	0.268103
616.227399	0.268361
616.436024	0.268319
616.644632	0.268583
616.853222	0.268574
617.061793	0.268541
617.270346	0.268799
617.478880	0.268949
617.687397	0.268854
617.895895	0.269269
618.104375	0.269025
618.312837	0.269232
618.521281	0.269362
618.729706	0.269822
618.938113	0.270095
619.146502	0.270107
619.354873	0.270580
619.563226	0.270847
619.771560	0.270922
619.979876	0.271199
620.188174	0.271386
620.396453	0.271497
620.604715	0.271639
620.812958	0.271657
621.021183	0.272140
621.229390	0.272211
621.437578	0.272476
621.645748	0.272555
621.853900	0.273091
622.062034	0.273288
622.270150	0.273606
622.478247	0.273510
622.686326	0.273919
622.894387	0.273879
623.102430	0.273951
623.310454	0.273828
623.518461	0.273859
623.726449	0.273987
623.934418	0.274334
624.142370	0.274398
624.350303	0.274498
624.558218	0.274536
624.766115	0.274807
624.973994	0.274649
625.181855	0.275075
625.389697	0.275424
625.597521	0.275201
625.805327	0.275480
626.013114	0.275736
626.220883	0.276023
626.428634	0.276269
626.636367	0.276262
626.844082	0.276753
627.051778	0.276622
627.259457	0.276523
627.467117	0.276730
627.674758	0.276546
627.882382	0.276525
628.089987	0.276664
628.297574	0.276882
628.505143	0.277239
628.712694	0.277285
628.920226	0.277896
629.127740	0.278363
629.335236	0.278659
629.542714	0.278819
629.750174	0.279104
629.957615	0.279219
630.165038	0.279395
630.372443	0.279393
630.579829	0.279554
630.787198	0.279356
630.994548	0.279283
631.201880	0.279421
631.409194	0.279586
631.616489	0.279499
631.823766	0.279903
632.031025	0.279799
632.238266	0.280154
632.445489	0.280380
632.652693	0.280663
632.859879	0.280728
633.067047	0.281044
633.274197	0.281341
633.481329	0.281798
633.688442	0.281728
633.895537	0.282087
634.102614	0.282100
634.309672	0.282081
634.516713	0.282185
634.723735	0.282462
634.930739	0.282725
635.137724	0.283147
635.344692	0.283037
635.551641	0.283381
635.758572	0.283735
635.965485	0.284108
636.172379	0.284370
636.379256	0.284612
636.586114	0.285021
636.792954	0.284854
636.999775	0.285030
637.206579	0.285524
637.413364	0.285565
637.620131	0.285614
637.826880	0.285680
638.033610	0.285950
638.240323	0.285932
638.447017	0.285897
638.653692	0.286173
638.860350	0.286279
639.066990	0.286157
639.273611	0.286316
639.480214	0.286371
639.686798	0.286631
639.893365	0.286708
640.099913	0.287127
640.306443	0.287437
640.512955	0.287625
640.719449	0.287670
640.925924	0.287661
641.132381	0.288065
641.338820	0.288345
641.545241	0.288272
641.751644	0.288750
641.958028	0.288963
642.164394	0.289249
642.370742	0.289381
642.577071	0.289532
642.783383	0.289962
642.989676	0.289959
643.195951	0.290284
643.402207	0.290574
643.608446	0.290619
643.814666	0.290742
644.020868	0.290997
644.227052	0.291232
644.433218	0.291619
644.639365	0.291856
644.845494	0.292045
645.051605	0.292052
645.257698	0.292182
645.463772	0.292313
645.669828	0.292418
645.875866	0.292366
646.081886	0.292462
646.287888	0.292261
646.493871	0.292499
646.699836	0.292704
646.905783	0.292977
647.111712	0.293027
647.317622	0.293258
647.523514	0.293497
647.729388	0.293845
647.935244	0.294138
648.141082	0.294403
648.346901	0.294568
648.552702	0.294752
648.758485	0.294921
648.964250	0.295381
649.169996	0.295455
649.375724	0.295962
649.581434	0.295965
649.787126	0.296228
649.992800	0.296413
650.198455	0.296552
650.404092	0.296961
650.609711	0.297283
650.815311	0.297575
651.020894	0.297858
651.226458	0.298154
651.432004	0.298531
651.637532	0.298751
651.843041	0.299344
652.048532	0.299875
652.254006	0.299844
652.459460	0.299434
652.664897	0.299294
652.870315	0.299364
653.075716	0.299199
653.281097	0.299375
653.486461	0.299367
653.691807	0.299298
653.897134	0.299163
654.102443	0.299592
654.307734	0.300078
654.513006	0.300530
654.718261	0.300988
654.923497	0.301092
655.128715	0.300806
655.333915	0.300995
655.539096	0.301269
655.744259	0.301490
655.949404	0.301601
656.154531	0.302014
656.359640	0.302183
656.564730	0.302152
656.769802	0.302652
656.974856	0.303157
657.179892	0.303234
657.384909	0.303272
657.589908	0.303529
657.794889	0.303624
657.999852	0.304051
658.204797	0.304274
658.409723	0.304501
658.614631	0.304378
658.819521	0.304611
659.024393	0.305163
659.229246	0.305555
659.434081	0.305697
659.638898	0.305999
659.843697	0.305793
660.048478	0.306052
660.253240	0.306416
660.457984	0.306574
660.662710	0.306798
660.867417	0.306967
661.072107	0.307045
661.276778	0.307359
661.481431	0.307512
661.686066	0.307792
661.890682	0.307899
662.095281	0.308256
662.299861	0.308647
662.504422	0.308850
662.708966	0.309075
662.913491	0.309506
663.117999	0.309638
663.322488	0.309936
663.526958	0.310300
663.731411	0.310578
663.935845	0.310659
664.140261	0.310935
664.344659	0.311011
664.549038	0.311220
664.753400	0.311362
664.957743	0.311947
665.162068	0.312310
665.366375	0.312547
665.570663	0.312895
665.774933	0.313235
665.979185	0.313476
666.183419	0.313830
666.387635	0.314265
666.591832	0.314511
666.796011	0.314351
667.000172	0.314584
667.204315	0.314936
667.408439	0.315109
667.612545	0.315264
667.816634	0.315505
668.020703	0.315998
668.224755	0.315940
668.428788	0.316145
668.632803	0.316512
668.836800	0.316430
669.040779	0.316526
669.244739	0.316588
669.448681	0.316881
669.652605	0.317116
669.856511	0.317401
670.060399	0.317746
670.264268	0.318107
670.468119	0.318504
670.671952	0.318900
670.875767	0.318980
671.079563	0.319255
671.283341	0.319536
671.487101	0.319879
671.690843	0.319924
671.894567	0.320294
672.098272	0.320245
672.301959	0.320190
672.505628	0.320593
672.709278	0.320971
672.912911	0.321080
673.116525	0.321070
673.320121	0.321113
673.523699	0.321308
673.727258	0.321323
673.930799	0.322012
674.134322	0.322379
674.337827	0.322528
674.541314	0.322734
674.744782	0.323249
674.948232	0.323468
675.151664	0.323822
675.355078	0.324327
675.558474	0.324793
675.761851	0.324566
675.965210	0.324888
676.168551	0.324990
676.371873	0.325329
676.575178	0.325546
676.778464	0.326032
676.981732	0.325838
677.184981	0.325884
677.388213	0.325904
677.591426	0.326258
677.794621	0.326285
677.997798	0.326568
678.200956	0.326684
678.404097	0.326790
678.607219	0.327056
678.810323	0.327637
679.013408	0.328021
679.216476	0.328120
679.419525	0.328658
679.622556	0.329207
679.825569	0.329439
680.028563	0.329625
680.231540	0.329990
680.434498	0.329992
680.637438	0.330228
680.840359	0.330267
681.043263	0.330789
681.246148	0.330952
681.449015	0.330610
681.651864	0.330905
681.854694	0.331178
682.057506	0.331386
682.260301	0.331681
682.463076	0.331788
682.665834	0.331949
682.868573	0.332123
683.071295	0.332306
683.273998	0.333093
683.476682	0.333223
683.679349	0.333697
683.881997	0.334073
684.084627	0.334197
684.287239	0.334371
684.489833	0.334657
684.692408	0.334930
684.894965	0.334671
685.097504	0.334556
685.300025	0.334787
685.502527	0.334749
685.705012	0.334664
685.907478	0.334895
686.109925	0.335164
686.312355	0.335347
686.514766	0.335564
686.717159	0.336091
686.919534	0.336354
687.121891	0.336411
687.324230	0.336772
687.526550	0.337009
687.728852	0.337225
687.931136	0.337475
688.133401	0.337427
688.335649	0.337402
688.537878	0.337619
688.740089	0.337817
688.942281	0.338015
689.144456	0.338272
689.346612	0.338546
689.548750	0.338940
689.750870	0.339374
689.952971	0.340071
690.155055	0.340593
690.357120	0.340817
690.559167	0.341214
690.761195	0.341574
690.963206	0.341424
691.165198	0.341651
691.367172	0.341553
691.569128	0.341476
691.771065	0.341381
691.972984	0.341376
692.174885	0.341480
692.376768	0.341325
692.578633	0.341447
692.780479	0.341713
692.982308	0.341924
693.184118	0.342166
693.385909	0.342288
693.587683	0.342606
693.789438	0.342603
693.991175	0.342737
694.192894	0.342981
694.394595	0.343160
694.596277	0.343313
694.797941	0.343449
694.999587	0.343674
695.201215	0.343828
695.402824	0.343874
695.604416	0.344179
695.805989	0.344438
696.007543	0.344637
696.209080	0.344734
696.410598	0.345005
696.612099	0.345091
696.813580	0.345107
697.015044	0.345391
697.216490	0.345615
697.417917	0.345871
697.619326	0.345917
697.820717	0.346148
698.022089	0.346362
698.223444	0.346625
698.424780	0.346595
698.626098	0.347069
698.827397	0.347175
699.028679	0.347108
699.229942	0.346891
699.431187	0.346982
699.632414	0.346804
699.833622	0.347095
700.034813	0.347017
700.235985	0.347367
700.437139	0.347427
700.638274	0.347726
700.839392	0.348140
701.040491	0.348362
701.241572	0.348726
701.442635	0.349121
701.643679	0.349119
701.844706	0.349348
702.045714	0.349388
702.246704	0.349423
702.447675	0.349565
702.648629	0.349457
702.849564	0.349379
703.050481	0.349258
703.251380	0.349570
703.452260	0.349730
703.653122	0.349633
703.853966	0.349849
704.054792	0.349994
704.255600	0.349878
704.456389	0.350204
704.657160	0.350585
704.857913	0.350619
705.058648	0.350505
705.259365	0.350384
705.460063	0.350499
705.660743	0.350547
705.861405	0.350616
706.062048	0.350812
706.262674	0.350717
706.463281	0.350700
706.663870	0.350709
706.864441	0.350703
707.064993	0.350844
707.265527	0.350726
707.466043	0.350563
707.666541	0.350437
707.867021	0.350504
708.067482	0.350286
708.267925	0.350228
708.468350	0.350384
708.668757	0.350525
708.869145	0.350522
709.069516	0.350978
709.269868	0.351305
709.470201	0.351381
709.670517	0.351244
709.870814	0.351496
710.071093	0.351801
710.271354	0.351817
710.471597	0.351903
710.671821	0.352177
710.872028	0.352136
711.072216	0.351850
711.272385	0.351840
711.472537	0.351990
711.672670	0.351842
711.872785	0.351665
712.072882	0.351843
712.272961	0.351660
712.473021	0.351726
712.673063	0.351559
712.873087	0.351784
713.073093	0.351843
713.273081	0.351583
713.473050	0.351614
713.673001	0.351583
713.872934	0.351525
714.072849	0.351617
714.272745	0.351444
714.472623	0.351657
714.672483	0.351536
714.872325	0.351626
715.072148	0.351881
715.271954	0.351904
715.471741	0.351954
715.671509	0.351918
715.871260	0.351869
716.070992	0.351384
716.270707	0.351116
716.470403	0.350951
716.670080	0.350694
716.869740	0.350203
717.069381	0.350285
717.269004	0.350381
717.468609	0.350176
717.668195	0.349810
717.867764	0.350032
718.067314	0.349916
718.266846	0.349626
718.466360	0.349402
718.665855	0.349610
718.865332	0.349568
719.064791	0.349172
719.264232	0.349092
719.463655	0.349201
719.663059	0.348974
719.862445	0.348778
720.061813	0.348978
720.261163	0.348981
720.460494	0.348853
720.659807	0.348562
720.859102	0.348684
721.058379	0.348772
721.257638	0.348620
721.456878	0.348556
721.656100	0.348701
721.855304	0.348521
722.054490	0.348467
722.253657	0.348256
722.452806	0.348234
722.651937	0.348033
722.851050	0.347661
723.050145	0.347515
723.249221	0.347222
723.448279	0.346827
723.647319	0.346582
723.846340	0.346404
724.045344	0.346317
724.244329	0.345893
724.443296	0.345647
724.642245	0.345490
724.841175	0.345304
725.040088	0.345252
725.238982	0.345103
725.437857	0.345369
725.636715	0.345150
725.835554	0.344956
726.034376	0.345076
726.233179	0.345490
726.431963	0.345558
726.630730	0.345580
726.829478	0.345444
727.028208	0.345529
727.226920	0.345025
727.425614	0.345080
727.624289	0.344939
727.822946	0.344809
728.021585	0.344191
728.220206	0.343777
728.418808	0.343591
728.617392	0.343563
728.815958	0.343236
729.014506	0.343208
729.213036	0.343021
729.411547	0.342907
729.610040	0.342636
729.808515	0.342282
730.006972	0.342473
730.205410	0.342194
730.403831	0.341892
730.602233	0.341986
730.800616	0.341935
730.998982	0.341773
731.197329	0.341828
731.395658	0.341896
731.593969	0.341756
731.792262	0.341511
731.990536	0.341354
732.188793	0.341660
732.387031	0.341064
732.585250	0.340809
732.783452	0.340478
732.981635	0.339985
733.179800	0.339418
733.377947	0.339369
733.576076	0.338754
733.774186	0.338589
733.972278	0.338147
734.170352	0.338147
734.368408	0.337924
734.566446	0.337823
734.764465	0.337747
734.962466	0.337482
735.160449	0.337299
735.358413	0.337274
735.556360	0.336920
735.754288	0.336525
735.952198	0.336501
736.150090	0.336123
736.347963	0.335969
736.545818	0.335600
736.743655	0.335608
736.941474	0.335379
737.139275	0.335093
737.337057	0.335033
737.534821	0.334981
737.732567	0.334645
737.930295	0.334276
738.128005	0.334033
738.325696	0.334005
738.523369	0.333759
738.721024	0.333574
738.918660	0.333359
739.116279	0.333164
739.313879	0.332957
739.511461	0.332714
739.709024	0.332644
739.906570	0.332380
740.104097	0.332125
740.301606	0.331913
740.499097	0.331761
740.696569	0.331653
740.894024	0.331378
741.091460	0.331099
741.288878	0.330811
741.486277	0.330411
741.683659	0.330057
741.881022	0.329695
742.078367	0.329434
742.275694	0.328840
742.473002	0.328661
742.670293	0.328454
742.867565	0.328137
743.064819	0.327950
743.262054	0.328079
743.459272	0.327956
743.656471	0.327880
743.853652	0.327541
744.050815	0.327444
744.247959	0.326946
744.445085	0.326800
744.642194	0.326504
744.839283	0.326301
745.036355	0.325704
745.233408	0.325302
745.430444	0.324814
745.627461	0.324737
745.824459	0.324339
746.021440	0.324204
746.218402	0.323893
746.415346	0.323621
746.612272	0.323542
746.809180	0.323530
747.006069	0.323258
747.202940	0.323213
747.399793	0.323132
747.596628	0.323144
747.793444	0.323165
747.990243	0.322725
748.187023	0.322710
748.383784	0.322348
748.580528	0.322257
748.777253	0.322397
748.973960	0.322491
749.170649	0.322205
749.367320	0.322312
749.563973	0.321815
749.760607	0.322038
749.957223	0.322110
750.153821	0.321656
750.350400	0.321494
750.546962	0.321201
750.743505	0.320878
750.940030	0.320629
751.136536	0.320227
751.333025	0.320042
751.529495	0.319432
751.725947	0.318746
751.922381	0.319076
752.118796	0.318771
752.315194	0.318608
752.511573	0.318054
752.707934	0.317620
752.904276	0.317339
753.100601	0.317398
753.296907	0.317388
753.493195	0.317347
753.689465	0.316702
753.885716	0.316385
754.081949	0.315921
754.278164	0.315934
754.474361	0.315800
754.670540	0.315548
754.866700	0.315181
755.062843	0.315043
755.258967	0.314883
755.455072	0.314616
755.651160	0.314219
755.847229	0.314449
756.043280	0.314255
756.239313	0.314315
756.435328	0.313939
756.631324	0.313647
756.827302	0.313285
757.023262	0.313020
757.219204	0.312975
757.415127	0.313024
757.611033	0.312797
757.806920	0.312562
758.002788	0.312123
758.198639	0.312439
758.394471	0.312513
758.590286	0.312388
758.786081	0.312406
758.981859	0.312481
759.177619	0.312112
759.373360	0.311713
759.569083	0.311637
759.764788	0.311640
759.960474	0.311118
760.156143	0.310789
760.351793	0.310774
760.547425	0.310482
760.743038	0.310412
760.938634	0.310442
761.134211	0.309989
761.329770	0.309732
761.525311	0.309340
761.720833	0.309145
761.916338	0.309105
762.111824	0.309116
762.307292	0.308642
762.502741	0.308039
762.698173	0.307904
762.893586	0.307900
763.088981	0.307660
763.284358	0.307753
763.479716	0.307766
763.675057	0.307536
763.870379	0.306966
764.065683	0.307077
764.260968	0.306824
764.456236	0.306770
764.651485	0.306560
764.846716	0.306473
765.041929	0.306236
765.237123	0.305948
765.432299	0.305735
765.627457	0.305715
765.822597	0.305485
766.017719	0.305595
766.212822	0.305523
766.407907	0.305298
766.602974	0.304901
766.798023	0.304983
766.993054	0.304920
767.188066	0.304944
767.383060	0.304928
767.578036	0.305249
767.772993	0.305315
767.967933	0.304993
768.162854	0.305212
768.357757	0.305243
768.552642	0.304875
768.747508	0.304686
768.942356	0.304583
769.137186	0.304249
769.331998	0.303673
769.526792	0.303297
769.721567	0.303198
769.916324	0.303024
770.111063	0.303057
770.305784	0.302909
770.500486	0.303059
770.695171	0.302826
770.889837	0.302919
771.084484	0.302869
771.279114	0.302818
771.473725	0.302781
771.668318	0.302648
771.862893	0.302718
772.057450	0.302604
772.251988	0.302332
772.446509	0.302356
772.641011	0.302197
772.835494	0.302009
773.029960	0.302344
773.224407	0.302176
773.418836	0.302063
773.613247	0.301838
773.807640	0.301762
774.002014	0.301887
774.196370	0.301857
774.390708	0.301723
774.585028	0.301782
774.779330	0.301151
774.973613	0.301088
775.167878	0.301090
775.362125	0.300881
775.556354	0.300758
775.750564	0.300667
775.944756	0.300489
776.138930	0.300766
776.333086	0.300762
776.527223	0.301134
776.721343	0.301084
776.915444	0.301021
777.109526	0.301181
777.303591	0.301359
777.497637	0.301041
777.691666	0.300873
777.885676	0.300955
778.079667	0.301052
778.273641	0.300936
778.467596	0.301320
778.661533	0.301148
778.855452	0.300773
779.049352	0.300822
779.243235	0.301076
779.437099	0.301317
779.630945	0.300993
779.824773	0.300856
780.018582	0.300891
780.212373	0.300726
780.406146	0.301134
780.599901	0.301467
780.793638	0.301671
780.987356	0.301663
781.181056	0.301625
781.374738	0.301684
781.568402	0.301996
781.762047	0.302086
781.955674	0.302209
782.149283	0.302036
782.342874	0.302269
782.536447	0.302101
782.730001	0.302186
782.923537	0.302208
783.117055	0.302227
783.310555	0.302256
783.504036	0.302305
783.697499	0.302142
783.890944	0.302344
784.084371	0.302271
784.277780	0.302421
784.471170	0.302491
784.664542	0.302665
784.857896	0.302609
785.051231	0.302322
785.244549	0.302011
785.437848	0.302155
785.631129	0.302111
785.824392	0.302089
786.017636	0.301946
786.210863	0.301882
786.404071	0.301816
786.597260	0.301892
786.790432	0.302010
786.983585	0.302345
787.176721	0.302442
787.369838	0.302578
787.562936	0.302987
787.756017	0.303530
787.949079	0.303708
788.142123	0.303893
788.335149	0.304122
788.528156	0.304191
788.721146	0.304133
788.914117	0.304088
789.107070	0.303954
789.300005	0.304126
789.492921	0.303973
789.685819	0.304088
789.878699	0.304129
790.071561	0.304233
790.264405	0.304516
790.457230	0.304572
790.650037	0.304727
790.842826	0.305059
791.035597	0.304856
791.228349	0.304860
791.421084	0.304872
791.613800	0.305098
791.806497	0.305141
791.999177	0.305222
792.191838	0.305316
792.384481	0.305368
792.577106	0.305322
792.769713	0.305177
792.962301	0.305171
793.154871	0.305174
793.347423	0.305169
793.539957	0.305262
793.732473	0.305406
793.924970	0.305741
794.117449	0.305663
794.309910	0.305838
794.502353	0.306245
794.694777	0.306427
794.887183	0.306651
795.079571	0.306813
795.271941	0.307054
795.464293	0.307227
795.656626	0.307387
795.848941	0.307961
796.041238	0.308439
796.233516	0.308531
796.425777	0.308814
796.618019	0.309430
796.810243	0.309793
797.002449	0.310107
797.194636	0.310452
797.386805	0.310656
797.578956	0.310919
797.771089	0.311027
797.963204	0.311450
798.155300	0.311953
798.347378	0.311872
798.539438	0.312206
798.731480	0.312442
798.923503	0.312773
799.115509	0.312877
799.307496	0.313110
799.499465	0.313051
799.691415	0.312901
799.883348	0.313057
800.075262	0.313443
800.267158	0.313369
800.459035	0.313471
800.650895	0.313628
800.842736	0.314055
801.034559	0.314196
801.226364	0.314723
801.418150	0.315165
801.609919	0.315159
801.801669	0.315504
801.993401	0.315686
802.185114	0.316047
802.376810	0.316167
802.568487	0.316250
802.760146	0.316707
802.951787	0.316795
803.143409	0.316750
803.335014	0.316977
803.526600	0.317014
803.718168	0.317184
803.909717	0.317389
804.101249	0.317699
804.292762	0.317872
804.484257	0.317846
804.675734	0.318372
804.867192	0.318904
805.058632	0.319366
805.250054	0.319550
805.441458	0.320067
805.632844	0.320345
805.824211	0.320590
806.015561	0.321262
806.206891	0.321644
806.398204	0.321489
806.589499	0.321747
806.780775	0.322099
806.972033	0.322363
807.163273	0.322667
807.354495	0.322926
807.545698	0.323183
807.736883	0.323653
807.928050	0.323913
808.119199	0.324794
808.310329	0.325157
808.501441	0.325199
808.692535	0.325572
808.883611	0.326236
809.074669	0.326574
809.265708	0.326939
809.456729	0.326867
809.647732	0.327107
809.838717	0.327126
810.029683	0.327657
810.220632	0.327974
810.411562	0.328499
810.602474	0.328576
810.793367	0.328989
810.984242	0.329507
811.175100	0.329858
811.365938	0.330243
811.556759	0.330868
811.747562	0.331182
811.938346	0.331709
812.129112	0.332081
812.319860	0.332294
812.510589	0.332548
812.701300	0.332765
812.891994	0.333010
813.082668	0.333370
813.273325	0.333391
813.463964	0.333712
813.654584	0.333875
813.845186	0.333761
814.035769	0.334039
814.226335	0.334471
814.416882	0.334900
814.607411	0.335200
814.797922	0.335766
814.988415	0.336083
815.178889	0.336393
815.369345	0.336883
815.559783	0.337467
815.750203	0.337913
815.940605	0.338336
816.130988	0.338958
816.321353	0.339647
816.511700	0.339978
816.702028	0.340741
816.892339	0.341145
817.082631	0.341455
817.272905	0.341919
817.463161	0.342433
817.653398	0.342783
817.843617	0.342859
818.033819	0.343240
818.224001	0.343618
818.414166	0.343670
818.604312	0.344131
818.794440	0.344623
818.984550	0.345095
819.174642	0.345659
819.364716	0.346149
819.554771	0.346373
819.744808	0.346824
819.934827	0.347338
820.124827	0.347769
820.314810	0.347935
820.504774	0.348802
820.694720	0.349411
820.884647	0.349672
821.074557	0.350186
821.264448	0.350597
821.454321	0.351136
821.644176	0.351427
821.834012	0.351745
822.023831	0.352538
822.213631	0.352455
822.403413	0.352566
822.593176	0.353029
822.782922	0.353422
822.972649	0.353944
823.162358	0.354374
823.352049	0.354613
823.541721	0.355455
823.731376	0.355664
823.921012	0.356222
824.110629	0.356897
824.300229	0.357375
824.489811	0.357651
824.679374	0.358329
824.868919	0.358245
825.058445	0.358767
825.247954	0.358674
825.437444	0.359150
825.626916	0.359482
825.816370	0.359569
826.005806	0.359958
826.195223	0.360688
826.384622	0.361016
826.574003	0.361745
826.763366	0.362579
826.952711	0.363351
827.142037	0.363716
827.331345	0.364150
827.520635	0.365237
827.709906	0.365997
827.899160	0.366092
828.088395	0.366675
828.277612	0.366971
828.466810	0.366937
828.655991	0.367330
828.845153	0.367825
829.034297	0.368434
829.223423	0.368622
829.412531	0.368626
829.601620	0.369106
829.790691	0.369707
829.979744	0.370421
830.168779	0.371272
830.357795	0.372037
830.546793	0.372743
830.735773	0.373284
830.924735	0.373460
831.113679	0.374323
831.302604	0.375041
831.491511	0.375182
831.680400	0.375763
831.869271	0.376181
832.058123	0.376362
832.246957	0.376737
832.435773	0.377329
832.624571	0.378287
832.813351	0.378590
833.002112	0.378879
833.190855	0.379513
833.379580	0.380188
833.568287	0.380536
833.756975	0.380876
833.945645	0.381225
834.134297	0.381463
834.322931	0.381537
834.511547	0.381945
834.700144	0.382730
834.888723	0.383163
835.077284	0.383480
835.265826	0.384082
835.454351	0.384830
835.642857	0.385607
835.831345	0.386419
836.019815	0.386985
836.208266	0.387828
836.396699	0.388302
836.585114	0.388691
836.773511	0.389288
836.961890	0.389842
837.150250	0.390457
837.338592	0.390777
837.526916	0.391358
837.715222	0.391872
837.903510	0.391984
838.091779	0.392369
838.280030	0.393252
838.468263	0.393813
838.656477	0.394465
838.844674	0.395048
839.032852	0.396014
839.221012	0.396125
839.409153	0.396707
839.597277	0.397776
839.785382	0.398506
839.973469	0.399167
840.161538	0.399802
840.349589	0.399892
840.537621	0.400554
840.725635	0.400833
840.913631	0.401820
841.101609	0.402833
841.289568	0.403004
841.477509	0.403448
841.665432	0.403780
841.853337	0.404379
842.041224	0.405022
842.229092	0.405480
842.416942	0.405864
842.604774	0.406173
842.792588	0.406043
842.980383	0.406466
843.168160	0.406708
843.355919	0.406828
843.543660	0.406824
843.731382	0.407773
843.919087	0.408135
844.106773	0.408795
844.294441	0.409541
844.482090	0.410277
844.669722	0.410978
844.857335	0.411883
845.044930	0.412640
845.232507	0.413368
845.420065	0.413821
845.607605	0.414255
845.795127	0.415175
845.982631	0.415681
846.170117	0.416256
846.357584	0.416795
846.545033	0.417648
846.732464	0.418403
846.919877	0.419001
847.107272	0.419582
847.294648	0.420465
847.482006	0.420661
847.669346	0.420798
847.856667	0.421722
848.043971	0.422496
848.231256	0.422237
848.418523	0.422777
848.605771	0.423219
848.793002	0.423726
848.980214	0.424123
849.167408	0.424632
849.354584	0.424921
849.541742	0.425120
849.728881	0.425475
849.916002	0.426481
850.103105	0.426860
850.290190	0.427301
850.477256	0.427713
850.664304	0.428349
850.851334	0.428640
851.038346	0.429649
851.225340	0.430613
851.412315	0.431170
851.599272	0.431949
851.786211	0.432606
851.973132	0.433387
852.160034	0.434308
852.346918	0.435106
852.533784	0.435638
852.720632	0.436106
852.907462	0.436256
853.094273	0.436824
853.281066	0.436926
853.467841	0.436996
853.654598	0.437652
853.841336	0.437964
854.028056	0.438431
854.214758	0.439033
854.401442	0.440005
854.588107	0.440513
854.774755	0.440905
854.961384	0.441850
855.147995	0.442654
855.334587	0.443063
855.521162	0.443421
855.707718	0.443609
855.894256	0.444182
856.080775	0.444456
856.267277	0.445126
856.453760	0.445572
856.640225	0.445961
856.826672	0.446769
857.013101	0.447237
857.199511	0.447532
857.385903	0.448047
857.572277	0.448738
857.758633	0.449239
857.944970	0.449879
858.131290	0.450480
858.317591	0.450681
858.503873	0.451255
858.690138	0.451786
858.876384	0.452444
859.062612	0.452902
859.248822	0.453215
859.435014	0.453451
859.621188	0.453851
859.807343	0.454242
859.993480	0.455090
860.179599	0.455268
860.365699	0.455702
860.551781	0.456438
860.737846	0.456840
860.923891	0.457441
861.109919	0.458382
861.295929	0.458887
861.481920	0.459989
861.667893	0.460011
861.853848	0.460591
862.039784	0.461316
862.225702	0.461366
862.411603	0.461953
862.597484	0.462533
862.783348	0.462803
862.969193	0.463044
863.155021	0.462984
863.340830	0.463778
863.526620	0.464064
863.712393	0.463983
863.898147	0.464759
864.083883	0.465680
864.269601	0.465782
864.455301	0.466273
864.640982	0.466970
864.826645	0.467719
865.012290	0.467971
865.197917	0.468562
865.383526	0.469131
865.569116	0.470038
865.754688	0.470262
865.940242	0.470986
866.125777	0.471542
866.311295	0.472124
866.496794	0.472364
866.682275	0.472949
866.867737	0.473394
867.053182	0.474078
867.238608	0.474219
867.424016	0.474350
867.609406	0.475246
867.794778	0.475521
867.980131	0.475623
868.165466	0.475894
868.350783	0.475995
868.536082	0.476313
868.721362	0.476508
868.906625	0.476821
869.091869	0.477193
869.277094	0.476796
869.462302	0.476703
869.647491	0.477088
869.832662	0.477518
870.017815	0.478536
870.202950	0.478728
870.388066	0.478848
870.573165	0.479104
870.758245	0.479876
870.943306	0.480437
871.128350	0.481157
871.313375	0.481859
871.498382	0.482420
871.683371	0.482860
871.868342	0.483756
872.053294	0.484313
872.238229	0.484556
872.423144	0.484733
872.608042	0.484838
872.792922	0.485528
872.977783	0.485375
873.162626	0.485319
873.347451	0.484691
873.532258	0.484765
873.717046	0.485016
873.901816	0.485108
874.086568	0.485434
874.271302	0.485860
874.456017	0.486075
874.640715	0.486514
874.825394	0.486870
875.010055	0.487794
875.194697	0.487750
875.379322	0.488196
875.563928	0.488504
875.748516	0.488549
875.933085	0.489308
876.117637	0.488925
876.302170	0.488947
876.486685	0.489447
876.671182	0.489437
876.855661	0.489708
877.040121	0.489820
877.224563	0.490158
877.408987	0.490276
877.593393	0.490799
877.777780	0.491096
877.962150	0.491725
878.146501	0.491950
878.330833	0.492352
878.515148	0.492912
878.699444	0.493185
878.883722	0.493106
879.067982	0.493045
879.252224	0.492455
879.436447	0.492656
879.620653	0.492698
879.804840	0.492659
879.989008	0.492048
880.173159	0.491817
880.357291	0.492185
880.541405	0.493447
880.725501	0.493981
880.909579	0.494563
881.093638	0.494854
881.277680	0.494741
881.461703	0.494922
881.645707	0.495375
881.829694	0.495850
882.013662	0.496111
882.197612	0.495482
882.381544	0.495738
882.565458	0.495612
882.749353	0.495933
882.933230	0.496458
883.117089	0.496740
883.300930	0.497252
883.484753	0.497580
883.668557	0.497829
883.852343	0.498522
884.036111	0.498631
884.219861	0.498919
884.403592	0.499817
884.587305	0.499948
884.771000	0.499978
884.954677	0.500106
885.138335	0.500021
885.321976	0.499708
885.505598	0.499220
885.689201	0.499074
885.872787	0.498755
886.056354	0.497805
886.239904	0.498036
886.423434	0.497880
886.606947	0.497546
886.790442	0.497841
886.973918	0.497906
887.157376	0.498288
887.340816	0.498606
887.524237	0.498983
887.707641	0.499546
887.891026	0.499738
888.074393	0.499596
888.257741	0.500151
888.441072	0.500165
888.624384	0.500183
888.807678	0.499845
888.990954	0.499749
889.174211	0.499748
889.357451	0.499958
889.540672	0.499805
889.723875	0.500189
889.907059	0.499510
890.090226	0.498844
890.273374	0.499090
890.456504	0.499221
890.639616	0.499327
890.822709	0.499669
891.005785	0.499167
891.188842	0.498681
891.371881	0.498568
891.554901	0.499084
891.737904	0.499307
891.920888	0.499032
892.103854	0.499485
892.286802	0.498934
892.469731	0.498482
892.652643	0.498148
892.835536	0.497651
893.018410	0.497755
893.201267	0.497533
893.384106	0.497387
893.566926	0.497103
893.749728	0.496492
893.932511	0.496374
894.115277	0.495745
894.298024	0.495672
894.480753	0.495967
894.663464	0.495758
894.846157	0.495760
895.028831	0.495620
895.211487	0.495213
895.394125	0.494362
895.576745	0.494064
895.759346	0.494630
895.941930	0.494829
896.124495	0.494606
896.307041	0.494147
896.489570	0.493663
896.672080	0.493273
896.854573	0.493496
897.037046	0.493966
897.219502	0.494130
897.401940	0.493353
897.584359	0.493227
897.766760	0.493053
897.949143	0.492498
898.131507	0.492058
898.313854	0.491889
898.496182	0.491330
898.678492	0.491232
898.860783	0.490749
899.043057	0.490402
899.225312	0.489706
899.407549	0.489366
899.589768	0.489565
899.771968	0.488907
899.954151	0.488353
900.136315	0.488220
900.318461	0.487608
900.500588	0.487226
900.682698	0.486936
900.864789	0.486697
901.046862	0.486175
901.228917	0.485862
901.410953	0.486317
901.592971	0.486714
901.774972	0.486388
901.956953	0.486019
902.138917	0.485845
902.320862	0.485302
902.502790	0.485026
902.684699	0.484786
902.866589	0.483751
903.048462	0.482769
903.230316	0.481757
903.412152	0.481755
903.593970	0.481459
903.775770	0.481461
903.957551	0.481366
904.139314	0.481790
904.321059	0.481305
904.502786	0.481143
904.684494	0.481553
904.866185	0.481342
905.047857	0.481183
905.229510	0.480685
905.411146	0.479846
905.592763	0.479536
905.774363	0.477348
905.955943	0.477033
906.137506	0.477036
906.319051	0.476314
906.500577	0.476137
906.682085	0.475170
906.863575	0.474923
907.045046	0.474679
907.226500	0.474121
907.407935	0.473951
907.589352	0.473339
907.770750	0.473053
907.952131	0.473043
908.133493	0.471854
908.314837	0.471465
908.496163	0.471315
908.677470	0.470892
908.858760	0.469618
909.040031	0.469423
909.221284	0.469071
909.402518	0.468027
909.583735	0.466417
909.764933	0.466567
909.946113	0.465461
910.127275	0.464733
910.308418	0.463931
910.489544	0.463847
910.670651	0.463694
910.851740	0.463021
911.032810	0.462618
911.213863	0.462686
911.394897	0.461813
911.575913	0.461872
911.756911	0.460508
911.937890	0.459678
912.118851	0.459214
912.299794	0.458171
912.480719	0.457088
912.661626	0.456850
912.842514	0.455177
913.023384	0.455226
913.204236	0.453471
913.385070	0.452828
913.565886	0.452007
913.746683	0.451783
913.927462	0.451255
914.108223	0.451206
914.288965	0.450042
914.469690	0.450368
914.650396	0.449163
914.831084	0.448999
915.011754	0.448923
915.192405	0.449013
915.373038	0.447963
915.553653	0.446893
915.734250	0.445278
915.914829	0.444586
916.095389	0.443499
916.275931	0.442505
916.456455	0.441590
916.636961	0.440915
916.817448	0.440001
916.997917	0.439444
917.178368	0.438850
917.358801	0.438438
917.539216	0.436970
917.719612	0.436493
917.899990	0.435435
918.080350	0.435177
918.260692	0.433539
918.441015	0.431976
918.621320	0.431294
918.801607	0.430205
918.981876	0.429139
919.162127	0.429340
919.342359	0.428519
919.522573	0.427990
919.702769	0.426682
919.882947	0.426075
920.063106	0.425392
920.243247	0.424063
920.423370	0.423433
920.603475	0.421839
920.783562	0.420124
920.963630	0.419091
921.143680	0.418552
921.323712	0.417607
921.503725	0.416575
921.683721	0.416171
921.863698	0.415215
922.043657	0.414395
922.223598	0.415340
922.403520	0.415326
922.583424	0.414093
922.763311	0.412919
922.943178	0.412376
923.123028	0.411467
923.302859	0.410640
923.482673	0.409288
923.662467	0.407773
923.842244	0.406065
924.022003	0.403978
924.201743	0.403675
924.381465	0.402633
924.561169	0.401687
924.740854	0.401415
924.920522	0.400388
925.100171	0.400152
925.279802	0.399402
925.459414	0.398994
925.639009	0.398085
925.818585	0.396110
925.998143	0.394356
926.177683	0.392607
926.357205	0.391152
926.536708	0.389364
926.716193	0.388203
926.895660	0.387633
927.075109	0.385820
927.254539	0.385213
927.433951	0.383704
927.613345	0.382931
927.792721	0.382451
927.972079	0.381306
928.151418	0.379842
928.330739	0.378083
928.510042	0.376964
928.689327	0.376349
928.868593	0.374727
929.047841	0.373691
929.227071	0.373116
929.406283	0.371512
929.585476	0.370725
929.764652	0.370555
929.943809	0.370180
930.122948	0.368107
930.302068	0.367240
930.481171	0.366504
930.660255	0.366104
930.839321	0.364873
931.018369	0.363889
931.197398	0.363050
931.376409	0.361938
931.555402	0.360115
931.734377	0.359287
931.913334	0.357464
932.092272	0.356710
932.271192	0.355774
932.450094	0.354243
932.628978	0.353202
932.807844	0.351232
932.986691	0.350128
933.165520	0.350109
933.344331	0.348445
933.523123	0.347169
933.701898	0.345468
933.880654	0.344386
934.059392	0.343126
934.238111	0.341728
934.416813	0.341082
934.595496	0.339641
934.774161	0.336761
934.952808	0.335560
935.131437	0.333976
935.310047	0.332817
935.488639	0.331433
935.667213	0.329919
935.845769	0.328995
936.024306	0.327301
936.202825	0.325898
936.381326	0.325386
936.559809	0.325310
936.738274	0.324681
936.916720	0.323579
937.095148	0.321707
937.273558	0.320414
937.451950	0.320369
937.630323	0.318459
937.808678	0.316550
937.987015	0.315517
938.165334	0.314134
938.343635	0.312496
938.521917	0.312233
938.700181	0.310859
938.878427	0.309453
939.056655	0.306009
939.234864	0.304191
939.413055	0.302697
939.591228	0.301383
939.769383	0.299983
939.947519	0.298602
940.125638	0.296251
940.303738	0.295307
940.481820	0.293859
940.659883	0.292378
940.837929	0.291489
941.015956	0.290995
941.193965	0.289509
941.371955	0.287900
941.549928	0.286680
941.727882	0.284386
941.905818	0.282388
942.083736	0.281337
942.261636	0.280831
942.439517	0.279902
942.617380	0.277816
942.795225	0.275923
942.973052	0.274352
943.150860	0.271932
943.328651	0.270393
943.506423	0.269571
943.684176	0.268348
943.861912	0.266506
944.039629	0.265513
944.217328	0.263360
944.395009	0.261526
944.572672	0.260768
944.750317	0.260453
944.927943	0.260073
945.105551	0.259658
945.283141	0.257642
945.460712	0.255236
945.638265	0.252942
945.815801	0.252734
945.993317	0.250870
946.170816	0.248112
946.348297	0.246353
946.525759	0.244088
946.703203	0.240878
946.880629	0.240281
947.058036	0.239233
947.235425	0.237712
947.412797	0.236006
947.590149	0.235026
947.767484	0.233641
947.944800	0.231069
948.122099	0.230280
948.299379	0.229691
948.476640	0.226994
948.653884	0.225708
948.831109	0.224462
949.008316	0.223410
949.185505	0.221835
949.362676	0.220102
949.539828	0.218937
949.716962	0.217326
949.894078	0.215824
950.071176	0.215252
950.248256	0.214479
950.425317	0.212903
950.602360	0.210345
950.779385	0.209800
950.956391	0.208329
951.133380	0.208479
951.310350	0.208370
951.487302	0.205911
951.664235	0.204370
951.841151	0.203362
952.018048	0.203100
952.194927	0.203953
952.371788	0.202220
952.548631	0.202597
952.725455	0.199768
952.902261	0.196752
953.079049	0.196631
953.255819	0.195584
953.432570	0.192093
953.609303	0.189910
953.786018	0.187139
953.962715	0.185858
954.139394	0.185304
954.316054	0.184555
954.492696	0.182698
954.669320	0.179601
954.845926	0.177389
955.022513	0.177706
955.199083	0.175118
955.375634	0.172273
955.552166	0.170122
955.728681	0.165340
955.905177	0.163424
956.081655	0.161962
956.258115	0.161976
956.434557	0.159545
956.610980	0.158032
956.787385	0.157435
956.963772	0.156226
957.140141	0.155176
957.316492	0.155848
957.492824	0.154919
957.669138	0.154757
957.845434	0.152218
958.021712	0.153105
958.197971	0.151646
958.374212	0.151716
958.550435	0.150744
958.726640	0.149519
958.902826	0.148064
959.078995	0.144658
959.255145	0.144259
959.431277	0.144346
959.607390	0.142571
959.783486	0.142331
959.959563	0.141548
960.135622	0.141561
960.311662	0.141605
960.487685	0.140393
960.663689	0.143647
960.839675	0.141938
961.015643	0.143742
961.191593	0.143301
961.367524	0.140851
961.543437	0.139696
961.719332	0.139168
961.895209	0.139358
962.071067	0.139425
962.246907	0.136967
962.422730	0.135317
962.598533	0.135103
962.774319	0.135098
962.950086	0.137559
963.125835	0.135948
963.301566	0.136093
963.477279	0.136633
963.652973	0.134906
963.828650	0.134627
964.004308	0.135781
964.179947	0.131509
964.355569	0.130648
964.531172	0.129406
964.706757	0.128928
964.882324	0.129324
965.057873	0.127939
965.233403	0.127109
965.408916	0.126132
965.584410	0.125519
965.759885	0.127778
965.935343	0.127556
966.110782	0.125904
966.286203	0.125898
966.461606	0.125067
966.636991	0.122738
966.812357	0.122755
966.987705	0.124013
967.163035	0.123747
967.338347	0.121978
967.513641	0.121259
967.688916	0.123203
967.864173	0.123579
968.039412	0.121491
968.214632	0.122970
968.389835	0.124298
968.565019	0.123399
968.740185	0.122237
968.915333	0.120456
969.090462	0.122179
969.265573	0.119191
969.440667	0.117371
969.615741	0.118145
969.790798	0.117290
969.965836	0.116036
970.140856	0.116462
970.315858	0.116942
970.490842	0.117137
970.665808	0.115744
970.840755	0.117490
971.015684	0.119021
971.190595	0.118587
971.365487	0.118651
971.540362	0.119400
971.715218	0.119385
971.890056	0.120779
972.064875	0.121480
972.239677	0.121117
972.414460	0.120200
972.589225	0.120657
972.763972	0.121750
972.938700	0.122718
973.113411	0.123837
973.288103	0.122511
973.462777	0.119212
973.637432	0.120177
973.812070	0.120509
973.986689	0.121595
974.161290	0.121920
974.335873	0.121229
974.510437	0.120607
974.684984	0.120531
974.859512	0.121724
975.034022	0.123234
975.208513	0.121920
975.382987	0.122708
975.557442	0.121925
975.731879	0.120572
975.906298	0.121990
976.080698	0.121180
976.255080	0.121294
976.429445	0.121456
976.603790	0.121205
976.778118	0.122578
976.952427	0.120744
977.126719	0.119601
977.300992	0.120316
977.475246	0.118453
977.649483	0.117835
977.823701	0.115903
977.997901	0.113570
978.172083	0.115157
978.346247	0.115856
978.520392	0.114771
978.694519	0.116591
978.868628	0.117046
979.042719	0.117966
979.216791	0.118074
979.390845	0.118073
979.564882	0.120213
979.738899	0.120664
979.912899	0.120593
980.086880	0.123813
980.260843	0.124468
980.434788	0.125148
980.608715	0.126026
980.782623	0.126762
980.956514	0.126330
981.130386	0.125709
981.304240	0.124294
981.478075	0.122840
981.651892	0.121682
981.825692	0.119738
981.999472	0.118043
982.173235	0.117077
982.346980	0.117316
982.520706	0.120321
982.694414	0.118868
982.868104	0.119250
983.041775	0.120186
983.215428	0.122732
983.389064	0.124632
983.562680	0.125103
983.736279	0.125766
983.909860	0.127163
984.083422	0.125383
984.256966	0.127767
984.430491	0.126621
984.603999	0.125890
984.777488	0.123569
984.950959	0.122893
985.124412	0.121779
985.297847	0.121178
985.471263	0.120814
985.644661	0.120876
985.818041	0.121044
985.991403	0.120912
986.164747	0.121149
986.338072	0.121097
986.511379	0.121509
986.684668	0.122363
986.857938	0.123479
987.031191	0.121757
987.204425	0.122230
987.377641	0.120722
987.550839	0.120747
987.724018	0.121503
987.897179	0.120293
988.070322	0.119807
988.243447	0.121944
988.416554	0.120550
988.589642	0.121448
988.762712	0.120685
988.935764	0.121504
989.108798	0.122378
989.281813	0.121544
989.454811	0.122357
989.627790	0.122478
989.800751	0.121122
989.973693	0.121673
990.146617	0.120905
990.319524	0.122841
990.492412	0.122124
990.665281	0.122373
990.838133	0.122760
991.010966	0.123544
991.183781	0.124218
991.356578	0.124639
991.529356	0.124973
991.702117	0.126898
991.874859	0.126760
992.047583	0.128022
992.220288	0.128673
992.392976	0.127995
992.565645	0.126323
992.738296	0.124379
992.910929	0.124604
993.083543	0.125295
993.256139	0.124615
993.428718	0.123747
993.601277	0.124064
993.773819	0.122768
993.946342	0.124379
994.118848	0.127157
994.291335	0.128843
994.463803	0.129414
994.636254	0.128702
994.808686	0.129855
994.981100	0.130093
995.153496	0.129260
995.325874	0.130879
995.498233	0.129604
995.670574	0.129011
995.842897	0.128293
996.015202	0.128018
996.187488	0.128466
996.359757	0.127825
996.532007	0.128339
996.704239	0.128694
996.876452	0.127360
997.048648	0.128405
997.220825	0.128438
997.392984	0.129091
997.565124	0.129891
997.737247	0.129303
997.909351	0.128872
998.081437	0.128376
998.253505	0.128988
998.425554	0.128825
998.597586	0.127458
998.769599	0.126931
998.941594	0.126161
999.113571	0.123679
999.285529	0.123803
999.457469	0.124309
999.629391	0.125142
999.801295	0.124274
999.973181	0.123047
1000.145048	0.123420
1000.316897	0.123147
1000.488728	0.124242
1000.660541	0.124430
1000.832335	0.124067
1001.004111	0.123007
1001.175869	0.122535
1001.347609	0.122194
1001.519331	0.124984
1001.691034	0.127861
1001.862719	0.128757
1002.034386	0.127784
1002.206035	0.128931
1002.377665	0.129612
1002.549277	0.131513
1002.720871	0.132354
1002.892447	0.132756
1003.064004	0.131801
1003.235544	0.129240
1003.407065	0.129870
1003.578568	0.129887
1003.750052	0.130723
1003.921519	0.131867
1004.092967	0.131244
1004.264397	0.128928
1004.435809	0.129004
1004.607202	0.129318
1004.778577	0.130241
1004.949934	0.129193
1005.121273	0.130313
1005.292594	0.129011
1005.463896	0.128923
1005.635180	0.127766
1005.806446	0.127538
1005.977694	0.129566
1006.148923	0.129006
1006.320135	0.128553
1006.491328	0.128331
1006.662503	0.126890
1006.833659	0.125957
1007.004798	0.124482
1007.175918	0.123584
1007.347020	0.125486
1007.518103	0.122332
1007.689169	0.123102
1007.860216	0.122613
1008.031245	0.123518
1008.202256	0.125249
1008.373248	0.125786
1008.544223	0.125208
1008.715179	0.124344
1008.886117	0.123675
1009.057036	0.126408
1009.227938	0.125228
1009.398821	0.124347
1009.569686	0.122073
1009.740533	0.120405
1009.911361	0.120763
1010.082172	0.120858
1010.252964	0.123275
1010.423738	0.122348
1010.594493	0.120989
1010.765231	0.122380
1010.935950	0.124366
1011.106651	0.126334
1011.277334	0.125821
1011.447998	0.126333
1011.618645	0.126952
1011.789273	0.127468
1011.959882	0.130713
1012.130474	0.131166
1012.301048	0.132359
1012.471603	0.131819
1012.642140	0.130537
1012.812658	0.133120
1012.983159	0.132502
1013.153641	0.133350
1013.324105	0.133320
1013.494551	0.131159
1013.664979	0.131417
1013.835388	0.129133
1014.005779	0.127966
1014.176152	0.127831
1014.346507	0.127769
1014.516843	0.129070
1014.687162	0.126656
1014.857462	0.126780
1015.027744	0.125453
1015.198007	0.125774
1015.368252	0.126896
1015.538480	0.127746
1015.708689	0.129079
1015.878879	0.127188
1016.049052	0.127210
1016.219206	0.127982
1016.389342	0.128029
1016.559460	0.128978
1016.729559	0.128250
1016.899641	0.126969
1017.069704	0.127070
1017.239749	0.127006
1017.409775	0.127385
1017.579784	0.125737
1017.749774	0.125541
1017.919746	0.123656
1018.089700	0.123885
1018.259635	0.123448
1018.429553	0.125114
1018.599452	0.125854
1018.769333	0.125398
1018.939195	0.125092
1019.109040	0.126315
1019.278866	0.127029
1019.448674	0.128679
1019.618464	0.128004
1019.788235	0.128696
1019.957989	0.126525
1020.127724	0.126243
1020.297441	0.127606
1020.467139	0.128458
1020.636820	0.128954
1020.806482	0.130329
1020.976126	0.129253
1021.145752	0.130725
1021.315359	0.129996
1021.484948	0.129733
1021.654519	0.130250
1021.824072	0.129659
1021.993607	0.129667
1022.163123	0.129807
1022.332621	0.128281
1022.502101	0.131137
1022.671563	0.130380
1022.841007	0.132095
1023.010432	0.133392
1023.179839	0.132624
1023.349228	0.132461
1023.518598	0.133436
1023.687951	0.131290
1023.857285	0.132338
1024.026601	0.129140
1024.195899	0.129607
1024.365178	0.127668
1024.534439	0.127650
1024.703682	0.127068
1024.872907	0.128545
1025.042114	0.126757
1025.211302	0.128722
1025.380472	0.127756
1025.549624	0.127689
1025.718758	0.126361
1025.887873	0.127396
1026.056970	0.128530
1026.226049	0.130030
1026.395110	0.128567
1026.564153	0.129261
1026.733177	0.128820
1026.902183	0.130935
1027.071171	0.132342
1027.240141	0.132944
1027.409092	0.133129
1027.578026	0.132075
1027.746940	0.130197
1027.915837	0.129317
1028.084716	0.128567
1028.253576	0.128208
1028.422418	0.126767
1028.591242	0.126799
1028.760048	0.127333
1028.928835	0.127352
1029.097604	0.126933
1029.266355	0.128191
1029.435088	0.127618
1029.603803	0.126662
1029.772499	0.125691
1029.941177	0.127419
1030.109837	0.127354
1030.278478	0.126302
1030.447102	0.126706
1030.615707	0.126876
1030.784294	0.125903
1030.952863	0.127889
1031.121413	0.130436
1031.289945	0.130156
1031.458460	0.128865
1031.626955	0.128338
1031.795433	0.128042
1031.963892	0.125607
1032.132334	0.124962
1032.300756	0.126606
1032.469161	0.125169
1032.637548	0.123302
1032.805916	0.124879
1032.974266	0.124662
1033.142598	0.124980
1033.310911	0.125460
1033.479207	0.126033
1033.647484	0.125319
1033.815743	0.123085
1033.983983	0.124139
1034.152206	0.124731
1034.320410	0.122399
1034.488596	0.122163
1034.656764	0.123068
1034.824914	0.122968
1034.993045	0.124038
1035.161158	0.124612
1035.329253	0.125696
1035.497330	0.125829
1035.665388	0.125963
1035.833428	0.126284
1036.001450	0.124873
1036.169454	0.124423
1036.337440	0.124963
1036.505407	0.124388
1036.673356	0.124613
1036.841287	0.124330
1037.009200	0.124076
1037.177094	0.124685
1037.344970	0.126815
1037.512828	0.128022
1037.680668	0.127466
1037.848489	0.128177
1038.016293	0.128597
1038.184078	0.130620
1038.351845	0.130373
1038.519593	0.130435
1038.687324	0.129371
1038.855036	0.129940
1039.022730	0.129460
1039.190406	0.129850
1039.358063	0.129357
1039.525702	0.128953
1039.693323	0.126830
1039.860926	0.126829
1040.028511	0.127259
1040.196077	0.129059
1040.363625	0.127643
1040.531155	0.129147
1040.698667	0.127623
1040.866161	0.128086
1041.033636	0.129271
1041.201093	0.129650
1041.368532	0.130557
1041.535952	0.130905
1041.703355	0.128325
1041.870739	0.128598
1042.038105	0.126218
1042.205452	0.127232
1042.372782	0.126292
1042.540093	0.123877
1042.707386	0.124301
1042.874661	0.122141
1043.041918	0.121643
1043.209156	0.123489
1043.376376	0.124289
1043.543578	0.124872
1043.710762	0.123578
1043.877927	0.124463
1044.045074	0.126285
1044.212203	0.126135
1044.379314	0.126597
1044.546407	0.124821
1044.713481	0.124145
1044.880537	0.123682
1045.047575	0.125165
1045.214595	0.125756
1045.381596	0.124574
1045.548579	0.124517
1045.715544	0.124127
1045.882491	0.125566
1046.049420	0.126489
1046.216330	0.125625
1046.383222	0.125866
1046.550096	0.124701
1046.716951	0.123901
1046.883789	0.124305
1047.050608	0.125588
1047.217409	0.127141
1047.384192	0.128039
1047.550956	0.127100
1047.717703	0.128010
1047.884431	0.125677
1048.051140	0.127573
1048.217832	0.128270
1048.384505	0.129119
1048.551161	0.128339
1048.717798	0.128258
1048.884416	0.127318
1049.051017	0.127887
1049.217599	0.127301
1049.384163	0.128158
1049.550709	0.126241
1049.717237	0.124216
1049.883746	0.125112
1050.050237	0.124683
1050.216710	0.123024
1050.383165	0.121762
1050.549601	0.121386
1050.716019	0.122382
1050.882420	0.123042
1051.048801	0.123928
1051.215165	0.125876
1051.381510	0.123963
1051.547837	0.122977
1051.714146	0.123926
1051.880437	0.124738
1052.046709	0.125339
1052.212964	0.125759
1052.379200	0.124870
1052.545417	0.123502
1052.711617	0.123497
1052.877798	0.121719
1053.043961	0.123550
1053.210106	0.124398
1053.376233	0.123860
1053.542341	0.124213
1053.708432	0.122600
1053.874504	0.122796
1054.040557	0.122380
1054.206593	0.121966
1054.372610	0.126096
1054.538609	0.125131
1054.704590	0.123320
1054.870553	0.123846
1055.036497	0.123315
1055.202424	0.123351
1055.368331	0.123785
1055.534221	0.125900
1055.700093	0.127118
1055.865946	0.125602
1056.031781	0.125938
1056.197598	0.125598
1056.363397	0.126969
1056.529177	0.127121
1056.694939	0.128840
1056.860683	0.129139
1057.026409	0.127314
1057.192116	0.126384
1057.357806	0.127159
1057.523477	0.127097
1057.689130	0.127892
1057.854764	0.127287
1058.020381	0.127815
1058.185979	0.126858
1058.351559	0.127694
1058.517120	0.127762
1058.682664	0.128117
1058.848189	0.126952
1059.013696	0.125817
1059.179185	0.124119
1059.344656	0.123293
1059.510108	0.123863
1059.675542	0.124082
1059.840958	0.123201
1060.006356	0.123533
1060.171735	0.123689
1060.337096	0.123325
1060.502439	0.123656
1060.667764	0.125996
1060.833071	0.126729
1060.998359	0.126214
1061.163629	0.126113
1061.328881	0.124260
1061.494115	0.122639
1061.659330	0.122865
1061.824527	0.124463
1061.989706	0.126047
1062.154867	0.126280
1062.320010	0.125578
1062.485134	0.123812
1062.650240	0.124043
1062.815328	0.128116
1062.980398	0.129109
1063.145449	0.128432
1063.310482	0.126083
1063.475497	0.125038
1063.640494	0.124261
1063.805473	0.123515
1063.970433	0.125112
1064.135375	0.124648
1064.300299	0.122539
1064.465204	0.123311
1064.630092	0.124898
1064.794961	0.127065
1064.959812	0.124850
1065.124645	0.124591
1065.289459	0.128293
1065.454256	0.127459
1065.619034	0.128427
1065.783793	0.128006
1065.948535	0.128501
1066.113258	0.126265
1066.277964	0.125630
1066.442651	0.127428
1066.607319	0.127674
1066.771970	0.124636
1066.936602	0.124528
1067.101216	0.123377
1067.265812	0.123498
1067.430389	0.123530
1067.594949	0.125520
1067.759490	0.124972
1067.924013	0.125992
1068.088518	0.126359
1068.253004	0.127643
1068.417472	0.129283
1068.581922	0.129430
1068.746354	0.130186
1068.910768	0.131004
1069.075163	0.129801
1069.239540	0.129294
1069.403899	0.127395
1069.568240	0.128903
1069.732562	0.128528
1069.896866	0.128145
1070.061152	0.127022
1070.225420	0.126633
1070.389670	0.124266
1070.553901	0.126568
1070.718114	0.126655
1070.882309	0.129028
1071.046486	0.128166
1071.210644	0.128434
1071.374784	0.130340
1071.538906	0.131247
1071.703010	0.131033
1071.867096	0.133481
1072.031163	0.133474
1072.195212	0.134709
1072.359243	0.134063
1072.523256	0.134303
1072.687250	0.131668
1072.851226	0.128723
1073.015184	0.130792
1073.179124	0.129993
1073.343045	0.128044
1073.506949	0.127419
1073.670834	0.125253
1073.834701	0.125993
1073.998549	0.124660
1074.162380	0.126771
1074.326192	0.128648
1074.489986	0.126698
1074.653761	0.128329
1074.817519	0.128233
1074.981258	0.127257
1075.144979	0.129436
1075.308682	0.128218
1075.472367	0.131151
1075.636033	0.131985
1075.799681	0.129384
1075.963311	0.130587
1076.126923	0.130533
1076.290516	0.132297
1076.454092	0.133842
1076.617649	0.132209
1076.781187	0.133508
1076.944708	0.130679
1077.108210	0.128107
1077.271695	0.129604
1077.435160	0.127736
1077.598608	0.129111
1077.762038	0.130665
1077.925449	0.129430
1078.088842	0.130723
1078.252217	0.127524
1078.415573	0.128556
1078.578912	0.131263
1078.742232	0.130875
1078.905534	0.132607
1079.068817	0.130880
1079.232083	0.129025
1079.395330	0.127081
1079.558559	0.128761
1079.721770	0.130583
1079.884962	0.128815
1080.048136	0.128599
1080.211293	0.130165
1080.374430	0.130377
1080.537550	0.130472
1080.700651	0.130598
1080.863735	0.133218
1081.026800	0.130985
1081.189846	0.130990
1081.352875	0.132322
1081.515885	0.130770
1081.678877	0.128821
1081.841851	0.129043
1082.004807	0.128325
1082.167744	0.127495
1082.330663	0.125479
1082.493564	0.125948
1082.656447	0.128021
1082.819312	0.128172
1082.982158	0.127930
1083.144986	0.129905
1083.307796	0.129128
1083.470587	0.130087
1083.633361	0.129734
1083.796116	0.131124
1083.958853	0.130602
1084.121571	0.129464
1084.284272	0.130629
1084.446954	0.132379
1084.609618	0.131381
1084.772264	0.130304
1084.934892	0.129909
1085.097501	0.129729
1085.260092	0.133814
1085.422665	0.134674
1085.585220	0.135128
1085.747756	0.135961
1085.910274	0.135571
1086.072774	0.135561
1086.235256	0.138132
1086.397720	0.139236
1086.560165	0.141412
1086.722592	0.138747
1086.885001	0.136901
1087.047392	0.137106
1087.209764	0.135868
1087.372119	0.138563
1087.534455	0.139132
1087.696772	0.137109
1087.859072	0.135968
1088.021353	0.137520
1088.183616	0.138246
1088.345861	0.141031
1088.508088	0.141672
1088.670296	0.141713
1088.832486	0.139279
1088.994658	0.140026
1089.156812	0.140547
1089.318948	0.141694
1089.481065	0.140210
1089.643164	0.137429
1089.805245	0.136033
1089.967308	0.132848
1090.129352	0.134524
1090.291378	0.135168
1090.453386	0.135652
1090.615376	0.134192
1090.777347	0.131555
1090.939301	0.131510
1091.101236	0.133609
1091.263153	0.134812
1091.425051	0.137312
1091.586932	0.135285
1091.748794	0.133640
1091.910638	0.134936
1092.072463	0.140091
1092.234271	0.141695
1092.396060	0.142241
1092.557831	0.141764
1092.719584	0.142637
1092.881319	0.141650
1093.043035	0.140540
1093.204733	0.140269
1093.366413	0.137065
1093.528075	0.131770
1093.689718	0.132831
1093.851343	0.131080
1094.012950	0.129854
1094.174539	0.127472
1094.336110	0.127103
1094.497662	0.128756
1094.659196	0.131321
1094.820712	0.130030
1094.982210	0.131706
1095.143689	0.131842
1095.305151	0.133043
1095.466594	0.136859
1095.628018	0.136899
1095.789425	0.137433
1095.950813	0.135698
1096.112183	0.134984
1096.273535	0.135600
1096.434869	0.138497
1096.596184	0.136061
1096.757482	0.136768
1096.918761	0.131824
1097.080021	0.133530
1097.241264	0.133900
1097.402488	0.134442
1097.563694	0.135051
1097.724882	0.135716
1097.886052	0.130723
1098.047203	0.133196
1098.208336	0.131152
1098.369451	0.134059
1098.530548	0.131830
1098.691627	0.131282
1098.852687	0.133243
1099.013729	0.132946
1099.174753	0.132338
1099.335758	0.134773
1099.496746	0.134029
1099.657715	0.136621
1099.818666	0.134745
1099.979599	0.137974
1100.140513	0.138128
1100.301409	0.136313
1100.462287	0.135462
1100.623147	0.135338
1100.783989	0.134269
1100.944812	0.134487
1101.105617	0.132715
1101.266404	0.133614
1101.427173	0.131450
1101.587923	0.132053
1101.748656	0.132040
1101.909370	0.130919
1102.070066	0.130765
1102.230743	0.132776
1102.391403	0.132006
1102.552044	0.134371
1102.712667	0.133752
1102.873271	0.132973
1103.033858	0.132510
1103.194426	0.131718
1103.354976	0.135600
1103.515508	0.136324
1103.676021	0.136257
1103.836517	0.135315
1103.996994	0.134316
1104.157453	0.136763
1104.317893	0.137647
1104.478316	0.139549
1104.638720	0.141215
1104.799106	0.140181
1104.959474	0.142073
1105.119823	0.142429
1105.280155	0.142789
1105.440468	0.138955
1105.600763	0.137937
1105.761039	0.138791
1105.921298	0.135753
1106.081538	0.136412
1106.241760	0.136019
1106.401964	0.134713
1106.562149	0.133343
1106.722316	0.133425
1106.882465	0.135403
1107.042596	0.134567
1107.202709	0.135733
1107.362803	0.136993
1107.522879	0.135226
1107.682937	0.134140
1107.842977	0.135581
1108.002999	0.134000
1108.163002	0.136774
1108.322987	0.138389
1108.482954	0.139032
1108.642902	0.136521
1108.802833	0.136769
1108.962745	0.139727
1109.122639	0.141141
1109.282515	0.139396
1109.442372	0.142027
1109.602211	0.141033
1109.762032	0.142941
1109.921835	0.143435
1110.081620	0.145105
1110.241386	0.144325
1110.401134	0.141781
1110.560864	0.140591
1110.720576	0.141757
1110.880269	0.141061
1111.039945	0.142131
1111.199602	0.137775
1111.359240	0.137952
1111.518861	0.137527
1111.678463	0.137089
1111.838047	0.135886
1111.997613	0.136540
1112.157161	0.133326
1112.316690	0.131100
1112.476202	0.128716
1112.635695	0.128657
1112.795169	0.128644
1112.954626	0.132029
1113.114064	0.130648
1113.273484	0.129789
1113.432886	0.128338
1113.592270	0.130727
1113.751635	0.131214
1113.910983	0.132455
1114.070312	0.133918
1114.229622	0.132066
1114.388915	0.127670
1114.548189	0.130094
1114.707445	0.133088
1114.866683	0.135860
1115.025903	0.133786
1115.185104	0.133353
1115.344287	0.130638
1115.503452	0.131154
1115.662599	0.131622
1115.821727	0.131364
1115.980838	0.132624
1116.139930	0.130318
1116.299004	0.128931
1116.458059	0.129065
1116.617097	0.131675
1116.776116	0.136669
1116.935117	0.135645
1117.094099	0.133390
1117.253064	0.132778
1117.412010	0.134355
1117.570938	0.134256
1117.729848	0.132772
1117.888740	0.133571
1118.047613	0.133537
1118.206468	0.131533
1118.365305	0.134244
1118.524124	0.135210
1118.682924	0.137106
1118.841707	0.133880
1119.000471	0.137063
1119.159216	0.139834
1119.317944	0.142417
1119.476653	0.141182
1119.635344	0.139555
1119.794017	0.135478
1119.952672	0.141067
1120.111308	0.139916
1120.269927	0.139732
1120.428527	0.134923
1120.587108	0.129337
1120.745672	0.127321
1120.904217	0.125665
1121.062744	0.125866
1121.221253	0.127938
1121.379744	0.123307
1121.538216	0.125628
1121.696671	0.127961
1121.855107	0.133248
1122.013524	0.134819
1122.171924	0.135146
1122.330305	0.138626
1122.488668	0.137200
1122.647013	0.135147
1122.805340	0.134892
1122.963648	0.132789
1123.121938	0.126531
1123.280210	0.123977
1123.438464	0.125145
1123.596700	0.127144
1123.754917	0.125937
1123.913116	0.129567
1124.071297	0.128585
1124.229459	0.130077
1124.387604	0.130967
1124.545730	0.135848
1124.703838	0.135054
1124.861928	0.135424
1125.019999	0.132501
1125.178052	0.131665
1125.336088	0.127519
1125.494104	0.130422
1125.652103	0.128863
1125.810083	0.128763
1125.968045	0.126816
1126.125989	0.128296
1126.283915	0.126132
1126.441823	0.128312
1126.599712	0.128232
1126.757583	0.131942
1126.915436	0.133257
1127.073270	0.132520
1127.231087	0.134392
1127.388885	0.139641
1127.546665	0.139471
1127.704426	0.140421
1127.862170	0.136199
1128.019895	0.138705
1128.177602	0.134788
1128.335291	0.134902
1128.492961	0.132703
1128.650614	0.127568
1128.808248	0.121688
1128.965864	0.120540
1129.123461	0.124055
1129.281041	0.131839
1129.438602	0.128952
1129.596145	0.130476
1129.753670	0.130599
1129.911176	0.134931
1130.068665	0.141419
1130.226135	0.144020
1130.383587	0.141683
1130.541020	0.138173
1130.698436	0.136358
1130.855833	0.138373
1131.013212	0.139348
1131.170573	0.137489
1131.327915	0.136346
1131.485239	0.128047
1131.642545	0.128128
1131.799833	0.132054
1131.957103	0.129082
1132.114354	0.126694
1132.271588	0.127645
1132.428803	0.127948
1132.585999	0.127671
1132.743178	0.123416
1132.900338	0.127498
1133.057480	0.130077
1133.214604	0.127596
1133.371710	0.131359
1133.528797	0.134830
1133.685866	0.131656
1133.842917	0.135525
1133.999950	0.130447
1134.156964	0.135123
1134.313960	0.134595
1134.470938	0.131760
1134.627898	0.134844
1134.784840	0.136737
1134.941763	0.131114
1135.098668	0.130913
1135.255555	0.125193
1135.412424	0.130451
1135.569274	0.130249
1135.726107	0.131697
1135.882921	0.128929
1136.039716	0.127960
1136.196494	0.126759
1136.353253	0.128087
1136.509995	0.128566
1136.666717	0.126743
1136.823422	0.129338
1136.980109	0.127152
1137.136777	0.125652
1137.293427	0.126707
1137.450059	0.126177
1137.606672	0.123208
1137.763267	0.122626
1137.919844	0.122151
1138.076403	0.122978
1138.232944	0.117365
1138.389466	0.118166
1138.545971	0.118193
1138.702457	0.118396
1138.858924	0.119327
1139.015374	0.119263
1139.171805	0.118710
1139.328218	0.120937
1139.484613	0.124362
1139.640990	0.127962
1139.797348	0.127949
1139.953688	0.125812
1140.110010	0.132783
1140.266314	0.129139
1140.422600	0.133357
1140.578867	0.133536
1140.735116	0.130837
1140.891347	0.128439
1141.047559	0.129658
1141.203754	0.131395
1141.359930	0.130354
1141.516088	0.125436
1141.672228	0.127400
1141.828349	0.125666
1141.984452	0.122999
1142.140537	0.122166
1142.296604	0.125712
1142.452653	0.121180
1142.608683	0.119780
1142.764695	0.123648
1142.920689	0.117474
1143.076665	0.118033
1143.232622	0.115394
1143.388562	0.116470
1143.544483	0.119222
1143.700385	0.118611
1143.856270	0.126634
1144.012136	0.127403
1144.167985	0.127508
1144.323814	0.132717
1144.479626	0.134283
1144.635420	0.133685
1144.791195	0.133811
1144.946952	0.132992
1145.102691	0.129199
1145.258411	0.124176
1145.414113	0.121561
1145.569798	0.123446
1145.725463	0.120635
1145.881111	0.113803
1146.036741	0.116167
1146.192352	0.115097
1146.347945	0.114205
1146.503519	0.113832
1146.659076	0.111730
1146.814614	0.112541
1146.970134	0.109686
1147.125636	0.111038
1147.281120	0.118016
1147.436585	0.118682
1147.592032	0.124292
1147.747461	0.127023
1147.902872	0.127484
1148.058265	0.127646
1148.213639	0.130033
1148.368995	0.128370
1148.524333	0.125053
1148.679653	0.123226
1148.834954	0.121563
1148.990237	0.120905
1149.145502	0.116004
1149.300749	0.115013
1149.455977	0.115273
1149.611188	0.112851
1149.766380	0.112265
1149.921553	0.116479
1150.076709	0.116620
1150.231846	0.117184
1150.386966	0.116601
1150.542066	0.120121
1150.697149	0.119496
1150.852214	0.119926
1151.007260	0.122191
1151.162288	0.126295
1151.317298	0.126696
1151.472289	0.127369
1151.627263	0.126016
1151.782218	0.122950
1151.937155	0.121104
1152.092073	0.125798
1152.246974	0.123922
1152.401856	0.121239
1152.556720	0.120285
1152.711566	0.115631
1152.866393	0.114981
1153.021203	0.116432
1153.175994	0.119121
1153.330767	0.118043
1153.485521	0.114522
1153.640258	0.113450
1153.794976	0.111821
1153.949676	0.108295
1154.104358	0.112365
1154.259021	0.109820
1154.413667	0.110204
1154.568294	0.104939
1154.722903	0.111257
1154.877493	0.109406
1155.032066	0.114713
1155.186620	0.120203
1155.341156	0.122304
1155.495674	0.123996
1155.650173	0.124291
1155.804654	0.122429
1155.959118	0.127282
1156.113562	0.123781
1156.267989	0.129239
1156.422397	0.123725
1156.576788	0.121849
1156.731160	0.120524
1156.885513	0.115543
1157.039849	0.114459
1157.194166	0.114938
1157.348465	0.114480
1157.502746	0.112276
1157.657009	0.112350
1157.811253	0.111641
1157.965479	0.109786
1158.119687	0.106963
1158.273877	0.109260
1158.428048	0.106835
1158.582201	0.106959
1158.736337	0.106834
1158.890453	0.111596
1159.044552	0.104147
1159.198632	0.107423
1159.352694	0.109635
1159.506738	0.115935
1159.660764	0.115437
1159.814771	0.116618
1159.968761	0.119515
1160.122732	0.121556
1160.276685	0.119395
1160.430619	0.118758
1160.584535	0.117096
1160.738434	0.117152
1160.892313	0.118015
1161.046175	0.116334
1161.200019	0.113500
1161.353844	0.109746
1161.507651	0.102639
1161.661440	0.102229
1161.815210	0.107091
1161.968962	0.100441
1162.122697	0.097356
1162.276412	0.092268
1162.430110	0.091441
1162.583789	0.098415
1162.737451	0.100953
1162.891094	0.103346
1163.044718	0.102152
1163.198325	0.102964
1163.351913	0.107779
1163.505483	0.108250
1163.659035	0.107649
1163.812569	0.106195
1163.966084	0.105381
1164.119581	0.102914
1164.273060	0.105897
1164.426521	0.105011
1164.579964	0.100979
1164.733388	0.104626
1164.886794	0.105369
1165.040182	0.109251
1165.193551	0.111692
1165.346903	0.105147
1165.500236	0.106473
1165.653551	0.101809
1165.806848	0.099636
1165.960126	0.104677
1166.113386	0.101133
1166.266628	0.101058
1166.419852	0.098542
1166.573058	0.102553
1166.726245	0.111213
1166.879414	0.110588
1167.032565	0.113531
1167.185698	0.115307
1167.338812	0.109603
1167.491909	0.112867
1167.644987	0.113632
1167.798046	0.114376
1167.951088	0.107912
1168.104111	0.106081
1168.257117	0.106671
1168.410103	0.102487
1168.563072	0.103409
1168.716023	0.107566
1168.868955	0.105305
1169.021869	0.101048
1169.174765	0.101957
1169.327642	0.101632
1169.480501	0.099070
1169.633343	0.097853
1169.786165	0.100126
1169.938970	0.099905
1170.091757	0.099340
1170.244525	0.098745
1170.397275	0.098762
1170.550007	0.097641
1170.702720	0.094428
1170.855415	0.092424
1171.008092	0.088708
1171.160751	0.086665
1171.313392	0.082711
1171.466014	0.084982
1171.618619	0.075275
1171.771205	0.075275
1171.923772	0.075275
