sample name	sample
index	1472
start time	 05-18-2021  12:08:54 PM
880	-0.026768
Peak Time (s)	90.038
Peak Height 	-0.02677
calc peak height	90,93
Baseline Time (s)	10.037
Baseline Value 	-0.005192
subtract baseline	10,4
Abs	-0.029500
Peak Time (s)	90.038
Peak Height 	-0.0295
calc peak height	90,93
Baseline Time (s)	10.037
Baseline Value 	0.004508
subtract baseline	10,3
PK_550	0.002337
Peak Time (s)	92.537
Peak Height 	0.002337
calc peak height	90,93
Baseline Time (s)	11.037
Baseline Value 	3.7884E-4
subtract baseline	10,2
PK_880	-0.019701
Peak Time (s)	91.536
Peak Height 	-0.0197
calc peak height	90,93
Baseline Time (s)	10.037
Baseline Value 	0.00134
subtract baseline	10,1


Time (s)	A880-A510	A880-A775	A880-A975	A880	I510	I775	I975	I880	
0.035000	0.001206	0.001041	-0.004226	0.002455	6570.433581	44816.031521	3936.582353	23330.017793
0.535500	-0.003634	-0.000608	-0.009852	0.005322	6505.860391	44382.627596	3916.065450	23195.563101
1.057000	-0.000084	-0.000563	-0.007016	0.002875	6556.002410	44621.130353	3928.779006	23310.239060
1.566000	-0.000402	-0.000276	0.000399	0.000703	6571.648634	44857.986687	3952.253132	23412.611679
2.037000	0.000179	0.000344	-0.001353	0.000990	6574.127851	44890.063791	3947.215711	23399.042456
2.536500	-0.002293	-0.000397	-0.003972	0.003932	6528.604682	44535.737552	3933.602598	23260.636283
3.034500	0.002413	0.000062	0.000064	-0.001314	6612.738728	45086.059480	3956.427350	23508.145587
3.537500	0.001211	-0.000052	-0.003858	0.000156	6589.964545	44932.526566	3943.107921	23438.482791
4.035000	-0.000811	-0.000008	0.000488	0.003286	6546.439256	44635.081387	3946.096988	23290.953704
4.535500	0.000194	-0.000234	-0.001320	0.000167	6581.231601	44913.839969	3949.329425	23437.960140
5.036000	0.001702	0.000418	-0.000853	0.000513	6591.098320	44943.454873	3949.628445	23421.590893
5.539000	0.001778	-0.000007	-0.002428	0.000454	6592.251514	44908.060862	3945.891955	23424.393445
6.036000	0.000519	-0.000600	-0.007618	-0.000166	6586.813718	44910.577134	3934.701714	23453.703560
6.536500	0.000789	-0.000053	0.001708	0.000226	6585.781576	44925.573928	3956.684816	23435.149797
7.036500	-0.000269	0.000106	0.000667	-0.000020	6578.893049	44964.855350	3954.709209	23446.807062
7.537000	0.000848	-0.000067	-0.002678	0.000041	6587.851246	44942.181054	3946.290833	23443.916164
8.037500	-0.000866	0.000254	-0.000015	0.000025	6573.454957	44974.730885	3952.906927	23444.665836
8.535000	0.001805	0.000523	-0.008515	0.000326	6593.559405	44971.625943	3931.324424	23430.425303
9.035500	0.000798	0.000138	0.004103	-0.000001	6587.786719	44966.030017	3963.220454	23445.894387
9.535000	-0.001765	-0.000440	-0.001767	-0.000989	6574.428304	45005.723796	3951.078653	23492.686401
10.036500	0.000000	0.000411	0.000000	0.000000	6581.003779	44992.421326	3953.006561	23445.853267
10.536000	-0.000120	-0.000024	0.000860	-0.000187	6581.568715	44968.326469	3955.603138	23454.688067
11.036500	0.000086	0.000000	-0.000026	0.000034	6581.444255	44949.310207	3952.857645	23444.242360
11.536500	-0.000733	-0.000012	0.001858	0.000280	6572.427015	44924.283941	3956.922470	23432.595742
12.036500	0.001372	0.000800	0.002125	0.000773	6586.087612	44955.246931	3956.361301	23409.328797
12.537000	0.000132	-0.000143	-0.003690	0.000186	6580.543983	44920.767832	3943.446843	23437.050926
13.034000	0.002168	0.000165	0.000520	-0.001877	6615.454810	45150.688851	3958.961716	23534.865124
13.535000	0.001114	0.000539	0.000657	-0.000140	6591.654956	45018.337601	3954.982478	23452.488665
14.035500	0.000452	0.000168	0.001993	0.003359	6556.442541	44644.941522	3949.629650	23287.535672
14.535500	-0.001150	-0.000270	0.000706	0.001716	6556.787362	44760.790456	3950.507345	23364.798041
15.038000	0.000116	-0.000299	0.002149	-0.000228	6583.927375	44945.752369	3958.911899	23456.656636
15.567500	-0.000693	0.000396	-0.000607	-0.000284	6577.535503	45018.418442	3952.204744	23459.274549
16.036500	-0.000462	-0.000250	-0.003791	0.003426	6548.187574	44598.362325	3935.275501	23284.366047
16.539500	-0.002494	0.000045	0.000091	0.004923	6518.656389	44483.100009	3941.100072	23214.189238
17.036500	0.000862	0.001156	-0.004773	0.000128	6587.227909	45052.237295	3940.933959	23439.791958
17.537500	0.000100	0.000759	0.005462	-0.000402	6585.257056	45065.109189	3967.630656	23464.868014
18.037500	-0.000057	0.000086	-0.002914	0.001243	6570.002937	44840.785196	3942.757500	23387.129897
18.535000	-0.001855	-0.000807	-0.000328	0.002344	6545.579005	44648.783139	3946.406010	23335.224779
19.035500	0.000220	0.000473	-0.005466	0.001521	6569.993006	44851.325116	3935.836136	23374.007430
19.538500	-0.000612	-0.000515	-0.002465	0.000796	6569.089770	44825.947852	3944.959485	23408.237172
20.035500	0.000161	0.000012	-0.000352	0.001236	6571.898344	44834.327349	3949.079532	23387.430217
20.536000	0.002090	-0.000192	0.005284	0.000870	6591.358901	44849.896498	3963.997621	23404.712474
21.036500	-0.000396	-0.000281	-0.001014	0.000946	6569.643293	44834.043388	3948.162090	23401.126140
21.536500	-0.002047	0.000376	-0.001605	0.001167	6553.854229	44876.106623	3946.161833	23390.696197
22.037000	-0.001870	-0.000509	-0.002648	0.001210	6554.985831	44786.529264	3943.491168	23388.670506
22.537000	-0.000748	0.000277	-0.002063	0.000963	6566.525916	44886.329219	3945.536577	23400.346720
23.038000	0.000301	-0.000035	-0.001794	0.000683	6577.767871	44883.195858	3946.888512	23413.564238
23.535500	-0.000394	0.000842	-0.001378	0.001369	6566.083612	44901.646980	3946.220738	23381.158529
24.035500	-0.000450	-0.000226	-0.004367	0.001527	6564.283464	44783.308856	3938.504011	23373.738302
24.536000	-0.000192	0.000667	0.000074	0.001150	6569.639835	44905.848456	3950.343488	23391.485990
25.036500	-0.000954	-0.000113	0.000050	0.000637	6567.537950	44880.070043	3951.552737	23415.723878
25.536500	-0.000141	0.000020	-0.003992	0.000904	6572.150970	44867.098264	3940.945148	23403.098169
26.037000	0.000989	0.000353	-0.003686	0.001206	6579.161436	44870.162592	3940.954926	23388.866602
26.536500	0.000518	0.000468	-0.005150	0.001411	6573.444433	44861.485876	3936.875968	23379.211651
27.034500	0.000423	-0.000049	0.005436	0.000700	6578.654703	44880.182031	3964.804931	23412.756696
27.534500	-0.000618	0.000296	-0.000653	0.000941	6567.810585	44890.222032	3949.066381	23401.381314
28.035000	0.000225	0.000016	-0.001567	-0.002199	6601.606214	45167.489741	3954.574270	23550.169487
28.535000	0.000898	0.000951	0.001067	-0.000145	6589.855401	45058.831795	3956.013290	23452.728257
29.038500	0.001751	0.000527	-0.000161	-0.000056	6596.353799	45009.019113	3952.745325	23448.490105
29.536000	0.001268	0.000617	-0.002922	-0.000259	6593.971768	45037.497602	3946.428629	23458.118646
30.036000	0.001274	-0.000079	0.000966	-0.000698	6597.758086	45012.533555	3957.138399	23478.919218
30.536000	0.000615	0.000207	-0.002240	-0.000746	6592.560564	45044.943127	3949.311987	23481.208445
31.037000	0.002009	0.000019	-0.001268	-0.000883	6605.605482	45040.042365	3952.053951	23487.703395
31.542500	0.000087	-0.000027	-0.001231	-0.000994	6590.184808	45046.285885	3952.420983	23492.961425
32.037500	-0.000828	-0.000382	-0.000414	0.001789	6558.887765	44743.017123	3947.562672	23361.371281
32.554000	-0.002562	-0.000677	-0.006039	0.003100	6533.307774	44588.584587	3930.600895	23299.662620
33.062500	0.002119	0.000417	-0.001004	-0.000942	6607.049345	45084.412655	3952.855011	23490.495715
33.535500	0.000886	0.000460	-0.002251	-0.001175	6598.517098	45111.091203	3950.344538	23501.530313
34.036000	0.001043	0.000506	-0.003087	-0.000901	6597.527645	45089.037657	3947.606636	23488.557291
34.536000	-0.001779	0.000584	-0.003693	0.005106	6523.097814	44517.311626	3931.426828	23205.651542
35.036000	0.004140	0.000165	0.003431	-0.002362	6636.538137	45197.823339	3967.454629	23557.929719
35.536000	0.000846	0.000326	0.006097	0.001201	6577.997867	44868.054045	3965.206132	23389.112840
36.036500	0.000789	0.000289	-0.003915	0.000864	6580.363544	44896.926981	3941.231482	23404.993638
36.537000	-0.001098	-0.000410	-0.003204	0.000643	6566.267905	44850.754958	3943.516489	23415.436458
37.035000	0.000116	0.000168	-0.000458	0.000915	6574.229336	44880.369843	3949.608459	23402.584569
37.538000	-0.000848	0.000138	0.000635	0.001306	6562.787228	44839.661763	3951.343797	23384.129354
38.035000	-0.000518	-0.000717	-0.006550	0.000422	6573.047189	44842.501145	3935.871683	23425.901389
38.538000	-0.001151	-0.000565	-0.004852	0.000963	6563.122020	44804.970223	3938.696290	23400.315741
39.036000	-0.003573	-0.000565	-0.001241	0.001095	6541.639422	44792.201473	3947.232925	23394.087306
39.536500	0.002530	0.000642	-0.002934	0.001863	6586.662825	44834.607741	3941.189859	23357.900671
40.036500	0.000159	0.000160	-0.001421	0.000951	6574.297866	44876.100489	3947.146064	23400.905168
40.537000	-0.001508	0.000114	-0.003173	0.002081	6550.703403	44762.737266	3940.068210	23347.620404
41.037000	-0.000786	0.000101	0.005950	0.001037	6565.583598	44862.111241	3965.245654	23396.834509
41.534500	0.002461	0.001331	0.003024	0.001857	6586.126299	44901.673695	3955.900660	23358.143778
42.034500	-0.000212	0.000279	0.005197	0.001489	6566.605217	44835.618930	3962.232384	23375.497776
42.535000	-0.000408	-0.000239	-0.006440	0.001581	6564.183906	44776.828175	3933.317469	23371.176274
43.036000	-0.000296	-0.000470	0.001441	0.000979	6570.208723	44812.625698	3954.150003	23399.563000
43.536000	0.000180	0.000138	-0.002708	0.001651	6568.551712	44806.402558	3942.261468	23367.869179
44.036000	-0.000289	0.000773	-0.001831	0.001868	6562.759362	44846.767167	3943.882454	23357.642909
44.536000	-0.000080	-0.000523	0.001437	0.000838	6573.225949	44821.068715	3954.490801	23406.240512
45.037000	0.002591	0.000973	0.001231	0.002291	6583.550932	44825.211470	3950.383303	23337.721651
45.537000	0.001098	0.000382	-0.004943	-0.000638	6595.758970	45051.483994	3942.394083	23476.089712
46.037500	0.000186	-0.000237	0.001088	0.001735	6567.890775	44762.171246	3951.404131	23363.892791
46.564500	0.000186	0.000009	0.003585	-0.000667	6588.246514	45018.083412	3963.591842	23477.457780
47.035000	0.000795	0.000285	0.003593	-0.000519	6592.154723	45030.488750	3963.242247	23470.414371
47.535000	0.001543	-0.000010	-0.000246	-0.000883	6601.623111	45037.106175	3954.585322	23487.663474
48.038500	-0.002161	0.000366	0.001094	0.003170	6536.083936	44682.047563	3947.874930	23296.379286
48.536000	-0.000613	-0.000173	-0.006675	0.003432	6546.869011	44605.178475	3928.257963	23284.091291
49.036500	0.000869	0.000096	0.005166	0.001572	6575.051098	44810.023623	3961.947186	23371.602460
49.536500	0.000542	0.000177	0.000453	0.002266	6566.415637	44750.889909	3948.523923	23338.903070
50.037000	0.000618	0.000313	-0.002226	0.004318	6549.770967	44566.769061	3936.916317	23242.540831
50.540000	-0.000611	0.000223	0.002288	0.001185	6565.809938	44859.569407	3955.741536	23389.855019
51.037000	0.002246	0.000169	0.002565	-0.000632	6605.485271	45030.179556	3960.957240	23475.785055
51.535000	0.000353	0.001328	-0.000083	-0.001519	6596.901739	45228.952224	3956.569794	23517.840568
52.035500	-0.000818	-0.000234	-0.003372	0.003596	6543.773868	44583.655865	3935.882871	23276.401960
52.537500	0.000667	0.000694	0.004516	0.012683	6480.526750	43808.149946	3932.961488	22854.338594
53.036000	-0.004349	-0.005206	0.005686	0.015267	6418.404268	43017.331813	3929.530783	22735.953128
53.536000	0.013562	-0.009581	0.010721	0.289837	4848.050744	24016.127756	3442.887238	13438.439412
54.036500	-0.010854	-0.019283	-0.012225	-0.080584	7222.265405	51324.171634	4136.414646	27635.927399
54.536500	-0.021888	-0.018702	-0.016707	-0.018297	6550.684381	44913.442279	3956.952817	24330.184318
55.037000	-0.035789	-0.054343	-0.025678	-0.209653	8393.697410	63021.589213	4520.531534	36198.302850
55.540000	-0.029964	-0.091306	-0.017685	-0.263821	9207.616675	65450.147620	4773.425892	40622.287284
56.035000	-0.031697	-0.087444	-0.012977	-0.257803	9096.039643	65140.561290	4767.717032	40103.130270
56.584000	-0.024968	-0.051131	-0.007168	-0.201533	8427.958071	62346.100156	4560.320835	35581.349685
57.035000	-0.019974	-0.037418	-0.008170	-0.167114	8065.784088	59579.539370	4428.486908	33090.868203
57.554500	-0.020248	-0.026750	-0.015916	-0.144302	7798.307924	58017.269907	4323.079508	31545.711626
58.036000	-0.019117	-0.019792	-0.018994	-0.127144	7620.802922	56738.426638	4257.247288	30435.797195
58.536500	-0.021189	-0.015453	-0.025792	-0.119295	7514.166933	56305.273733	4211.479523	29942.551847
59.182500	-0.019875	-0.016359	-0.027185	-0.127362	7614.937496	57192.753901	4232.143243	30449.656663
59.537000	-0.019782	-0.017155	-0.028916	-0.124610	7586.146846	56751.207491	4218.226960	30275.580617
60.086500	-0.015461	-0.014203	-0.026684	-0.120243	7585.662445	56576.094765	4211.651283	30001.647948
60.537500	-0.011693	-0.010019	-0.027609	-0.114427	7563.606018	56374.824483	4191.094031	29641.032655
61.038000	-0.014612	-0.008322	-0.029210	-0.088906	7267.935762	53521.672389	4111.544192	28114.588039
61.538500	-0.022928	-0.008878	-0.026205	-0.063714	6943.535133	50609.054461	4050.062597	26693.277864
62.041500	-0.016057	-0.006970	-0.022208	-0.065397	7023.986916	51004.876360	4065.501817	26785.647738
62.538500	-0.022821	-0.014775	-0.027464	-0.098197	7278.838774	53853.344235	4143.317454	28659.932828
63.036500	-0.021587	-0.011194	-0.024553	-0.046174	6795.458743	48477.881796	4007.926594	25751.251745
63.536500	-0.026358	-0.010509	-0.028809	-0.037607	6677.619487	47658.622401	3975.025589	25304.786733
64.036500	-0.022157	-0.001598	-0.029510	0.011999	6302.530924	43657.119021	3854.933381	22885.819599
64.567500	-0.018595	-0.002232	-0.028005	-0.005078	6468.174637	45228.940176	3897.679681	23687.551653
65.168000	-0.022569	-0.001098	-0.030232	-0.012764	6498.805407	46096.831671	3910.588218	24058.804114
65.537500	-0.020727	0.000066	-0.030430	-0.017246	6551.613803	46661.895032	3920.836367	24278.395917
66.050000	-0.022926	-0.000916	-0.028369	-0.020761	6562.695625	46917.622846	3934.322288	24452.143698
66.539000	-0.026112	-0.000797	-0.029288	-0.022779	6552.856179	47134.658126	3936.999786	24552.540500
67.035500	-0.023603	-0.001628	-0.029017	-0.028928	6626.421411	47679.346629	3952.785898	24861.358665
67.536000	-0.027090	-0.001621	-0.034890	-0.034719	6646.254310	48280.924046	3952.583636	25156.268266
68.036500	-0.025302	-0.001182	-0.033054	-0.040180	6709.328151	48901.320354	3970.806063	25437.966368
68.536500	-0.023125	-0.000300	-0.030839	-0.042639	6750.212262	49256.388927	3982.639756	25565.958446
69.037000	-0.021112	-0.000131	-0.031119	-0.045726	6795.709244	49605.101515	3989.811305	25727.704329
69.539500	-0.024200	-0.000838	-0.037192	-0.048279	6790.908522	49803.902400	3980.826423	25862.313423
70.037000	-0.022944	0.000514	-0.034414	-0.046229	6783.803438	49728.608982	3982.681224	25754.168602
70.537500	-0.021990	0.000180	-0.031455	-0.048109	6809.226409	49895.481793	3995.067271	25853.316759
71.035000	-0.020174	0.000818	-0.034729	-0.048539	6829.498005	50011.162892	3987.768753	25876.034430
71.538000	-0.021690	0.001644	-0.032665	-0.047690	6808.158050	50008.670882	3990.880590	25831.185123
72.035500	-0.024430	0.001631	-0.034208	-0.042806	6740.141189	49480.827691	3974.521002	25574.696722
72.539000	-0.022719	0.000598	-0.033215	-0.045161	6776.270724	49622.724774	3983.014430	25698.022360
73.036000	-0.022205	0.000059	-0.035004	-0.044183	6772.121007	49459.879030	3975.988183	25646.707456
73.536500	-0.020995	0.000916	-0.034694	-0.041396	6758.086685	49253.570621	3969.739257	25501.174548
74.036500	-0.023146	0.000715	-0.035337	-0.036365	6694.795347	48698.714877	3955.555662	25240.777686
74.540000	-0.021205	0.001521	-0.036456	-0.036632	6714.133617	48811.833103	3953.442483	25254.510034
75.037000	-0.021910	0.001478	-0.038180	-0.035609	6698.992644	48699.430037	3946.656505	25201.928436
75.534500	-0.021833	0.002955	-0.032403	-0.032466	6672.257928	48524.131201	3953.161777	25041.072367
76.035500	-0.022484	0.003068	-0.034324	-0.026886	6618.517294	47953.758146	3934.737467	24758.350953
76.535000	-0.020820	0.002927	-0.030676	-0.027188	6635.386278	47970.426356	3944.399900	24773.542034
77.035500	-0.019998	0.002207	-0.034913	-0.026977	6640.653021	47873.971433	3933.526030	24762.939153
77.536000	-0.022289	0.003165	-0.029385	-0.024193	6597.178821	47685.365202	3940.219364	24623.180371
78.036000	-0.022649	0.002076	-0.031591	-0.019505	6554.446933	47093.947281	3923.478473	24389.919184
78.536500	-0.022202	0.002855	-0.029302	-0.021243	6572.887798	47350.686687	3933.225048	24476.104332
79.036500	-0.020259	0.002142	-0.031420	-0.020155	6580.127668	47166.765041	3925.458522	24422.107527
79.537500	-0.020323	0.002198	-0.030188	-0.019246	6571.881694	47079.953620	3926.236515	24377.077881
80.037500	-0.023407	0.002603	-0.029977	-0.015375	6513.536290	46728.985596	3917.434065	24186.458900
80.535000	-0.019420	0.001717	-0.029483	-0.018677	6574.709191	46973.290860	3926.564782	24348.943204
81.038000	-0.019771	0.001652	-0.029440	-0.018995	6574.432405	46998.955107	3927.439844	24364.670647
81.847500	-0.022636	0.001066	-0.033425	-0.019597	6555.329220	47000.572819	3919.288487	24394.451912
82.240500	-0.021572	0.002418	-0.027900	-0.018832	6557.852608	47060.253326	3930.776561	24356.634636
82.541000	-0.018801	0.002731	-0.025466	-0.018628	6579.532642	47071.243688	3936.199105	24346.517378
83.039500	-0.020741	0.001821	-0.032086	-0.020034	6575.008903	47121.739412	3923.559396	24416.077265
83.575500	-0.021869	0.000755	-0.032786	-0.020247	6567.274850	47034.980653	3922.387103	24426.646036
84.039500	-0.021091	0.001649	-0.025336	-0.019466	6567.247033	47046.536174	3938.561109	24387.950646
84.537500	-0.020130	0.001436	-0.029549	-0.019393	6574.761860	47017.451767	3928.137226	24384.346837
85.035000	-0.019549	0.001469	-0.031656	-0.019809	6583.205271	47063.068061	3924.052415	24404.946202
85.537500	-0.021232	0.000286	-0.035677	-0.020488	6574.696839	47011.887756	3916.028113	24438.595234
86.038500	-0.020414	0.001543	-0.031320	-0.020341	6580.385481	47124.673588	3926.146659	24431.300982
86.536000	-0.020990	0.000584	-0.027906	-0.020999	6581.086142	47094.095488	3936.031099	24463.991948
87.036000	-0.021817	0.000634	-0.031424	-0.021752	6580.448131	47175.773363	3929.309518	24501.379944
87.536500	-0.022394	0.000550	-0.029496	-0.022854	6584.903637	47279.652351	3936.677545	24556.295405
88.036500	-0.022986	0.001952	-0.031803	-0.022800	6579.429180	47417.584970	3930.933138	24553.607791
88.536500	-0.019302	0.000683	-0.028456	-0.024574	6625.966606	47469.314028	3943.432331	24642.237958
89.037000	-0.021065	0.000232	-0.035192	-0.026006	6623.133822	47570.138355	3930.487749	24714.098230
89.534000	-0.021213	0.001198	-0.032486	-0.026096	6622.633759	47678.812543	3937.290854	24718.602142
90.037500	-0.022773	0.001217	-0.029500	-0.026768	6615.027674	47750.030297	3946.258075	24752.381845
90.535000	-0.020367	0.000623	-0.030507	-0.027834	6644.853481	47798.782221	3946.405941	24806.127144
91.035500	-0.021171	0.001621	-0.033422	-0.028467	6643.375921	47967.552111	3940.800897	24838.057792
91.536000	-0.019701	0.001909	-0.029774	-0.028160	6653.419177	47965.584555	3949.014911	24822.547678
92.036000	-0.019906	0.001256	-0.029894	-0.029167	6660.355679	48002.314659	3951.207050	24873.457094
92.536500	-0.020558	0.002337	-0.030915	-0.028433	6648.372351	48038.350825	3946.873484	24836.340876
93.036500	-0.019057	0.001349	-0.033193	-0.030187	6676.582156	48118.034320	3945.584655	24925.139406
93.537000	-0.020396	0.001920	-0.030698	-0.029612	6659.968663	48117.618191	3950.319664	24896.008149
94.037000	-0.020979	0.001620	-0.031464	-0.029848	6656.966902	48110.909763	3949.009954	24907.947181
94.537500	-0.018421	0.001956	-0.030239	-0.029658	6677.512023	48126.208408	3951.567697	24898.337383
95.043000	-0.017580	0.002058	-0.031479	-0.029854	6686.547545	48157.260608	3948.989521	24908.286429
95.535000	-0.021756	0.002633	-0.026207	-0.029604	6648.144084	48191.082849	3961.455819	24895.596886
96.035500	-0.019810	0.002090	-0.030749	-0.029234	6661.768366	48095.920349	3949.258573	24876.845468
96.536000	-0.019077	0.002467	-0.025865	-0.029144	6667.345147	48125.817768	3961.160844	24872.300672
97.036000	-0.019595	0.002762	-0.032263	-0.028991	6661.527648	48140.625211	3944.930411	24864.564239
97.536500	-0.021587	0.002350	-0.034141	-0.029741	6650.791537	48175.870978	3942.162678	24902.566386
98.037000	-0.023006	0.002071	-0.031071	-0.028567	6628.451654	48024.733540	3946.821567	24843.140904
98.537000	-0.018837	0.002389	-0.028904	-0.029357	6671.285570	48139.951121	3954.129639	24883.104462
