sample name	sample
index	267
start time	 02-25-2021  11:22:28 AM


Wavelength (nm)	Absorbance
494.344910	-0.039854
494.563924	-0.039854
494.782919	-0.039854
495.001897	0.253893
495.220856	-0.070552
495.439797	-0.049750
495.658719	-0.036760
495.877624	-0.021128
496.096510	-0.024183
496.315378	-0.008308
496.534227	0.035939
496.753059	0.023540
496.971872	0.011174
497.190667	0.027804
497.409444	0.020527
497.628203	0.018345
497.846943	0.015999
498.065665	0.015512
498.284369	0.016700
498.503055	0.016640
498.721723	0.016338
498.940372	0.015515
499.159003	0.016032
499.377616	0.015336
499.596210	0.015135
499.814787	0.015437
500.033345	0.014133
500.251885	0.012894
500.470406	0.013051
500.688910	0.012558
500.907395	0.013928
501.125862	0.012896
501.344311	0.013269
501.562742	0.013520
501.781154	0.013054
501.999548	0.014080
502.217924	0.014422
502.436282	0.013315
502.654621	0.013573
502.872942	0.012703
503.091245	0.013312
503.309530	0.013527
503.527797	0.013410
503.746045	0.013608
503.964275	0.013126
504.182487	0.013560
504.400681	0.014795
504.618856	0.015756
504.837013	0.016028
505.055152	0.015427
505.273273	0.015149
505.491376	0.014903
505.709460	0.015336
505.927526	0.016116
506.145574	0.016579
506.363604	0.015744
506.581615	0.014617
506.799608	0.014188
507.017583	0.013855
507.235540	0.014439
507.453478	0.014604
507.671399	0.014126
507.889301	0.014240
508.107185	0.013527
508.325050	0.013773
508.542898	0.014735
508.760727	0.014884
508.978538	0.015394
509.196330	0.014856
509.414105	0.015136
509.631861	0.015671
509.849599	0.015054
510.067319	0.015202
510.285021	0.015616
510.502704	0.015225
510.720369	0.015311
510.938016	0.014983
511.155645	0.016160
511.373255	0.015609
511.590848	0.015463
511.808422	0.016044
512.025977	0.016091
512.243515	0.015761
512.461034	0.014898
512.678536	0.015345
512.896018	0.015516
513.113483	0.014468
513.330930	0.014483
513.548358	0.014175
513.765768	0.013793
513.983160	0.013276
514.200533	0.012595
514.417889	0.013329
514.635226	0.013272
514.852545	0.013938
515.069845	0.013846
515.287128	0.014530
515.504392	0.015040
515.721638	0.015561
515.938866	0.015976
516.156075	0.016600
516.373267	0.016519
516.590440	0.016113
516.807594	0.015402
517.024731	0.014994
517.241850	0.014626
517.458950	0.014267
517.676032	0.013971
517.893095	0.013400
518.110141	0.013310
518.327168	0.012920
518.544177	0.012859
518.761168	0.013149
518.978141	0.013539
519.195095	0.012950
519.412031	0.012575
519.628949	0.012380
519.845849	0.013106
520.062731	0.012750
520.279594	0.013083
520.496439	0.013125
520.713266	0.012573
520.930074	0.012686
521.146865	0.012857
521.363637	0.013141
521.580391	0.013133
521.797127	0.012637
522.013844	0.013119
522.230543	0.013748
522.447224	0.014237
522.663887	0.014430
522.880532	0.014479
523.097158	0.014686
523.313766	0.015058
523.530356	0.014891
523.746928	0.015119
523.963481	0.014903
524.180017	0.014235
524.396534	0.013916
524.613032	0.014147
524.829513	0.014318
525.045975	0.014090
525.262420	0.014069
525.478845	0.014179
525.695253	0.014132
525.911643	0.014326
526.128014	0.014321
526.344367	0.014628
526.560702	0.014511
526.777018	0.014539
526.993316	0.015202
527.209597	0.014780
527.425858	0.015023
527.642102	0.014668
527.858328	0.014518
528.074535	0.015213
528.290724	0.014921
528.506894	0.014862
528.723047	0.014643
528.939181	0.014854
529.155297	0.015309
529.371395	0.015456
529.587475	0.015352
529.803536	0.015965
530.019579	0.015824
530.235604	0.015850
530.451611	0.016206
530.667600	0.016344
530.883570	0.015456
531.099522	0.015234
531.315456	0.015224
531.531372	0.015694
531.747269	0.015679
531.963148	0.015642
532.179009	0.015973
532.394852	0.015679
532.610676	0.015660
532.826482	0.016548
533.042271	0.016537
533.258040	0.016369
533.473792	0.016881
533.689525	0.016698
533.905240	0.017030
534.120937	0.016875
534.336616	0.016922
534.552277	0.017107
534.767919	0.016449
534.983543	0.017071
535.199149	0.016965
535.414736	0.016374
535.630306	0.016344
535.845857	0.015633
536.061390	0.015659
536.276904	0.015615
536.492401	0.015377
536.707879	0.015442
536.923339	0.014980
537.138781	0.014875
537.354204	0.014703
537.569610	0.014717
537.784997	0.015346
538.000366	0.015868
538.215716	0.016361
538.431049	0.016383
538.646363	0.016977
538.861659	0.017063
539.076937	0.017604
539.292196	0.018459
539.507438	0.018455
539.722661	0.017901
539.937866	0.017475
540.153052	0.017692
540.368221	0.017656
540.583371	0.017446
540.798503	0.017894
541.013617	0.017990
541.228712	0.017691
541.443789	0.017779
541.658848	0.018016
541.873889	0.018105
542.088912	0.017723
542.303916	0.018111
542.518902	0.018078
542.733870	0.017670
542.948820	0.017986
543.163752	0.018450
543.378665	0.018765
543.593560	0.019181
543.808437	0.019597
544.023295	0.019978
544.238136	0.020285
544.452958	0.020353
544.667762	0.020406
544.882548	0.020159
545.097315	0.019684
545.312064	0.019442
545.526795	0.019202
545.741508	0.018881
545.956203	0.018942
546.170879	0.018523
546.385537	0.018738
546.600177	0.018747
546.814799	0.018871
547.029402	0.018941
547.243988	0.018848
547.458555	0.018845
547.673103	0.018659
547.887634	0.018435
548.102146	0.018353
548.316640	0.018067
548.531116	0.018019
548.745574	0.017948
548.960013	0.018111
549.174435	0.018186
549.388838	0.018164
549.603222	0.018216
549.817589	0.018004
550.031937	0.018097
550.246267	0.018128
550.460579	0.018185
550.674873	0.018347
550.889148	0.018358
551.103405	0.018560
551.317644	0.018710
551.531865	0.018836
551.746068	0.018731
551.960252	0.018729
552.174418	0.018819
552.388566	0.018619
552.602696	0.018405
552.816807	0.018179
553.030900	0.018134
553.244975	0.017964
553.459032	0.018036
553.673070	0.018320
553.887091	0.018730
554.101093	0.018735
554.315077	0.019047
554.529042	0.019043
554.742990	0.019358
554.956919	0.019593
555.170830	0.019510
555.384722	0.019412
555.598597	0.019319
555.812453	0.018969
556.026291	0.018752
556.240111	0.018445
556.453913	0.018507
556.667696	0.018584
556.881461	0.018132
557.095208	0.018222
557.308937	0.018596
557.522647	0.018864
557.736339	0.018645
557.950013	0.018975
558.163669	0.019469
558.377307	0.019380
558.590926	0.019178
558.804527	0.019410
559.018110	0.019219
559.231675	0.018729
559.445221	0.018587
559.658749	0.018603
559.872259	0.018477
560.085751	0.018132
560.299225	0.018244
560.512680	0.017928
560.726117	0.017920
560.939536	0.018174
561.152937	0.018557
561.366319	0.018594
561.579683	0.018789
561.793029	0.019079
562.006357	0.019400
562.219667	0.019277
562.432958	0.019382
562.646231	0.019418
562.859486	0.019557
563.072723	0.019478
563.285941	0.019390
563.499141	0.019440
563.712323	0.019227
563.925487	0.019151
564.138632	0.019256
564.351760	0.019437
564.564869	0.019609
564.777960	0.019781
564.991032	0.019684
565.204087	0.019809
565.417123	0.019796
565.630141	0.020034
565.843140	0.019959
566.056122	0.020101
566.269085	0.020378
566.482030	0.020288
566.694957	0.020456
566.907866	0.020411
567.120756	0.020421
567.333628	0.020533
567.546482	0.020496
567.759318	0.020667
567.972135	0.020753
568.184935	0.020716
568.397716	0.020759
568.610478	0.020298
568.823223	0.020711
569.035949	0.020726
569.248657	0.020915
569.461347	0.020755
569.674019	0.020984
569.886672	0.020529
570.099308	0.020249
570.311925	0.020155
570.524523	0.020095
570.737104	0.019802
570.949666	0.019799
571.162210	0.019643
571.374736	0.019595
571.587244	0.019480
571.799733	0.019587
572.012205	0.019442
572.224658	0.019547
572.437092	0.019803
572.649509	0.019665
572.861907	0.019772
573.074287	0.019605
573.286649	0.019590
573.498993	0.019433
573.711318	0.019446
573.923625	0.019520
574.135914	0.019357
574.348185	0.019308
574.560438	0.019305
574.772672	0.019235
574.984888	0.019570
575.197086	0.019756
575.409266	0.019772
575.621427	0.019964
575.833570	0.020374
576.045695	0.020532
576.257802	0.020622
576.469890	0.021084
576.681961	0.021259
576.894013	0.021132
577.106046	0.021071
577.318062	0.021301
577.530059	0.021354
577.742039	0.021280
577.954000	0.021519
578.165942	0.021824
578.377867	0.021815
578.589773	0.021721
578.801661	0.021709
579.013531	0.021912
579.225382	0.021684
579.437216	0.021587
579.649031	0.021647
579.860828	0.021677
580.072606	0.021751
580.284367	0.021751
580.496109	0.021956
580.707833	0.022209
580.919539	0.022193
581.131227	0.022480
581.342896	0.022841
581.554547	0.022827
581.766180	0.022716
581.977795	0.022439
582.189391	0.022604
582.400969	0.022490
582.612529	0.022405
582.824071	0.022420
583.035595	0.022407
583.247100	0.022323
583.458587	0.022518
583.670056	0.022560
583.881506	0.022502
584.092939	0.021948
584.304353	0.021889
584.515749	0.021694
584.727127	0.021731
584.938486	0.021872
585.149828	0.021946
585.361151	0.021877
585.572456	0.021782
585.783742	0.021769
585.995011	0.021687
586.206261	0.021564
586.417493	0.021837
586.628706	0.021700
586.839902	0.021517
587.051079	0.021346
587.262238	0.021355
587.473379	0.021504
587.684502	0.021488
587.895606	0.021839
588.106692	0.021992
588.317760	0.021842
588.528810	0.021941
588.739841	0.021694
588.950855	0.021722
589.161850	0.021585
589.372827	0.021820
589.583785	0.021952
589.794726	0.021909
590.005648	0.022061
590.216552	0.022214
590.427437	0.022223
590.638305	0.022717
590.849154	0.022759
591.059985	0.022909
591.270798	0.022380
591.481592	0.022270
591.692369	0.022329
591.903127	0.022330
592.113867	0.022011
592.324588	0.021955
592.535292	0.021460
592.745977	0.021498
592.956644	0.021451
593.167293	0.021633
593.377923	0.021906
593.588536	0.021891
593.799130	0.021916
594.009706	0.022154
594.220263	0.022522
594.430803	0.022661
594.641324	0.022834
594.851827	0.022926
595.062312	0.022972
595.272778	0.022867
595.483227	0.023185
595.693657	0.022953
595.904069	0.023141
596.114462	0.022981
596.324838	0.022962
596.535195	0.022388
596.745534	0.022242
596.955855	0.022202
597.166157	0.022078
597.376441	0.021805
597.586707	0.021826
597.796955	0.021509
598.007185	0.021552
598.217396	0.021646
598.427589	0.021832
598.637764	0.021966
598.847921	0.022119
599.058060	0.022271
599.268180	0.022188
599.478282	0.022333
599.688366	0.022394
599.898431	0.022359
600.108479	0.022366
600.318508	0.022555
600.528519	0.022553
600.738511	0.022648
600.948486	0.022752
601.158442	0.022918
601.368380	0.023064
601.578300	0.022950
601.788202	0.022844
601.998085	0.022777
602.207950	0.022665
602.417797	0.022739
602.627626	0.022485
602.837436	0.022444
603.047228	0.022430
603.257002	0.022146
603.466758	0.022362
603.676496	0.022432
603.886215	0.022462
604.095916	0.022471
604.305599	0.022395
604.515264	0.022489
604.724910	0.022352
604.934538	0.022466
605.144148	0.022531
605.353740	0.022241
605.563314	0.022027
605.772869	0.021992
605.982406	0.022261
606.191925	0.022321
606.401425	0.022308
606.610908	0.022351
606.820372	0.022165
607.029818	0.022113
607.239246	0.022449
607.448655	0.022483
607.658047	0.022543
607.867420	0.022291
608.076775	0.022248
608.286111	0.022157
608.495430	0.022129
608.704730	0.022101
608.914012	0.022167
609.123275	0.022163
609.332521	0.022332
609.541748	0.022597
609.750957	0.022496
609.960148	0.022493
610.169321	0.022600
610.378475	0.022469
610.587611	0.022639
610.796729	0.022676
611.005829	0.022698
611.214910	0.022449
611.423974	0.022387
611.633019	0.022282
611.842045	0.022178
612.051054	0.022183
612.260044	0.022522
612.469017	0.022675
612.677970	0.022843
612.886906	0.022880
613.095824	0.023261
613.304723	0.023136
613.513604	0.023461
613.722467	0.023620
613.931311	0.023651
614.140138	0.023474
614.348946	0.023437
614.557736	0.023316
614.766507	0.023200
614.975261	0.023247
615.183996	0.023257
615.392713	0.023343
615.601412	0.023392
615.810092	0.023413
616.018754	0.023266
616.227399	0.023038
616.436024	0.023176
616.644632	0.023203
616.853222	0.023115
617.061793	0.023226
617.270346	0.023359
617.478880	0.023110
617.687397	0.022937
617.895895	0.023027
618.104375	0.023256
618.312837	0.023258
618.521281	0.023336
618.729706	0.023480
618.938113	0.023686
619.146502	0.023742
619.354873	0.024084
619.563226	0.024344
619.771560	0.024636
619.979876	0.024509
620.188174	0.024456
620.396453	0.024447
620.604715	0.024473
620.812958	0.024373
621.021183	0.024222
621.229390	0.023941
621.437578	0.023747
621.645748	0.023808
621.853900	0.024041
622.062034	0.024092
622.270150	0.024059
622.478247	0.023900
622.686326	0.023920
622.894387	0.024131
623.102430	0.024405
623.310454	0.024662
623.518461	0.024678
623.726449	0.024705
623.934418	0.024922
624.142370	0.025295
624.350303	0.025382
624.558218	0.025444
624.766115	0.025326
624.973994	0.025618
625.181855	0.025599
625.389697	0.025623
625.597521	0.025929
625.805327	0.025964
626.013114	0.025794
626.220883	0.025975
626.428634	0.026157
626.636367	0.026157
626.844082	0.025862
627.051778	0.026146
627.259457	0.026114
627.467117	0.025818
627.674758	0.025725
627.882382	0.025724
628.089987	0.025520
628.297574	0.025152
628.505143	0.025153
628.712694	0.025011
628.920226	0.024656
629.127740	0.024564
629.335236	0.024467
629.542714	0.024535
629.750174	0.024568
629.957615	0.024594
630.165038	0.024828
630.372443	0.024888
630.579829	0.025131
630.787198	0.025237
630.994548	0.025291
631.201880	0.025145
631.409194	0.025056
631.616489	0.025228
631.823766	0.025151
632.031025	0.025156
632.238266	0.025028
632.445489	0.024962
632.652693	0.025115
632.859879	0.025103
633.067047	0.025343
633.274197	0.025426
633.481329	0.025414
633.688442	0.025540
633.895537	0.025424
634.102614	0.025505
634.309672	0.025631
634.516713	0.025584
634.723735	0.025486
634.930739	0.025395
635.137724	0.025478
635.344692	0.025431
635.551641	0.025335
635.758572	0.025218
635.965485	0.025288
636.172379	0.025255
636.379256	0.025188
636.586114	0.025229
636.792954	0.025383
636.999775	0.025370
637.206579	0.025245
637.413364	0.025330
637.620131	0.025499
637.826880	0.025454
638.033610	0.025459
638.240323	0.025506
638.447017	0.025772
638.653692	0.025730
638.860350	0.025709
639.066990	0.025736
639.273611	0.025762
639.480214	0.025719
639.686798	0.025640
639.893365	0.025377
640.099913	0.025313
640.306443	0.025115
640.512955	0.025238
640.719449	0.025216
640.925924	0.025280
641.132381	0.025250
641.338820	0.025546
641.545241	0.025693
641.751644	0.025992
641.958028	0.026272
642.164394	0.026588
642.370742	0.026430
642.577071	0.026583
642.783383	0.026557
642.989676	0.026757
643.195951	0.026490
643.402207	0.026595
643.608446	0.026660
643.814666	0.026629
644.020868	0.026420
644.227052	0.026603
644.433218	0.026669
644.639365	0.026841
644.845494	0.026910
645.051605	0.027032
645.257698	0.026962
645.463772	0.026935
645.669828	0.026805
645.875866	0.026887
646.081886	0.026970
646.287888	0.026687
646.493871	0.026565
646.699836	0.026501
646.905783	0.026641
647.111712	0.026706
647.317622	0.026738
647.523514	0.026768
647.729388	0.026804
647.935244	0.026746
648.141082	0.026928
648.346901	0.027082
648.552702	0.027194
648.758485	0.027093
648.964250	0.027255
649.169996	0.027467
649.375724	0.027511
649.581434	0.027756
649.787126	0.027794
649.992800	0.027835
650.198455	0.028081
650.404092	0.028292
650.609711	0.028451
650.815311	0.028502
651.020894	0.028468
651.226458	0.028639
651.432004	0.028448
651.637532	0.028361
651.843041	0.028347
652.048532	0.028183
652.254006	0.027964
652.459460	0.027800
652.664897	0.027471
652.870315	0.027460
653.075716	0.027457
653.281097	0.027465
653.486461	0.027364
653.691807	0.027424
653.897134	0.027328
654.102443	0.027350
654.307734	0.027434
654.513006	0.027738
654.718261	0.027630
654.923497	0.027532
655.128715	0.027600
655.333915	0.027765
655.539096	0.027744
655.744259	0.027733
655.949404	0.027823
656.154531	0.027997
656.359640	0.027919
656.564730	0.027973
656.769802	0.028198
656.974856	0.028171
657.179892	0.028245
657.384909	0.028257
657.589908	0.028399
657.794889	0.028463
657.999852	0.028399
658.204797	0.028346
658.409723	0.028565
658.614631	0.028437
658.819521	0.028301
659.024393	0.028352
659.229246	0.028413
659.434081	0.028516
659.638898	0.028368
659.843697	0.028410
660.048478	0.028511
660.253240	0.028417
660.457984	0.028535
660.662710	0.028751
660.867417	0.028986
661.072107	0.029006
661.276778	0.028879
661.481431	0.028991
661.686066	0.029019
661.890682	0.029112
662.095281	0.029049
662.299861	0.029040
662.504422	0.029190
662.708966	0.029057
662.913491	0.029137
663.117999	0.029167
663.322488	0.029226
663.526958	0.029292
663.731411	0.029266
663.935845	0.029337
664.140261	0.029414
664.344659	0.029340
664.549038	0.029482
664.753400	0.029351
664.957743	0.029406
665.162068	0.029376
665.366375	0.029287
665.570663	0.029369
665.774933	0.029404
665.979185	0.029395
666.183419	0.029043
666.387635	0.028734
666.591832	0.028766
666.796011	0.028584
667.000172	0.028487
667.204315	0.028614
667.408439	0.028563
667.612545	0.028516
667.816634	0.028505
668.020703	0.028926
668.224755	0.029200
668.428788	0.029259
668.632803	0.029429
668.836800	0.029585
669.040779	0.029416
669.244739	0.029414
669.448681	0.029441
669.652605	0.029505
669.856511	0.029321
670.060399	0.029339
670.264268	0.029428
670.468119	0.029485
670.671952	0.029371
670.875767	0.029411
671.079563	0.029464
671.283341	0.029135
671.487101	0.029024
671.690843	0.029175
671.894567	0.029036
672.098272	0.028856
672.301959	0.028811
672.505628	0.028832
672.709278	0.028842
672.912911	0.028885
673.116525	0.029291
673.320121	0.029484
673.523699	0.029445
673.727258	0.029641
673.930799	0.029893
674.134322	0.030108
674.337827	0.030204
674.541314	0.030470
674.744782	0.030436
674.948232	0.030638
675.151664	0.030665
675.355078	0.030864
675.558474	0.030888
675.761851	0.031022
675.965210	0.031033
676.168551	0.031197
676.371873	0.031192
676.575178	0.031276
676.778464	0.031181
676.981732	0.031055
677.184981	0.030993
677.388213	0.031018
677.591426	0.030911
677.794621	0.031047
677.997798	0.031143
678.200956	0.031177
678.404097	0.031403
678.607219	0.031541
678.810323	0.031777
679.013408	0.031831
679.216476	0.032026
679.419525	0.032287
679.622556	0.032097
679.825569	0.032010
680.028563	0.031994
680.231540	0.031959
680.434498	0.031945
680.637438	0.031814
680.840359	0.031847
681.043263	0.031835
681.246148	0.031696
681.449015	0.031894
681.651864	0.032039
681.854694	0.032081
682.057506	0.032229
682.260301	0.032218
682.463076	0.032320
682.665834	0.032205
682.868573	0.032035
683.071295	0.032018
683.273998	0.031996
683.476682	0.031984
683.679349	0.032106
683.881997	0.032049
684.084627	0.032189
684.287239	0.032290
684.489833	0.032416
684.692408	0.032383
684.894965	0.032418
685.097504	0.032481
685.300025	0.032454
685.502527	0.032199
685.705012	0.032069
685.907478	0.031830
686.109925	0.031871
686.312355	0.031900
686.514766	0.032076
686.717159	0.031941
686.919534	0.032051
687.121891	0.032086
687.324230	0.032285
687.526550	0.032398
687.728852	0.032536
687.931136	0.032461
688.133401	0.032619
688.335649	0.032621
688.537878	0.032854
688.740089	0.032728
688.942281	0.032542
689.144456	0.032405
689.346612	0.032268
689.548750	0.032269
689.750870	0.032210
689.952971	0.032046
690.155055	0.032031
690.357120	0.031917
690.559167	0.031852
690.761195	0.032008
690.963206	0.032133
691.165198	0.032268
691.367172	0.032276
691.569128	0.032262
691.771065	0.032278
691.972984	0.032126
692.174885	0.032209
692.376768	0.032248
692.578633	0.032357
692.780479	0.032263
692.982308	0.032115
693.184118	0.032181
693.385909	0.032194
693.587683	0.032247
693.789438	0.032374
693.991175	0.032341
694.192894	0.032242
694.394595	0.032043
694.596277	0.032141
694.797941	0.032201
694.999587	0.032066
695.201215	0.032113
695.402824	0.032134
695.604416	0.032122
695.805989	0.032204
696.007543	0.032344
696.209080	0.032300
696.410598	0.032275
696.612099	0.032525
696.813580	0.032661
697.015044	0.032805
697.216490	0.032739
697.417917	0.032738
697.619326	0.032564
697.820717	0.032581
698.022089	0.032710
698.223444	0.032703
698.424780	0.032555
698.626098	0.032601
698.827397	0.032572
699.028679	0.032743
699.229942	0.032842
699.431187	0.033016
699.632414	0.032881
699.833622	0.033021
700.034813	0.033126
700.235985	0.033199
700.437139	0.033236
700.638274	0.033337
700.839392	0.033363
701.040491	0.033418
701.241572	0.033507
701.442635	0.033626
701.643679	0.033653
701.844706	0.033769
702.045714	0.033658
702.246704	0.033673
702.447675	0.033651
702.648629	0.033586
702.849564	0.033663
703.050481	0.033658
703.251380	0.033751
703.452260	0.033694
703.653122	0.033611
703.853966	0.033607
704.054792	0.033423
704.255600	0.033439
704.456389	0.033455
704.657160	0.033235
704.857913	0.033058
705.058648	0.033053
705.259365	0.032997
705.460063	0.032947
705.660743	0.033001
705.861405	0.033184
706.062048	0.033110
706.262674	0.033161
706.463281	0.033184
706.663870	0.033280
706.864441	0.033211
707.064993	0.033328
707.265527	0.033447
707.466043	0.033385
707.666541	0.033423
707.867021	0.033451
708.067482	0.033535
708.267925	0.033723
708.468350	0.033750
708.668757	0.033830
708.869145	0.034035
709.069516	0.034077
709.269868	0.034274
709.470201	0.034216
709.670517	0.034443
709.870814	0.034360
710.071093	0.034427
710.271354	0.034571
710.471597	0.034455
710.671821	0.034307
710.872028	0.034121
711.072216	0.034231
711.272385	0.034260
711.472537	0.034059
711.672670	0.034028
711.872785	0.033896
712.072882	0.033737
712.272961	0.033767
712.473021	0.033758
712.673063	0.033769
712.873087	0.033572
713.073093	0.033662
713.273081	0.033605
713.473050	0.033621
713.673001	0.033755
713.872934	0.033826
714.072849	0.033941
714.272745	0.033737
714.472623	0.033866
714.672483	0.033918
714.872325	0.033765
715.072148	0.033726
715.271954	0.033865
715.471741	0.033908
715.671509	0.033912
715.871260	0.033865
716.070992	0.033954
716.270707	0.034214
716.470403	0.034236
716.670080	0.034348
716.869740	0.034442
717.069381	0.034412
717.269004	0.034268
717.468609	0.034301
717.668195	0.034314
717.867764	0.034429
718.067314	0.034078
718.266846	0.034083
718.466360	0.033975
718.665855	0.034018
718.865332	0.033865
719.064791	0.033771
719.264232	0.033713
719.463655	0.033736
719.663059	0.033765
719.862445	0.033820
720.061813	0.033842
720.261163	0.033807
720.460494	0.033729
720.659807	0.033714
720.859102	0.033694
721.058379	0.033567
721.257638	0.033584
721.456878	0.033489
721.656100	0.033415
721.855304	0.033302
722.054490	0.033244
722.253657	0.033046
722.452806	0.032982
722.651937	0.033172
722.851050	0.033398
723.050145	0.033388
723.249221	0.033267
723.448279	0.033356
723.647319	0.033438
723.846340	0.033386
724.045344	0.033500
724.244329	0.033687
724.443296	0.033593
724.642245	0.033509
724.841175	0.033399
725.040088	0.033631
725.238982	0.033587
725.437857	0.033691
725.636715	0.033869
725.835554	0.034008
726.034376	0.034038
726.233179	0.034092
726.431963	0.034015
726.630730	0.034066
726.829478	0.033982
727.028208	0.033969
727.226920	0.033732
727.425614	0.033666
727.624289	0.033611
727.822946	0.033395
728.021585	0.033271
728.220206	0.033305
728.418808	0.033272
728.617392	0.033368
728.815958	0.033271
729.014506	0.033202
729.213036	0.033287
729.411547	0.033268
729.610040	0.033426
729.808515	0.033323
730.006972	0.033284
730.205410	0.033056
730.403831	0.032845
730.602233	0.032893
730.800616	0.032885
730.998982	0.032810
731.197329	0.032629
731.395658	0.032528
731.593969	0.032499
731.792262	0.032232
731.990536	0.032473
732.188793	0.032276
732.387031	0.032200
732.585250	0.032162
732.783452	0.032116
732.981635	0.032186
733.179800	0.032000
733.377947	0.031968
733.576076	0.032162
733.774186	0.032039
733.972278	0.032092
734.170352	0.032044
734.368408	0.032113
734.566446	0.032197
734.764465	0.032080
734.962466	0.032188
735.160449	0.032235
735.358413	0.032373
735.556360	0.032387
735.754288	0.032607
735.952198	0.032693
736.150090	0.032735
736.347963	0.032564
736.545818	0.032679
736.743655	0.032758
736.941474	0.032779
737.139275	0.032620
737.337057	0.032754
737.534821	0.032647
737.732567	0.032623
737.930295	0.032362
738.128005	0.032516
738.325696	0.032426
738.523369	0.032370
738.721024	0.032330
738.918660	0.032230
739.116279	0.031914
739.313879	0.031904
739.511461	0.031816
739.709024	0.031984
739.906570	0.031886
740.104097	0.031805
740.301606	0.031675
740.499097	0.031788
740.696569	0.032033
740.894024	0.032235
741.091460	0.032078
741.288878	0.032223
741.486277	0.032227
741.683659	0.032242
741.881022	0.032375
742.078367	0.032475
742.275694	0.032465
742.473002	0.032380
742.670293	0.032420
742.867565	0.032473
743.064819	0.032598
743.262054	0.032618
743.459272	0.032606
743.656471	0.032527
743.853652	0.032491
744.050815	0.032273
744.247959	0.032189
744.445085	0.032264
744.642194	0.032204
744.839283	0.031895
745.036355	0.032089
745.233408	0.032074
745.430444	0.032196
745.627461	0.032071
745.824459	0.032166
746.021440	0.032067
746.218402	0.031806
746.415346	0.031798
746.612272	0.031908
746.809180	0.031799
747.006069	0.031639
747.202940	0.031473
747.399793	0.031592
747.596628	0.031611
747.793444	0.031648
747.990243	0.031730
748.187023	0.031916
748.383784	0.031836
748.580528	0.031771
748.777253	0.032042
748.973960	0.032157
749.170649	0.032052
749.367320	0.032128
749.563973	0.032196
749.760607	0.032309
749.957223	0.032337
750.153821	0.032375
750.350400	0.032361
750.546962	0.032275
750.743505	0.032448
750.940030	0.032552
751.136536	0.032476
751.333025	0.032522
751.529495	0.032554
751.725947	0.032568
751.922381	0.032687
752.118796	0.032835
752.315194	0.032879
752.511573	0.032855
752.707934	0.032893
752.904276	0.032950
753.100601	0.033058
753.296907	0.033200
753.493195	0.033244
753.689465	0.033387
753.885716	0.033321
754.081949	0.033229
754.278164	0.033162
754.474361	0.033193
754.670540	0.033182
754.866700	0.033295
755.062843	0.033049
755.258967	0.032935
755.455072	0.032637
755.651160	0.032410
755.847229	0.032377
756.043280	0.032363
756.239313	0.032430
756.435328	0.032330
756.631324	0.032145
756.827302	0.032149
757.023262	0.032337
757.219204	0.032458
757.415127	0.032569
757.611033	0.032559
757.806920	0.032569
758.002788	0.032369
758.198639	0.032402
758.394471	0.032275
758.590286	0.032167
758.786081	0.031762
758.981859	0.031778
759.177619	0.031727
759.373360	0.031851
759.569083	0.031822
759.764788	0.031869
759.960474	0.032002
760.156143	0.032126
760.351793	0.032137
760.547425	0.032284
760.743038	0.032352
760.938634	0.032489
761.134211	0.032251
761.329770	0.032072
761.525311	0.031912
761.720833	0.031721
761.916338	0.031768
762.111824	0.031716
762.307292	0.031634
762.502741	0.031432
762.698173	0.031404
762.893586	0.031430
763.088981	0.031490
763.284358	0.031927
763.479716	0.032101
763.675057	0.031893
763.870379	0.032025
764.065683	0.032027
764.260968	0.032189
764.456236	0.032018
764.651485	0.031988
764.846716	0.031867
765.041929	0.031639
765.237123	0.031477
765.432299	0.031610
765.627457	0.031513
765.822597	0.031543
766.017719	0.031485
766.212822	0.031560
766.407907	0.031637
766.602974	0.031680
766.798023	0.031584
766.993054	0.031863
767.188066	0.031784
767.383060	0.032025
767.578036	0.032095
767.772993	0.032184
767.967933	0.032219
768.162854	0.032449
768.357757	0.032583
768.552642	0.032720
768.747508	0.032606
768.942356	0.032787
769.137186	0.032816
769.331998	0.032786
769.526792	0.032744
769.721567	0.032897
769.916324	0.032842
770.111063	0.032679
770.305784	0.032480
770.500486	0.032403
770.695171	0.032136
770.889837	0.032081
771.084484	0.032084
771.279114	0.031754
771.473725	0.031693
771.668318	0.031481
771.862893	0.031560
772.057450	0.031777
772.251988	0.031716
772.446509	0.031755
772.641011	0.031646
772.835494	0.031833
773.029960	0.032154
773.224407	0.032118
773.418836	0.032302
773.613247	0.032417
773.807640	0.032400
774.002014	0.032342
774.196370	0.032394
774.390708	0.032390
774.585028	0.032192
774.779330	0.032153
774.973613	0.031985
775.167878	0.031906
775.362125	0.031746
775.556354	0.031484
775.750564	0.031358
775.944756	0.031184
776.138930	0.031051
776.333086	0.030948
776.527223	0.030781
776.721343	0.030917
776.915444	0.030845
777.109526	0.030871
777.303591	0.031008
777.497637	0.031209
777.691666	0.031394
777.885676	0.031623
778.079667	0.031652
778.273641	0.031829
778.467596	0.031782
778.661533	0.031875
778.855452	0.031949
779.049352	0.032039
779.243235	0.032154
779.437099	0.032204
779.630945	0.031968
779.824773	0.032119
780.018582	0.031975
780.212373	0.031918
780.406146	0.031914
780.599901	0.031928
780.793638	0.031886
780.987356	0.031561
781.181056	0.031628
781.374738	0.031878
781.568402	0.031867
781.762047	0.032019
781.955674	0.032244
782.149283	0.032195
782.342874	0.032246
782.536447	0.032211
782.730001	0.032317
782.923537	0.032202
783.117055	0.032110
783.310555	0.032034
783.504036	0.031993
783.697499	0.032054
783.890944	0.032148
784.084371	0.031896
784.277780	0.032070
784.471170	0.032035
784.664542	0.031978
784.857896	0.031829
785.051231	0.031696
785.244549	0.031696
785.437848	0.031575
785.631129	0.031287
785.824392	0.031343
786.017636	0.031104
786.210863	0.031218
786.404071	0.031046
786.597260	0.031084
786.790432	0.031202
786.983585	0.031106
787.176721	0.030981
787.369838	0.030995
787.562936	0.030848
787.756017	0.030838
787.949079	0.030606
788.142123	0.030565
788.335149	0.030383
788.528156	0.030250
788.721146	0.030040
788.914117	0.029957
789.107070	0.029794
789.300005	0.029832
789.492921	0.029712
789.685819	0.029787
789.878699	0.029625
790.071561	0.029598
790.264405	0.029606
790.457230	0.029856
790.650037	0.029843
790.842826	0.030236
791.035597	0.030460
791.228349	0.030486
791.421084	0.030611
791.613800	0.030773
791.806497	0.030939
791.999177	0.031148
792.191838	0.031210
792.384481	0.031320
792.577106	0.031441
792.769713	0.031528
792.962301	0.031854
793.154871	0.032083
793.347423	0.032622
793.539957	0.032890
793.732473	0.032936
793.924970	0.032874
794.117449	0.033149
794.309910	0.032974
794.502353	0.032980
794.694777	0.033094
794.887183	0.032888
795.079571	0.032708
795.271941	0.032522
795.464293	0.032468
795.656626	0.032582
795.848941	0.032279
796.041238	0.032315
796.233516	0.032315
796.425777	0.032103
796.618019	0.032080
796.810243	0.032092
797.002449	0.032127
797.194636	0.032056
797.386805	0.032159
797.578956	0.032145
797.771089	0.032029
797.963204	0.031975
798.155300	0.032013
798.347378	0.032080
798.539438	0.032032
798.731480	0.031969
798.923503	0.031848
799.115509	0.031540
799.307496	0.031626
799.499465	0.031739
799.691415	0.031861
799.883348	0.031857
800.075262	0.031868
800.267158	0.031753
800.459035	0.031894
800.650895	0.031944
800.842736	0.032220
801.034559	0.032096
801.226364	0.032095
801.418150	0.031918
801.609919	0.031864
801.801669	0.031743
801.993401	0.031737
802.185114	0.031721
802.376810	0.031875
802.568487	0.031798
802.760146	0.031951
802.951787	0.031910
803.143409	0.032024
803.335014	0.032089
803.526600	0.032327
803.718168	0.032500
803.909717	0.032425
804.101249	0.032510
804.292762	0.032527
804.484257	0.032460
804.675734	0.032659
804.867192	0.032610
805.058632	0.032590
805.250054	0.032697
805.441458	0.032547
805.632844	0.032556
805.824211	0.032493
806.015561	0.032393
806.206891	0.032536
806.398204	0.032459
806.589499	0.032500
806.780775	0.032595
806.972033	0.032568
807.163273	0.032656
807.354495	0.032801
807.545698	0.033002
807.736883	0.033166
807.928050	0.033355
808.119199	0.033358
808.310329	0.033414
808.501441	0.033222
808.692535	0.032941
808.883611	0.033046
809.074669	0.033036
809.265708	0.032997
809.456729	0.032825
809.647732	0.032802
809.838717	0.032780
810.029683	0.032769
810.220632	0.032800
810.411562	0.033092
810.602474	0.033021
810.793367	0.033042
810.984242	0.032905
811.175100	0.033074
811.365938	0.032732
811.556759	0.032813
811.747562	0.032828
811.938346	0.033127
812.129112	0.033173
812.319860	0.033441
812.510589	0.033482
812.701300	0.033558
812.891994	0.033578
813.082668	0.033658
813.273325	0.033801
813.463964	0.033965
813.654584	0.034048
813.845186	0.034077
814.035769	0.033924
814.226335	0.033985
814.416882	0.033996
814.607411	0.034094
814.797922	0.034349
814.988415	0.034236
815.178889	0.034158
815.369345	0.034109
815.559783	0.034088
815.750203	0.034103
815.940605	0.034118
816.130988	0.034200
816.321353	0.034257
816.511700	0.034224
816.702028	0.034284
816.892339	0.034184
817.082631	0.034051
817.272905	0.033985
817.463161	0.033933
817.653398	0.033834
817.843617	0.033983
818.033819	0.033864
818.224001	0.033725
818.414166	0.033880
818.604312	0.034050
818.794440	0.033980
818.984550	0.033971
819.174642	0.034043
819.364716	0.034117
819.554771	0.033862
819.744808	0.033924
819.934827	0.034023
820.124827	0.033916
820.314810	0.033625
820.504774	0.033851
820.694720	0.033944
820.884647	0.033888
821.074557	0.033941
821.264448	0.034002
821.454321	0.034176
821.644176	0.034306
821.834012	0.034473
822.023831	0.034685
822.213631	0.034667
822.403413	0.034547
822.593176	0.034664
822.782922	0.034808
822.972649	0.035027
823.162358	0.034842
823.352049	0.034834
823.541721	0.034657
823.731376	0.034781
823.921012	0.034727
824.110629	0.034758
824.300229	0.034660
824.489811	0.034320
824.679374	0.034293
824.868919	0.034443
825.058445	0.034512
825.247954	0.034473
825.437444	0.034557
825.626916	0.034551
825.816370	0.034420
826.005806	0.034398
826.195223	0.034652
826.384622	0.034678
826.574003	0.034795
826.763366	0.034784
826.952711	0.034856
827.142037	0.034773
827.331345	0.035087
827.520635	0.035660
827.709906	0.035796
827.899160	0.035734
828.088395	0.035859
828.277612	0.035757
828.466810	0.035743
828.655991	0.035763
828.845153	0.035902
829.034297	0.035636
829.223423	0.035375
829.412531	0.035466
829.601620	0.035709
829.790691	0.035609
829.979744	0.035366
830.168779	0.035320
830.357795	0.035385
830.546793	0.035263
830.735773	0.035474
830.924735	0.035623
831.113679	0.035604
831.302604	0.035504
831.491511	0.035462
831.680400	0.035664
831.869271	0.035967
832.058123	0.036075
832.246957	0.036005
832.435773	0.036036
832.624571	0.035955
832.813351	0.036214
833.002112	0.036360
833.190855	0.036645
833.379580	0.036776
833.568287	0.036722
833.756975	0.036741
833.945645	0.037239
834.134297	0.037226
834.322931	0.037159
834.511547	0.037029
834.700144	0.036851
834.888723	0.036801
835.077284	0.036930
835.265826	0.036885
835.454351	0.036650
835.642857	0.036384
835.831345	0.036292
836.019815	0.036491
836.208266	0.036488
836.396699	0.036568
836.585114	0.036572
836.773511	0.036554
836.961890	0.036513
837.150250	0.036785
837.338592	0.036772
837.526916	0.037109
837.715222	0.036977
837.903510	0.037066
838.091779	0.037104
838.280030	0.037008
838.468263	0.036860
838.656477	0.037100
838.844674	0.037276
839.032852	0.037298
839.221012	0.037079
839.409153	0.037193
839.597277	0.037205
839.785382	0.037369
839.973469	0.037591
840.161538	0.037762
840.349589	0.037695
840.537621	0.037562
840.725635	0.037718
840.913631	0.037825
841.101609	0.037791
841.289568	0.038109
841.477509	0.037975
841.665432	0.037861
841.853337	0.037789
842.041224	0.037941
842.229092	0.038275
842.416942	0.038288
842.604774	0.038513
842.792588	0.038928
842.980383	0.038930
843.168160	0.039288
843.355919	0.039421
843.543660	0.039617
843.731382	0.039796
843.919087	0.039910
844.106773	0.040171
844.294441	0.039995
844.482090	0.040017
844.669722	0.039898
844.857335	0.040075
845.044930	0.040246
845.232507	0.040455
845.420065	0.040560
845.607605	0.040500
845.795127	0.040570
845.982631	0.041005
846.170117	0.041248
846.357584	0.041694
846.545033	0.041635
846.732464	0.041747
846.919877	0.041992
847.107272	0.041982
847.294648	0.041988
847.482006	0.042129
847.669346	0.041975
847.856667	0.042042
848.043971	0.041956
848.231256	0.041938
848.418523	0.041986
848.605771	0.041860
848.793002	0.041872
848.980214	0.041925
849.167408	0.041716
849.354584	0.041684
849.541742	0.041501
849.728881	0.041298
849.916002	0.041249
850.103105	0.041064
850.290190	0.041050
850.477256	0.041111
850.664304	0.041291
850.851334	0.041430
851.038346	0.041359
851.225340	0.041408
851.412315	0.041417
851.599272	0.041403
851.786211	0.041434
851.973132	0.041345
852.160034	0.041175
852.346918	0.041036
852.533784	0.040993
852.720632	0.041222
852.907462	0.040976
853.094273	0.041016
853.281066	0.041114
853.467841	0.041504
853.654598	0.041818
853.841336	0.041932
854.028056	0.042057
854.214758	0.042470
854.401442	0.042383
854.588107	0.042577
854.774755	0.042745
854.961384	0.042874
855.147995	0.042609
855.334587	0.042693
855.521162	0.043041
855.707718	0.043248
855.894256	0.042948
856.080775	0.043253
856.267277	0.043443
856.453760	0.043595
856.640225	0.043812
856.826672	0.044169
857.013101	0.044053
857.199511	0.043874
857.385903	0.043906
857.572277	0.043781
857.758633	0.043805
857.944970	0.043817
858.131290	0.043855
858.317591	0.043943
858.503873	0.044042
858.690138	0.043968
858.876384	0.044208
859.062612	0.044411
859.248822	0.044878
859.435014	0.044897
859.621188	0.045015
859.807343	0.045247
859.993480	0.045028
860.179599	0.045101
860.365699	0.045287
860.551781	0.045447
860.737846	0.045106
860.923891	0.044991
861.109919	0.045326
861.295929	0.045307
861.481920	0.045226
861.667893	0.045402
861.853848	0.045296
862.039784	0.045577
862.225702	0.045340
862.411603	0.045366
862.597484	0.045335
862.783348	0.045226
862.969193	0.045549
863.155021	0.045641
863.340830	0.045716
863.526620	0.045502
863.712393	0.045390
863.898147	0.045573
864.083883	0.045848
864.269601	0.045974
864.455301	0.045999
864.640982	0.045692
864.826645	0.045697
865.012290	0.045782
865.197917	0.046086
865.383526	0.045986
865.569116	0.045838
865.754688	0.045596
865.940242	0.045659
866.125777	0.045602
866.311295	0.045823
866.496794	0.045699
866.682275	0.045631
866.867737	0.045770
867.053182	0.045842
867.238608	0.046122
867.424016	0.046265
867.609406	0.046190
867.794778	0.046148
867.980131	0.046178
868.165466	0.046429
868.350783	0.046362
868.536082	0.046205
868.721362	0.046335
868.906625	0.046219
869.091869	0.046304
869.277094	0.046370
869.462302	0.046536
869.647491	0.046457
869.832662	0.046423
870.017815	0.046616
870.202950	0.046630
870.388066	0.046909
870.573165	0.047054
870.758245	0.047307
870.943306	0.047551
871.128350	0.047699
871.313375	0.047842
871.498382	0.047756
871.683371	0.047885
871.868342	0.048048
872.053294	0.047904
872.238229	0.047791
872.423144	0.047563
872.608042	0.047749
872.792922	0.047553
872.977783	0.047538
873.162626	0.047684
873.347451	0.047503
873.532258	0.047522
873.717046	0.047452
873.901816	0.047507
874.086568	0.047565
874.271302	0.047319
874.456017	0.047781
874.640715	0.048112
874.825394	0.047867
875.010055	0.048014
875.194697	0.047819
875.379322	0.047716
875.563928	0.047959
875.748516	0.047819
875.933085	0.047778
876.117637	0.047292
876.302170	0.046933
876.486685	0.046980
876.671182	0.046856
876.855661	0.047060
877.040121	0.047475
877.224563	0.047332
877.408987	0.047486
877.593393	0.047572
877.777780	0.047598
877.962150	0.047793
878.146501	0.048120
878.330833	0.048164
878.515148	0.048123
878.699444	0.047911
878.883722	0.047782
879.067982	0.047815
879.252224	0.048208
879.436447	0.048117
879.620653	0.048049
879.804840	0.047798
879.989008	0.047730
880.173159	0.047922
880.357291	0.048073
880.541405	0.048151
880.725501	0.048308
880.909579	0.047906
881.093638	0.048184
881.277680	0.048105
881.461703	0.048367
881.645707	0.048811
881.829694	0.048399
882.013662	0.048140
882.197612	0.048090
882.381544	0.047818
882.565458	0.047572
882.749353	0.047609
882.933230	0.047681
883.117089	0.047446
883.300930	0.047199
883.484753	0.047358
883.668557	0.047506
883.852343	0.047440
884.036111	0.047494
884.219861	0.048082
884.403592	0.048127
884.587305	0.048193
884.771000	0.048452
884.954677	0.048465
885.138335	0.048602
885.321976	0.048886
885.505598	0.049102
885.689201	0.049077
885.872787	0.048764
886.056354	0.048921
886.239904	0.048811
886.423434	0.048831
886.606947	0.048690
886.790442	0.048479
886.973918	0.048013
887.157376	0.048169
887.340816	0.048468
887.524237	0.048701
887.707641	0.048433
887.891026	0.048345
888.074393	0.048109
888.257741	0.048126
888.441072	0.048163
888.624384	0.048335
888.807678	0.048075
888.990954	0.047719
889.174211	0.047433
889.357451	0.047156
889.540672	0.047350
889.723875	0.047305
889.907059	0.047482
890.090226	0.047588
890.273374	0.047563
890.456504	0.047757
890.639616	0.047991
890.822709	0.047868
891.005785	0.048084
891.188842	0.048182
891.371881	0.048181
891.554901	0.048403
891.737904	0.048288
891.920888	0.048394
892.103854	0.048259
892.286802	0.048228
892.469731	0.048448
892.652643	0.048545
892.835536	0.048285
893.018410	0.048252
893.201267	0.047803
893.384106	0.047902
893.566926	0.047746
893.749728	0.047547
893.932511	0.047438
894.115277	0.047377
894.298024	0.047470
894.480753	0.047357
894.663464	0.047644
894.846157	0.047996
895.028831	0.048036
895.211487	0.048211
895.394125	0.048615
895.576745	0.048501
895.759346	0.048353
895.941930	0.048094
896.124495	0.048095
896.307041	0.048091
896.489570	0.047645
896.672080	0.047643
896.854573	0.047099
897.037046	0.046909
897.219502	0.047041
897.401940	0.047081
897.584359	0.046735
897.766760	0.046824
897.949143	0.046678
898.131507	0.046817
898.313854	0.047002
898.496182	0.047328
898.678492	0.047058
898.860783	0.046840
899.043057	0.046851
899.225312	0.047098
899.407549	0.047227
899.589768	0.047278
899.771968	0.047274
899.954151	0.046662
900.136315	0.046257
900.318461	0.046074
900.500588	0.046214
900.682698	0.046256
900.864789	0.046008
901.046862	0.045681
901.228917	0.045456
901.410953	0.045083
901.592971	0.045028
901.774972	0.045147
901.956953	0.045242
902.138917	0.045300
902.320862	0.044802
902.502790	0.044635
902.684699	0.044569
902.866589	0.044387
903.048462	0.044860
903.230316	0.045020
903.412152	0.044935
903.593970	0.044950
903.775770	0.044779
903.957551	0.044932
904.139314	0.045127
904.321059	0.044940
904.502786	0.044975
904.684494	0.044705
904.866185	0.044428
905.047857	0.044561
905.229510	0.044425
905.411146	0.044348
905.592763	0.044372
905.774363	0.044087
905.955943	0.044693
906.137506	0.044662
906.319051	0.044464
906.500577	0.044637
906.682085	0.044753
906.863575	0.044885
907.045046	0.044731
907.226500	0.044740
907.407935	0.045274
907.589352	0.044654
907.770750	0.044925
907.952131	0.044991
908.133493	0.045285
908.314837	0.045090
908.496163	0.044847
908.677470	0.044838
908.858760	0.044572
909.040031	0.044316
909.221284	0.044115
909.402518	0.043811
909.583735	0.043660
909.764933	0.043413
909.946113	0.043162
910.127275	0.043130
910.308418	0.043127
910.489544	0.043349
910.670651	0.042779
910.851740	0.042990
911.032810	0.042716
911.213863	0.042775
911.394897	0.042715
911.575913	0.042671
911.756911	0.042814
911.937890	0.042625
912.118851	0.042587
912.299794	0.043002
912.480719	0.042831
912.661626	0.042628
912.842514	0.042656
913.023384	0.042498
913.204236	0.042491
913.385070	0.041986
913.565886	0.041424
913.746683	0.040660
913.927462	0.040475
914.108223	0.040219
914.288965	0.040239
914.469690	0.039812
914.650396	0.039657
914.831084	0.039603
915.011754	0.039769
915.192405	0.039974
915.373038	0.040007
915.553653	0.039393
915.734250	0.039639
915.914829	0.039173
916.095389	0.039233
916.275931	0.039258
916.456455	0.039026
916.636961	0.038090
916.817448	0.037846
916.997917	0.038222
917.178368	0.038811
917.358801	0.038201
917.539216	0.038710
917.719612	0.038481
917.899990	0.038142
918.080350	0.038055
918.260692	0.038541
918.441015	0.038691
918.621320	0.038421
918.801607	0.038145
918.981876	0.037900
919.162127	0.037367
919.342359	0.037321
919.522573	0.037164
919.702769	0.036960
919.882947	0.036752
920.063106	0.036659
920.243247	0.035936
920.423370	0.035494
920.603475	0.035761
920.783562	0.035922
920.963630	0.035607
921.143680	0.035399
921.323712	0.035207
921.503725	0.035162
921.683721	0.034870
921.863698	0.035148
922.043657	0.035195
922.223598	0.034903
922.403520	0.034376
922.583424	0.034118
922.763311	0.033765
922.943178	0.034213
923.123028	0.033978
923.302859	0.033811
923.482673	0.033761
923.662467	0.033593
923.842244	0.033391
924.022003	0.033197
924.201743	0.032918
924.381465	0.032580
924.561169	0.031746
924.740854	0.031724
924.920522	0.032067
925.100171	0.031815
925.279802	0.031590
925.459414	0.032016
925.639009	0.031512
925.818585	0.031846
925.998143	0.031953
926.177683	0.031686
926.357205	0.031158
926.536708	0.030412
926.716193	0.030445
926.895660	0.030228
927.075109	0.029256
927.254539	0.029489
927.433951	0.029140
927.613345	0.028822
927.792721	0.028763
927.972079	0.028926
928.151418	0.029259
928.330739	0.029168
928.510042	0.028761
928.689327	0.028971
928.868593	0.028634
929.047841	0.028040
929.227071	0.028229
929.406283	0.028038
929.585476	0.027912
929.764652	0.027696
929.943809	0.027422
930.122948	0.027865
930.302068	0.027920
930.481171	0.027958
930.660255	0.028042
930.839321	0.027368
931.018369	0.027054
931.197398	0.026650
931.376409	0.026041
931.555402	0.025250
931.734377	0.024360
931.913334	0.023319
932.092272	0.022737
932.271192	0.022489
932.450094	0.022331
932.628978	0.021878
932.807844	0.021651
932.986691	0.021885
933.165520	0.021620
933.344331	0.021390
933.523123	0.021363
933.701898	0.021214
933.880654	0.020948
934.059392	0.021247
934.238111	0.021024
934.416813	0.020814
934.595496	0.020021
934.774161	0.020149
934.952808	0.020771
935.131437	0.020947
935.310047	0.021259
935.488639	0.021401
935.667213	0.020718
935.845769	0.021338
936.024306	0.021000
936.202825	0.020555
936.381326	0.020360
936.559809	0.019473
936.738274	0.018461
936.916720	0.017714
937.095148	0.016794
937.273558	0.017009
937.451950	0.015769
937.630323	0.015341
937.808678	0.015578
937.987015	0.015556
938.165334	0.015478
938.343635	0.015808
938.521917	0.015563
938.700181	0.015565
938.878427	0.014841
939.056655	0.015036
939.234864	0.014409
939.413055	0.013955
939.591228	0.013747
939.769383	0.013290
939.947519	0.013864
940.125638	0.014116
940.303738	0.014003
940.481820	0.013224
940.659883	0.013480
940.837929	0.014067
941.015956	0.014048
941.193965	0.013698
941.371955	0.013644
941.549928	0.012725
941.727882	0.012689
941.905818	0.012758
942.083736	0.012672
942.261636	0.012296
942.439517	0.011285
942.617380	0.010212
942.795225	0.009923
942.973052	0.009412
943.150860	0.009193
943.328651	0.008280
943.506423	0.008164
943.684176	0.008691
943.861912	0.008465
944.039629	0.008337
944.217328	0.008659
944.395009	0.008385
944.572672	0.008206
944.750317	0.008150
944.927943	0.008280
945.105551	0.007978
945.283141	0.008053
945.460712	0.007388
945.638265	0.008244
945.815801	0.008314
945.993317	0.008122
946.170816	0.008424
946.348297	0.008768
946.525759	0.009056
946.703203	0.007691
946.880629	0.006678
947.058036	0.006816
947.235425	0.006565
947.412797	0.006438
947.590149	0.005563
947.767484	0.004898
947.944800	0.003952
948.122099	0.004190
948.299379	0.004983
948.476640	0.005774
948.653884	0.005523
948.831109	0.005030
949.008316	0.005164
949.185505	0.005283
949.362676	0.004695
949.539828	0.005495
949.716962	0.004259
949.894078	0.004294
950.071176	0.003318
950.248256	0.004068
950.425317	0.004125
950.602360	0.004565
950.779385	0.004929
950.956391	0.004755
951.133380	0.004135
951.310350	0.004059
951.487302	0.003948
951.664235	0.004371
951.841151	0.003896
952.018048	0.004062
952.194927	0.002772
952.371788	0.002368
952.548631	0.002373
952.725455	0.002038
952.902261	0.002272
953.079049	0.001688
953.255819	0.000281
953.432570	0.000044
953.609303	0.000218
953.786018	0.000023
953.962715	0.000914
954.139394	0.001140
954.316054	0.000798
954.492696	0.000507
954.669320	0.000283
954.845926	0.001486
955.022513	0.000831
955.199083	-0.000112
955.375634	-0.000475
955.552166	-0.001155
955.728681	0.000451
955.905177	0.000845
956.081655	0.001162
956.258115	0.002039
956.434557	0.001627
956.610980	0.001206
956.787385	0.001262
956.963772	0.001699
957.140141	0.000813
957.316492	-0.000381
957.492824	0.000219
957.669138	0.001019
957.845434	0.000259
958.021712	0.001356
958.197971	0.001593
958.374212	0.002650
958.550435	0.003992
958.726640	0.006085
958.902826	0.006313
959.078995	0.006525
959.255145	0.005949
959.431277	0.006546
959.607390	0.006770
959.783486	0.006398
959.959563	0.005519
960.135622	0.004702
960.311662	0.003272
960.487685	0.003662
960.663689	0.002656
960.839675	0.002676
961.015643	0.002777
961.191593	0.003652
961.367524	0.004834
961.543437	0.003910
961.719332	0.005283
961.895209	0.006630
962.071067	0.007815
962.246907	0.007828
962.422730	0.007071
962.598533	0.006382
962.774319	0.005048
962.950086	0.006861
963.125835	0.008096
963.301566	0.006668
963.477279	0.006156
963.652973	0.004632
963.828650	0.005183
964.004308	0.007763
964.179947	0.008632
964.355569	0.009320
964.531172	0.007208
964.706757	0.006552
964.882324	0.006426
965.057873	0.006288
965.233403	0.005058
965.408916	0.004691
965.584410	0.004480
965.759885	0.005405
965.935343	0.003398
966.110782	0.004888
966.286203	0.005566
966.461606	0.005225
966.636991	0.006274
966.812357	0.007682
966.987705	0.008783
967.163035	0.008319
967.338347	0.009679
967.513641	0.011560
967.688916	0.010140
967.864173	0.011105
968.039412	0.011835
968.214632	0.011816
968.389835	0.013249
968.565019	0.012249
968.740185	0.011635
968.915333	0.010274
969.090462	0.011025
969.265573	0.012336
969.440667	0.012565
969.615741	0.013127
969.790798	0.014400
969.965836	0.013705
970.140856	0.015400
970.315858	0.014305
970.490842	0.013252
970.665808	0.012861
970.840755	0.011589
971.015684	0.011442
971.190595	0.011682
971.365487	0.009610
971.540362	0.009916
971.715218	0.009807
971.890056	0.010400
972.064875	0.011461
972.239677	0.011544
972.414460	0.012212
972.589225	0.013186
972.763972	0.012670
972.938700	0.011360
973.113411	0.010933
973.288103	0.011116
973.462777	0.011717
973.637432	0.012263
973.812070	0.013227
973.986689	0.013143
974.161290	0.011904
974.335873	0.011813
974.510437	0.011476
974.684984	0.011136
974.859512	0.011155
975.034022	0.010804
975.208513	0.010698
975.382987	0.009515
975.557442	0.008170
975.731879	0.008013
975.906298	0.007074
976.080698	0.007754
976.255080	0.008312
976.429445	0.007136
976.603790	0.007635
976.778118	0.007680
976.952427	0.008109
977.126719	0.010599
977.300992	0.009975
977.475246	0.010096
977.649483	0.010775
977.823701	0.011065
977.997901	0.012196
978.172083	0.012648
978.346247	0.012021
978.520392	0.011417
978.694519	0.008930
978.868628	0.010489
979.042719	0.012824
979.216791	0.012623
979.390845	0.012619
979.564882	0.011280
979.738899	0.012052
979.912899	0.011165
980.086880	0.012279
980.260843	0.013735
980.434788	0.012762
980.608715	0.011873
980.782623	0.011817
980.956514	0.012277
981.130386	0.014303
981.304240	0.015265
981.478075	0.016176
981.651892	0.016459
981.825692	0.016779
981.999472	0.018819
982.173235	0.017899
982.346980	0.017228
982.520706	0.018407
982.694414	0.016501
982.868104	0.014492
983.041775	0.013183
983.215428	0.011757
983.389064	0.011023
983.562680	0.009759
983.736279	0.010505
983.909860	0.013454
984.083422	0.011541
984.256966	0.010664
984.430491	0.011969
984.603999	0.013357
984.777488	0.013129
984.950959	0.012042
985.124412	0.011840
985.297847	0.010567
985.471263	0.007867
985.644661	0.008263
985.818041	0.009069
985.991403	0.008124
986.164747	0.008232
986.338072	0.008520
986.511379	0.011286
986.684668	0.012664
986.857938	0.013310
987.031191	0.015327
987.204425	0.014012
987.377641	0.014149
987.550839	0.013359
987.724018	0.013800
987.897179	0.013679
988.070322	0.011103
988.243447	0.011131
988.416554	0.012016
988.589642	0.010735
988.762712	0.012054
988.935764	0.012070
989.108798	0.012672
989.281813	0.011259
989.454811	0.011688
989.627790	0.012016
989.800751	0.011681
989.973693	0.011155
990.146617	0.011350
990.319524	0.011067
990.492412	0.011435
990.665281	0.011303
990.838133	0.011580
991.010966	0.012605
991.183781	0.012665
991.356578	0.011704
991.529356	0.011590
991.702117	0.013454
991.874859	0.014057
992.047583	0.013167
992.220288	0.012891
992.392976	0.013769
992.565645	0.013232
992.738296	0.013840
992.910929	0.016081
993.083543	0.016078
993.256139	0.012893
993.428718	0.012178
993.601277	0.012456
993.773819	0.012128
993.946342	0.011383
994.118848	0.010504
994.291335	0.011838
994.463803	0.008687
994.636254	0.008338
994.808686	0.009610
994.981100	0.010078
995.153496	0.009288
995.325874	0.010021
995.498233	0.010969
995.670574	0.011719
995.842897	0.008942
996.015202	0.009992
996.187488	0.011506
996.359757	0.012002
996.532007	0.010718
996.704239	0.010820
996.876452	0.010745
997.048648	0.010178
997.220825	0.010072
997.392984	0.012520
997.565124	0.012848
997.737247	0.012094
997.909351	0.011037
998.081437	0.011496
998.253505	0.012001
998.425554	0.013978
998.597586	0.015767
998.769599	0.014921
998.941594	0.014843
999.113571	0.013769
999.285529	0.013807
999.457469	0.013143
999.629391	0.014417
999.801295	0.014832
999.973181	0.013522
1000.145048	0.011992
1000.316897	0.012754
1000.488728	0.012600
1000.660541	0.013864
1000.832335	0.013834
1001.004111	0.016844
1001.175869	0.017055
1001.347609	0.017010
1001.519331	0.015316
1001.691034	0.015891
1001.862719	0.016371
1002.034386	0.015909
1002.206035	0.013780
1002.377665	0.012132
1002.549277	0.010949
1002.720871	0.009429
1002.892447	0.008224
1003.064004	0.009376
1003.235544	0.008711
1003.407065	0.008629
1003.578568	0.009710
1003.750052	0.011573
1003.921519	0.013147
1004.092967	0.012618
1004.264397	0.012641
1004.435809	0.012501
1004.607202	0.012758
1004.778577	0.011484
1004.949934	0.012973
1005.121273	0.013289
1005.292594	0.011980
1005.463896	0.010946
1005.635180	0.011470
1005.806446	0.011556
1005.977694	0.012428
1006.148923	0.012346
1006.320135	0.014132
1006.491328	0.012590
1006.662503	0.010663
1006.833659	0.010959
1007.004798	0.013465
1007.175918	0.013433
1007.347020	0.013790
1007.518103	0.013519
1007.689169	0.012497
1007.860216	0.010466
1008.031245	0.010551
1008.202256	0.010511
1008.373248	0.011505
1008.544223	0.009103
1008.715179	0.009715
1008.886117	0.010139
1009.057036	0.011117
1009.227938	0.011817
1009.398821	0.013354
1009.569686	0.013534
1009.740533	0.014151
1009.911361	0.014127
1010.082172	0.014346
1010.252964	0.014771
1010.423738	0.013751
1010.594493	0.013962
1010.765231	0.013399
1010.935950	0.012815
1011.106651	0.011628
1011.277334	0.011454
1011.447998	0.010411
1011.618645	0.009889
1011.789273	0.008824
1011.959882	0.009888
1012.130474	0.010225
1012.301048	0.012408
1012.471603	0.012684
1012.642140	0.012431
1012.812658	0.014581
1012.983159	0.013726
1013.153641	0.015875
1013.324105	0.014897
1013.494551	0.014997
1013.664979	0.014523
1013.835388	0.012979
1014.005779	0.012226
1014.176152	0.013709
1014.346507	0.012270
1014.516843	0.012618
1014.687162	0.012956
1014.857462	0.011606
1015.027744	0.011498
1015.198007	0.011711
1015.368252	0.010607
1015.538480	0.010913
1015.708689	0.010991
1015.878879	0.009752
1016.049052	0.010198
1016.219206	0.007233
1016.389342	0.009487
1016.559460	0.008698
1016.729559	0.007928
1016.899641	0.008559
1017.069704	0.008578
1017.239749	0.007627
1017.409775	0.008434
1017.579784	0.009339
1017.749774	0.010320
1017.919746	0.010521
1018.089700	0.009534
1018.259635	0.009816
1018.429553	0.010724
1018.599452	0.013244
1018.769333	0.012501
1018.939195	0.012405
1019.109040	0.012602
1019.278866	0.013353
1019.448674	0.012211
1019.618464	0.012524
1019.788235	0.011897
1019.957989	0.010955
1020.127724	0.009305
1020.297441	0.009584
1020.467139	0.010019
1020.636820	0.008609
1020.806482	0.008987
1020.976126	0.009100
1021.145752	0.009117
1021.315359	0.008484
1021.484948	0.009329
1021.654519	0.008630
1021.824072	0.008585
1021.993607	0.009139
1022.163123	0.009932
1022.332621	0.009014
1022.502101	0.009370
1022.671563	0.010553
1022.841007	0.010378
1023.010432	0.009427
1023.179839	0.009781
1023.349228	0.010567
1023.518598	0.008896
1023.687951	0.007683
1023.857285	0.008817
1024.026601	0.007393
1024.195899	0.007347
1024.365178	0.008068
1024.534439	0.008681
1024.703682	0.008013
1024.872907	0.007089
1025.042114	0.007596
1025.211302	0.009047
1025.380472	0.008342
1025.549624	0.008498
1025.718758	0.006771
1025.887873	0.007603
1026.056970	0.007270
1026.226049	0.006356
1026.395110	0.007319
1026.564153	0.006553
1026.733177	0.007363
1026.902183	0.008645
1027.071171	0.010383
1027.240141	0.012109
1027.409092	0.011953
1027.578026	0.011941
1027.746940	0.013487
1027.915837	0.013886
1028.084716	0.014197
1028.253576	0.012303
1028.422418	0.011722
1028.591242	0.010514
1028.760048	0.010977
1028.928835	0.010380
1029.097604	0.009619
1029.266355	0.009726
1029.435088	0.009062
1029.603803	0.009899
1029.772499	0.011696
1029.941177	0.009793
1030.109837	0.010471
1030.278478	0.010728
1030.447102	0.011310
1030.615707	0.009871
1030.784294	0.009577
1030.952863	0.010446
1031.121413	0.010943
1031.289945	0.010215
1031.458460	0.011037
1031.626955	0.011431
1031.795433	0.010298
1031.963892	0.009474
1032.132334	0.012182
1032.300756	0.012699
1032.469161	0.012676
1032.637548	0.010218
1032.805916	0.008837
1032.974266	0.009236
1033.142598	0.009269
1033.310911	0.010142
1033.479207	0.010787
1033.647484	0.010178
1033.815743	0.010067
1033.983983	0.010116
1034.152206	0.011368
1034.320410	0.013000
1034.488596	0.013047
1034.656764	0.012492
1034.824914	0.012305
1034.993045	0.011060
1035.161158	0.008910
1035.329253	0.009732
1035.497330	0.009247
1035.665388	0.009946
1035.833428	0.008530
1036.001450	0.006952
1036.169454	0.005694
1036.337440	0.005036
1036.505407	0.007226
1036.673356	0.009147
1036.841287	0.007909
1037.009200	0.006731
1037.177094	0.006817
1037.344970	0.008219
1037.512828	0.011194
1037.680668	0.013897
1037.848489	0.013312
1038.016293	0.011538
1038.184078	0.012116
1038.351845	0.011862
1038.519593	0.013224
1038.687324	0.013147
1038.855036	0.011154
1039.022730	0.011089
1039.190406	0.009298
1039.358063	0.010259
1039.525702	0.009905
1039.693323	0.009021
1039.860926	0.008444
1040.028511	0.006727
1040.196077	0.005715
1040.363625	0.007913
1040.531155	0.006415
1040.698667	0.007171
1040.866161	0.006767
1041.033636	0.007356
1041.201093	0.008698
1041.368532	0.009492
1041.535952	0.010297
1041.703355	0.010692
1041.870739	0.009834
1042.038105	0.009950
1042.205452	0.009561
1042.372782	0.009599
1042.540093	0.009637
1042.707386	0.008902
1042.874661	0.009082
1043.041918	0.010119
1043.209156	0.008747
1043.376376	0.009157
1043.543578	0.008396
1043.710762	0.007772
1043.877927	0.008081
1044.045074	0.008814
1044.212203	0.008691
1044.379314	0.007531
1044.546407	0.006282
1044.713481	0.008573
1044.880537	0.009244
1045.047575	0.010742
1045.214595	0.011291
1045.381596	0.011900
1045.548579	0.012074
1045.715544	0.013184
1045.882491	0.013779
1046.049420	0.013820
1046.216330	0.013094
1046.383222	0.012559
1046.550096	0.011557
1046.716951	0.012204
1046.883789	0.011592
1047.050608	0.011968
1047.217409	0.010967
1047.384192	0.011439
1047.550956	0.012343
1047.717703	0.012320
1047.884431	0.012415
1048.051140	0.014670
1048.217832	0.014363
1048.384505	0.014584
1048.551161	0.013528
1048.717798	0.012816
1048.884416	0.012650
1049.051017	0.012578
1049.217599	0.012927
1049.384163	0.011492
1049.550709	0.008191
1049.717237	0.008682
1049.883746	0.007908
1050.050237	0.008063
1050.216710	0.008029
1050.383165	0.007998
1050.549601	0.008347
1050.716019	0.008519
1050.882420	0.010688
1051.048801	0.012650
1051.215165	0.012644
1051.381510	0.014773
1051.547837	0.014714
1051.714146	0.015450
1051.880437	0.016874
1052.046709	0.017635
1052.212964	0.016615
1052.379200	0.016999
1052.545417	0.015828
1052.711617	0.015145
1052.877798	0.014190
1053.043961	0.014312
1053.210106	0.014886
1053.376233	0.013760
1053.542341	0.012403
1053.708432	0.012402
1053.874504	0.011098
1054.040557	0.012906
1054.206593	0.011985
1054.372610	0.011777
1054.538609	0.012338
1054.704590	0.012345
1054.870553	0.012573
1055.036497	0.011330
1055.202424	0.013217
1055.368331	0.013100
1055.534221	0.012744
1055.700093	0.013747
1055.865946	0.013115
1056.031781	0.012390
1056.197598	0.012103
1056.363397	0.012020
1056.529177	0.014439
1056.694939	0.013546
1056.860683	0.014126
1057.026409	0.012420
1057.192116	0.013620
1057.357806	0.013997
1057.523477	0.014535
1057.689130	0.014413
1057.854764	0.015023
1058.020381	0.013317
1058.185979	0.012063
1058.351559	0.010657
1058.517120	0.011078
1058.682664	0.008578
1058.848189	0.007268
1059.013696	0.007084
1059.179185	0.007157
1059.344656	0.007243
1059.510108	0.008856
1059.675542	0.009725
1059.840958	0.010125
1060.006356	0.010129
1060.171735	0.012450
1060.337096	0.011346
1060.502439	0.011324
1060.667764	0.011936
1060.833071	0.009931
1060.998359	0.008504
1061.163629	0.007746
1061.328881	0.007102
1061.494115	0.006757
1061.659330	0.007162
1061.824527	0.006710
1061.989706	0.006193
1062.154867	0.005986
1062.320010	0.007047
1062.485134	0.007238
1062.650240	0.006971
1062.815328	0.007546
1062.980398	0.007402
1063.145449	0.005577
1063.310482	0.006831
1063.475497	0.007839
1063.640494	0.007901
1063.805473	0.007395
1063.970433	0.007984
1064.135375	0.007961
1064.300299	0.007936
1064.465204	0.008192
1064.630092	0.007410
1064.794961	0.009439
1064.959812	0.007631
1065.124645	0.005426
1065.289459	0.005459
1065.454256	0.002999
1065.619034	0.002381
1065.783793	0.001885
1065.948535	0.001116
1066.113258	0.001022
1066.277964	-0.000262
1066.442651	0.000429
1066.607319	0.001925
1066.771970	0.002541
1066.936602	0.000731
1067.101216	0.001674
1067.265812	0.001167
1067.430389	0.002559
1067.594949	0.002555
1067.759490	0.002522
1067.924013	0.003611
1068.088518	0.004536
1068.253004	0.003602
1068.417472	0.007528
1068.581922	0.008734
1068.746354	0.008195
1068.910768	0.007447
1069.075163	0.009521
1069.239540	0.009648
1069.403899	0.008873
1069.568240	0.009066
1069.732562	0.010796
1069.896866	0.010858
1070.061152	0.009300
1070.225420	0.010609
1070.389670	0.011070
1070.553901	0.011396
1070.718114	0.011595
1070.882309	0.011314
1071.046486	0.010592
1071.210644	0.010460
1071.374784	0.009138
1071.538906	0.010748
1071.703010	0.011244
1071.867096	0.010343
1072.031163	0.009214
1072.195212	0.009824
1072.359243	0.008926
1072.523256	0.008921
1072.687250	0.006427
1072.851226	0.007738
1073.015184	0.007123
1073.179124	0.006129
1073.343045	0.006566
1073.506949	0.005898
1073.670834	0.004999
1073.834701	0.004691
1073.998549	0.003493
1074.162380	0.006160
1074.326192	0.005311
1074.489986	0.005754
1074.653761	0.008563
1074.817519	0.010389
1074.981258	0.010464
1075.144979	0.009817
1075.308682	0.010674
1075.472367	0.010781
1075.636033	0.007585
1075.799681	0.007364
1075.963311	0.006380
1076.126923	0.004563
1076.290516	0.003652
1076.454092	0.002093
1076.617649	0.002586
1076.781187	0.002364
1076.944708	0.003872
1077.108210	0.005310
1077.271695	0.006936
1077.435160	0.007299
1077.598608	0.006968
1077.762038	0.005890
1077.925449	0.009295
1078.088842	0.010376
1078.252217	0.012660
1078.415573	0.013387
1078.578912	0.016469
1078.742232	0.015844
1078.905534	0.014539
1079.068817	0.013723
1079.232083	0.014597
1079.395330	0.015097
1079.558559	0.013955
1079.721770	0.014050
1079.884962	0.012951
1080.048136	0.010426
1080.211293	0.011361
1080.374430	0.012657
1080.537550	0.012213
1080.700651	0.009605
1080.863735	0.007612
1081.026800	0.008024
1081.189846	0.005668
1081.352875	0.004441
1081.515885	0.006200
1081.678877	0.005672
1081.841851	0.005991
1082.004807	0.006624
1082.167744	0.008919
1082.330663	0.009511
1082.493564	0.010122
1082.656447	0.012556
1082.819312	0.012241
1082.982158	0.011343
1083.144986	0.010500
1083.307796	0.010358
1083.470587	0.011928
1083.633361	0.011593
1083.796116	0.011333
1083.958853	0.010355
1084.121571	0.009813
1084.284272	0.009554
1084.446954	0.007680
1084.609618	0.007469
1084.772264	0.007818
1084.934892	0.006214
1085.097501	0.006440
1085.260092	0.006226
1085.422665	0.007875
1085.585220	0.006041
1085.747756	0.007860
1085.910274	0.010074
1086.072774	0.011601
1086.235256	0.010734
1086.397720	0.010090
1086.560165	0.008983
1086.722592	0.009446
1086.885001	0.010625
1087.047392	0.013781
1087.209764	0.012583
1087.372119	0.009872
1087.534455	0.009692
1087.696772	0.009942
1087.859072	0.012608
1088.021353	0.015009
1088.183616	0.014054
1088.345861	0.011020
1088.508088	0.008262
1088.670296	0.008371
1088.832486	0.011844
1088.994658	0.011609
1089.156812	0.011367
1089.318948	0.011659
1089.481065	0.011392
1089.643164	0.013257
1089.805245	0.012389
1089.967308	0.013904
1090.129352	0.014040
1090.291378	0.012041
1090.453386	0.011245
1090.615376	0.009650
1090.777347	0.005774
1090.939301	0.007565
1091.101236	0.005794
1091.263153	0.006727
1091.425051	0.005604
1091.586932	0.005432
1091.748794	0.004192
1091.910638	0.004746
1092.072463	0.007083
1092.234271	0.010594
1092.396060	0.007916
1092.557831	0.009733
1092.719584	0.010185
1092.881319	0.010292
1093.043035	0.013406
1093.204733	0.012169
1093.366413	0.014675
1093.528075	0.013940
1093.689718	0.013393
1093.851343	0.013919
1094.012950	0.013020
1094.174539	0.013120
1094.336110	0.011881
1094.497662	0.008463
1094.659196	0.012365
1094.820712	0.008470
1094.982210	0.010062
1095.143689	0.011361
1095.305151	0.013069
1095.466594	0.012509
1095.628018	0.014073
1095.789425	0.013564
1095.950813	0.014777
1096.112183	0.012767
1096.273535	0.013329
1096.434869	0.012262
1096.596184	0.011090
1096.757482	0.012825
1096.918761	0.013181
1097.080021	0.009782
1097.241264	0.011057
1097.402488	0.012411
1097.563694	0.013474
1097.724882	0.011198
1097.886052	0.010644
1098.047203	0.008859
1098.208336	0.005521
1098.369451	0.005128
1098.530548	0.006623
1098.691627	0.003366
1098.852687	0.002206
1099.013729	0.003903
1099.174753	0.005700
1099.335758	0.001140
1099.496746	0.005692
1099.657715	0.006542
1099.818666	0.008058
1099.979599	0.010874
1100.140513	0.013854
1100.301409	0.015255
1100.462287	0.012578
1100.623147	0.010836
1100.783989	0.017236
1100.944812	0.013174
1101.105617	0.009544
1101.266404	0.007460
1101.427173	0.005731
1101.587923	0.007493
1101.748656	0.005687
1101.909370	0.012269
1102.070066	0.014054
1102.230743	0.014805
1102.391403	0.015250
1102.552044	0.017512
1102.712667	0.017628
1102.873271	0.016326
1103.033858	0.014713
1103.194426	0.014026
1103.354976	0.009818
1103.515508	0.010553
1103.676021	0.010003
1103.836517	0.009628
1103.996994	0.008293
1104.157453	0.009574
1104.317893	0.011132
1104.478316	0.011916
1104.638720	0.012501
1104.799106	0.006923
1104.959474	0.007541
1105.119823	0.005400
1105.280155	0.000633
1105.440468	0.004034
1105.600763	0.004702
1105.761039	0.005053
1105.921298	0.004778
1106.081538	0.004893
1106.241760	0.006795
1106.401964	0.007326
1106.562149	0.009342
1106.722316	0.012693
1106.882465	0.010550
1107.042596	0.008622
1107.202709	0.007077
1107.362803	0.006196
1107.522879	0.007418
1107.682937	0.009603
1107.842977	0.009488
1108.002999	0.007086
1108.163002	0.008972
1108.322987	0.008192
1108.482954	0.012789
1108.642902	0.012816
1108.802833	0.014479
1108.962745	0.010857
1109.122639	0.012070
1109.282515	0.013684
1109.442372	0.014092
1109.602211	0.016752
1109.762032	0.016378
1109.921835	0.011202
1110.081620	0.012552
1110.241386	0.012361
1110.401134	0.015246
1110.560864	0.012033
1110.720576	0.009278
1110.880269	0.012202
1111.039945	0.010315
1111.199602	0.011506
1111.359240	0.010298
1111.518861	0.009443
1111.678463	0.012580
1111.838047	0.010410
1111.997613	0.010544
1112.157161	0.008908
1112.316690	0.006491
1112.476202	0.006763
1112.635695	0.008760
1112.795169	0.013063
1112.954626	0.012712
1113.114064	0.013139
1113.273484	0.014774
1113.432886	0.018564
1113.592270	0.020315
1113.751635	0.022324
1113.910983	0.018292
1114.070312	0.018666
1114.229622	0.016672
1114.388915	0.017523
1114.548189	0.012349
1114.707445	0.010929
1114.866683	0.008146
1115.025903	0.007406
1115.185104	0.005134
1115.344287	0.012280
1115.503452	0.008454
1115.662599	0.008641
1115.821727	0.006548
1115.980838	0.007500
1116.139930	0.009524
1116.299004	0.008081
1116.458059	0.008046
1116.617097	0.008731
1116.776116	0.003720
1116.935117	0.002064
1117.094099	0.000047
1117.253064	0.002794
1117.412010	0.005022
1117.570938	0.004796
1117.729848	0.006139
1117.888740	0.007615
1118.047613	0.008520
1118.206468	0.006908
1118.365305	0.010898
1118.524124	0.013344
1118.682924	0.010996
1118.841707	0.007300
1119.000471	0.007714
1119.159216	0.010573
1119.317944	0.009600
1119.476653	0.008397
1119.635344	0.010724
1119.794017	0.007790
1119.952672	0.006522
1120.111308	0.006154
1120.269927	0.007281
1120.428527	0.007149
1120.587108	0.005105
1120.745672	0.009261
1120.904217	0.012407
1121.062744	0.014411
1121.221253	0.016431
1121.379744	0.014872
1121.538216	0.016977
1121.696671	0.014860
1121.855107	0.014429
1122.013524	0.015675
1122.171924	0.012706
1122.330305	0.013943
1122.488668	0.012416
1122.647013	0.006884
1122.805340	0.008956
1122.963648	0.008687
1123.121938	0.009144
1123.280210	0.006298
1123.438464	0.002480
1123.596700	0.000562
1123.754917	-0.004940
1123.913116	-0.006512
1124.071297	-0.003551
1124.229459	-0.002253
1124.387604	-0.005122
1124.545730	-0.001243
1124.703838	0.003199
1124.861928	0.007147
1125.019999	0.006628
1125.178052	0.009778
1125.336088	0.010633
1125.494104	0.011426
1125.652103	0.013936
1125.810083	0.017460
1125.968045	0.015138
1126.125989	0.011246
1126.283915	0.012074
1126.441823	0.012218
1126.599712	0.013121
1126.757583	0.012701
1126.915436	0.018567
1127.073270	0.012569
1127.231087	0.012777
1127.388885	0.011023
1127.546665	0.012830
1127.704426	0.015168
1127.862170	0.017022
1128.019895	0.012621
1128.177602	0.013643
1128.335291	0.007687
1128.492961	0.011107
1128.650614	0.007612
1128.808248	0.009674
1128.965864	0.010805
1129.123461	0.007608
1129.281041	0.003676
1129.438602	0.010158
1129.596145	0.009772
1129.753670	0.010557
1129.911176	0.007268
1130.068665	0.006343
1130.226135	0.009109
1130.383587	0.008307
1130.541020	0.007618
1130.698436	0.008794
1130.855833	0.005503
1131.013212	0.005501
1131.170573	0.004372
1131.327915	0.006226
1131.485239	0.010970
1131.642545	0.007048
1131.799833	0.008945
1131.957103	0.006225
1132.114354	0.011690
1132.271588	0.007485
1132.428803	0.006658
1132.585999	0.009868
1132.743178	0.007003
1132.900338	0.008614
1133.057480	0.010443
1133.214604	0.006931
1133.371710	0.005449
1133.528797	0.002410
1133.685866	0.001427
1133.842917	0.001916
1133.999950	0.000343
1134.156964	0.004806
1134.313960	0.001562
1134.470938	0.004333
1134.627898	0.006515
1134.784840	0.009292
1134.941763	0.006492
1135.098668	0.012847
1135.255555	0.013871
1135.412424	0.011914
1135.569274	0.013085
1135.726107	0.013900
1135.882921	0.008909
1136.039716	0.004689
1136.196494	0.003220
1136.353253	0.008046
1136.509995	0.006099
1136.666717	0.009850
1136.823422	0.011419
1136.980109	0.007256
1137.136777	0.004104
1137.293427	0.004004
1137.450059	0.005328
1137.606672	0.005694
1137.763267	-0.000110
1137.919844	-0.003213
1138.076403	-0.008223
1138.232944	-0.010393
1138.389466	-0.008590
1138.545971	-0.004914
1138.702457	0.001633
1138.858924	0.004214
1139.015374	0.006153
1139.171805	0.006461
1139.328218	0.009813
1139.484613	0.007867
1139.640990	0.013511
1139.797348	0.014158
1139.953688	0.006490
1140.110010	0.001332
1140.266314	-0.005083
1140.422600	-0.000305
1140.578867	-0.001676
1140.735116	-0.002648
1140.891347	0.001726
1141.047559	-0.003360
1141.203754	-0.002004
1141.359930	0.004847
1141.516088	0.008767
1141.672228	0.013670
1141.828349	0.009649
1141.984452	0.018204
1142.140537	0.016388
1142.296604	0.013289
1142.452653	0.016244
1142.608683	0.015007
1142.764695	0.018240
1142.920689	0.013810
1143.076665	0.011341
1143.232622	0.009010
1143.388562	0.008550
1143.544483	0.008870
1143.700385	0.012134
1143.856270	0.012723
1144.012136	0.009008
1144.167985	0.005607
1144.323814	0.005761
1144.479626	0.008696
1144.635420	0.013188
1144.791195	0.008315
1144.946952	0.010163
1145.102691	0.005171
1145.258411	0.009019
1145.414113	0.012922
1145.569798	0.016122
1145.725463	0.014718
1145.881111	0.008947
1146.036741	0.007783
1146.192352	0.010358
1146.347945	0.010663
1146.503519	0.011442
1146.659076	0.007792
1146.814614	0.003123
1146.970134	0.002054
1147.125636	0.002498
1147.281120	0.015598
1147.436585	0.012128
1147.592032	0.010638
1147.747461	0.010699
1147.902872	0.007351
1148.058265	0.012889
1148.213639	0.017717
1148.368995	0.017263
1148.524333	0.014922
1148.679653	0.009211
1148.834954	0.006240
1148.990237	0.004201
1149.145502	-0.000844
1149.300749	0.007221
1149.455977	0.003362
1149.611188	0.002028
1149.766380	-0.004309
1149.921553	0.000310
1150.076709	0.002500
1150.231846	0.005679
1150.386966	0.011753
1150.542066	0.021882
1150.697149	0.022413
1150.852214	0.021185
1151.007260	0.020267
1151.162288	0.022371
1151.317298	0.024652
1151.472289	0.020147
1151.627263	0.017509
1151.782218	0.011736
1151.937155	0.008030
1152.092073	0.007926
1152.246974	0.004094
1152.401856	0.008862
1152.556720	0.007103
1152.711566	0.006349
1152.866393	0.008890
1153.021203	0.009416
1153.175994	0.016683
1153.330767	0.018265
1153.485521	0.011553
1153.640258	0.011711
1153.794976	0.016614
1153.949676	0.018211
1154.104358	0.016846
1154.259021	0.012377
1154.413667	0.017170
1154.568294	0.012001
1154.722903	0.008178
1154.877493	0.014619
1155.032066	0.019621
1155.186620	0.011508
1155.341156	0.015750
1155.495674	0.011668
1155.650173	0.020028
1155.804654	0.015139
1155.959118	0.009286
1156.113562	0.011586
1156.267989	0.014701
1156.422397	0.015793
1156.576788	0.008690
1156.731160	0.001456
1156.885513	0.004986
1157.039849	-0.004494
1157.194166	-0.005502
1157.348465	-0.001507
1157.502746	-0.003963
1157.657009	-0.014488
1157.811253	-0.018701
1157.965479	-0.013280
1158.119687	-0.011814
1158.273877	-0.009745
1158.428048	-0.010313
1158.582201	-0.003365
1158.736337	-0.000139
1158.890453	-0.000817
1159.044552	0.013307
1159.198632	0.017216
1159.352694	0.014264
1159.506738	0.019682
1159.660764	0.020187
1159.814771	0.025335
1159.968761	0.027109
1160.122732	0.023056
1160.276685	0.027038
1160.430619	0.018417
1160.584535	0.022936
1160.738434	0.029670
1160.892313	0.020450
1161.046175	0.014049
1161.200019	0.012159
1161.353844	-0.001133
1161.507651	0.000528
1161.661440	0.004091
1161.815210	-0.001936
1161.968962	-0.014261
1162.122697	-0.015646
1162.276412	-0.012933
1162.430110	-0.007813
1162.583789	-0.004720
1162.737451	0.000966
1162.891094	0.007288
1163.044718	0.009092
1163.198325	0.020476
1163.351913	0.023277
1163.505483	0.014439
1163.659035	0.024398
1163.812569	0.015431
1163.966084	0.010752
1164.119581	0.013188
1164.273060	0.006978
1164.426521	0.000924
1164.579964	-0.013482
1164.733388	-0.019844
1164.886794	-0.017610
1165.040182	-0.024871
1165.193551	-0.017116
1165.346903	-0.019086
1165.500236	-0.017432
1165.653551	-0.014925
1165.806848	-0.022122
1165.960126	-0.010985
1166.113386	-0.003209
1166.266628	0.001192
1166.419852	-0.003583
1166.573058	-0.006660
1166.726245	0.003677
1166.879414	0.001379
1167.032565	0.000591
1167.185698	0.013305
1167.338812	0.008783
1167.491909	0.006233
1167.644987	0.008358
1167.798046	0.014242
1167.951088	0.019722
1168.104111	0.020476
1168.257117	0.021627
1168.410103	0.017942
1168.563072	0.019086
1168.716023	0.020295
1168.868955	0.014134
1169.021869	0.014328
1169.174765	0.016081
1169.327642	0.018390
1169.480501	0.014858
1169.633343	0.015108
1169.786165	0.021704
1169.938970	0.017605
1170.091757	0.024456
1170.244525	0.045190
1170.397275	0.052289
1170.550007	0.056998
1170.702720	0.050324
1170.855415	0.045956
1171.008092	0.035602
1171.160751	0.021442
1171.313392	0.005866
1171.466014	0.002115
1171.618619	-0.070014
1171.771205	-0.070014
1171.923772	-0.070014
