sample name	sample
index	656
start time	 03-22-2021  10:06:47 AM


Wavelength (nm)	Absorbance
494.344910	0.236740
494.563924	0.236740
494.782919	0.236740
495.001897	-0.084640
495.220856	0.060930
495.439797	0.040268
495.658719	-0.002019
495.877624	-0.043619
496.096510	-0.056475
496.315378	-0.092937
496.534227	-0.106257
496.753059	-0.093262
496.971872	-0.092815
497.190667	0.000928
497.409444	0.011828
497.628203	0.016642
497.846943	0.020750
498.065665	0.022415
498.284369	0.023320
498.503055	0.024219
498.721723	0.024416
498.940372	0.024589
499.159003	0.023188
499.377616	0.023576
499.596210	0.023766
499.814787	0.022987
500.033345	0.022878
500.251885	0.023079
500.470406	0.023201
500.688910	0.023393
500.907395	0.023569
501.125862	0.024828
501.344311	0.025383
501.562742	0.025634
501.781154	0.026393
501.999548	0.026628
502.217924	0.026568
502.436282	0.026190
502.654621	0.025476
502.872942	0.024811
503.091245	0.024716
503.309530	0.024183
503.527797	0.024232
503.746045	0.023703
503.964275	0.024023
504.182487	0.023917
504.400681	0.023826
504.618856	0.024196
504.837013	0.024760
505.055152	0.025457
505.273273	0.025865
505.491376	0.026087
505.709460	0.025992
505.927526	0.024739
506.145574	0.025361
506.363604	0.025757
506.581615	0.025724
506.799608	0.024867
507.017583	0.024926
507.235540	0.024818
507.453478	0.024538
507.671399	0.024859
507.889301	0.025689
508.107185	0.024893
508.325050	0.024376
508.542898	0.024100
508.760727	0.024992
508.978538	0.024156
509.196330	0.024135
509.414105	0.023801
509.631861	0.023365
509.849599	0.023314
510.067319	0.023480
510.285021	0.024347
510.502704	0.024586
510.720369	0.024568
510.938016	0.024230
511.155645	0.024104
511.373255	0.023769
511.590848	0.023874
511.808422	0.024105
512.025977	0.024343
512.243515	0.023528
512.461034	0.023032
512.678536	0.022794
512.896018	0.023361
513.113483	0.023103
513.330930	0.023408
513.548358	0.023486
513.765768	0.022870
513.983160	0.022544
514.200533	0.022368
514.417889	0.023003
514.635226	0.022684
514.852545	0.022621
515.069845	0.022557
515.287128	0.023007
515.504392	0.023165
515.721638	0.023852
515.938866	0.023220
516.156075	0.023156
516.373267	0.023092
516.590440	0.022735
516.807594	0.022455
517.024731	0.022094
517.241850	0.021532
517.458950	0.021649
517.676032	0.021064
517.893095	0.021827
518.110141	0.022492
518.327168	0.022738
518.544177	0.023702
518.761168	0.023666
518.978141	0.024521
519.195095	0.024570
519.412031	0.023998
519.628949	0.024018
519.845849	0.023944
520.062731	0.023057
520.279594	0.022094
520.496439	0.021767
520.713266	0.022259
520.930074	0.021808
521.146865	0.022038
521.363637	0.022036
521.580391	0.022236
521.797127	0.022149
522.013844	0.022394
522.230543	0.023232
522.447224	0.023055
522.663887	0.022594
522.880532	0.022342
523.097158	0.022002
523.313766	0.021775
523.530356	0.021546
523.746928	0.021182
523.963481	0.021790
524.180017	0.021390
524.396534	0.021691
524.613032	0.021320
524.829513	0.021822
525.045975	0.021873
525.262420	0.021947
525.478845	0.021664
525.695253	0.021864
525.911643	0.021563
526.128014	0.021331
526.344367	0.020971
526.560702	0.021715
526.777018	0.021082
526.993316	0.021071
527.209597	0.021261
527.425858	0.021247
527.642102	0.021379
527.858328	0.021602
528.074535	0.022241
528.290724	0.022159
528.506894	0.021856
528.723047	0.021984
528.939181	0.022021
529.155297	0.021580
529.371395	0.021891
529.587475	0.022324
529.803536	0.021878
530.019579	0.021808
530.235604	0.022069
530.451611	0.021795
530.667600	0.022063
530.883570	0.021798
531.099522	0.022298
531.315456	0.022441
531.531372	0.021784
531.747269	0.022220
531.963148	0.022141
532.179009	0.022223
532.394852	0.022659
532.610676	0.022742
532.826482	0.023256
533.042271	0.023173
533.258040	0.023025
533.473792	0.023234
533.689525	0.023072
533.905240	0.023057
534.120937	0.022771
534.336616	0.022798
534.552277	0.022616
534.767919	0.021850
534.983543	0.021934
535.199149	0.021985
535.414736	0.021684
535.630306	0.021917
535.845857	0.021333
536.061390	0.021922
536.276904	0.021653
536.492401	0.021874
536.707879	0.022302
536.923339	0.022069
537.138781	0.021648
537.354204	0.021662
537.569610	0.021728
537.784997	0.022427
538.000366	0.021866
538.215716	0.021952
538.431049	0.021854
538.646363	0.022065
538.861659	0.022118
539.076937	0.022512
539.292196	0.022945
539.507438	0.022773
539.722661	0.022639
539.937866	0.022726
540.153052	0.022997
540.368221	0.022571
540.583371	0.022264
540.798503	0.022312
541.013617	0.022412
541.228712	0.022158
541.443789	0.021828
541.658848	0.021850
541.873889	0.022027
542.088912	0.021453
542.303916	0.021896
542.518902	0.021880
542.733870	0.021686
542.948820	0.021550
543.163752	0.021445
543.378665	0.021768
543.593560	0.021864
543.808437	0.022032
544.023295	0.022577
544.238136	0.022579
544.452958	0.022917
544.667762	0.023161
544.882548	0.023329
545.097315	0.023415
545.312064	0.023219
545.526795	0.022629
545.741508	0.022241
545.956203	0.022262
546.170879	0.021920
546.385537	0.021911
546.600177	0.021738
546.814799	0.022013
547.029402	0.021695
547.243988	0.021462
547.458555	0.021877
547.673103	0.021751
547.887634	0.021505
548.102146	0.021797
548.316640	0.021858
548.531116	0.022082
548.745574	0.021580
548.960013	0.021672
549.174435	0.021623
549.388838	0.021236
549.603222	0.021177
549.817589	0.021239
550.031937	0.021071
550.246267	0.020638
550.460579	0.020716
550.674873	0.020980
550.889148	0.021154
551.103405	0.021383
551.317644	0.021757
551.531865	0.021859
551.746068	0.021494
551.960252	0.021500
552.174418	0.021708
552.388566	0.021736
552.602696	0.021774
552.816807	0.021703
553.030900	0.021740
553.244975	0.021699
553.459032	0.021813
553.673070	0.022044
553.887091	0.021996
554.101093	0.022200
554.315077	0.021946
554.529042	0.021890
554.742990	0.021903
554.956919	0.021881
555.170830	0.021842
555.384722	0.021583
555.598597	0.021495
555.812453	0.021731
556.026291	0.021522
556.240111	0.021628
556.453913	0.021542
556.667696	0.021877
556.881461	0.022093
557.095208	0.022122
557.308937	0.022369
557.522647	0.022429
557.736339	0.022289
557.950013	0.022580
558.163669	0.022573
558.377307	0.022545
558.590926	0.022348
558.804527	0.022108
559.018110	0.022397
559.231675	0.022643
559.445221	0.022534
559.658749	0.022435
559.872259	0.021951
560.085751	0.021959
560.299225	0.021746
560.512680	0.021393
560.726117	0.021309
560.939536	0.020958
561.152937	0.020569
561.366319	0.020372
561.579683	0.020271
561.793029	0.020409
562.006357	0.020337
562.219667	0.020549
562.432958	0.020899
562.646231	0.021026
562.859486	0.020772
563.072723	0.020796
563.285941	0.021080
563.499141	0.020982
563.712323	0.020666
563.925487	0.020750
564.138632	0.020773
564.351760	0.020731
564.564869	0.020833
564.777960	0.021008
564.991032	0.021164
565.204087	0.020935
565.417123	0.021153
565.630141	0.021414
565.843140	0.021333
566.056122	0.021190
566.269085	0.021481
566.482030	0.021522
566.694957	0.021702
566.907866	0.021733
567.120756	0.021909
567.333628	0.022025
567.546482	0.022058
567.759318	0.022050
567.972135	0.022259
568.184935	0.021973
568.397716	0.021957
568.610478	0.021901
568.823223	0.021838
569.035949	0.021911
569.248657	0.021981
569.461347	0.021928
569.674019	0.021912
569.886672	0.021775
570.099308	0.021726
570.311925	0.021786
570.524523	0.021459
570.737104	0.021474
570.949666	0.021548
571.162210	0.021191
571.374736	0.021365
571.587244	0.021327
571.799733	0.021329
572.012205	0.021198
572.224658	0.021042
572.437092	0.021506
572.649509	0.021370
572.861907	0.021213
573.074287	0.021269
573.286649	0.020949
573.498993	0.021136
573.711318	0.021214
573.923625	0.021154
574.135914	0.020903
574.348185	0.020578
574.560438	0.020769
574.772672	0.020776
574.984888	0.020824
575.197086	0.020987
575.409266	0.020956
575.621427	0.020825
575.833570	0.020820
576.045695	0.020878
576.257802	0.020904
576.469890	0.020738
576.681961	0.020694
576.894013	0.020750
577.106046	0.020718
577.318062	0.020600
577.530059	0.020533
577.742039	0.020968
577.954000	0.020946
578.165942	0.020933
578.377867	0.020808
578.589773	0.020865
578.801661	0.021140
579.013531	0.021113
579.225382	0.021053
579.437216	0.021032
579.649031	0.020686
579.860828	0.021067
580.072606	0.020880
580.284367	0.020962
580.496109	0.020988
580.707833	0.020577
580.919539	0.020695
581.131227	0.020625
581.342896	0.020942
581.554547	0.021025
581.766180	0.020800
581.977795	0.021022
582.189391	0.021176
582.400969	0.021249
582.612529	0.021301
582.824071	0.021197
583.035595	0.021413
583.247100	0.021269
583.458587	0.020950
583.670056	0.021010
583.881506	0.021116
584.092939	0.020970
584.304353	0.020911
584.515749	0.021080
584.727127	0.021214
584.938486	0.021157
585.149828	0.021310
585.361151	0.021516
585.572456	0.021474
585.783742	0.021291
585.995011	0.021534
586.206261	0.021376
586.417493	0.021404
586.628706	0.021169
586.839902	0.021230
587.051079	0.020969
587.262238	0.021171
587.473379	0.021179
587.684502	0.021201
587.895606	0.021244
588.106692	0.021493
588.317760	0.021405
588.528810	0.021821
588.739841	0.021804
588.950855	0.021821
589.161850	0.022106
589.372827	0.021925
589.583785	0.021838
589.794726	0.021506
590.005648	0.021171
590.216552	0.021152
590.427437	0.020801
590.638305	0.020607
590.849154	0.020639
591.059985	0.020077
591.270798	0.020150
591.481592	0.020187
591.692369	0.020165
591.903127	0.020472
592.113867	0.020566
592.324588	0.020470
592.535292	0.020505
592.745977	0.020454
592.956644	0.020392
593.167293	0.020475
593.377923	0.020773
593.588536	0.020709
593.799130	0.020699
594.009706	0.020585
594.220263	0.020858
594.430803	0.020915
594.641324	0.021142
594.851827	0.021526
595.062312	0.021536
595.272778	0.021414
595.483227	0.021922
595.693657	0.021665
595.904069	0.021908
596.114462	0.021877
596.324838	0.021888
596.535195	0.021781
596.745534	0.021815
596.955855	0.021718
597.166157	0.021816
597.376441	0.021587
597.586707	0.021609
597.796955	0.021446
598.007185	0.021532
598.217396	0.021706
598.427589	0.021822
598.637764	0.021670
598.847921	0.021717
599.058060	0.021821
599.268180	0.021738
599.478282	0.022071
599.688366	0.022022
599.898431	0.021875
600.108479	0.021494
600.318508	0.021029
600.528519	0.020907
600.738511	0.021059
600.948486	0.021012
601.158442	0.020923
601.368380	0.020554
601.578300	0.020467
601.788202	0.020543
601.998085	0.020683
602.207950	0.020760
602.417797	0.020802
602.627626	0.020651
602.837436	0.020424
603.047228	0.020654
603.257002	0.020775
603.466758	0.020747
603.676496	0.020475
603.886215	0.020750
604.095916	0.021049
604.305599	0.020952
604.515264	0.020924
604.724910	0.020857
604.934538	0.020625
605.144148	0.020469
605.353740	0.020874
605.563314	0.021182
605.772869	0.021077
605.982406	0.021069
606.191925	0.021296
606.401425	0.021263
606.610908	0.021293
606.820372	0.021203
607.029818	0.021325
607.239246	0.021067
607.448655	0.020967
607.658047	0.020987
607.867420	0.020870
608.076775	0.020758
608.286111	0.020661
608.495430	0.020785
608.704730	0.020784
608.914012	0.020637
609.123275	0.020515
609.332521	0.020237
609.541748	0.019952
609.750957	0.019716
609.960148	0.019656
610.169321	0.019739
610.378475	0.019645
610.587611	0.019783
610.796729	0.020044
611.005829	0.020173
611.214910	0.020414
611.423974	0.020448
611.633019	0.020558
611.842045	0.020547
612.051054	0.020495
612.260044	0.020510
612.469017	0.020496
612.677970	0.020353
612.886906	0.020155
613.095824	0.020268
613.304723	0.020352
613.513604	0.020604
613.722467	0.020848
613.931311	0.020998
614.140138	0.020999
614.348946	0.021007
614.557736	0.021069
614.766507	0.021209
614.975261	0.021012
615.183996	0.020987
615.392713	0.020950
615.601412	0.020698
615.810092	0.020379
616.018754	0.020426
616.227399	0.020378
616.436024	0.020478
616.644632	0.020416
616.853222	0.020238
617.061793	0.020429
617.270346	0.020262
617.478880	0.020318
617.687397	0.020485
617.895895	0.020312
618.104375	0.020243
618.312837	0.020111
618.521281	0.020181
618.729706	0.020229
618.938113	0.020018
619.146502	0.020040
619.354873	0.019942
619.563226	0.020159
619.771560	0.020270
619.979876	0.020434
620.188174	0.020502
620.396453	0.020543
620.604715	0.020601
620.812958	0.020714
621.021183	0.020662
621.229390	0.020571
621.437578	0.020393
621.645748	0.020392
621.853900	0.020132
622.062034	0.019981
622.270150	0.019985
622.478247	0.020162
622.686326	0.020081
622.894387	0.019861
623.102430	0.019971
623.310454	0.019852
623.518461	0.019696
623.726449	0.019778
623.934418	0.019864
624.142370	0.019701
624.350303	0.019508
624.558218	0.019398
624.766115	0.019629
624.973994	0.019735
625.181855	0.019762
625.389697	0.019785
625.597521	0.019855
625.805327	0.019724
626.013114	0.019846
626.220883	0.020011
626.428634	0.020308
626.636367	0.020391
626.844082	0.020463
627.051778	0.020558
627.259457	0.020686
627.467117	0.020880
627.674758	0.021099
627.882382	0.021196
628.089987	0.021309
628.297574	0.021027
628.505143	0.021046
628.712694	0.020896
628.920226	0.020940
629.127740	0.020837
629.335236	0.020591
629.542714	0.020447
629.750174	0.020318
629.957615	0.020100
630.165038	0.020107
630.372443	0.020061
630.579829	0.020135
630.787198	0.020098
630.994548	0.020123
631.201880	0.020216
631.409194	0.020286
631.616489	0.020199
631.823766	0.020209
632.031025	0.020137
632.238266	0.020020
632.445489	0.019948
632.652693	0.019908
632.859879	0.020056
633.067047	0.020103
633.274197	0.020140
633.481329	0.020339
633.688442	0.020434
633.895537	0.020641
634.102614	0.020705
634.309672	0.020655
634.516713	0.020707
634.723735	0.020588
634.930739	0.020618
635.137724	0.020399
635.344692	0.020277
635.551641	0.020205
635.758572	0.020253
635.965485	0.020162
636.172379	0.020284
636.379256	0.020250
636.586114	0.020277
636.792954	0.020158
636.999775	0.020183
637.206579	0.020135
637.413364	0.020116
637.620131	0.020080
637.826880	0.020189
638.033610	0.020280
638.240323	0.020219
638.447017	0.020148
638.653692	0.020257
638.860350	0.020247
639.066990	0.020280
639.273611	0.020344
639.480214	0.020323
639.686798	0.020285
639.893365	0.020235
640.099913	0.020394
640.306443	0.020450
640.512955	0.020393
640.719449	0.020615
640.925924	0.020873
641.132381	0.020917
641.338820	0.020960
641.545241	0.021005
641.751644	0.021036
641.958028	0.021042
642.164394	0.020938
642.370742	0.020924
642.577071	0.020875
642.783383	0.020680
642.989676	0.020738
643.195951	0.020626
643.402207	0.020632
643.608446	0.020611
643.814666	0.020409
644.020868	0.020708
644.227052	0.020811
644.433218	0.020689
644.639365	0.020673
644.845494	0.020504
645.051605	0.020399
645.257698	0.020289
645.463772	0.020161
645.669828	0.020264
645.875866	0.020176
646.081886	0.020063
646.287888	0.020003
646.493871	0.020227
646.699836	0.020296
646.905783	0.020396
647.111712	0.020612
647.317622	0.020586
647.523514	0.020601
647.729388	0.020457
647.935244	0.020466
648.141082	0.020734
648.346901	0.020438
648.552702	0.020357
648.758485	0.020366
648.964250	0.020143
649.169996	0.020217
649.375724	0.020091
649.581434	0.020149
649.787126	0.020076
649.992800	0.019870
650.198455	0.019832
650.404092	0.019805
650.609711	0.019687
650.815311	0.019640
651.020894	0.019352
651.226458	0.019362
651.432004	0.019124
651.637532	0.019125
651.843041	0.018895
652.048532	0.018793
652.254006	0.018671
652.459460	0.018568
652.664897	0.018624
652.870315	0.018692
653.075716	0.018786
653.281097	0.018867
653.486461	0.018811
653.691807	0.018997
653.897134	0.019106
654.102443	0.019275
654.307734	0.019412
654.513006	0.019332
654.718261	0.019513
654.923497	0.019524
655.128715	0.019624
655.333915	0.019709
655.539096	0.019890
655.744259	0.020005
655.949404	0.019923
656.154531	0.019818
656.359640	0.019908
656.564730	0.019921
656.769802	0.019769
656.974856	0.019786
657.179892	0.019682
657.384909	0.019583
657.589908	0.019692
657.794889	0.019689
657.999852	0.019793
658.204797	0.019751
658.409723	0.019468
658.614631	0.019566
658.819521	0.019498
659.024393	0.019687
659.229246	0.019788
659.434081	0.019596
659.638898	0.019783
659.843697	0.019641
660.048478	0.019765
660.253240	0.020025
660.457984	0.020135
660.662710	0.020238
660.867417	0.020316
661.072107	0.020366
661.276778	0.020404
661.481431	0.020233
661.686066	0.020431
661.890682	0.020375
662.095281	0.020446
662.299861	0.020338
662.504422	0.020183
662.708966	0.019957
662.913491	0.019809
663.117999	0.019795
663.322488	0.019778
663.526958	0.019718
663.731411	0.019567
663.935845	0.019409
664.140261	0.019185
664.344659	0.019073
664.549038	0.018985
664.753400	0.018827
664.957743	0.018659
665.162068	0.018635
665.366375	0.018550
665.570663	0.018506
665.774933	0.018414
665.979185	0.018518
666.183419	0.018424
666.387635	0.018489
666.591832	0.018463
666.796011	0.018527
667.000172	0.018503
667.204315	0.018473
667.408439	0.018575
667.612545	0.018585
667.816634	0.018463
668.020703	0.018638
668.224755	0.018506
668.428788	0.018614
668.632803	0.018519
668.836800	0.018550
669.040779	0.018523
669.244739	0.018415
669.448681	0.018433
669.652605	0.018526
669.856511	0.018397
670.060399	0.018560
670.264268	0.018604
670.468119	0.018557
670.671952	0.018512
670.875767	0.018437
671.079563	0.018459
671.283341	0.018385
671.487101	0.018518
671.690843	0.018798
671.894567	0.018779
672.098272	0.018752
672.301959	0.018956
672.505628	0.018943
672.709278	0.019219
672.912911	0.019255
673.116525	0.019446
673.320121	0.019567
673.523699	0.019474
673.727258	0.019391
673.930799	0.019472
674.134322	0.019491
674.337827	0.019696
674.541314	0.019617
674.744782	0.019783
674.948232	0.019688
675.151664	0.019477
675.355078	0.019538
675.558474	0.019686
675.761851	0.019647
675.965210	0.019526
676.168551	0.019462
676.371873	0.019475
676.575178	0.019440
676.778464	0.019389
676.981732	0.019363
677.184981	0.019266
677.388213	0.019045
677.591426	0.019081
677.794621	0.019109
677.997798	0.019057
678.200956	0.018885
678.404097	0.018604
678.607219	0.018612
678.810323	0.018475
679.013408	0.018434
679.216476	0.018453
679.419525	0.018150
679.622556	0.018203
679.825569	0.018090
680.028563	0.018148
680.231540	0.018322
680.434498	0.018361
680.637438	0.018530
680.840359	0.018587
681.043263	0.018674
681.246148	0.018918
681.449015	0.018764
681.651864	0.018830
681.854694	0.018859
682.057506	0.018740
682.260301	0.018694
682.463076	0.018629
682.665834	0.018463
682.868573	0.018370
683.071295	0.018190
683.273998	0.018105
683.476682	0.018011
683.679349	0.017953
683.881997	0.017895
684.084627	0.017859
684.287239	0.017718
684.489833	0.017869
684.692408	0.017831
684.894965	0.017791
685.097504	0.017843
685.300025	0.017894
685.502527	0.017835
685.705012	0.017886
685.907478	0.017847
686.109925	0.017921
686.312355	0.017817
686.514766	0.017998
686.717159	0.018187
686.919534	0.018292
687.121891	0.018217
687.324230	0.018315
687.526550	0.018351
687.728852	0.018454
687.931136	0.018508
688.133401	0.018484
688.335649	0.018435
688.537878	0.018313
688.740089	0.018339
688.942281	0.018462
689.144456	0.018451
689.346612	0.018703
689.548750	0.018724
689.750870	0.018894
689.952971	0.019017
690.155055	0.018957
690.357120	0.018936
690.559167	0.018749
690.761195	0.018740
690.963206	0.018765
691.165198	0.018588
691.367172	0.018553
691.569128	0.018392
691.771065	0.018284
691.972984	0.018265
692.174885	0.018278
692.376768	0.018390
692.578633	0.018301
692.780479	0.018377
692.982308	0.018341
693.184118	0.018356
693.385909	0.018308
693.587683	0.018245
693.789438	0.018339
693.991175	0.018398
694.192894	0.018299
694.394595	0.018370
694.596277	0.018238
694.797941	0.018289
694.999587	0.018358
695.201215	0.018407
695.402824	0.018631
695.604416	0.018675
695.805989	0.018720
696.007543	0.018831
696.209080	0.018918
696.410598	0.018915
696.612099	0.018929
696.813580	0.018772
697.015044	0.018905
697.216490	0.018831
697.417917	0.018692
697.619326	0.018521
697.820717	0.018417
698.022089	0.018226
698.223444	0.018143
698.424780	0.018054
698.626098	0.017910
698.827397	0.017641
699.028679	0.017482
699.229942	0.017384
699.431187	0.017332
699.632414	0.017310
699.833622	0.017169
700.034813	0.017169
700.235985	0.017042
700.437139	0.017239
700.638274	0.017072
700.839392	0.017126
701.040491	0.017110
701.241572	0.017247
701.442635	0.017250
701.643679	0.017318
701.844706	0.017451
702.045714	0.017460
702.246704	0.017291
702.447675	0.017462
702.648629	0.017393
702.849564	0.017338
703.050481	0.017191
703.251380	0.017170
703.452260	0.017116
703.653122	0.017081
703.853966	0.017199
704.054792	0.017439
704.255600	0.017524
704.456389	0.017617
704.657160	0.017678
704.857913	0.017910
705.058648	0.017894
705.259365	0.017997
705.460063	0.017836
705.660743	0.017824
705.861405	0.017613
706.062048	0.017574
706.262674	0.017473
706.463281	0.017530
706.663870	0.017293
706.864441	0.017292
707.064993	0.017240
707.265527	0.017346
707.466043	0.017364
707.666541	0.017517
707.867021	0.017582
708.067482	0.017806
708.267925	0.017817
708.468350	0.018011
708.668757	0.017989
708.869145	0.018079
709.069516	0.018118
709.269868	0.018073
709.470201	0.017961
709.670517	0.017997
709.870814	0.017733
710.071093	0.017709
710.271354	0.017560
710.471597	0.017565
710.671821	0.017509
710.872028	0.017378
711.072216	0.017368
711.272385	0.017308
711.472537	0.017133
711.672670	0.017148
711.872785	0.017176
712.072882	0.017217
712.272961	0.017220
712.473021	0.017106
712.673063	0.017167
712.873087	0.017116
713.073093	0.017178
713.273081	0.017211
713.473050	0.017157
713.673001	0.017170
713.872934	0.017211
714.072849	0.017229
714.272745	0.017273
714.472623	0.017295
714.672483	0.017396
714.872325	0.017514
715.072148	0.017572
715.271954	0.017723
715.471741	0.017634
715.671509	0.017481
715.871260	0.017555
716.070992	0.017486
716.270707	0.017351
716.470403	0.017320
716.670080	0.017202
716.869740	0.017178
717.069381	0.017216
717.269004	0.017214
717.468609	0.017181
717.668195	0.016994
717.867764	0.017128
718.067314	0.017341
718.266846	0.017516
718.466360	0.017541
718.665855	0.017628
718.865332	0.017525
719.064791	0.017458
719.264232	0.017656
719.463655	0.017866
719.663059	0.017848
719.862445	0.017731
720.061813	0.017471
720.261163	0.017566
720.460494	0.017506
720.659807	0.017490
720.859102	0.017522
721.058379	0.017468
721.257638	0.017339
721.456878	0.017404
721.656100	0.017347
721.855304	0.017458
722.054490	0.017241
722.253657	0.017073
722.452806	0.017062
722.651937	0.017106
722.851050	0.017010
723.050145	0.016982
723.249221	0.016945
723.448279	0.016973
723.647319	0.016845
723.846340	0.016949
724.045344	0.017234
724.244329	0.017235
724.443296	0.017292
724.642245	0.017292
724.841175	0.017498
725.040088	0.017585
725.238982	0.017544
725.437857	0.017638
725.636715	0.017516
725.835554	0.017509
726.034376	0.017736
726.233179	0.017666
726.431963	0.017704
726.630730	0.017632
726.829478	0.017458
727.028208	0.017545
727.226920	0.017502
727.425614	0.017607
727.624289	0.017551
727.822946	0.017429
728.021585	0.017635
728.220206	0.017639
728.418808	0.017655
728.617392	0.017821
728.815958	0.018014
729.014506	0.017951
729.213036	0.017899
729.411547	0.017682
729.610040	0.017375
729.808515	0.017161
730.006972	0.017126
730.205410	0.016932
730.403831	0.016832
730.602233	0.016557
730.800616	0.016459
730.998982	0.016442
731.197329	0.016478
731.395658	0.016712
731.593969	0.016793
731.792262	0.016743
731.990536	0.016821
732.188793	0.016696
732.387031	0.016690
732.585250	0.016693
732.783452	0.016587
732.981635	0.016566
733.179800	0.016363
733.377947	0.016172
733.576076	0.016141
733.774186	0.016061
733.972278	0.016013
734.170352	0.015917
734.368408	0.015966
734.566446	0.015926
734.764465	0.015922
734.962466	0.016059
735.160449	0.016030
735.358413	0.016161
735.556360	0.016244
735.754288	0.016396
735.952198	0.016448
736.150090	0.016234
736.347963	0.016418
736.545818	0.016438
736.743655	0.016410
736.941474	0.016510
737.139275	0.016397
737.337057	0.016357
737.534821	0.016415
737.732567	0.016498
737.930295	0.016796
738.128005	0.016790
738.325696	0.016781
738.523369	0.016824
738.721024	0.016881
738.918660	0.017065
739.116279	0.017074
739.313879	0.017129
739.511461	0.016986
739.709024	0.016944
739.906570	0.016802
740.104097	0.016860
740.301606	0.016901
740.499097	0.016916
740.696569	0.016760
740.894024	0.016590
741.091460	0.016399
741.288878	0.016446
741.486277	0.016302
741.683659	0.016294
741.881022	0.016284
742.078367	0.016179
742.275694	0.015886
742.473002	0.015847
742.670293	0.015952
742.867565	0.015853
743.064819	0.015805
743.262054	0.015803
743.459272	0.015865
743.656471	0.015816
743.853652	0.015780
744.050815	0.015967
744.247959	0.015898
744.445085	0.015918
744.642194	0.015989
744.839283	0.015950
745.036355	0.016024
745.233408	0.015999
745.430444	0.015863
745.627461	0.015939
745.824459	0.015956
746.021440	0.015951
746.218402	0.015962
746.415346	0.016107
746.612272	0.016436
746.809180	0.016453
747.006069	0.016708
747.202940	0.016889
747.399793	0.017062
747.596628	0.017237
747.793444	0.017461
747.990243	0.017629
748.187023	0.017722
748.383784	0.017703
748.580528	0.017823
748.777253	0.017736
748.973960	0.017893
749.170649	0.017878
749.367320	0.017955
749.563973	0.017977
749.760607	0.017933
749.957223	0.017866
750.153821	0.017842
750.350400	0.017965
750.546962	0.017941
750.743505	0.017905
750.940030	0.017845
751.136536	0.017885
751.333025	0.017835
751.529495	0.017811
751.725947	0.017877
751.922381	0.017961
752.118796	0.017863
752.315194	0.018059
752.511573	0.017955
752.707934	0.018072
752.904276	0.017941
753.100601	0.017750
753.296907	0.017860
753.493195	0.017793
753.689465	0.017808
753.885716	0.017662
754.081949	0.017534
754.278164	0.017639
754.474361	0.017584
754.670540	0.017429
754.866700	0.017661
755.062843	0.017644
755.258967	0.017727
755.455072	0.017693
755.651160	0.017876
755.847229	0.017848
756.043280	0.017736
756.239313	0.017734
756.435328	0.017905
756.631324	0.017949
756.827302	0.017853
757.023262	0.017651
757.219204	0.017688
757.415127	0.017600
757.611033	0.017577
757.806920	0.017556
758.002788	0.017585
758.198639	0.017629
758.394471	0.017476
758.590286	0.017513
758.786081	0.017571
758.981859	0.017395
759.177619	0.017564
759.373360	0.017717
759.569083	0.017787
759.764788	0.017746
759.960474	0.017655
760.156143	0.017901
760.351793	0.018085
760.547425	0.018229
760.743038	0.018249
760.938634	0.018251
761.134211	0.018105
761.329770	0.018244
761.525311	0.018227
761.720833	0.018111
761.916338	0.017957
762.111824	0.017901
762.307292	0.017928
762.502741	0.018050
762.698173	0.018033
762.893586	0.018051
763.088981	0.017928
763.284358	0.017804
763.479716	0.017937
763.675057	0.017947
763.870379	0.017794
764.065683	0.017733
764.260968	0.017894
764.456236	0.017724
764.651485	0.017821
764.846716	0.017892
765.041929	0.018219
765.237123	0.018256
765.432299	0.018427
765.627457	0.018706
765.822597	0.018905
766.017719	0.018615
766.212822	0.018829
766.407907	0.018939
766.602974	0.019016
766.798023	0.019075
766.993054	0.019022
767.188066	0.018992
767.383060	0.018942
767.578036	0.018818
767.772993	0.018956
767.967933	0.018801
768.162854	0.018627
768.357757	0.018554
768.552642	0.018414
768.747508	0.018553
768.942356	0.018559
769.137186	0.018685
769.331998	0.018733
769.526792	0.018746
769.721567	0.018794
769.916324	0.018820
770.111063	0.018843
770.305784	0.018885
770.500486	0.018942
770.695171	0.018846
770.889837	0.018725
771.084484	0.018807
771.279114	0.018849
771.473725	0.019098
771.668318	0.019280
771.862893	0.019454
772.057450	0.019542
772.251988	0.019495
772.446509	0.019688
772.641011	0.019697
772.835494	0.019732
773.029960	0.019926
773.224407	0.019882
773.418836	0.019819
773.613247	0.019741
773.807640	0.019626
774.002014	0.019787
774.196370	0.019858
774.390708	0.019766
774.585028	0.019679
774.779330	0.019655
774.973613	0.019602
775.167878	0.019595
775.362125	0.019727
775.556354	0.020027
775.750564	0.019810
775.944756	0.019693
776.138930	0.019901
776.333086	0.019981
776.527223	0.019989
776.721343	0.020125
776.915444	0.020014
777.109526	0.019917
777.303591	0.019730
777.497637	0.019955
777.691666	0.019921
777.885676	0.019932
778.079667	0.019896
778.273641	0.019657
778.467596	0.019509
778.661533	0.019676
778.855452	0.019602
779.049352	0.019444
779.243235	0.019318
779.437099	0.019292
779.630945	0.019185
779.824773	0.019169
780.018582	0.019409
780.212373	0.019478
780.406146	0.019494
780.599901	0.019558
780.793638	0.019773
780.987356	0.019794
781.181056	0.019925
781.374738	0.019851
781.568402	0.019731
781.762047	0.019690
781.955674	0.019696
782.149283	0.019774
782.342874	0.019868
782.536447	0.019855
782.730001	0.019879
782.923537	0.019886
783.117055	0.020027
783.310555	0.020106
783.504036	0.019968
783.697499	0.019897
783.890944	0.019802
784.084371	0.019717
784.277780	0.019489
784.471170	0.019386
784.664542	0.019327
784.857896	0.019303
785.051231	0.019385
785.244549	0.019536
785.437848	0.019572
785.631129	0.019452
785.824392	0.019404
786.017636	0.019485
786.210863	0.019513
786.404071	0.019394
786.597260	0.019416
786.790432	0.019244
786.983585	0.019149
787.176721	0.019127
787.369838	0.019227
787.562936	0.019400
787.756017	0.019500
787.949079	0.019513
788.142123	0.019793
788.335149	0.019887
788.528156	0.020146
788.721146	0.020098
788.914117	0.020327
789.107070	0.020191
789.300005	0.019987
789.492921	0.019990
789.685819	0.020089
789.878699	0.019939
790.071561	0.019583
790.264405	0.019502
790.457230	0.019414
790.650037	0.019341
790.842826	0.019449
791.035597	0.019703
791.228349	0.019598
791.421084	0.019522
791.613800	0.019533
791.806497	0.019733
791.999177	0.019669
792.191838	0.019881
792.384481	0.019850
792.577106	0.019934
792.769713	0.019800
792.962301	0.019762
793.154871	0.019830
793.347423	0.019903
793.539957	0.020052
793.732473	0.020142
793.924970	0.020165
794.117449	0.020026
794.309910	0.019972
794.502353	0.019841
794.694777	0.020085
794.887183	0.020018
795.079571	0.019891
795.271941	0.019773
795.464293	0.019908
795.656626	0.019936
795.848941	0.020026
796.041238	0.019967
796.233516	0.020116
796.425777	0.019892
796.618019	0.019847
796.810243	0.019827
797.002449	0.019954
797.194636	0.019799
797.386805	0.019662
797.578956	0.019676
797.771089	0.019713
797.963204	0.019519
798.155300	0.019753
798.347378	0.019936
798.539438	0.019858
798.731480	0.019691
798.923503	0.019647
799.115509	0.019658
799.307496	0.019601
799.499465	0.019626
799.691415	0.019865
799.883348	0.019876
800.075262	0.019761
800.267158	0.019840
800.459035	0.020003
800.650895	0.019926
800.842736	0.019913
801.034559	0.019946
801.226364	0.019873
801.418150	0.019888
801.609919	0.019668
801.801669	0.019719
801.993401	0.019868
802.185114	0.019718
802.376810	0.019790
802.568487	0.019765
802.760146	0.019696
802.951787	0.019697
803.143409	0.019436
803.335014	0.019650
803.526600	0.019487
803.718168	0.019515
803.909717	0.019612
804.101249	0.019725
804.292762	0.019602
804.484257	0.019559
804.675734	0.019657
804.867192	0.019734
805.058632	0.019742
805.250054	0.019985
805.441458	0.019953
805.632844	0.019901
805.824211	0.019811
806.015561	0.020037
806.206891	0.020061
806.398204	0.020217
806.589499	0.020378
806.780775	0.020180
806.972033	0.019889
807.163273	0.019745
807.354495	0.019631
807.545698	0.019674
807.736883	0.019438
807.928050	0.019543
808.119199	0.019317
808.310329	0.019203
808.501441	0.019175
808.692535	0.019310
808.883611	0.019306
809.074669	0.019323
809.265708	0.019293
809.456729	0.019446
809.647732	0.019335
809.838717	0.019346
810.029683	0.019386
810.220632	0.019383
810.411562	0.019389
810.602474	0.019404
810.793367	0.019560
810.984242	0.019463
811.175100	0.019425
811.365938	0.019432
811.556759	0.019392
811.747562	0.019267
811.938346	0.019320
812.129112	0.019287
812.319860	0.019312
812.510589	0.019172
812.701300	0.019158
812.891994	0.019260
813.082668	0.019262
813.273325	0.019420
813.463964	0.019567
813.654584	0.019506
813.845186	0.019363
814.035769	0.019418
814.226335	0.019562
814.416882	0.019671
814.607411	0.019533
814.797922	0.019733
814.988415	0.019685
815.178889	0.019575
815.369345	0.019534
815.559783	0.019629
815.750203	0.019556
815.940605	0.019549
816.130988	0.019492
816.321353	0.019412
816.511700	0.019063
816.702028	0.019014
816.892339	0.018995
817.082631	0.019075
817.272905	0.019207
817.463161	0.019130
817.653398	0.018831
817.843617	0.018885
818.033819	0.018923
818.224001	0.019006
818.414166	0.018889
818.604312	0.018738
818.794440	0.018829
818.984550	0.018747
819.174642	0.018813
819.364716	0.018948
819.554771	0.018822
819.744808	0.019016
819.934827	0.019224
820.124827	0.019184
820.314810	0.019150
820.504774	0.018959
820.694720	0.018858
820.884647	0.018858
821.074557	0.018698
821.264448	0.018702
821.454321	0.018515
821.644176	0.018364
821.834012	0.018393
822.023831	0.018512
822.213631	0.018528
822.403413	0.018478
822.593176	0.018190
822.782922	0.018228
822.972649	0.017891
823.162358	0.017757
823.352049	0.017497
823.541721	0.017545
823.731376	0.017500
823.921012	0.017604
824.110629	0.017489
824.300229	0.017681
824.489811	0.017597
824.679374	0.017680
824.868919	0.017714
825.058445	0.017758
825.247954	0.017540
825.437444	0.017649
825.626916	0.017592
825.816370	0.017701
826.005806	0.017688
826.195223	0.017625
826.384622	0.017710
826.574003	0.017816
826.763366	0.017795
826.952711	0.017870
827.142037	0.017779
827.331345	0.017603
827.520635	0.017588
827.709906	0.017535
827.899160	0.017574
828.088395	0.017736
828.277612	0.017662
828.466810	0.017754
828.655991	0.017782
828.845153	0.017659
829.034297	0.017500
829.223423	0.017294
829.412531	0.017364
829.601620	0.017383
829.790691	0.017048
829.979744	0.016930
830.168779	0.016918
830.357795	0.016902
830.546793	0.016718
830.735773	0.016837
830.924735	0.017168
831.113679	0.017109
831.302604	0.017157
831.491511	0.017414
831.680400	0.017412
831.869271	0.017481
832.058123	0.017432
832.246957	0.017682
832.435773	0.017722
832.624571	0.017472
832.813351	0.017367
833.002112	0.017374
833.190855	0.017312
833.379580	0.017396
833.568287	0.017159
833.756975	0.017164
833.945645	0.017079
834.134297	0.017157
834.322931	0.017350
834.511547	0.017424
834.700144	0.017372
834.888723	0.017186
835.077284	0.017130
835.265826	0.017128
835.454351	0.017026
835.642857	0.016897
835.831345	0.016473
836.019815	0.016300
836.208266	0.016067
836.396699	0.015900
836.585114	0.016001
836.773511	0.015954
836.961890	0.015948
837.150250	0.016104
837.338592	0.016073
837.526916	0.016437
837.715222	0.016386
837.903510	0.016483
838.091779	0.016571
838.280030	0.016439
838.468263	0.016442
838.656477	0.016668
838.844674	0.016527
839.032852	0.016852
839.221012	0.016792
839.409153	0.016914
839.597277	0.017068
839.785382	0.017239
839.973469	0.017554
840.161538	0.017541
840.349589	0.017334
840.537621	0.017312
840.725635	0.017330
840.913631	0.017439
841.101609	0.017344
841.289568	0.017160
841.477509	0.016905
841.665432	0.016823
841.853337	0.017101
842.041224	0.017098
842.229092	0.017233
842.416942	0.017122
842.604774	0.017105
842.792588	0.017297
842.980383	0.017428
843.168160	0.017519
843.355919	0.017337
843.543660	0.016966
843.731382	0.017146
843.919087	0.016996
844.106773	0.016915
844.294441	0.016912
844.482090	0.016784
844.669722	0.016724
844.857335	0.016784
845.044930	0.016946
845.232507	0.017157
845.420065	0.017088
845.607605	0.017440
845.795127	0.017509
845.982631	0.017500
846.170117	0.017562
846.357584	0.017595
846.545033	0.017679
846.732464	0.017609
846.919877	0.017668
847.107272	0.017933
847.294648	0.017826
847.482006	0.017872
847.669346	0.017887
847.856667	0.017869
848.043971	0.017921
848.231256	0.017732
848.418523	0.017792
848.605771	0.017862
848.793002	0.017719
848.980214	0.017175
849.167408	0.017081
849.354584	0.016906
849.541742	0.016956
849.728881	0.016950
849.916002	0.017106
850.103105	0.017180
850.290190	0.017188
850.477256	0.017027
850.664304	0.017513
850.851334	0.017715
851.038346	0.017984
851.225340	0.017989
851.412315	0.018084
851.599272	0.018176
851.786211	0.018115
851.973132	0.017964
852.160034	0.018053
852.346918	0.018155
852.533784	0.017857
852.720632	0.017903
852.907462	0.017970
853.094273	0.018074
853.281066	0.018181
853.467841	0.018170
853.654598	0.018191
853.841336	0.018495
854.028056	0.018537
854.214758	0.018848
854.401442	0.018707
854.588107	0.018725
854.774755	0.018751
854.961384	0.018677
855.147995	0.018839
855.334587	0.018812
855.521162	0.018721
855.707718	0.018491
855.894256	0.018463
856.080775	0.018635
856.267277	0.018562
856.453760	0.018474
856.640225	0.018680
856.826672	0.018699
857.013101	0.018787
857.199511	0.018744
857.385903	0.019042
857.572277	0.019023
857.758633	0.019088
857.944970	0.019302
858.131290	0.019391
858.317591	0.019194
858.503873	0.019180
858.690138	0.019364
858.876384	0.019200
859.062612	0.018795
859.248822	0.018755
859.435014	0.018799
859.621188	0.018589
859.807343	0.018611
859.993480	0.018580
860.179599	0.018650
860.365699	0.018468
860.551781	0.018465
860.737846	0.018781
860.923891	0.018864
861.109919	0.018757
861.295929	0.018800
861.481920	0.018673
861.667893	0.018657
861.853848	0.018540
862.039784	0.018621
862.225702	0.018752
862.411603	0.018640
862.597484	0.018757
862.783348	0.018707
862.969193	0.018755
863.155021	0.018750
863.340830	0.018704
863.526620	0.018777
863.712393	0.018835
863.898147	0.018903
864.083883	0.018810
864.269601	0.018940
864.455301	0.018771
864.640982	0.018688
864.826645	0.018771
865.012290	0.018920
865.197917	0.019001
865.383526	0.019031
865.569116	0.018854
865.754688	0.019027
865.940242	0.019104
866.125777	0.019471
866.311295	0.019727
866.496794	0.019957
866.682275	0.020041
866.867737	0.020193
867.053182	0.020232
867.238608	0.020531
867.424016	0.020380
867.609406	0.020012
867.794778	0.019722
867.980131	0.019434
868.165466	0.019273
868.350783	0.019213
868.536082	0.018798
868.721362	0.018590
868.906625	0.018462
869.091869	0.018798
869.277094	0.018835
869.462302	0.018860
869.647491	0.018881
869.832662	0.018754
870.017815	0.018923
870.202950	0.019277
870.388066	0.019801
870.573165	0.019665
870.758245	0.019453
870.943306	0.019652
871.128350	0.019716
871.313375	0.019994
871.498382	0.020048
871.683371	0.019729
871.868342	0.019442
872.053294	0.019148
872.238229	0.019317
872.423144	0.019337
872.608042	0.019115
872.792922	0.019002
872.977783	0.018627
873.162626	0.018612
873.347451	0.018678
873.532258	0.018761
873.717046	0.018710
873.901816	0.018399
874.086568	0.018454
874.271302	0.018683
874.456017	0.018743
874.640715	0.019027
874.825394	0.019295
875.010055	0.019414
875.194697	0.019423
875.379322	0.019299
875.563928	0.019505
875.748516	0.019539
875.933085	0.019497
876.117637	0.019723
876.302170	0.019667
876.486685	0.019487
876.671182	0.019169
876.855661	0.019358
877.040121	0.019808
877.224563	0.019866
877.408987	0.019922
877.593393	0.019665
877.777780	0.019869
877.962150	0.019765
878.146501	0.019855
878.330833	0.020194
878.515148	0.020397
878.699444	0.019881
878.883722	0.020147
879.067982	0.019973
879.252224	0.020181
879.436447	0.019824
879.620653	0.020193
879.804840	0.020573
879.989008	0.020435
880.173159	0.020187
880.357291	0.020381
880.541405	0.019964
880.725501	0.019982
880.909579	0.020329
881.093638	0.020503
881.277680	0.020368
881.461703	0.020020
881.645707	0.020282
881.829694	0.020232
882.013662	0.020143
882.197612	0.020286
882.381544	0.020662
882.565458	0.020215
882.749353	0.020121
882.933230	0.020300
883.117089	0.020017
883.300930	0.019729
883.484753	0.019830
883.668557	0.020074
883.852343	0.020016
884.036111	0.020080
884.219861	0.020213
884.403592	0.020320
884.587305	0.020059
884.771000	0.020157
884.954677	0.020286
885.138335	0.020065
885.321976	0.019966
885.505598	0.020015
885.689201	0.019781
885.872787	0.019801
886.056354	0.019524
886.239904	0.019445
886.423434	0.019699
886.606947	0.019835
886.790442	0.019879
886.973918	0.020084
887.157376	0.020483
887.340816	0.020526
887.524237	0.020441
887.707641	0.020600
887.891026	0.020717
888.074393	0.020637
888.257741	0.020593
888.441072	0.020727
888.624384	0.020513
888.807678	0.019987
888.990954	0.019914
889.174211	0.020059
889.357451	0.019828
889.540672	0.019872
889.723875	0.019326
889.907059	0.019340
890.090226	0.019285
890.273374	0.019285
890.456504	0.019421
890.639616	0.019121
890.822709	0.018976
891.005785	0.018927
891.188842	0.018942
891.371881	0.019156
891.554901	0.018951
891.737904	0.018795
891.920888	0.018795
892.103854	0.018901
892.286802	0.019359
892.469731	0.019216
892.652643	0.019673
892.835536	0.019560
893.018410	0.019563
893.201267	0.019658
893.384106	0.019676
893.566926	0.019950
893.749728	0.019805
893.932511	0.019843
894.115277	0.020142
894.298024	0.020205
894.480753	0.020303
894.663464	0.020438
894.846157	0.020578
895.028831	0.020459
895.211487	0.020090
895.394125	0.020099
895.576745	0.019690
895.759346	0.019707
895.941930	0.019393
896.124495	0.019256
896.307041	0.019404
896.489570	0.019031
896.672080	0.019236
896.854573	0.019321
897.037046	0.019374
897.219502	0.019532
897.401940	0.019575
897.584359	0.019746
897.766760	0.019998
897.949143	0.020047
898.131507	0.020195
898.313854	0.020116
898.496182	0.019914
898.678492	0.020070
898.860783	0.020036
899.043057	0.019615
899.225312	0.019661
899.407549	0.019519
899.589768	0.019327
899.771968	0.019217
899.954151	0.018969
900.136315	0.018990
900.318461	0.018900
900.500588	0.018687
900.682698	0.018795
900.864789	0.018389
901.046862	0.018505
901.228917	0.018462
901.410953	0.018776
901.592971	0.019369
901.774972	0.019567
901.956953	0.019721
902.138917	0.020081
902.320862	0.020348
902.502790	0.020397
902.684699	0.020332
902.866589	0.020503
903.048462	0.020660
903.230316	0.020447
903.412152	0.020572
903.593970	0.020492
903.775770	0.020520
903.957551	0.020074
904.139314	0.020358
904.321059	0.020518
904.502786	0.020506
904.684494	0.020339
904.866185	0.020382
905.047857	0.019987
905.229510	0.019997
905.411146	0.019826
905.592763	0.020362
905.774363	0.020220
905.955943	0.020016
906.137506	0.019592
906.319051	0.019639
906.500577	0.019762
906.682085	0.019836
906.863575	0.019615
907.045046	0.019607
907.226500	0.019372
907.407935	0.019585
907.589352	0.019482
907.770750	0.019695
907.952131	0.019575
908.133493	0.019512
908.314837	0.019585
908.496163	0.019827
908.677470	0.020106
908.858760	0.020137
909.040031	0.019991
909.221284	0.019853
909.402518	0.020031
909.583735	0.020000
909.764933	0.019955
909.946113	0.019872
910.127275	0.019766
910.308418	0.019445
910.489544	0.019403
910.670651	0.019550
910.851740	0.019481
911.032810	0.019701
911.213863	0.019629
911.394897	0.019130
911.575913	0.019343
911.756911	0.019028
911.937890	0.019305
912.118851	0.019095
912.299794	0.018934
912.480719	0.019508
912.661626	0.019175
912.842514	0.018760
913.023384	0.019143
913.204236	0.018760
913.385070	0.018877
913.565886	0.018258
913.746683	0.018067
913.927462	0.017955
914.108223	0.017246
914.288965	0.017342
914.469690	0.017475
914.650396	0.017522
914.831084	0.017085
915.011754	0.016907
915.192405	0.016799
915.373038	0.017042
915.553653	0.016655
915.734250	0.016703
915.914829	0.016275
916.095389	0.016132
916.275931	0.016037
916.456455	0.016773
916.636961	0.016599
916.817448	0.016648
916.997917	0.016363
917.178368	0.016695
917.358801	0.016443
917.539216	0.016539
917.719612	0.016543
917.899990	0.016249
918.080350	0.015949
918.260692	0.016387
918.441015	0.016557
918.621320	0.016735
918.801607	0.016440
918.981876	0.016242
919.162127	0.016018
919.342359	0.015690
919.522573	0.015524
919.702769	0.015445
919.882947	0.014968
920.063106	0.014966
920.243247	0.014515
920.423370	0.014693
920.603475	0.014963
920.783562	0.015183
920.963630	0.015601
921.143680	0.015619
921.323712	0.015468
921.503725	0.015328
921.683721	0.014869
921.863698	0.014625
922.043657	0.014229
922.223598	0.014237
922.403520	0.013992
922.583424	0.013392
922.763311	0.013417
922.943178	0.013414
923.123028	0.013383
923.302859	0.013508
923.482673	0.013625
923.662467	0.013570
923.842244	0.013150
924.022003	0.012967
924.201743	0.013190
924.381465	0.012490
924.561169	0.011854
924.740854	0.011525
924.920522	0.010888
925.100171	0.010665
925.279802	0.010527
925.459414	0.010362
925.639009	0.010156
925.818585	0.010146
925.998143	0.010081
926.177683	0.010335
926.357205	0.010331
926.536708	0.010572
926.716193	0.010595
926.895660	0.009945
927.075109	0.010213
927.254539	0.009992
927.433951	0.009769
927.613345	0.009764
927.792721	0.009493
927.972079	0.009494
928.151418	0.009321
928.330739	0.009405
928.510042	0.009711
928.689327	0.009207
928.868593	0.009118
929.047841	0.008891
929.227071	0.008878
929.406283	0.008829
929.585476	0.008346
929.764652	0.008363
929.943809	0.007689
930.122948	0.007742
930.302068	0.007842
930.481171	0.007394
930.660255	0.007423
930.839321	0.007652
931.018369	0.007337
931.197398	0.007541
931.376409	0.007557
931.555402	0.007547
931.734377	0.007160
931.913334	0.006611
932.092272	0.006382
932.271192	0.005880
932.450094	0.004990
932.628978	0.004744
932.807844	0.004404
932.986691	0.004007
933.165520	0.004503
933.344331	0.004456
933.523123	0.004718
933.701898	0.004658
933.880654	0.004494
934.059392	0.004544
934.238111	0.004388
934.416813	0.004380
934.595496	0.004555
934.774161	0.004100
934.952808	0.004223
935.131437	0.003860
935.310047	0.004470
935.488639	0.004047
935.667213	0.003942
935.845769	0.003869
936.024306	0.003465
936.202825	0.003301
936.381326	0.003352
936.559809	0.002780
936.738274	0.002728
936.916720	0.002289
937.095148	0.002053
937.273558	0.001747
937.451950	0.002579
937.630323	0.002313
937.808678	0.001666
937.987015	0.001386
938.165334	0.001107
938.343635	0.001211
938.521917	0.001315
938.700181	0.001475
938.878427	0.000983
939.056655	-0.000010
939.234864	0.000181
939.413055	0.000102
939.591228	-0.000206
939.769383	-0.000178
939.947519	-0.000158
940.125638	-0.000291
940.303738	-0.000686
940.481820	-0.000511
940.659883	0.000319
940.837929	0.000363
941.015956	0.000117
941.193965	-0.000184
941.371955	0.000187
941.549928	-0.000779
941.727882	-0.000600
941.905818	-0.000154
942.083736	-0.000165
942.261636	-0.000999
942.439517	-0.000368
942.617380	-0.000804
942.795225	-0.001423
942.973052	-0.001819
943.150860	-0.001213
943.328651	-0.001891
943.506423	-0.001173
943.684176	-0.000874
943.861912	-0.001191
944.039629	-0.001650
944.217328	-0.001394
944.395009	-0.000442
944.572672	-0.001513
944.750317	-0.002151
944.927943	-0.002373
945.105551	-0.002807
945.283141	-0.002654
945.460712	-0.002090
945.638265	-0.003149
945.815801	-0.003174
945.993317	-0.003858
946.170816	-0.003225
946.348297	-0.003307
946.525759	-0.003117
946.703203	-0.003599
946.880629	-0.003470
947.058036	-0.004646
947.235425	-0.004265
947.412797	-0.004578
947.590149	-0.003217
947.767484	-0.003627
947.944800	-0.003585
948.122099	-0.004028
948.299379	-0.004717
948.476640	-0.005321
948.653884	-0.005751
948.831109	-0.006005
949.008316	-0.005647
949.185505	-0.007070
949.362676	-0.006697
949.539828	-0.006903
949.716962	-0.006778
949.894078	-0.005733
950.071176	-0.005021
950.248256	-0.004145
950.425317	-0.004784
950.602360	-0.004418
950.779385	-0.004555
950.956391	-0.004412
951.133380	-0.004870
951.310350	-0.005071
951.487302	-0.006196
951.664235	-0.007668
951.841151	-0.007920
952.018048	-0.006555
952.194927	-0.006322
952.371788	-0.006274
952.548631	-0.006238
952.725455	-0.005569
952.902261	-0.005554
953.079049	-0.004581
953.255819	-0.003698
953.432570	-0.003839
953.609303	-0.003520
953.786018	-0.003492
953.962715	-0.003235
954.139394	-0.004194
954.316054	-0.002503
954.492696	-0.002702
954.669320	-0.002591
954.845926	-0.002155
955.022513	-0.001879
955.199083	-0.002217
955.375634	-0.002867
955.552166	-0.002416
955.728681	-0.001774
955.905177	-0.003774
956.081655	-0.002757
956.258115	-0.002505
956.434557	-0.003458
956.610980	-0.002554
956.787385	-0.002278
956.963772	-0.001947
957.140141	-0.002092
957.316492	-0.000820
957.492824	-0.000283
957.669138	-0.001166
957.845434	-0.001301
958.021712	-0.000459
958.197971	-0.001269
958.374212	-0.001312
958.550435	-0.001677
958.726640	-0.001319
958.902826	-0.001689
959.078995	0.000207
959.255145	0.000607
959.431277	-0.000610
959.607390	0.000008
959.783486	0.000805
959.959563	0.002677
960.135622	0.003833
960.311662	0.005561
960.487685	0.006817
960.663689	0.006078
960.839675	0.007820
961.015643	0.009538
961.191593	0.010375
961.367524	0.010745
961.543437	0.009992
961.719332	0.011113
961.895209	0.011936
962.071067	0.012210
962.246907	0.013145
962.422730	0.011899
962.598533	0.011998
962.774319	0.011936
962.950086	0.013145
963.125835	0.011786
963.301566	0.011416
963.477279	0.010703
963.652973	0.010337
963.828650	0.009149
964.004308	0.009457
964.179947	0.010080
964.355569	0.009247
964.531172	0.008555
964.706757	0.010180
964.882324	0.010538
965.057873	0.008848
965.233403	0.008613
965.408916	0.011531
965.584410	0.012366
965.759885	0.013070
965.935343	0.013156
966.110782	0.013646
966.286203	0.013144
966.461606	0.014651
966.636991	0.016843
966.812357	0.017767
966.987705	0.015874
967.163035	0.015082
967.338347	0.014502
967.513641	0.017025
967.688916	0.017907
967.864173	0.018778
968.039412	0.017619
968.214632	0.017073
968.389835	0.017815
968.565019	0.016759
968.740185	0.017553
968.915333	0.018463
969.090462	0.016609
969.265573	0.015692
969.440667	0.016134
969.615741	0.015499
969.790798	0.015383
969.965836	0.015123
970.140856	0.015907
970.315858	0.016617
970.490842	0.016093
970.665808	0.018111
970.840755	0.018488
971.015684	0.018551
971.190595	0.019694
971.365487	0.018731
971.540362	0.019487
971.715218	0.020989
971.890056	0.019754
972.064875	0.020401
972.239677	0.020139
972.414460	0.020567
972.589225	0.019785
972.763972	0.019155
972.938700	0.020123
973.113411	0.018247
973.288103	0.019215
973.462777	0.020768
973.637432	0.021975
973.812070	0.021901
973.986689	0.020711
974.161290	0.020714
974.335873	0.022780
974.510437	0.022124
974.684984	0.021781
974.859512	0.020954
975.034022	0.020917
975.208513	0.020030
975.382987	0.020238
975.557442	0.020854
975.731879	0.021262
975.906298	0.019627
976.080698	0.020350
976.255080	0.020938
976.429445	0.019414
976.603790	0.019238
976.778118	0.021168
976.952427	0.021454
977.126719	0.022743
977.300992	0.021492
977.475246	0.020440
977.649483	0.021620
977.823701	0.023423
977.997901	0.024458
978.172083	0.023788
978.346247	0.022053
978.520392	0.020374
978.694519	0.019738
978.868628	0.021231
979.042719	0.022240
979.216791	0.022346
979.390845	0.021276
979.564882	0.020641
979.738899	0.022752
979.912899	0.022408
980.086880	0.024720
980.260843	0.023228
980.434788	0.022810
980.608715	0.023241
980.782623	0.021974
980.956514	0.022995
981.130386	0.023282
981.304240	0.023548
981.478075	0.024276
981.651892	0.024077
981.825692	0.023287
981.999472	0.024067
982.173235	0.023856
982.346980	0.024674
982.520706	0.023587
982.694414	0.024382
982.868104	0.023879
983.041775	0.023070
983.215428	0.022670
983.389064	0.025748
983.562680	0.023902
983.736279	0.023873
983.909860	0.023962
984.083422	0.024617
984.256966	0.025212
984.430491	0.023473
984.603999	0.023930
984.777488	0.020876
984.950959	0.019313
985.124412	0.020794
985.297847	0.021620
985.471263	0.021871
985.644661	0.022402
985.818041	0.022165
985.991403	0.022326
986.164747	0.022221
986.338072	0.024392
986.511379	0.024992
986.684668	0.025785
986.857938	0.025020
987.031191	0.024732
987.204425	0.024772
987.377641	0.025123
987.550839	0.025828
987.724018	0.025997
987.897179	0.025483
988.070322	0.025190
988.243447	0.025663
988.416554	0.026246
988.589642	0.025044
988.762712	0.022233
988.935764	0.021668
989.108798	0.021212
989.281813	0.020869
989.454811	0.022497
989.627790	0.023355
989.800751	0.022924
989.973693	0.023235
990.146617	0.024133
990.319524	0.025854
990.492412	0.025872
990.665281	0.026027
990.838133	0.025046
991.010966	0.024544
991.183781	0.024112
991.356578	0.022328
991.529356	0.021197
991.702117	0.021366
991.874859	0.023314
992.047583	0.022117
992.220288	0.022284
992.392976	0.024189
992.565645	0.023617
992.738296	0.023214
992.910929	0.022842
993.083543	0.023389
993.256139	0.022673
993.428718	0.020915
993.601277	0.020964
993.773819	0.021527
993.946342	0.020216
994.118848	0.020216
994.291335	0.020727
994.463803	0.021151
994.636254	0.021670
994.808686	0.021452
994.981100	0.020537
995.153496	0.020983
995.325874	0.020596
995.498233	0.022586
995.670574	0.023053
995.842897	0.023176
996.015202	0.023609
996.187488	0.022981
996.359757	0.024245
996.532007	0.026373
996.704239	0.026834
996.876452	0.026084
997.048648	0.025746
997.220825	0.024494
997.392984	0.024538
997.565124	0.025333
997.737247	0.026085
997.909351	0.025958
998.081437	0.023702
998.253505	0.023904
998.425554	0.023627
998.597586	0.022986
998.769599	0.024517
998.941594	0.024169
999.113571	0.024142
999.285529	0.023790
999.457469	0.023588
999.629391	0.024811
999.801295	0.023342
999.973181	0.024937
1000.145048	0.026158
1000.316897	0.024994
1000.488728	0.024770
1000.660541	0.024226
1000.832335	0.024859
1001.004111	0.023614
1001.175869	0.023475
1001.347609	0.024184
1001.519331	0.023389
1001.691034	0.021344
1001.862719	0.023026
1002.034386	0.023137
1002.206035	0.022806
1002.377665	0.021477
1002.549277	0.023171
1002.720871	0.023793
1002.892447	0.023297
1003.064004	0.023745
1003.235544	0.025225
1003.407065	0.024655
1003.578568	0.025440
1003.750052	0.026068
1003.921519	0.025981
1004.092967	0.024181
1004.264397	0.023284
1004.435809	0.024363
1004.607202	0.024361
1004.778577	0.022699
1004.949934	0.022647
1005.121273	0.021415
1005.292594	0.021061
1005.463896	0.020843
1005.635180	0.021176
1005.806446	0.022240
1005.977694	0.020821
1006.148923	0.020524
1006.320135	0.021225
1006.491328	0.019796
1006.662503	0.020702
1006.833659	0.020383
1007.004798	0.021585
1007.175918	0.022925
1007.347020	0.020742
1007.518103	0.021475
1007.689169	0.020891
1007.860216	0.021494
1008.031245	0.021700
1008.202256	0.020709
1008.373248	0.020698
1008.544223	0.020911
1008.715179	0.020707
1008.886117	0.023405
1009.057036	0.024232
1009.227938	0.024180
1009.398821	0.022744
1009.569686	0.023510
1009.740533	0.023787
1009.911361	0.024238
1010.082172	0.023283
1010.252964	0.022923
1010.423738	0.021251
1010.594493	0.019313
1010.765231	0.020386
1010.935950	0.021128
1011.106651	0.020842
1011.277334	0.020116
1011.447998	0.020486
1011.618645	0.020788
1011.789273	0.021250
1011.959882	0.021871
1012.130474	0.023189
1012.301048	0.021892
1012.471603	0.021214
1012.642140	0.020774
1012.812658	0.021033
1012.983159	0.021043
1013.153641	0.021647
1013.324105	0.021820
1013.494551	0.021883
1013.664979	0.021780
1013.835388	0.021014
1014.005779	0.022184
1014.176152	0.023351
1014.346507	0.023594
1014.516843	0.023442
1014.687162	0.021897
1014.857462	0.020856
1015.027744	0.022021
1015.198007	0.023774
1015.368252	0.025682
1015.538480	0.025831
1015.708689	0.025702
1015.878879	0.025774
1016.049052	0.024944
1016.219206	0.025563
1016.389342	0.025274
1016.559460	0.024343
1016.729559	0.022410
1016.899641	0.022535
1017.069704	0.021291
1017.239749	0.022022
1017.409775	0.022177
1017.579784	0.022740
1017.749774	0.023148
1017.919746	0.023372
1018.089700	0.022445
1018.259635	0.023472
1018.429553	0.023707
1018.599452	0.023806
1018.769333	0.021742
1018.939195	0.021985
1019.109040	0.021716
1019.278866	0.020843
1019.448674	0.021246
1019.618464	0.022382
1019.788235	0.021264
1019.957989	0.019461
1020.127724	0.019958
1020.297441	0.022118
1020.467139	0.022654
1020.636820	0.022905
1020.806482	0.023716
1020.976126	0.023591
1021.145752	0.022803
1021.315359	0.023283
1021.484948	0.024618
1021.654519	0.023749
1021.824072	0.022698
1021.993607	0.023013
1022.163123	0.023003
1022.332621	0.022650
1022.502101	0.022914
1022.671563	0.023719
1022.841007	0.023800
1023.010432	0.022796
1023.179839	0.023104
1023.349228	0.023905
1023.518598	0.022413
1023.687951	0.021803
1023.857285	0.021739
1024.026601	0.021274
1024.195899	0.020684
1024.365178	0.020839
1024.534439	0.021585
1024.703682	0.022567
1024.872907	0.020548
1025.042114	0.021047
1025.211302	0.021883
1025.380472	0.022469
1025.549624	0.024809
1025.718758	0.024463
1025.887873	0.024352
1026.056970	0.023215
1026.226049	0.023933
1026.395110	0.024801
1026.564153	0.025423
1026.733177	0.024505
1026.902183	0.023836
1027.071171	0.022340
1027.240141	0.023216
1027.409092	0.021958
1027.578026	0.022905
1027.746940	0.020744
1027.915837	0.020352
1028.084716	0.019918
1028.253576	0.021200
1028.422418	0.020731
1028.591242	0.020443
1028.760048	0.020397
1028.928835	0.020730
1029.097604	0.021543
1029.266355	0.022059
1029.435088	0.022168
1029.603803	0.021762
1029.772499	0.019510
1029.941177	0.021393
1030.109837	0.021722
1030.278478	0.020513
1030.447102	0.022624
1030.615707	0.021669
1030.784294	0.021086
1030.952863	0.022461
1031.121413	0.022961
1031.289945	0.025541
1031.458460	0.023761
1031.626955	0.021987
1031.795433	0.022675
1031.963892	0.021317
1032.132334	0.022481
1032.300756	0.022355
1032.469161	0.022474
1032.637548	0.022156
1032.805916	0.021225
1032.974266	0.022271
1033.142598	0.024032
1033.310911	0.025005
1033.479207	0.025525
1033.647484	0.024684
1033.815743	0.026547
1033.983983	0.025578
1034.152206	0.025792
1034.320410	0.025452
1034.488596	0.025986
1034.656764	0.026074
1034.824914	0.024247
1034.993045	0.024156
1035.161158	0.023901
1035.329253	0.023299
1035.497330	0.023619
1035.665388	0.022883
1035.833428	0.023228
1036.001450	0.022711
1036.169454	0.021202
1036.337440	0.020876
1036.505407	0.020613
1036.673356	0.021336
1036.841287	0.020758
1037.009200	0.021104
1037.177094	0.021245
1037.344970	0.020406
1037.512828	0.019467
1037.680668	0.020250
1037.848489	0.021571
1038.016293	0.021309
1038.184078	0.021495
1038.351845	0.020819
1038.519593	0.019057
1038.687324	0.019709
1038.855036	0.020783
1039.022730	0.022194
1039.190406	0.022197
1039.358063	0.020897
1039.525702	0.021777
1039.693323	0.022021
1039.860926	0.023942
1040.028511	0.024225
1040.196077	0.024212
1040.363625	0.025671
1040.531155	0.023987
1040.698667	0.023137
1040.866161	0.024143
1041.033636	0.023374
1041.201093	0.022174
1041.368532	0.021187
1041.535952	0.021633
1041.703355	0.021478
1041.870739	0.020457
1042.038105	0.021153
1042.205452	0.022787
1042.372782	0.022266
1042.540093	0.022070
1042.707386	0.021512
1042.874661	0.022714
1043.041918	0.023833
1043.209156	0.024994
1043.376376	0.024746
1043.543578	0.026093
1043.710762	0.027010
1043.877927	0.025383
1044.045074	0.026371
1044.212203	0.026860
1044.379314	0.025233
1044.546407	0.024331
1044.713481	0.023839
1044.880537	0.023369
1045.047575	0.021940
1045.214595	0.019759
1045.381596	0.022323
1045.548579	0.021915
1045.715544	0.021570
1045.882491	0.021735
1046.049420	0.021810
1046.216330	0.022411
1046.383222	0.021825
1046.550096	0.021087
1046.716951	0.020808
1046.883789	0.019249
1047.050608	0.019409
1047.217409	0.020561
1047.384192	0.020163
1047.550956	0.019927
1047.717703	0.018722
1047.884431	0.020934
1048.051140	0.020607
1048.217832	0.021237
1048.384505	0.022362
1048.551161	0.022458
1048.717798	0.022055
1048.884416	0.022564
1049.051017	0.022639
1049.217599	0.022463
1049.384163	0.020557
1049.550709	0.021540
1049.717237	0.021862
1049.883746	0.022043
1050.050237	0.021647
1050.216710	0.020064
1050.383165	0.019968
1050.549601	0.020049
1050.716019	0.020375
1050.882420	0.020875
1051.048801	0.020350
1051.215165	0.019560
1051.381510	0.020587
1051.547837	0.021459
1051.714146	0.024052
1051.880437	0.025032
1052.046709	0.026183
1052.212964	0.024820
1052.379200	0.025007
1052.545417	0.024711
1052.711617	0.025425
1052.877798	0.022436
1053.043961	0.020775
1053.210106	0.018240
1053.376233	0.018081
1053.542341	0.017791
1053.708432	0.017937
1053.874504	0.016143
1054.040557	0.018286
1054.206593	0.018982
1054.372610	0.019538
1054.538609	0.020316
1054.704590	0.020129
1054.870553	0.019579
1055.036497	0.019440
1055.202424	0.019669
1055.368331	0.020076
1055.534221	0.016763
1055.700093	0.015389
1055.865946	0.016544
1056.031781	0.015192
1056.197598	0.016609
1056.363397	0.016041
1056.529177	0.014698
1056.694939	0.015695
1056.860683	0.015026
1057.026409	0.017831
1057.192116	0.017220
1057.357806	0.017391
1057.523477	0.016328
1057.689130	0.016576
1057.854764	0.015663
1058.020381	0.015751
1058.185979	0.015414
1058.351559	0.016849
1058.517120	0.016012
1058.682664	0.017242
1058.848189	0.015504
1059.013696	0.017189
1059.179185	0.017837
1059.344656	0.021104
1059.510108	0.020026
1059.675542	0.021363
1059.840958	0.020416
1060.006356	0.020207
1060.171735	0.020142
1060.337096	0.020565
1060.502439	0.019962
1060.667764	0.019162
1060.833071	0.015598
1060.998359	0.017622
1061.163629	0.017282
1061.328881	0.019819
1061.494115	0.020434
1061.659330	0.018389
1061.824527	0.019728
1061.989706	0.019852
1062.154867	0.019647
1062.320010	0.022578
1062.485134	0.021456
1062.650240	0.018979
1062.815328	0.017966
1062.980398	0.018839
1063.145449	0.020870
1063.310482	0.019508
1063.475497	0.019487
1063.640494	0.021286
1063.805473	0.019042
1063.970433	0.021156
1064.135375	0.022982
1064.300299	0.022121
1064.465204	0.020355
1064.630092	0.020580
1064.794961	0.022077
1064.959812	0.023714
1065.124645	0.022299
1065.289459	0.025090
1065.454256	0.023649
1065.619034	0.021747
1065.783793	0.021348
1065.948535	0.019964
1066.113258	0.019138
1066.277964	0.017884
1066.442651	0.016246
1066.607319	0.015281
1066.771970	0.012773
1066.936602	0.011512
1067.101216	0.013262
1067.265812	0.014273
1067.430389	0.014058
1067.594949	0.013544
1067.759490	0.013072
1067.924013	0.013517
1068.088518	0.015553
1068.253004	0.017227
1068.417472	0.018951
1068.581922	0.018892
1068.746354	0.019175
1068.910768	0.022790
1069.075163	0.023200
1069.239540	0.026242
1069.403899	0.025643
1069.568240	0.024490
1069.732562	0.023677
1069.896866	0.023983
1070.061152	0.023721
1070.225420	0.022664
1070.389670	0.021301
1070.553901	0.020351
1070.718114	0.019124
1070.882309	0.020933
1071.046486	0.020418
1071.210644	0.019225
1071.374784	0.018566
1071.538906	0.016522
1071.703010	0.018496
1071.867096	0.017942
1072.031163	0.019036
1072.195212	0.017551
1072.359243	0.015965
1072.523256	0.014727
1072.687250	0.016573
1072.851226	0.015690
1073.015184	0.017208
1073.179124	0.016133
1073.343045	0.017041
1073.506949	0.018591
1073.670834	0.020341
1073.834701	0.021266
1073.998549	0.021026
1074.162380	0.019596
1074.326192	0.019663
1074.489986	0.019812
1074.653761	0.020289
1074.817519	0.020233
1074.981258	0.019772
1075.144979	0.018698
1075.308682	0.017116
1075.472367	0.018148
1075.636033	0.019129
1075.799681	0.019671
1075.963311	0.020886
1076.126923	0.019984
1076.290516	0.018850
1076.454092	0.017803
1076.617649	0.017464
1076.781187	0.017601
1076.944708	0.018025
1077.108210	0.016634
1077.271695	0.015655
1077.435160	0.014799
1077.598608	0.016174
1077.762038	0.014814
1077.925449	0.015437
1078.088842	0.015509
1078.252217	0.015552
1078.415573	0.016330
1078.578912	0.015471
1078.742232	0.017538
1078.905534	0.018112
1079.068817	0.018700
1079.232083	0.019488
1079.395330	0.017949
1079.558559	0.017234
1079.721770	0.018086
1079.884962	0.016685
1080.048136	0.017781
1080.211293	0.015590
1080.374430	0.016222
1080.537550	0.013868
1080.700651	0.014934
1080.863735	0.016430
1081.026800	0.017672
1081.189846	0.019728
1081.352875	0.019747
1081.515885	0.020407
1081.678877	0.021507
1081.841851	0.022652
1082.004807	0.022811
1082.167744	0.023631
1082.330663	0.022305
1082.493564	0.021401
1082.656447	0.020390
1082.819312	0.021329
1082.982158	0.021265
1083.144986	0.019524
1083.307796	0.017531
1083.470587	0.018404
1083.633361	0.017129
1083.796116	0.018218
1083.958853	0.019318
1084.121571	0.019445
1084.284272	0.019138
1084.446954	0.017870
1084.609618	0.020518
1084.772264	0.020009
1084.934892	0.017885
1085.097501	0.018104
1085.260092	0.019188
1085.422665	0.018032
1085.585220	0.015994
1085.747756	0.014253
1085.910274	0.014835
1086.072774	0.010691
1086.235256	0.011393
1086.397720	0.012980
1086.560165	0.012759
1086.722592	0.012230
1086.885001	0.013951
1087.047392	0.015447
1087.209764	0.015991
1087.372119	0.014342
1087.534455	0.018079
1087.696772	0.016832
1087.859072	0.016528
1088.021353	0.015080
1088.183616	0.013821
1088.345861	0.010834
1088.508088	0.009111
1088.670296	0.009113
1088.832486	0.011203
1088.994658	0.010153
1089.156812	0.007187
1089.318948	0.005633
1089.481065	0.007583
1089.643164	0.007743
1089.805245	0.009999
1089.967308	0.012274
1090.129352	0.013282
1090.291378	0.012235
1090.453386	0.012768
1090.615376	0.014763
1090.777347	0.013478
1090.939301	0.013093
1091.101236	0.013954
1091.263153	0.012996
1091.425051	0.011610
1091.586932	0.012743
1091.748794	0.013766
1091.910638	0.012937
1092.072463	0.011489
1092.234271	0.012724
1092.396060	0.012210
1092.557831	0.010815
1092.719584	0.009403
1092.881319	0.009702
1093.043035	0.008980
1093.204733	0.012328
1093.366413	0.012904
1093.528075	0.014749
1093.689718	0.014749
1093.851343	0.015186
1094.012950	0.017628
1094.174539	0.019906
1094.336110	0.016331
1094.497662	0.015228
1094.659196	0.013236
1094.820712	0.015313
1094.982210	0.016665
1095.143689	0.014829
1095.305151	0.012636
1095.466594	0.010154
1095.628018	0.011677
1095.789425	0.014779
1095.950813	0.015280
1096.112183	0.014168
1096.273535	0.012875
1096.434869	0.013823
1096.596184	0.015579
1096.757482	0.017829
1096.918761	0.016312
1097.080021	0.016121
1097.241264	0.015350
1097.402488	0.016295
1097.563694	0.016061
1097.724882	0.015880
1097.886052	0.013077
1098.047203	0.013071
1098.208336	0.012469
1098.369451	0.013444
1098.530548	0.009848
1098.691627	0.010621
1098.852687	0.008275
1099.013729	0.006999
1099.174753	0.005393
1099.335758	0.005004
1099.496746	0.006285
1099.657715	0.006494
1099.818666	0.008621
1099.979599	0.012093
1100.140513	0.013893
1100.301409	0.015882
1100.462287	0.017388
1100.623147	0.016468
1100.783989	0.017259
1100.944812	0.017806
1101.105617	0.016427
1101.266404	0.015786
1101.427173	0.013616
1101.587923	0.013144
1101.748656	0.014931
1101.909370	0.012554
1102.070066	0.014963
1102.230743	0.013855
1102.391403	0.013496
1102.552044	0.012855
1102.712667	0.009533
1102.873271	0.009626
1103.033858	0.006883
1103.194426	0.002924
1103.354976	0.004076
1103.515508	0.003461
1103.676021	0.003147
1103.836517	0.003555
1103.996994	0.004102
1104.157453	0.003175
1104.317893	0.001691
1104.478316	0.002274
1104.638720	0.002801
1104.799106	0.003430
1104.959474	0.002361
1105.119823	0.004994
1105.280155	0.003925
1105.440468	0.007929
1105.600763	0.011001
1105.761039	0.011614
1105.921298	0.016171
1106.081538	0.020592
1106.241760	0.023331
1106.401964	0.024790
1106.562149	0.024808
1106.722316	0.025558
1106.882465	0.021724
1107.042596	0.022638
1107.202709	0.025991
1107.362803	0.021085
1107.522879	0.019436
1107.682937	0.016807
1107.842977	0.013802
1108.002999	0.009974
1108.163002	0.006329
1108.322987	0.004935
1108.482954	0.004625
1108.642902	0.001079
1108.802833	-0.001436
1108.962745	-0.003688
1109.122639	-0.003809
1109.282515	-0.004254
1109.442372	-0.000959
1109.602211	0.000777
1109.762032	0.003098
1109.921835	0.004638
1110.081620	0.004495
1110.241386	0.009850
1110.401134	0.007761
1110.560864	0.007159
1110.720576	0.007725
1110.880269	0.005944
1111.039945	0.006518
1111.199602	0.005152
1111.359240	0.004110
1111.518861	0.003557
1111.678463	0.002844
1111.838047	0.007216
1111.997613	0.007602
1112.157161	0.011599
1112.316690	0.016925
1112.476202	0.020467
1112.635695	0.024182
1112.795169	0.024074
1112.954626	0.026568
1113.114064	0.024476
1113.273484	0.024013
1113.432886	0.025391
1113.592270	0.022177
1113.751635	0.020391
1113.910983	0.018128
1114.070312	0.016120
1114.229622	0.013301
1114.388915	0.014807
1114.548189	0.015555
1114.707445	0.010845
1114.866683	0.010696
1115.025903	0.015489
1115.185104	0.014926
1115.344287	0.011964
1115.503452	0.011436
1115.662599	0.013643
1115.821727	0.014063
1115.980838	0.011352
1116.139930	0.014683
1116.299004	0.009103
1116.458059	0.003646
1116.617097	0.001480
1116.776116	0.006232
1116.935117	0.006118
1117.094099	0.003925
1117.253064	-0.000237
1117.412010	0.000124
1117.570938	-0.000554
1117.729848	0.005300
1117.888740	0.005783
1118.047613	0.007631
1118.206468	0.006335
1118.365305	0.007813
1118.524124	0.009962
1118.682924	0.010627
1118.841707	0.013416
1119.000471	0.015076
1119.159216	0.014504
1119.317944	0.017683
1119.476653	0.015849
1119.635344	0.011803
1119.794017	0.008419
1119.952672	0.010122
1120.111308	0.010621
1120.269927	0.012007
1120.428527	0.009166
1120.587108	0.007909
1120.745672	0.005004
1120.904217	0.006539
1121.062744	0.007808
1121.221253	0.011463
1121.379744	0.012235
1121.538216	0.008870
1121.696671	0.006473
1121.855107	0.007676
1122.013524	0.006257
1122.171924	0.008201
1122.330305	0.006668
1122.488668	0.006011
1122.647013	0.003652
1122.805340	0.000465
1122.963648	0.005649
1123.121938	0.007759
1123.280210	0.008191
1123.438464	0.009825
1123.596700	0.002685
1123.754917	0.005964
1123.913116	0.011524
1124.071297	0.011421
1124.229459	0.010757
1124.387604	0.005833
1124.545730	0.004436
1124.703838	0.006415
1124.861928	0.003595
1125.019999	0.009074
1125.178052	0.004620
1125.336088	0.000240
1125.494104	0.000384
1125.652103	0.001604
1125.810083	0.004898
1125.968045	0.006744
1126.125989	0.006658
1126.283915	0.008318
1126.441823	0.006315
1126.599712	0.005671
1126.757583	0.005953
1126.915436	0.004534
1127.073270	0.004005
1127.231087	0.003363
1127.388885	-0.000834
1127.546665	-0.004156
1127.704426	-0.001372
1127.862170	0.000278
1128.019895	-0.001446
1128.177602	-0.002011
1128.335291	-0.000871
1128.492961	-0.000734
1128.650614	-0.001602
1128.808248	0.000381
1128.965864	0.001159
1129.123461	0.001599
1129.281041	0.000315
1129.438602	0.001482
1129.596145	0.004648
1129.753670	0.007069
1129.911176	0.009504
1130.068665	0.014550
1130.226135	0.010222
1130.383587	0.009060
1130.541020	0.003914
1130.698436	0.005840
1130.855833	0.008049
1131.013212	0.008752
1131.170573	0.008566
1131.327915	0.005051
1131.485239	0.002265
1131.642545	0.004641
1131.799833	0.004148
1131.957103	0.007738
1132.114354	0.011116
1132.271588	0.012794
1132.428803	0.009248
1132.585999	0.007323
1132.743178	0.009291
1132.900338	0.005806
1133.057480	0.003692
1133.214604	0.001942
1133.371710	-0.004558
1133.528797	-0.006562
1133.685866	-0.007558
1133.842917	-0.009447
1133.999950	-0.006395
1134.156964	-0.007618
1134.313960	-0.009749
1134.470938	-0.003614
1134.627898	-0.000046
1134.784840	0.006656
1134.941763	0.000936
1135.098668	-0.002625
1135.255555	-0.003131
1135.412424	-0.009308
1135.569274	-0.008790
1135.726107	-0.006990
1135.882921	-0.004948
1136.039716	-0.006264
1136.196494	-0.007052
1136.353253	-0.004962
1136.509995	-0.002658
1136.666717	-0.000312
1136.823422	-0.003996
1136.980109	-0.010231
1137.136777	-0.012298
1137.293427	-0.016160
1137.450059	-0.015180
1137.606672	-0.013390
1137.763267	-0.011708
1137.919844	-0.006537
1138.076403	-0.008319
1138.232944	-0.000157
1138.389466	0.004395
1138.545971	0.008599
1138.702457	0.009524
1138.858924	0.011970
1139.015374	0.010697
1139.171805	0.013598
1139.328218	0.007281
1139.484613	0.006785
1139.640990	0.004129
1139.797348	0.006966
1139.953688	0.009185
1140.110010	0.007780
1140.266314	0.000536
1140.422600	-0.001600
1140.578867	-0.004052
1140.735116	-0.006471
1140.891347	-0.007094
1141.047559	-0.004054
1141.203754	-0.005322
1141.359930	-0.003580
1141.516088	-0.006438
1141.672228	-0.004457
1141.828349	-0.001923
1141.984452	-0.003867
1142.140537	-0.004360
1142.296604	-0.003720
1142.452653	-0.004433
1142.608683	-0.000990
1142.764695	-0.005849
1142.920689	-0.000895
1143.076665	0.003237
1143.232622	-0.001325
1143.388562	0.000627
1143.544483	0.008814
1143.700385	0.010899
1143.856270	0.006190
1144.012136	-0.001644
1144.167985	-0.001174
1144.323814	-0.002282
1144.479626	-0.005831
1144.635420	-0.004339
1144.791195	-0.003130
1144.946952	-0.007264
1145.102691	-0.006119
1145.258411	-0.003645
1145.414113	-0.003153
1145.569798	-0.002312
1145.725463	-0.000359
1145.881111	0.000234
1146.036741	0.000793
1146.192352	-0.003210
1146.347945	-0.007489
1146.503519	-0.005735
1146.659076	-0.005650
1146.814614	-0.003409
1146.970134	-0.004119
1147.125636	-0.010230
1147.281120	-0.012593
1147.436585	-0.014550
1147.592032	-0.012554
1147.747461	-0.005254
1147.902872	-0.012096
1148.058265	-0.010468
1148.213639	-0.009950
1148.368995	-0.009273
1148.524333	-0.007415
1148.679653	-0.005700
1148.834954	-0.004118
1148.990237	-0.002704
1149.145502	-0.009165
1149.300749	-0.009539
1149.455977	-0.009126
1149.611188	-0.006243
1149.766380	-0.008168
1149.921553	-0.009572
1150.076709	-0.006699
1150.231846	-0.006138
1150.386966	-0.005808
1150.542066	-0.004696
1150.697149	0.002442
1150.852214	0.005755
1151.007260	0.000393
1151.162288	0.006060
1151.317298	0.010690
1151.472289	0.001194
1151.627263	-0.001250
1151.782218	-0.005207
1151.937155	-0.000514
1152.092073	-0.001962
1152.246974	-0.007755
1152.401856	-0.004897
1152.556720	-0.008306
1152.711566	-0.012177
1152.866393	-0.003734
1153.021203	-0.001857
1153.175994	0.000671
1153.330767	-0.002622
1153.485521	-0.004883
1153.640258	-0.004471
1153.794976	-0.003321
1153.949676	-0.006010
1154.104358	-0.007557
1154.259021	-0.004311
1154.413667	-0.008503
1154.568294	-0.009016
1154.722903	-0.008579
1154.877493	-0.004642
1155.032066	-0.005514
1155.186620	-0.005334
1155.341156	-0.003606
1155.495674	0.000021
1155.650173	-0.002451
1155.804654	-0.002852
1155.959118	-0.011476
1156.113562	-0.010422
1156.267989	-0.010004
1156.422397	-0.009238
1156.576788	-0.010106
1156.731160	-0.015197
1156.885513	-0.020320
1157.039849	-0.016999
1157.194166	-0.014442
1157.348465	-0.007041
1157.502746	-0.003822
1157.657009	-0.009373
1157.811253	-0.012608
1157.965479	-0.005992
1158.119687	0.004727
1158.273877	0.004990
1158.428048	0.004571
1158.582201	0.009198
1158.736337	0.005056
1158.890453	0.004663
1159.044552	0.006715
1159.198632	0.009030
1159.352694	-0.001899
1159.506738	-0.004800
1159.660764	0.000488
1159.814771	-0.005103
1159.968761	-0.017857
1160.122732	-0.011000
1160.276685	-0.013590
1160.430619	-0.013749
1160.584535	-0.011486
1160.738434	-0.004798
1160.892313	-0.004158
1161.046175	-0.003091
1161.200019	0.003035
1161.353844	0.016175
1161.507651	0.019386
1161.661440	0.019257
1161.815210	0.019287
1161.968962	0.018634
1162.122697	0.015437
1162.276412	0.008890
1162.430110	0.008038
1162.583789	-0.006575
1162.737451	-0.004529
1162.891094	-0.007864
1163.044718	-0.013678
1163.198325	-0.011024
1163.351913	-0.011238
1163.505483	-0.014512
1163.659035	-0.011346
1163.812569	-0.006232
1163.966084	-0.000800
1164.119581	-0.007516
1164.273060	-0.009693
1164.426521	-0.011492
1164.579964	-0.016010
1164.733388	-0.016951
1164.886794	-0.018380
1165.040182	-0.021397
1165.193551	-0.033520
1165.346903	-0.026133
1165.500236	-0.024297
1165.653551	-0.018980
1165.806848	-0.009064
1165.960126	-0.005511
1166.113386	0.000827
1166.266628	0.003603
1166.419852	0.004196
1166.573058	0.002547
1166.726245	0.003800
1166.879414	-0.003808
1167.032565	-0.006827
1167.185698	-0.011733
1167.338812	-0.010107
1167.491909	-0.014080
1167.644987	-0.014547
1167.798046	-0.018247
1167.951088	-0.010211
1168.104111	-0.019050
1168.257117	-0.013082
1168.410103	-0.013505
1168.563072	-0.007584
1168.716023	-0.015791
1168.868955	-0.023650
1169.021869	-0.015110
1169.174765	0.001821
1169.327642	-0.002675
1169.480501	-0.003472
1169.633343	-0.001903
1169.786165	-0.004031
1169.938970	-0.008860
1170.091757	0.000637
1170.244525	0.007422
1170.397275	-0.003515
1170.550007	-0.010480
1170.702720	-0.015347
1170.855415	-0.011605
1171.008092	-0.019716
1171.160751	-0.028983
1171.313392	-0.036684
1171.466014	-0.012510
1171.618619	-0.081486
1171.771205	-0.081486
1171.923772	-0.081486
