sample name	sample
index	833
start time	 04-05-2021  10:38:37 AM
880	-0.051407
Peak Time (s)	91.537
Peak Height 	-0.05141
calc peak height	90,93
Baseline Time (s)	9.537
Baseline Value 	-0.004993
subtract baseline	10,4
Abs	-0.012447
Peak Time (s)	92.535
Peak Height 	-0.01245
calc peak height	90,93
Baseline Time (s)	10.541
Baseline Value 	0.002511
subtract baseline	10,3
PK_550	-0.001925
Peak Time (s)	91.037
Peak Height 	-0.001925
calc peak height	90,93
Baseline Time (s)	10.034
Baseline Value 	7.3642E-4
subtract baseline	10,2
PK_880	-0.009188
Peak Time (s)	91.037
Peak Height 	-0.009188
calc peak height	90,93
Baseline Time (s)	8.541
Baseline Value 	0.00121
subtract baseline	10,1


Time (s)	A880-A510	A880-A775	A880-A975	A880	I510	I775	I975	I880	
0.037000	-0.004508	-0.001200	-0.006957	0.008017	6474.490174	39472.526031	3783.266140	21358.583588
0.536500	-0.000620	-0.001062	-0.004132	0.005863	6526.369098	39666.594998	3795.376457	21451.094428
1.037000	-0.000613	-0.000612	-0.000441	0.005424	6530.225675	39742.129366	3805.525437	21469.989510
1.537000	0.000396	-0.000138	0.001816	0.002355	6565.686071	40044.704117	3818.756595	21602.686951
2.072500	-0.001437	-0.000849	-0.005759	0.007844	6502.254364	39516.746082	3786.587830	21365.992480
2.543000	0.000058	-0.000507	-0.001901	0.002201	6564.080050	40026.199803	3809.885238	21609.368611
3.046000	0.002058	-0.000306	-0.001291	-0.000442	6604.842418	40270.806735	3817.982199	21724.466060
3.541500	-0.000541	-0.000120	0.001128	0.001466	6565.268076	40122.558851	3819.257877	21641.306598
4.036500	0.000497	-0.000563	0.001071	0.003569	6555.974692	39904.418429	3813.870794	21550.100090
4.536500	0.000707	-0.000740	-0.000863	0.000853	6581.554189	40121.926491	3815.815898	21667.975842
5.036500	0.004278	-0.000230	0.003700	0.001280	6609.241895	40129.088402	3826.178863	21649.420185
5.538000	0.001698	-0.000919	-0.003203	0.000786	6590.852217	40112.319940	3810.167733	21670.924763
6.034500	-0.001343	-0.000230	-0.000622	0.000409	6567.493087	40204.017639	3817.524795	21687.315610
6.538000	-0.001283	-0.000341	0.001492	0.000431	6567.833412	40192.578757	3822.764012	21686.399415
7.043500	0.001184	0.000517	0.002053	0.000753	6586.624336	40238.711284	3823.362965	21672.341475
7.547500	0.000857	0.000182	0.001093	0.000858	6582.832533	40200.802851	3820.691629	21667.765999
8.051000	0.001618	-0.000266	0.001653	0.000421	6593.358559	40199.922053	3823.193014	21686.815551
8.541000	0.000000	0.000016	0.004403	0.000623	6577.375172	40206.741975	3829.604678	21678.003763
9.047000	0.001860	0.000299	0.002839	0.000801	6592.146521	40215.825610	3825.216269	21670.251261
9.537000	-0.000907	-0.000448	-0.001391	0.000000	6574.887457	40220.468776	3816.627338	21705.174600
10.034500	0.001548	0.000000	-0.000859	0.000371	6593.187310	40227.126741	3817.030794	21688.998592
10.541000	0.001463	-0.000488	0.000000	-0.000270	6598.082403	40240.282945	3820.780367	21716.962354
11.040500	-0.000180	0.000063	-0.001742	-0.000274	6583.660076	40288.118860	3816.435146	21717.121843
11.535000	-0.000644	-0.000168	0.003867	-0.000293	6579.762638	40269.902225	3830.564191	21717.956850
12.035000	0.002288	0.000185	0.000239	-0.000178	6604.547153	40290.433402	3821.147313	21712.944998
12.535000	0.000428	-0.001098	0.003362	-0.000827	6593.869739	40235.709834	3830.638726	21741.289281
13.038500	0.001507	-0.000227	0.006366	-0.000090	6596.889090	40247.299102	3836.383288	21709.122287
13.536500	-0.001141	-0.000810	0.001328	0.004211	6536.162100	39828.569684	3812.912779	21522.341384
14.038000	-0.000717	-0.000511	-0.003490	0.002030	6558.804956	40040.584873	3806.376761	21616.799309
14.536500	-0.000607	-0.000337	-0.000255	0.002345	6557.023337	40028.500155	3813.616168	21603.135333
15.036500	0.000281	-0.000460	0.002090	-0.000133	6586.477790	40230.907932	3825.681333	21710.983348
15.536500	-0.002008	-0.000595	-0.003944	0.004249	6528.326661	39843.607036	3799.791256	21520.691793
16.038000	0.000053	-0.000308	-0.005905	-0.000277	6585.738146	40256.481871	3806.108915	21717.269692
16.538500	0.003266	-0.000493	-0.002308	-0.000067	6612.204969	40222.379258	3814.509270	21708.104152
17.036000	0.003154	-0.000256	0.000924	-0.002989	6637.138302	40495.597065	3829.942034	21836.056462
17.537500	0.000123	-0.001123	0.006056	0.000502	6579.514213	40119.193092	3834.092050	21683.274218
18.043500	0.001101	0.000196	-0.003551	0.001782	6576.869428	40122.564216	3806.839881	21627.592963
18.539000	-0.000832	-0.000948	0.004984	0.001259	6564.532137	40069.290963	3829.468534	21650.332951
19.037000	0.000426	-0.000012	-0.000848	0.001840	6570.446427	40099.738014	3813.397088	21625.057552
19.537000	-0.000584	0.000437	-0.003274	0.001692	6562.915690	40151.032285	3807.746290	21631.486597
20.037000	-0.000189	-0.000591	-0.001748	0.001364	6569.234438	40090.857115	3812.342676	21645.756756
20.540500	-0.001717	-0.000215	-0.001643	0.001659	6553.327683	40097.808673	3811.872344	21632.935280
21.035500	0.001038	-0.000274	0.003120	0.001548	6578.373618	40102.309090	3824.045543	21637.769420
21.535500	-0.000093	0.000161	0.004337	0.001822	6566.070667	40116.161576	3826.416809	21625.849910
22.039000	0.000326	0.000198	0.000221	0.001436	6573.112755	40152.468831	3817.067528	21642.623800
22.536000	-0.000481	-0.000162	0.002944	0.001389	6566.471517	40125.634806	3824.003249	21644.682577
23.036500	-0.000005	0.000508	0.001054	0.001935	6565.849613	40136.219239	3817.899935	21620.923034
23.537000	0.000420	0.000287	0.006515	0.002102	6568.110989	40102.888366	3831.205077	21613.693963
24.037000	0.000478	-0.000110	0.002199	0.001996	6569.541759	40077.916867	3820.614546	21618.303548
24.537000	-0.000333	-0.001153	-0.001070	0.000928	6571.783519	40080.003552	3815.115590	21664.718079
25.034500	-0.000484	-0.000581	0.001051	0.000655	6572.861365	40152.618448	3821.094862	21676.617945
25.537000	-0.000196	-0.000461	-0.000174	0.001426	6568.634372	40096.740574	3816.108016	21643.057082
26.035500	0.000195	-0.000556	-0.000232	0.000927	6576.420650	40131.423965	3817.207580	21664.786031
26.535500	-0.002657	-0.001148	0.000937	0.000391	6556.180626	40126.582220	3821.470896	21688.118194
27.036000	0.001683	0.000214	0.002163	-0.000674	6603.586603	40335.796406	3827.228610	21734.619925
27.536500	0.001841	-0.000101	0.000839	-0.001430	6611.652681	40373.879943	3825.798094	21767.673329
28.036500	0.001542	-0.000722	-0.000317	-0.000951	6604.789304	40278.873047	3821.693454	21746.729093
28.539000	0.000503	0.000333	-0.006171	0.000014	6587.129043	40286.602717	3804.732348	21704.542816
29.040000	-0.000199	-0.000656	0.000985	-0.001030	6590.137326	40291.308433	3825.157363	21750.150103
29.537000	0.000419	0.000669	-0.000594	-0.000010	6586.608574	40317.745208	3818.645239	21705.622258
30.037500	0.000402	0.000204	0.001999	0.000680	6580.403960	40218.083444	3823.409322	21675.531042
30.535000	0.000399	0.000588	0.003326	0.002411	6565.232156	40102.218324	3822.397961	21600.289552
31.035000	-0.000388	-0.000167	-0.004769	0.001999	6561.954646	40072.789621	3803.298888	21618.172341
31.535500	0.000383	-0.000768	-0.000195	-0.000755	6592.841154	40257.964340	3821.507270	21738.152261
32.036000	0.000919	-0.000265	0.002787	-0.000330	6593.813117	40264.667531	3827.933514	21719.578258
32.536000	0.002684	0.000439	0.001055	-0.000292	6609.054785	40322.275288	3823.481379	21717.940879
33.036500	0.001026	0.000315	0.005285	-0.000777	6598.695957	40353.408147	3835.382979	21739.121485
33.540500	0.000149	0.000010	-0.002141	0.001415	6571.743547	40138.097256	3811.242131	21643.540507
34.051000	-0.000297	0.000216	0.001174	0.001946	6563.205915	40110.228953	3818.175286	21620.466197
34.589500	0.000393	-0.000404	-0.003442	0.001390	6574.101764	40104.669190	3808.078670	21644.621124
35.037000	0.000823	-0.000790	-0.000567	0.001388	6577.888921	40071.758712	3815.222058	21644.709018
35.535000	-0.000047	-0.000090	0.002143	0.002204	6563.140350	40061.791458	3819.950594	21609.252978
36.064500	0.000611	-0.000260	0.003101	0.001673	6573.537766	40092.794275	3823.685810	21632.333336
36.540500	0.000750	0.000485	0.000204	0.002491	6567.589631	40086.455155	3814.395900	21596.800895
37.036000	0.001106	-0.000308	-0.001171	0.001342	6580.766914	40117.049918	3813.832184	21646.711033
37.536500	-0.000938	-0.000239	0.001318	0.002613	6551.803383	40013.881807	3816.866626	21591.486462
38.037000	-0.000592	-0.000493	0.003782	0.001256	6566.655119	40108.580863	3826.443851	21650.450356
38.536500	-0.000037	-0.000726	0.000770	0.001405	6570.209415	40075.784168	3818.516618	21643.966931
39.034500	0.000269	-0.000609	0.000376	0.001904	6568.525773	40043.052274	3816.288037	21622.299160
39.537500	-0.000720	-0.000243	-0.002271	0.002218	6557.141720	40047.395017	3808.926844	21608.631365
40.035000	0.000995	0.000013	0.000101	0.001795	6575.829281	40105.723720	3815.874356	21627.032230
40.535000	0.000140	-0.000380	0.001397	0.001760	6568.644155	40074.929370	3819.196114	21628.523143
41.036000	-0.000830	0.000057	0.004551	0.002112	6557.105009	40082.300645	3826.225288	21613.238515
41.535500	-0.000390	-0.000275	0.002955	0.001840	6563.313922	40077.062271	3822.897299	21625.048830
42.036500	0.001488	0.000185	0.001471	0.002078	6577.658727	40096.154376	3818.584768	21614.705818
42.536500	0.000388	-0.000344	0.001679	0.002091	6567.923928	40049.610408	3819.072072	21614.142497
43.037000	-0.000270	-0.000231	0.001755	0.001809	6564.638909	40083.588051	3819.970803	21626.415515
43.537000	-0.001216	-0.000232	-0.001972	0.003544	6541.289907	39934.802802	3806.386161	21551.156611
44.035000	0.001454	-0.000550	0.004091	-0.000765	6602.365128	40277.663517	3832.326726	21738.579709
44.534500	0.001372	0.000238	0.001845	-0.000369	6598.146041	40311.508938	3825.659919	21721.278533
45.035000	0.002019	-0.000748	-0.001125	-0.000779	6607.478902	40261.794018	3819.240818	21739.214289
45.535500	-0.001509	-0.000347	-0.000124	0.005723	6519.894960	39739.178618	3805.568644	21457.106130
46.035500	0.002401	0.000267	0.003108	0.000533	6599.270577	40236.171264	3826.568875	21681.933310
46.536000	0.002300	0.000484	-0.001878	0.000389	6599.647415	40267.285775	3814.443462	21688.191707
47.036500	-0.000279	-0.000403	0.002985	0.001931	6563.490854	40058.303842	3822.743648	21621.089137
47.537000	-0.001356	-0.000409	-0.001605	0.003351	6541.759040	39936.182439	3807.771077	21559.530908
48.037000	0.002267	-0.000537	-0.000202	-0.000529	6607.454791	40258.378454	3820.922810	21728.259466
48.537500	0.001176	-0.000569	-0.002815	-0.000630	6598.724614	40264.387103	3814.650147	21732.687818
49.037500	0.002299	0.000364	0.001900	0.000159	6601.662490	40276.797624	3824.470052	21698.233223
49.535000	0.000297	-0.000514	-0.001951	0.004582	6545.423566	39822.150400	3803.877787	21506.308047
50.035500	-0.000265	0.000729	0.006313	-0.000048	6580.935842	40326.186137	3836.139043	21707.251724
50.538500	0.000080	-0.000966	0.001697	-0.016083	6727.359568	41585.924741	3865.525048	22420.072545
51.035000	-0.032167	-0.006319	0.020782	0.218043	4913.694764	25146.056887	3423.322567	14225.480901
51.536500	-0.047597	-0.011089	-0.005926	0.086559	5569.954376	32716.595490	3611.625766	18280.962574
52.036500	-0.040191	-0.019896	-0.017587	-0.148526	7662.697930	53171.572565	4202.574358	29431.829138
52.536500	-0.035647	-0.125362	-0.024819	-0.349319	10619.427765	65535.000000	5027.733897	45111.684179
53.037000	-0.017114	-0.133991	-0.009421	-0.357947	11125.938215	65535.000000	5158.250007	45961.633942
53.540500	-0.018749	-0.091476	-0.020582	-0.315433	10318.366306	65535.000000	4876.310356	41932.487709
54.034500	-0.020382	-0.058376	-0.015066	-0.273521	9598.365987	64275.007977	4704.027444	38328.402949
54.535000	-0.024690	-0.038352	-0.019085	-0.240223	9032.080352	62424.441845	4541.751515	35702.933471
55.035500	-0.017343	-0.031457	-0.025292	-0.230614	8999.565638	62053.133349	4477.074391	34982.002499
55.535500	-0.010007	-0.030069	-0.028796	-0.232255	9129.632647	62467.839343	4469.609295	35103.991475
56.035500	-0.000463	-0.025538	-0.024662	-0.226196	9180.874004	62258.302559	4461.931110	34655.851187
56.536500	-0.003478	-0.018655	-0.025196	-0.209509	8896.589234	60931.035273	4394.722322	33453.363683
57.036500	-0.012889	-0.009607	-0.016921	-0.143332	7918.125397	53765.920158	4187.329138	29114.650096
57.536500	-0.011692	-0.007442	-0.021248	-0.123924	7706.791515	51782.118351	4109.992543	27962.693411
58.037000	-0.002011	-0.004110	-0.026681	-0.132890	7923.305181	53188.921859	4121.239968	28488.489490
58.536500	-0.003628	-0.009487	-0.022958	-0.164159	8287.348435	56284.367534	4237.707180	30409.543996
59.034500	-0.007549	-0.005073	-0.017687	-0.118396	7691.064903	51427.037858	4103.770970	27643.850366
59.535000	-0.008673	-0.003100	-0.019713	-0.098234	7455.750925	49432.592732	4035.504757	26514.832780
60.035500	-0.008173	-0.003739	-0.024716	-0.091714	7391.267658	48670.106053	4001.404865	26160.792961
60.535500	-0.009256	-0.004194	-0.020435	-0.088323	7343.928333	48265.813671	4004.007914	25978.790038
61.036000	-0.007618	-0.004038	-0.020860	-0.082428	7299.320011	47668.882314	3985.648361	25665.675156
61.536500	-0.008037	-0.003255	-0.021879	-0.078843	7257.761128	47380.351377	3972.439822	25477.326629
62.036500	-0.002775	-0.002614	-0.017936	-0.094645	7480.730257	49100.559689	4030.084847	26319.302382
62.537000	-0.002451	-0.002184	-0.019042	-0.095731	7496.049990	49262.516284	4030.027370	26378.329837
63.037000	-0.000280	-0.002967	-0.021139	-0.099617	7562.394819	49595.682703	4035.378528	26590.629343
63.537500	-0.003983	-0.004080	-0.025098	-0.095545	7477.396570	49040.307376	4011.520330	26368.210173
64.038000	0.001000	-0.002745	-0.018598	-0.099749	7578.001615	49633.869404	4043.416739	26597.887469
64.535500	-0.000156	-0.002507	-0.015669	-0.099588	7563.444601	49642.057390	4051.794853	26589.009860
65.035500	-0.001033	-0.002830	-0.012522	-0.099535	7553.195855	49601.556421	4061.220236	26586.108980
65.536000	-0.005282	-0.003208	-0.020673	-0.093880	7445.379646	48955.951563	4019.669742	26277.850585
66.036000	-0.000922	-0.002086	-0.017402	-0.097887	7536.294409	49504.241208	4041.407703	26495.852295
66.536500	-0.001430	-0.002570	-0.014568	-0.097338	7524.717959	49393.239916	4048.310958	26465.855350
67.036000	-0.002706	-0.002994	-0.015020	-0.097075	7507.908908	49319.701998	4046.147359	26451.527107
67.537000	-0.005501	-0.002901	-0.021275	-0.091199	7414.282609	48704.346692	4009.982744	26133.103176
68.034500	-0.001824	-0.002618	-0.016730	-0.096073	7506.597113	49252.652120	4037.974365	26396.936123
68.535000	-0.003060	-0.002186	-0.015426	-0.095474	7486.623648	49234.759127	4040.094689	26364.319846
69.035500	-0.002383	-0.002759	-0.014959	-0.095467	7493.904823	49172.758510	4041.477574	26363.934756
69.535000	-0.006993	-0.003027	-0.016300	-0.088491	7369.599186	48405.762772	4016.663013	25987.789048
70.035500	-0.003373	-0.002927	-0.013266	-0.093781	7464.903247	48975.292327	4041.498609	26272.471179
70.536000	-0.003766	-0.002872	-0.017305	-0.093166	7454.022074	48915.821807	4027.554302	26239.218877
71.036500	-0.003960	-0.003177	-0.014701	-0.092142	7440.909268	48774.914765	4032.272028	26183.911462
71.537000	-0.007705	-0.003919	-0.022155	-0.085685	7332.485088	48019.087021	3991.319437	25838.119757
72.037000	-0.003795	-0.003304	-0.016090	-0.090702	7427.219767	48609.338386	4023.835922	26106.338363
72.539500	-0.004624	-0.003224	-0.014243	-0.089563	7406.170432	48497.826996	4025.943455	26045.202739
73.035000	-0.005992	-0.002874	-0.014969	-0.088384	7379.070489	48410.585603	4020.283946	25982.047106
73.535000	-0.007469	-0.003759	-0.014909	-0.084505	7322.593664	47912.998557	4009.016467	25775.520252
74.035500	-0.005962	-0.004030	-0.016071	-0.087200	7366.836561	48165.520556	4013.525992	25918.798975
74.535500	-0.005403	-0.002995	-0.017492	-0.085263	7352.280387	48071.426886	4003.667856	25815.745842
75.036500	-0.005999	-0.003205	-0.018023	-0.083978	7332.484446	47915.791796	3998.364397	25747.594602
75.536000	-0.009125	-0.003611	-0.016050	-0.078053	7238.414063	47262.865413	3986.903675	25436.051857
76.039000	-0.007219	-0.003778	-0.016225	-0.082452	7303.731889	47698.312481	3999.157194	25666.938390
76.537000	-0.006923	-0.003426	-0.015441	-0.081196	7293.721193	47604.930530	3997.781590	25600.783390
77.037000	-0.007296	-0.003788	-0.021298	-0.080361	7281.173620	47481.614739	3978.445707	25556.928665
77.537000	-0.010462	-0.003899	-0.015537	-0.073601	7179.264241	46780.305593	3975.585174	25204.763746
78.035000	-0.007704	-0.003556	-0.017307	-0.078274	7255.330282	47291.143583	3983.916397	25447.588768
78.535000	-0.006526	-0.003394	-0.017271	-0.077709	7261.668201	47249.951936	3982.393169	25418.096311
79.038000	-0.007446	-0.003342	-0.018558	-0.076659	7241.351100	47147.939594	3975.691865	25363.398027
79.535500	-0.011678	-0.003437	-0.018351	-0.070352	7134.173347	46498.973885	3958.361558	25037.427017
80.036000	-0.006906	-0.002688	-0.015252	-0.074482	7224.527670	46992.664290	3978.926091	25250.344287
80.536500	-0.006502	-0.003525	-0.016667	-0.074455	7228.397834	46904.822985	3974.796284	25248.936602
81.036500	-0.006767	-0.003253	-0.015158	-0.073311	7213.956583	46816.298509	3975.838750	25189.755196
81.537000	-0.012034	-0.003114	-0.019049	-0.066706	7094.157985	46165.843684	3946.168219	24851.153269
82.040000	-0.008780	-0.002754	-0.013886	-0.071178	7171.744423	46651.083785	3973.377560	25079.845035
82.548000	-0.008839	-0.002737	-0.018290	-0.069785	7157.061565	46512.275769	3956.932764	25008.340134
83.035000	-0.007115	-0.002564	-0.014529	-0.068720	7163.725431	46422.656643	3964.554280	24953.878884
83.535000	-0.012784	-0.002598	-0.017113	-0.062331	7043.451474	45782.282011	3939.373307	24629.691024
84.035500	-0.008377	-0.002404	-0.023334	-0.067543	7139.128174	46320.607625	3936.574314	24893.790151
84.536000	-0.008841	-0.003206	-0.017937	-0.066938	7128.387716	46179.934300	3949.926949	24862.976911
85.039000	-0.009661	-0.002840	-0.018690	-0.066318	7113.960892	46154.518016	3946.084818	24831.424013
85.536500	-0.011993	-0.002265	-0.021655	-0.058679	7015.399430	45455.014066	3916.829397	24446.513144
86.037000	-0.009656	-0.002564	-0.013337	-0.064721	7098.071777	46022.779076	3956.621108	24750.380129
86.540000	-0.009596	-0.003217	-0.015984	-0.064590	7097.365779	45944.846649	3948.818743	24743.752795
87.034500	-0.009609	-0.002940	-0.013461	-0.063348	7084.873297	45849.094271	3952.410000	24680.944744
87.534500	-0.012812	-0.002901	-0.017539	-0.056107	6982.393547	45141.172645	3921.044928	24318.455130
88.035000	-0.009427	-0.002729	-0.014081	-0.062054	7073.848888	45741.863386	3947.050046	24615.739806
88.535500	-0.010283	-0.003112	-0.017308	-0.061505	7059.950438	45649.783434	3936.540575	24588.100918
89.036000	-0.011711	-0.002933	-0.014682	-0.060858	7039.512583	45603.663101	3942.037431	24555.615281
89.536000	-0.013133	-0.002524	-0.018073	-0.054075	6959.630332	44980.032742	3914.046860	24217.775208
90.035500	-0.011098	-0.002542	-0.014258	-0.059264	7029.876205	45485.281067	3938.782530	24475.730309
90.536000	-0.010117	-0.003014	-0.016858	-0.058705	7034.028541	45384.043725	3930.048230	24447.815940
91.037000	-0.009188	-0.001925	-0.014179	-0.056901	7025.445453	45314.011313	3932.459448	24357.886772
91.537000	-0.013389	-0.003854	-0.020609	-0.051407	6931.534709	44593.608561	3899.982642	24086.349127
92.034000	-0.011412	-0.004059	-0.020386	-0.056944	7004.135835	45109.840639	3915.559950	24360.057693
92.534500	-0.011634	-0.002279	-0.012447	-0.054425	6977.501369	45037.906076	3930.408032	24235.077797
93.044500	-0.010096	-0.002803	-0.015440	-0.052514	6973.892674	44801.695340	3916.963509	24140.767209
93.666500	-0.011065	-0.002617	-0.014307	-0.049315	6933.753544	44511.353514	3911.347879	23983.846317
94.035500	-0.007884	-0.002506	-0.014302	-0.050788	6978.594926	44663.731666	3915.361974	24055.941010
94.536000	-0.009447	-0.002475	-0.017379	-0.050036	6956.232117	44594.367996	3904.986323	24019.116244
95.036500	-0.008785	-0.002752	-0.012840	-0.049516	6957.605870	44517.700178	3915.881899	23993.682953
95.537000	-0.010758	-0.002216	-0.014832	-0.046204	6906.965615	44251.883547	3901.523309	23832.298222
96.039000	-0.008753	-0.002596	-0.013682	-0.048283	6946.036436	44414.374723	3910.243047	23933.452090
