sample name	sample
index	356
start time	 03-04-2021  10:30:22 AM
880	-0.033279
Peak Time (s)	91.035
Peak Height 	-0.03328
calc peak height	90,93
Baseline Time (s)	9.037
Baseline Value 	-0.002884
subtract baseline	10,4
Abs	-0.088542
Peak Time (s)	90.035
Peak Height 	-0.08854
calc peak height	90,93
Baseline Time (s)	9.037
Baseline Value 	0.001277
subtract baseline	10,3
PK_550	-0.010133
Peak Time (s)	91.035
Peak Height 	-0.01013
calc peak height	90,93
Baseline Time (s)	9.037
Baseline Value 	4.723E-4
subtract baseline	10,2
PK_880	-0.065506
Peak Time (s)	92.036
Peak Height 	-0.06551
calc peak height	90,93
Baseline Time (s)	8.537
Baseline Value 	-8.8475E-5
subtract baseline	10,1


Time (s)	A880-A510	A880-A775	A880-A975	A880	I510	I775	I975	I880	
0.035500	-0.001762	-0.000828	-0.003902	0.006075	6792.764204	47137.016743	3871.550900	24773.732533
0.535500	-0.002178	-0.001100	-0.002861	0.004194	6806.459634	47301.826417	3879.380686	24869.463078
1.035500	-0.002088	-0.000926	-0.002493	0.002819	6820.189996	47460.915030	3884.076172	24939.684979
1.565500	-0.002407	-0.000145	-0.000643	0.006445	6783.313553	47169.041680	3879.291880	24754.976327
2.038000	0.001536	-0.000467	-0.000363	0.000154	6879.657959	47783.504194	3897.085083	25076.366812
2.536500	0.001643	-0.000096	-0.001049	-0.000198	6884.030904	47858.556003	3896.175300	25094.506753
3.037000	0.000173	0.000151	0.006793	-0.001402	6881.494521	48009.432056	3921.099858	25156.591727
3.537500	-0.002113	-0.000551	-0.003536	0.003989	6808.978477	47379.142140	3878.115612	24879.883580
4.038000	0.000551	-0.000000	0.000456	0.000908	6863.127966	47753.829725	3897.266378	25037.633974
4.535500	-0.000336	-0.000215	0.001474	0.000399	6859.548868	47784.308069	3901.439013	25063.794162
5.035500	0.002421	-0.000122	-0.000759	0.000415	6885.608466	47792.203890	3895.293834	25062.944292
5.535500	-0.001461	-0.001321	-0.002815	-0.000525	6857.640367	47765.461272	3892.259168	25111.362885
6.036000	-0.001249	-0.001231	0.004542	0.000069	6854.022434	47713.250461	3910.783852	25080.773023
6.536500	0.000428	-0.000399	-0.006963	0.000575	6865.119522	47746.967158	3878.081580	25054.736641
7.036500	-0.000060	-0.000608	0.002164	0.000355	6862.578890	47748.193827	3903.451440	25066.053336
7.537000	0.000352	-0.000035	0.004482	0.000364	6866.402907	47806.573836	3909.802770	25065.584950
8.035000	-0.000038	-0.000623	-0.003241	-0.000317	6869.164296	47816.241069	3890.537429	25100.623259
8.537500	0.000000	0.000509	0.004317	0.000539	6861.399560	47844.820980	3908.864517	25056.565067
9.037500	0.000072	0.000000	0.000000	0.000000	6867.206091	47847.996289	3898.499228	25084.318985
9.535500	0.000433	0.000044	0.002395	-0.000076	6871.358179	47860.482268	3905.269645	25088.252540
10.036000	-0.001674	-0.000863	-0.000204	-0.001116	6861.223567	47874.214233	3900.991524	25141.827551
10.535500	-0.000763	0.000469	0.003764	0.000308	6856.361973	47864.764806	3907.978404	25068.473594
11.036500	-0.001033	-0.001371	-0.002307	-0.001078	6866.939680	47817.527174	3895.146365	25139.872072
11.536500	0.000703	-0.000224	-0.001151	0.000004	6873.161341	47824.248548	3895.345838	25084.089710
12.037000	0.002587	-0.000064	-0.000911	-0.000286	6893.894461	47871.069136	3896.793344	25099.060210
12.537000	0.000393	-0.000514	0.000931	-0.000576	6875.729147	47854.373514	3902.622357	25113.971296
13.037500	0.000730	0.000315	0.001090	-0.001746	6890.096335	48062.405838	3906.272519	25174.381711
13.537500	0.001151	-0.000812	0.001973	-0.001883	6895.430224	47959.249060	3909.079844	25181.457092
14.035000	-0.000456	0.000482	0.000292	0.001390	6849.025954	47753.801472	3895.503774	25012.865401
14.535500	-0.000820	0.000062	-0.000191	0.002549	6834.656494	47590.566425	3891.038867	24953.501104
15.035000	0.002808	0.000137	0.002121	-0.001207	6904.818719	47987.704733	3907.627604	25146.545880
15.557500	0.001701	-0.000342	0.001822	-0.001878	6900.644446	48007.661340	3908.650308	25181.196297
16.036500	0.000934	0.000157	-0.003482	-0.001675	6891.368257	48038.587380	3893.573611	25170.737171
16.539000	0.002833	0.001326	0.005073	0.000094	6892.604011	47976.054729	3912.180336	25079.470769
17.037000	0.003865	0.000420	0.000270	-0.001430	6917.101611	48040.431723	3903.150681	25158.036767
17.537500	0.002680	0.000963	0.005734	-0.002606	6917.011787	48220.022729	3921.504674	25218.873003
18.037500	0.000133	0.000576	0.004052	0.000814	6860.057775	47823.287475	3907.379967	25042.460438
18.537500	0.000931	-0.000222	-0.000282	0.000694	6868.769671	47752.950483	3895.835776	25048.603385
19.035500	-0.000889	-0.000305	-0.001459	0.000715	6851.316431	47742.174905	3892.572166	25047.518827
19.536000	0.001451	0.000093	0.000966	0.001157	6869.304616	47737.628419	3897.977135	25024.810420
20.035500	-0.001350	-0.000192	-0.002415	0.000282	6851.052492	47798.838710	3891.155765	25069.824546
20.536500	-0.000557	0.000418	-0.000855	0.001265	6849.257878	47760.219457	3892.722511	25019.308943
21.036500	-0.000494	0.000270	0.002412	0.000967	6852.662515	47775.644647	3902.453834	25034.579372
21.536500	-0.001207	-0.000581	-0.002264	-0.000089	6855.912702	47796.927020	3892.571650	25088.902251
22.037000	-0.002102	-0.000318	0.000318	0.000733	6839.681334	47738.997856	3897.366304	25046.603113
22.537500	-0.001081	0.000468	-0.003657	0.001330	6843.684950	47758.594329	3884.950718	25015.949599
23.037500	-0.000813	-0.000295	-0.000274	0.000825	6850.993794	47731.783247	3895.498662	25041.865742
23.535500	-0.002072	-0.000508	-0.003496	0.000543	6841.763950	47739.057000	3887.515070	25056.402270
24.038000	-0.000993	-0.000881	0.000877	0.000444	6852.901701	47710.653842	3899.684448	25061.481411
24.536000	0.001798	0.000107	0.000331	0.001138	6872.787220	47741.068537	3896.297380	25025.806902
25.036000	-0.000796	-0.000131	0.003804	0.000765	6851.723112	47755.026914	3906.830899	25044.968231
25.536500	0.000533	0.000115	0.000290	0.000861	6863.402727	47770.587365	3896.937595	25040.014853
26.036500	-0.000350	-0.000605	-0.003537	0.000715	6856.418743	47711.215576	3886.939476	25047.545512
26.537000	0.000756	0.000355	0.001848	0.001378	6860.616041	47741.896821	3899.784219	25013.491289
27.037500	-0.000210	0.000362	0.001097	0.001056	6854.516468	47775.996010	3898.611324	25030.014428
27.538000	0.002312	0.000186	0.002532	-0.001147	6899.502074	47986.677156	3908.594863	25143.469534
28.034500	0.000778	-0.000062	0.006129	-0.001796	6891.037022	48028.405947	3920.351541	25176.985640
28.535000	0.002078	0.000353	0.001791	-0.001315	6898.868707	48021.479366	3907.017755	25152.131701
29.035500	0.000784	0.000033	0.000319	-0.001055	6884.024036	47961.147786	3902.260282	25138.721364
29.535500	0.000940	-0.001162	0.002711	-0.001856	6893.157732	47920.140143	3911.044709	25180.087947
30.036500	0.002086	0.000437	0.002619	-0.001064	6896.535195	48004.072026	3908.604933	25139.153806
30.536500	-0.000342	-0.001535	-0.001980	-0.001632	6878.785604	47858.020232	3897.547823	25168.469665
31.047000	0.001143	0.000436	0.004089	-0.001147	6888.319014	48012.656328	3912.891627	25143.434730
31.537500	0.000430	-0.000572	-0.003671	0.002197	6849.772664	47561.478869	3882.574357	24971.493020
32.034500	0.001508	0.000507	-0.002285	0.000112	6879.792004	47889.006972	3891.968479	25078.532646
32.577000	0.003631	-0.000813	0.003212	-0.001946	6919.819274	47965.774418	3912.676816	25184.724814
33.034500	0.001738	0.000301	0.000287	-0.001105	6893.598159	47994.141120	3902.307843	25141.256232
33.535500	0.001729	0.000161	0.002968	-0.000623	6888.911668	47929.425561	3908.350686	25116.402232
34.041500	0.003550	0.000145	0.003106	-0.001458	6914.344373	48014.638679	3911.032918	25159.477301
34.536000	0.002531	0.000073	0.002302	0.000254	6888.191392	47829.151653	3904.108025	25071.242847
35.036000	0.001504	0.000004	0.003726	-0.001869	6898.666330	48042.852670	3913.882779	25180.732663
35.536500	0.001465	0.000376	-0.001384	0.002059	6860.886651	47673.642669	3889.130944	24978.582782
36.037000	-0.001319	0.000108	-0.000922	0.001476	6840.065633	47706.228809	3891.965845	25008.482355
36.537000	-0.000997	0.000352	0.001651	0.001862	6839.454895	47691.478276	3897.921534	24988.650708
37.040000	0.000974	0.000042	0.000869	0.001410	6862.380614	47706.244996	3897.021512	25011.852735
37.535000	0.000091	-0.000340	-0.002453	0.001342	6854.658222	47673.711865	3888.176234	25015.322328
38.035000	-0.001456	-0.000096	0.002550	0.001262	6840.790850	47707.232326	3902.022870	25019.436124
38.535500	0.001256	-0.000399	0.001455	0.001116	6867.845584	47690.988338	3899.425312	25026.944222
39.036000	-0.000291	-0.000542	-0.001054	0.000603	6858.043392	47729.298269	3893.980683	25053.322854
39.536000	-0.000568	0.000032	0.002197	0.000916	6852.449960	47756.326515	3902.002884	25037.211009
40.038500	0.001066	0.000544	0.001945	0.001862	6858.970394	47711.438051	3898.726657	24988.680695
40.536500	0.000212	-0.000269	0.005992	0.001171	6857.417881	47698.675911	3911.742917	25024.098234
41.037500	-0.001109	0.000186	0.000684	0.001461	6842.186886	47715.796395	3896.376426	25009.208624
41.537000	0.000489	0.000360	0.001812	0.001500	6856.927947	47729.803973	3899.351534	25007.219571
42.037500	-0.000708	-0.000385	0.003328	0.001180	6848.636714	47685.850306	3904.384823	25023.674965
42.538000	-0.000090	0.000409	-0.001427	0.001843	6848.209628	47699.385084	3889.600002	24989.648274
43.035500	-0.000600	0.000133	-0.001226	0.001716	6844.587889	47683.943268	3890.489420	24996.162923
43.535500	-0.001086	0.000078	0.000924	0.001865	6838.594150	47662.858815	3895.931639	24988.502981
44.036000	-0.000480	0.000214	0.000415	0.001646	6846.382503	47699.525087	3895.138618	24999.729339
44.536000	-0.000692	-0.000596	-0.001304	0.001389	6846.801487	47642.396942	3891.162978	25012.906163
45.038000	-0.000381	-0.000099	0.001258	0.001478	6848.902680	47684.583317	3897.897486	25008.340554
45.536500	0.000388	-0.000373	0.006250	-0.001188	6881.505144	47932.662614	3918.995835	25145.558030
46.035000	0.002568	0.000194	0.003042	-0.001381	6904.193406	48011.840606	3910.646882	25155.540437
46.564500	0.001549	0.000278	0.003422	0.000951	6872.203015	47778.169067	3905.271297	25035.425934
47.035000	0.000919	0.000119	0.003265	-0.001319	6887.822904	47997.483222	3911.088587	25152.313477
47.535500	-0.000052	0.000086	0.000773	-0.001692	6882.114399	48032.933098	3905.252138	25171.571277
48.035500	0.001528	0.000274	0.004164	-0.000715	6887.867273	47950.777002	3911.903177	25121.150037
48.537000	-0.000584	-0.000118	-0.002715	0.003081	6831.869116	47517.174754	3882.768270	24926.282256
49.036000	-0.002408	-0.000403	-0.000369	0.002064	6824.276371	47592.662668	3891.869379	24978.312838
49.536500	-0.000502	-0.000176	0.000568	0.002184	6841.095157	47603.651986	3894.092624	24972.176420
50.037000	0.001422	0.000654	0.000675	-0.000833	6887.987088	48002.564856	3902.626712	25127.237993
50.537000	-0.000800	0.000142	-0.002925	0.003000	6830.597392	47552.266492	3882.420930	24930.416750
51.037000	-0.000430	0.000553	0.000097	0.002078	6842.770548	47689.920843	3893.098030	24977.579984
51.538000	0.004066	0.000284	0.000615	-0.002044	6924.951873	48090.355916	3905.787315	25189.811508
52.035000	0.001786	0.000593	-0.001087	-0.000434	6887.655903	47954.779790	3896.717982	25106.675631
52.535000	0.002291	0.000053	0.004224	-0.001503	6902.700283	48009.851737	3914.250619	25161.824551
53.035500	-0.019376	-0.011570	-0.019384	0.315020	4652.194899	24017.756838	3261.338980	13551.255363
53.535500	-0.059952	-0.014546	-0.080011	0.074360	5769.557605	39502.076115	3543.547838	21566.054553
54.036500	-0.078719	-0.031671	-0.098707	-0.115220	7228.083794	57411.559659	3944.483817	31877.125762
54.536500	-0.078145	-0.151833	-0.084125	-0.295570	9545.996832	65535.000000	4642.724528	46883.108950
55.036500	-0.070069	-0.184917	-0.078986	-0.328654	10222.303676	65535.000000	4820.355207	50378.291464
55.537000	-0.149492	-0.304789	-0.163861	-0.448526	10952.393547	65535.000000	4997.295735	65525.157347
56.037000	-0.125516	-0.282008	-0.139417	-0.425745	10975.014268	65535.000000	5006.060022	62315.958049
56.534500	-0.039510	-0.153618	-0.058854	-0.297355	10209.583025	65535.000000	4766.836013	47064.962709
57.035000	-0.053636	-0.104354	-0.069831	-0.248091	9195.522474	65535.000000	4500.687878	42310.285086
57.535500	-0.060528	-0.082112	-0.079930	-0.225849	8776.862377	65535.000000	4372.323800	40334.082806
58.035500	-0.061455	-0.074844	-0.082576	-0.218104	8657.565027	65466.189203	4333.069141	39669.388583
58.536000	-0.056437	-0.073159	-0.084641	-0.216897	8709.686448	65535.000000	4320.896974	39566.779020
59.036000	-0.055273	-0.059046	-0.088033	-0.200334	8501.827313	65181.994235	4248.644311	38188.281127
59.536500	-0.052758	-0.046773	-0.088685	-0.182983	8308.414074	64456.386178	4186.244671	36799.453129
60.037000	-0.055297	-0.026631	-0.089777	-0.149028	7859.853514	62525.157387	4071.945636	34237.011864
60.538000	-0.055365	-0.014880	-0.079757	-0.113751	7459.896146	59374.001858	3995.109049	31778.698393
61.034500	-0.056671	-0.013246	-0.092124	-0.108246	7386.503991	58871.646217	3943.376817	31412.769781
61.535000	-0.059630	-0.015085	-0.085473	-0.107555	7347.631397	58545.809415	3960.391561	31367.168062
62.035500	-0.062549	-0.012174	-0.093934	-0.083044	7065.789332	55839.267773	3869.116081	29795.500050
62.535500	-0.063049	-0.012059	-0.093609	-0.077464	7005.682616	55175.470689	3855.197612	29449.904411
63.035500	-0.070794	-0.013901	-0.099673	-0.076985	6925.720866	54896.231671	3838.103908	29420.454962
63.536000	-0.068792	-0.012493	-0.098601	-0.086287	7036.026965	56197.792578	3865.327743	29998.355648
64.036500	-0.064745	-0.007527	-0.100015	-0.083199	7045.520700	56429.398306	3853.432977	29805.169528
64.536500	-0.064590	-0.007155	-0.102317	-0.086797	7082.867165	56922.260374	3856.845572	30030.449153
65.037000	-0.070311	-0.007365	-0.102210	-0.082829	6987.117044	56403.691689	3846.712067	29782.126022
65.571500	-0.067899	-0.006564	-0.097355	-0.085771	7039.757698	56867.962694	3867.268716	29965.988417
66.034500	-0.067352	-0.005569	-0.100822	-0.083217	7019.940759	56674.085660	3851.359767	29806.255981
66.535000	-0.066183	-0.004494	-0.095667	-0.079108	6991.084543	56298.736107	3854.106844	29551.248120
67.038500	-0.070861	-0.005240	-0.101395	-0.071767	6875.130317	55311.198007	3820.252403	29101.684773
67.536000	-0.067447	-0.005008	-0.101260	-0.073821	6927.488651	55588.455992	3825.851285	29226.700107
68.036500	-0.066777	-0.005113	-0.100961	-0.071040	6907.195019	55238.551617	3819.502433	29057.539771
68.536500	-0.067475	-0.004362	-0.093382	-0.066716	6859.315166	54808.612273	3827.834707	28796.694521
69.036500	-0.069919	-0.005400	-0.098306	-0.060675	6779.670223	53967.214755	3800.014243	28436.588649
69.537000	-0.067997	-0.005350	-0.098855	-0.064283	6831.405072	54400.222126	3807.703909	28651.047490
70.039500	-0.067158	-0.005656	-0.095852	-0.063099	6828.160370	54223.469697	3812.304805	28580.474159
70.534500	-0.068521	-0.005010	-0.097219	-0.059858	6785.077385	53916.779951	3800.689005	28388.236382
71.035000	-0.071803	-0.004927	-0.100484	-0.054252	6703.193795	53270.522446	3778.677948	28059.135997
71.535000	-0.067428	-0.005306	-0.101468	-0.059118	6788.364233	53794.995153	3788.255844	28344.575377
72.035500	-0.067937	-0.005787	-0.095222	-0.058068	6773.875106	53615.452798	3801.210049	28282.738450
72.535500	-0.070630	-0.006052	-0.094106	-0.056101	6730.844643	53354.771397	3799.079139	28167.238254
73.036000	-0.072101	-0.006549	-0.098934	-0.050464	6666.109639	52645.219955	3773.196119	27839.165451
73.536000	-0.067664	-0.006497	-0.096350	-0.054878	6746.881539	53160.830788	3790.434539	28095.686183
74.037000	-0.070411	-0.007494	-0.091791	-0.054396	6717.218928	52989.461076	3800.605983	28067.540493
74.537000	-0.069964	-0.007802	-0.098390	-0.052464	6703.662138	52731.125199	3779.430017	27955.086297
75.035000	-0.068520	-0.007799	-0.093796	-0.051904	6711.719668	52667.069740	3789.390042	27922.535322
75.537500	-0.069092	-0.008612	-0.096236	-0.051144	6699.576059	52486.677715	3781.482862	27878.513439
76.035000	-0.068863	-0.008260	-0.090502	-0.050107	6692.216522	52408.271024	3793.112795	27818.523789
76.535500	-0.068543	-0.008113	-0.092567	-0.048251	6678.273111	52213.284400	3783.393556	27711.513973
77.036000	-0.071952	-0.008878	-0.093562	-0.042882	6599.530960	51519.771593	3767.809259	27404.543274
77.536000	-0.067856	-0.008282	-0.095868	-0.047286	6675.750760	52084.322969	3772.920905	27656.040362
78.036000	-0.068990	-0.008505	-0.096505	-0.046655	6659.802156	51987.501998	3769.828607	27619.863443
78.536500	-0.069395	-0.008927	-0.097333	-0.045694	6647.509037	51830.969245	3765.479255	27564.863663
79.037000	-0.066801	-0.008090	-0.092106	-0.045315	6667.472967	51882.746845	3777.305425	27543.191805
79.539500	-0.067386	-0.008502	-0.093190	-0.044876	6658.222173	51786.530858	3773.573961	27518.081463
80.037500	-0.067573	-0.008284	-0.091046	-0.043878	6647.554641	51698.555189	3776.379789	27461.177424
80.535000	-0.065763	-0.008873	-0.090828	-0.043637	6661.687781	51605.251608	3776.324635	27447.485295
81.035000	-0.070874	-0.009224	-0.097975	-0.037675	6563.036444	50900.432048	3744.678273	27110.450090
81.535500	-0.067641	-0.009218	-0.091246	-0.042783	6637.111522	51470.563860	3773.210768	27398.916991
82.036000	-0.066829	-0.009452	-0.090817	-0.042526	6642.099701	51415.538972	3773.633917	27384.341157
82.536500	-0.065960	-0.009155	-0.088735	-0.041367	6639.489749	51319.021133	3775.889472	27318.582735
83.036500	-0.069823	-0.008662	-0.095697	-0.035575	6553.818458	50730.213894	3745.101044	26992.809386
83.537000	-0.064698	-0.008708	-0.089191	-0.039912	6637.755611	51206.414142	3771.218257	27236.327890
84.037000	-0.067136	-0.009312	-0.092969	-0.039972	6616.493474	51145.770786	3762.189789	27239.721587
84.537000	-0.065516	-0.009073	-0.091027	-0.039599	6627.632808	51130.919691	3765.991055	27218.686204
85.035000	-0.070057	-0.008613	-0.093447	-0.033142	6530.484773	50467.598116	3744.664296	26857.236745
85.535000	-0.065122	-0.009288	-0.092799	-0.039120	6626.868805	51053.717055	3760.542810	27191.700541
86.035000	-0.066625	-0.008673	-0.086549	-0.038834	6610.908145	51090.285494	3775.041900	27175.611075
86.535500	-0.065841	-0.009156	-0.091728	-0.037908	6609.644623	50933.787824	3760.203441	27123.544696
87.035500	-0.070252	-0.009360	-0.096566	-0.033308	6530.239559	50403.852840	3737.666451	26866.477424
87.536000	-0.065619	-0.010055	-0.090209	-0.038942	6620.831289	50948.635679	3766.381067	27181.652259
88.036500	-0.066380	-0.009519	-0.091664	-0.038954	6614.154824	51009.524873	3762.885002	27182.355723
88.537000	-0.065639	-0.009544	-0.088392	-0.038473	6616.475539	50953.326325	3769.659550	27155.256236
89.039500	-0.069937	-0.010153	-0.091743	-0.033952	6538.609449	50387.555439	3750.660850	26902.327033
89.537000	-0.067381	-0.010314	-0.089941	-0.039244	6607.827627	50953.533254	3767.766139	27198.693504
90.035000	-0.067884	-0.010506	-0.088542	-0.038917	6600.437358	50895.844455	3770.376090	27180.245476
90.535500	-0.067276	-0.010808	-0.092698	-0.038634	6603.333434	50831.219918	3759.612372	27164.355420
91.035500	-0.070284	-0.010133	-0.094442	-0.033279	6529.697943	50315.941753	3742.626926	26864.848171
91.535500	-0.066693	-0.010967	-0.088775	-0.039429	6615.606790	50901.628651	3771.057015	27209.132986
92.036000	-0.065506	-0.011054	-0.092217	-0.038658	6619.308224	50806.619650	3760.832449	27165.686094
92.536500	-0.066991	-0.010403	-0.090890	-0.037820	6598.637507	50785.925049	3762.013538	27118.604554
93.037000	-0.070822	-0.011482	-0.091907	-0.034573	6536.300543	50309.989941	3751.753735	26936.904479
93.534000	-0.064644	-0.010325	-0.090165	-0.038452	6625.165646	50864.417324	3765.298786	27154.077497
94.037500	-0.065859	-0.009997	-0.091196	-0.038209	6612.155165	50873.881858	3762.213166	27140.414484
94.537000	-0.066000	-0.010848	-0.087485	-0.038450	6613.056869	50806.353815	3771.816763	27154.002626
95.035000	-0.064805	-0.010764	-0.085855	-0.038755	6626.442064	50849.330552	3776.546280	27171.132009
95.535000	-0.065890	-0.010793	-0.089833	-0.038620	6615.543597	50831.239492	3766.511875	27163.526936
96.038000	-0.064668	-0.011074	-0.093283	-0.038367	6624.195363	50772.195923	3757.558700	27149.309446
97.588500	-0.065372	-0.011097	-0.093155	-0.038323	6617.512375	50764.783723	3757.759826	27146.821266
98.736000	-0.063488	-0.011322	-0.090240	-0.037849	6630.121906	50687.638546	3763.658193	27120.220937
98.900500	-0.070068	-0.012138	-0.090930	-0.032946	6528.683933	50060.667385	3750.198333	26846.378544
99.082500	-0.063539	-0.011153	-0.094250	-0.035342	6607.297524	50430.349399	3747.994403	26979.824541
99.205000	-0.065039	-0.011359	-0.090410	-0.037089	6609.482366	50599.728942	3761.406012	27077.540917
99.305000	-0.065041	-0.010729	-0.088014	-0.036741	6606.374030	50630.785043	3766.367623	27058.053606
99.535000	-0.062390	-0.010896	-0.086530	-0.036526	6628.107129	50588.673760	3769.452417	27046.017080
100.034500	-0.062221	-0.010442	-0.088277	-0.035932	6624.309447	50573.334136	3763.768637	27012.771308
100.535500	-0.063710	-0.010380	-0.090682	-0.035611	6608.163901	50544.855593	3757.186350	26994.835375
101.036000	-0.062261	-0.011281	-0.089911	-0.035703	6621.901476	50455.847623	3759.266014	26999.987913
101.536500	-0.062038	-0.010894	-0.089377	-0.035031	6617.895093	50424.623302	3758.932497	26962.436372
