sample name	sample
index	80
start time	 02-11-2021  04:20:41 PM
880	-0.061360
Peak Time (s)	91.536
Peak Height 	-0.06136
calc peak height	90,93
Baseline Time (s)	11.037
Baseline Value 	-0.003721
subtract baseline	10,4
Abs	0.006963
Peak Time (s)	90.535
Peak Height 	0.006963
calc peak height	90,93
Baseline Time (s)	9.536
Baseline Value 	1.4586E-4
subtract baseline	10,3
PK_550	0.000070
Peak Time (s)	91.036
Peak Height 	7.0202E-5
calc peak height	90,93
Baseline Time (s)	11.537
Baseline Value 	0.001013
subtract baseline	10,2
PK_880	-0.004099
Peak Time (s)	90.035
Peak Height 	-0.004099
calc peak height	90,93
Baseline Time (s)	11.537
Baseline Value 	0.003126
subtract baseline	10,1


Time (s)	A880-A510	A880-A775	A880-A975	A880	I510	I775	I975	I880	
0.035500	-0.002442	0.000018	-0.007925	0.001439	4617.298105	20378.800459	3310.405144	11016.091786
0.536500	-0.003120	-0.001015	0.004911	0.003344	4607.286717	20261.213018	3320.314526	10980.696663
1.036500	-0.003107	-0.000400	0.003370	0.004493	4602.904286	20239.882341	3317.852578	10959.419220
1.536500	-0.003024	0.000431	-0.001586	0.001200	4615.963187	20405.042793	3316.338282	11020.546275
2.037000	-0.002159	-0.000420	0.009275	0.000437	4622.294534	20401.437859	3327.044903	11034.760244
2.537500	0.001786	0.000323	0.005503	0.001233	4634.618781	20399.343887	3322.803740	11019.923456
3.037500	0.001366	0.000788	0.002273	-0.000763	4640.815984	20498.571870	3321.664361	11057.189411
3.535000	-0.001819	-0.000505	-0.005811	0.001530	4619.365453	20354.164119	3312.220646	11014.398096
4.037500	-0.001369	-0.001196	-0.002063	-0.000520	4629.121103	20408.753415	3317.469709	11052.653345
4.536000	-0.000871	-0.000584	0.009050	-0.000899	4632.557559	20448.682431	3328.084132	11059.746238
5.036000	-0.001431	0.000490	-0.005330	0.000012	4626.800684	20455.264827	3314.022325	11042.711966
5.539000	-0.000089	0.001126	0.002848	0.000964	4628.323699	20442.497725	3320.605662	11024.941656
6.036500	0.000165	-0.000400	0.005109	-0.001204	4637.824698	20468.411217	3324.695206	11065.451297
6.537000	0.001345	-0.000130	-0.007747	0.000089	4637.379923	20427.152040	3311.775412	11041.264849
7.037000	-0.001027	-0.000794	-0.008347	-0.000298	4629.592064	20415.993897	3311.583667	11048.499871
7.535000	-0.001230	0.000448	-0.000965	0.000623	4625.197874	20428.940279	3317.428310	11031.294386
8.035000	0.000123	-0.000470	0.001823	-0.000553	4635.099970	20439.288540	3321.056835	11053.257214
8.535500	0.001290	-0.000218	-0.001190	-0.000822	4640.752692	20460.330238	3318.541920	11058.307270
9.035500	-0.000211	0.000904	-0.000123	0.000579	4629.351198	20449.054724	3318.236359	11032.113721
9.536000	0.000247	-0.000835	0.000000	-0.000691	4636.129296	20430.144572	3319.510608	11055.841590
10.039000	-0.001354	-0.001838	-0.006087	-0.001256	4632.064265	20412.515051	3314.484084	11066.423445
10.536000	0.001751	0.000939	0.008883	0.001107	4634.976152	20429.205802	3326.054733	11022.271548
11.037000	-0.000390	0.000056	0.000950	0.000000	4630.919274	20438.248109	3319.748330	11042.928035
11.537000	0.000000	0.000000	0.001127	0.000593	4630.125823	20412.109909	3319.367407	11031.863359
12.036500	0.000395	-0.001011	-0.005240	-0.001257	4638.938661	20445.907997	3315.251870	11066.447450
12.535000	0.001401	-0.000071	0.002572	0.000303	4636.760044	20420.929247	3320.959164	11037.275828
13.034500	0.000000	-0.000477	0.004993	-0.000552	4634.615965	20439.010676	3323.982350	11053.245872
13.535500	0.000444	-0.000027	-0.002063	0.002170	4625.691168	20347.678532	3315.025044	11002.486017
14.036000	-0.000009	-0.000580	0.003232	0.002348	4623.231566	20318.387470	3319.687841	10999.184246
14.536000	-0.000123	0.000805	-0.004994	0.003267	4619.202998	20337.008698	3311.393059	10982.109670
15.039000	-0.001664	-0.000866	0.010118	0.000227	4625.049204	20391.976293	3328.029290	11038.691692
15.542500	-0.002648	-0.000546	0.001585	0.001883	4614.769034	20338.359202	3318.606162	11007.820605
16.037000	-0.000396	-0.001117	0.000984	-0.000475	4632.755885	20410.116810	3320.214823	11051.802123
16.534500	0.004758	0.000139	-0.002992	0.000081	4650.889083	20438.308791	3316.077201	11041.406497
17.040000	0.000373	0.000028	0.002590	-0.002291	4642.928245	20529.677593	3323.368661	11085.846356
17.535000	-0.002729	-0.001338	0.004669	-0.000268	4622.822760	20392.888219	3323.419528	11047.934327
18.035500	-0.000735	-0.000351	0.002295	0.001457	4623.874715	20363.276007	3319.645994	11015.754791
18.535000	-0.002981	-0.000717	0.005816	0.001078	4616.602434	20363.794456	3323.236356	11022.812490
19.035500	0.000870	0.000861	0.004342	0.001475	4630.076020	20411.233432	3321.509213	11015.414459
19.539500	0.002913	0.000914	0.011603	0.002732	4633.161232	20362.864364	3327.076611	10992.051499
20.036500	0.001230	-0.001035	0.000725	0.001026	4633.249179	20353.114240	3318.602857	11023.779101
20.536500	-0.005390	-0.001044	0.010728	0.000169	4610.785527	20387.174335	3328.654993	11039.775648
21.123500	0.002291	-0.000304	0.001532	0.001207	4636.703620	20375.199316	3319.175439	11020.410310
21.543000	-0.000894	-0.000920	0.008364	0.002066	4620.878192	20316.038174	3324.681384	11004.421072
22.037500	-0.001211	-0.001067	-0.002949	0.000485	4625.810786	20373.541175	3315.750294	11033.878762
22.535000	0.003962	0.000608	0.000745	0.001744	4641.168859	20390.237364	3317.965810	11010.406486
23.035500	-0.002100	-0.000724	-0.003063	0.001388	4618.822602	20351.050132	3314.827671	11017.028076
23.536000	0.001191	-0.000441	0.003238	0.002128	4628.774552	20332.741211	3319.894234	11003.259931
24.063500	0.001838	-0.000079	0.001937	0.001262	4634.706728	20382.011933	3319.496562	11019.381223
24.536500	0.002238	-0.000736	0.007891	0.001445	4635.562927	20348.298037	3324.818043	11015.975916
25.036500	-0.001011	-0.001919	0.002572	-0.000134	4629.012206	20364.152191	3321.360452	11045.423677
25.537000	-0.003640	-0.000192	-0.007381	0.001899	4610.866359	20351.936039	3310.480506	11007.530597
26.037000	-0.000784	-0.001009	0.014620	0.001043	4625.295110	20353.445297	3331.492597	11023.456365
26.537500	-0.001267	-0.001342	-0.002954	0.000759	4624.520484	20351.512422	3315.496873	11028.759311
27.035000	-0.000767	0.000153	0.009116	0.000950	4625.726594	20403.886235	3326.418150	11025.199838
27.535500	0.001005	-0.001146	0.002246	-0.003173	4648.908990	20517.854553	3323.865520	11102.419727
28.038500	0.000345	-0.001439	0.000125	-0.000881	4637.263467	20413.486744	3319.799111	11059.400039
28.535000	-0.001184	-0.000847	0.005981	0.002208	4619.198057	20313.302027	3322.344081	11001.778490
29.035500	0.001901	0.000607	0.009178	0.001199	4635.203728	20412.146585	3326.243688	11020.554967
29.634500	-0.003745	-0.001482	-0.002343	0.004628	4599.924660	20191.467387	3312.552957	10956.918828
30.037500	-0.001297	-0.000399	0.006585	0.000063	4627.125199	20417.361979	3324.889343	11041.752214
30.545000	-0.001350	0.000761	0.010978	0.003745	4612.583550	20316.124948	3325.549388	10973.262024
31.035000	-0.002104	-0.001149	0.004068	0.001830	4617.088218	20316.338908	3320.930761	11008.810228
31.542500	0.003400	0.000363	0.009213	0.004562	4627.896959	20267.540987	3323.155366	10958.135709
32.038500	-0.001007	-0.000909	0.002125	0.000141	4627.952346	20393.710991	3320.696878	11040.293938
32.535500	-0.003922	0.000120	0.001416	0.003202	4604.738723	20312.196612	3317.247686	10983.322129
33.035000	-0.000455	-0.000435	0.010239	0.001218	4625.898980	20369.455257	3327.215526	11020.197671
33.535500	0.000388	-0.000215	0.002578	0.002370	4624.695340	20332.106215	3319.069058	10998.773226
34.036000	-0.002308	-0.000295	-0.003524	0.001851	4616.216257	20349.714899	3313.992269	11008.424864
34.540000	-0.002011	-0.001437	0.005456	0.001920	4617.101113	20301.219214	3322.125449	11007.133234
35.037000	0.000979	-0.001795	0.006474	0.001183	4631.648147	20316.390984	3323.748087	11020.860709
35.537000	-0.001511	-0.000598	0.006950	0.003005	4614.827435	20291.370779	3322.503291	10986.970909
36.037000	-0.002128	-0.001013	0.001744	0.001493	4618.305395	20335.238403	3319.107221	11015.073767
36.537500	0.001412	-0.000608	-0.007680	0.002630	4627.680006	20305.998704	3309.559672	10993.946999
37.035000	-0.003957	0.000405	-0.009580	0.002480	4607.388400	20352.528682	3307.998796	10996.716703
37.535500	-0.000482	-0.000380	0.000547	0.003439	4617.142023	20282.729951	3316.241817	10978.931201
38.036000	-0.000927	-0.000850	0.001687	0.001984	4621.070835	20322.130503	3318.607144	11005.947125
38.539000	-0.001303	-0.001652	0.003938	0.000639	4624.846629	20343.875715	3321.907109	11030.992585
39.036000	0.000293	-0.001183	-0.003644	0.002262	4624.745342	20297.703161	3313.513072	11000.784323
39.536500	-0.003138	-0.001325	0.007332	0.000683	4617.529188	20355.229544	3325.006930	11030.168767
40.037000	0.000798	-0.000325	-0.005731	0.002331	4626.448550	20329.283295	3311.572702	10999.499069
40.537000	-0.000417	0.000452	-0.000735	0.002736	4620.129653	20344.200052	3315.716866	10991.979606
41.035000	-0.003931	-0.001196	-0.002196	0.001458	4611.448045	20329.351044	3315.550821	11015.740203
41.534500	0.001801	-0.000709	-0.005526	0.003676	4625.109729	20260.140012	3310.549774	10974.532781
42.035500	-0.002718	-0.001467	0.005433	0.001520	4615.909727	20316.030886	3322.473907	11014.584355
42.536000	-0.000052	0.000324	-0.004554	0.003567	4618.317006	20305.789046	3311.519357	10976.561840
43.038500	-0.000630	-0.000721	0.011407	0.002180	4621.460273	20319.443227	3327.407941	11002.292510
43.536000	-0.003921	-0.002093	-0.002314	0.001194	4612.505781	20303.990040	3315.682300	11020.642685
44.036500	0.000497	-0.001080	-0.002384	-0.000237	4635.330213	20402.042130	3316.920108	11047.366431
44.537000	-0.001276	-0.002495	0.009089	0.004394	4610.354932	20160.543032	3323.196231	10961.246379
45.037000	0.000030	-0.001263	-0.003140	0.000312	4631.344236	20372.641498	3315.734217	11037.109060
45.537500	0.001129	-0.000426	0.000929	0.003703	4622.384408	20270.366581	3316.349179	10974.035578
46.035000	0.003263	0.001595	0.000215	0.003017	4633.413412	20378.741371	3316.323857	10986.751350
46.535000	0.003216	-0.002007	0.005797	0.004058	4629.151094	20193.271978	3320.472686	10967.470331
47.035500	-0.000365	0.000226	0.006340	0.003386	4617.802614	20309.116847	3321.589377	10979.915951
47.535500	-0.003042	-0.001918	0.005317	0.004059	4604.829190	20196.778656	3320.031428	10967.452192
48.038000	0.000070	-0.001166	0.007384	0.001046	4628.626425	20347.093872	3324.718720	11023.416359
48.536000	-0.002028	-0.001717	-0.000294	0.004351	4607.614542	20193.116722	3314.652314	10962.040387
49.036500	0.003701	0.000265	0.005280	0.001144	4642.508668	20400.586394	3322.679629	11021.588659
49.537000	0.001083	-0.000920	0.004591	0.002037	4628.711605	20317.225127	3321.221450	11004.963398
50.037000	0.002735	0.000991	0.010789	-0.005962	4666.899052	20718.452686	3334.499326	11155.087417
50.537000	-0.002599	0.000599	-0.000353	0.004676	4604.155506	20272.434937	3314.304820	10956.029976
51.035000	-0.053602	-0.027053	-0.023391	0.242322	3790.925291	12346.496448	3137.084052	7573.118803
51.535000	-0.024147	-0.021323	-0.000827	-0.097020	4943.614052	23768.634492	3417.370114	13074.025962
52.035500	-0.015040	-0.016754	-0.002770	-0.185545	5451.386789	28749.483556	3526.740227	15367.805135
52.538500	-0.014066	-0.012191	0.001677	-0.177703	5411.823366	28555.345558	3522.029644	15145.229546
53.036000	-0.008052	-0.012032	0.003338	-0.142220	5248.952851	26553.853970	3477.045812	14186.793813
53.536500	-0.028257	-0.013857	-0.001359	-0.124814	5056.516614	25530.766512	3449.485982	13744.514223
54.036500	-0.029798	-0.011970	-0.006018	-0.140583	5127.360330	26468.365441	3463.164474	14144.443059
54.537000	-0.034026	-0.011039	-0.008408	-0.145570	5131.202578	26791.235582	3466.411628	14273.965880
55.037000	-0.032822	-0.013024	0.000863	-0.129007	5054.690033	25793.750847	3457.340797	13849.429044
55.535000	-0.036600	-0.013234	-0.007985	-0.101060	4904.967897	24358.704051	3413.823854	13168.828039
56.035500	-0.028547	-0.007633	-0.003532	-0.073731	4819.195170	23313.178284	3388.569618	12544.319010
56.535000	-0.022583	-0.007673	-0.005927	-0.072232	4838.728752	23241.084877	3384.402010	12511.191667
57.035500	-0.026751	-0.008040	-0.013261	-0.061101	4772.632151	22710.473350	3365.138097	12268.704175
57.536000	-0.027893	-0.009216	-0.010886	-0.041745	4687.645710	21797.261663	3348.131685	11861.574129
58.036500	-0.016715	-0.007197	-0.000091	-0.039478	4724.097586	21786.470686	3356.588913	11815.063402
58.536500	-0.027040	-0.007568	0.004164	-0.040273	4685.147076	21804.924608	3361.677493	11831.363735
59.037000	-0.026545	-0.009551	-0.002748	-0.027391	4635.769158	21169.946884	3342.071491	11571.174122
59.537000	-0.022819	-0.009492	0.004001	-0.039232	4698.048265	21676.511583	3360.458465	11810.038642
60.037000	-0.019633	-0.012102	0.003248	-0.048118	4747.906482	21949.345433	3368.754005	11993.637348
60.535000	-0.026495	-0.012751	-0.002956	-0.050332	4728.541877	22017.982151	3364.664460	12039.958058
61.035500	-0.022638	-0.011842	0.002344	-0.065103	4807.398310	22719.634439	3385.620435	12355.178461
61.535500	-0.023675	-0.009469	-0.002115	-0.058803	4775.932982	22541.474816	3374.266026	12219.409096
62.038500	-0.027599	-0.008221	-0.003103	-0.054689	4742.072579	22412.536072	3368.980073	12131.820893
62.536000	-0.028907	-0.008641	-0.007161	-0.051393	4722.954967	22246.572532	3361.468397	12062.241698
63.036500	-0.021702	-0.006682	-0.014366	-0.052108	4755.964556	22365.829450	3354.945084	12077.292928
63.537000	-0.020876	-0.007336	-0.008899	-0.047315	4739.357337	22123.666846	3355.617747	11976.887792
64.037000	-0.017291	-0.007118	-0.013219	-0.050267	4766.806648	22264.201596	3354.252592	12038.590770
64.537000	-0.023084	-0.007399	-0.013343	-0.043956	4716.302909	21973.043626	3347.890210	11907.176238
65.037000	-0.016975	-0.006507	0.000331	-0.048864	4762.214527	22228.990344	3366.523840	12009.205217
65.535000	-0.020475	-0.009553	-0.003775	-0.052505	4762.811085	22255.487855	3366.047948	12085.668820
66.035500	-0.023153	-0.007888	-0.011344	-0.053054	4753.844686	22354.238699	3358.922601	12097.245019
66.535500	-0.025697	-0.008747	-0.012068	-0.049203	4727.173361	22144.736046	3354.340416	12016.308124
67.036000	-0.019482	-0.006583	-0.008539	-0.056536	4784.144765	22569.471824	3365.299184	12171.051268
67.536000	-0.018742	-0.006241	-0.003828	-0.059237	4798.898327	22707.506215	3372.935505	12228.701123
68.036500	-0.016700	-0.006108	-0.001408	-0.061290	4816.610170	22807.289945	3377.607098	12272.772490
68.537000	-0.017399	-0.006233	0.001755	-0.059414	4805.454581	22715.978602	3378.961512	12232.504816
69.037000	-0.011378	-0.005507	-0.002737	-0.066282	4861.971773	23064.909802	3381.470264	12380.802403
69.534500	-0.013485	-0.005390	-0.003437	-0.064199	4843.411735	22973.986187	3378.531908	12335.564296
70.035000	-0.011557	-0.004898	0.001943	-0.070788	4881.323186	23303.416568	3391.299102	12479.369855
70.535500	-0.010970	-0.004171	0.006196	-0.072176	4890.221895	23402.837235	3397.439392	12509.949398
71.035500	-0.011424	-0.003684	-0.000688	-0.072862	4891.267971	23458.208599	3390.697671	12525.093937
71.538000	-0.011593	-0.004051	-0.008395	-0.070638	4880.484675	23336.121400	3380.092560	12476.074308
72.036000	-0.010746	-0.003233	-0.000841	-0.075178	4904.839633	23589.393714	3393.039776	12576.410377
72.539000	-0.015729	-0.005076	0.001516	-0.072760	4871.459876	23387.721257	3392.973813	12522.842256
73.036500	-0.010180	-0.003470	0.003054	-0.077878	4919.751795	23706.858877	3400.252655	12636.572538
73.536500	-0.009618	-0.002716	0.001342	-0.078115	4923.418644	23754.339620	3398.629948	12641.870848
74.037500	-0.009806	-0.004645	0.001127	-0.080770	4934.780908	23789.181875	3401.317585	12701.435755
74.535000	-0.010190	-0.003078	0.011795	-0.080408	4931.333087	23847.078317	3412.836162	12693.280658
75.035000	-0.005382	-0.002574	0.004340	-0.080675	4954.870286	23884.267928	3404.773611	12699.296179
75.535000	-0.010907	-0.003317	-0.006841	-0.077028	4912.538409	23673.577040	3388.556467	12617.594398
76.038500	-0.008325	-0.003640	0.004087	-0.082377	4949.089003	23914.990316	3406.388211	12737.656231
76.536000	-0.008487	-0.003860	-0.011712	-0.079294	4934.055493	23755.988753	3385.764617	12668.276074
77.036500	-0.008471	-0.002952	-0.003441	-0.082193	4947.556056	23939.318470	3397.856223	12733.499870
77.536000	-0.006341	-0.002834	-0.005226	-0.081806	4955.675248	23926.354949	3395.480465	12724.778955
78.037000	-0.007947	-0.002194	-0.000391	-0.081924	4948.742847	23963.009649	3400.915334	12727.431886
78.536500	-0.013251	-0.001901	0.003408	-0.076721	4900.468665	23726.573582	3399.368642	12610.741731
79.034500	-0.007829	-0.002756	0.000499	-0.081494	4947.290238	23914.995297	3401.423226	12717.734973
79.537500	-0.012530	-0.002586	-0.001457	-0.076685	4903.581842	23692.080145	3394.008016	12609.941766
80.035000	-0.005921	-0.002579	-0.006826	-0.080311	4950.663897	23866.463961	3392.115500	12691.109676
80.535500	-0.007953	-0.001449	0.001674	-0.074381	4913.939879	23636.391715	3394.908623	12558.718276
81.036000	-0.005743	-0.002263	-0.004162	-0.079153	4946.107845	23825.926884	3393.750688	12665.118844
81.536000	-0.008632	-0.002781	-0.002322	-0.078964	4931.862252	23791.925089	3395.547478	12660.863997
82.036500	-0.006781	-0.002427	0.002902	-0.077754	4934.821176	23750.895656	3399.948970	12633.797298
82.536500	-0.010679	-0.002456	-0.001626	-0.072577	4893.346436	23502.842836	3389.378425	12518.804171
83.036500	-0.004580	-0.002603	-0.004043	-0.075445	4934.322150	23632.087698	3389.864455	12582.333284
83.536500	-0.010015	-0.001221	0.009112	-0.074054	4903.055247	23631.656628	3402.720990	12551.466138
84.037500	-0.006596	-0.002888	-0.005959	-0.074681	4921.525954	23582.156675	3386.983198	12565.358395
84.534500	-0.008186	-0.001482	-0.006274	-0.073243	4907.689562	23580.657104	3385.109238	12533.523255
85.034500	-0.009299	-0.002873	0.004626	-0.072604	4899.718397	23484.320304	3396.190085	12519.383073
85.538000	-0.010032	-0.003315	0.003177	-0.072759	4897.099552	23470.780070	3394.778573	12522.825560
86.035500	-0.009802	-0.002323	0.000515	-0.071718	4893.430678	23468.471770	3390.761310	12499.849646
86.536000	-0.006738	-0.003070	-0.001615	-0.068314	4891.889332	23273.099999	3384.820580	12425.119862
87.036500	-0.006694	-0.001374	-0.003476	-0.069404	4897.021981	23404.030872	3383.999827	12448.982344
87.536500	-0.007063	-0.002094	-0.003065	-0.065307	4876.891446	23178.205641	3380.091957	12359.591439
88.037000	-0.008180	-0.002153	-0.002432	-0.069485	4890.663953	23371.113271	3385.198491	12450.752167
88.537500	-0.008183	-0.001809	-0.013898	-0.065951	4874.757445	23221.567232	3369.461301	12373.596106
89.035000	-0.006456	-0.000992	0.000974	-0.066646	4885.636000	23292.340183	3385.804364	12388.722451
89.535000	-0.012573	-0.002751	-0.010153	-0.063615	4844.857031	23069.000993	3370.916020	12322.924809
90.035000	-0.004099	-0.000974	-0.002913	-0.065777	4892.354562	23252.468021	3380.749747	12369.813225
90.535500	-0.008368	-0.001644	0.006963	-0.064809	4868.823737	23175.993894	3390.264383	12348.800587
91.036000	-0.006161	0.000070	-0.000572	-0.065263	4880.740463	23277.283037	3382.684558	12358.633221
91.536000	-0.008084	-0.002061	0.000483	-0.061360	4854.741340	22996.610330	3379.671734	12274.285275
92.036000	-0.008695	-0.001367	0.006035	-0.064439	4865.712190	23171.659921	3388.864662	12340.773871
92.536000	-0.007400	-0.001658	-0.000162	-0.062825	4864.289573	23083.059639	3380.536589	12305.852128
93.037000	-0.006377	-0.001501	-0.002992	-0.063962	4873.938253	23143.224756	3378.751521	12330.444485
93.534500	-0.007452	-0.002117	-0.002629	-0.059502	4849.313031	22908.384574	3374.459870	12234.384796
94.095000	-0.004608	-0.002017	0.000126	-0.062820	4876.749149	23066.191970	3380.836366	12305.750181
94.535500	-0.007550	-0.002275	-0.001465	-0.062054	4860.192920	23018.813218	3378.350612	12289.229181
95.038000	-0.003969	-0.000337	0.001568	-0.062355	4877.528666	23122.585490	3381.869899	12295.709780
95.535500	-0.008971	-0.001294	0.009827	-0.057484	4833.737115	22853.503845	3385.474376	12191.240844
96.036000	-0.004821	-0.000610	0.002198	-0.061327	4869.110405	23062.185850	3381.447955	12273.559097
96.536500	-0.006493	-0.000180	-0.004775	-0.058950	4851.113179	22972.174528	3371.654645	12222.564492
