sample name	sample
index	139
start time	 02-15-2021  01:51:01 PM
880	-0.079440
Peak Time (s)	91.037
Peak Height 	-0.07944
calc peak height	90,93
Baseline Time (s)	9.537
Baseline Value 	-0.003433
subtract baseline	10,4
Abs	-0.000395
Peak Time (s)	90.537
Peak Height 	-3.9484E-4
calc peak height	90,93
Baseline Time (s)	11.535
Baseline Value 	0.006765
subtract baseline	10,3
PK_550	0.000350
Peak Time (s)	92.535
Peak Height 	3.4993E-4
calc peak height	90,93
Baseline Time (s)	9.537
Baseline Value 	0.002046
subtract baseline	10,2
PK_880	-0.009717
Peak Time (s)	92.535
Peak Height 	-0.009717
calc peak height	90,93
Baseline Time (s)	11.037
Baseline Value 	0.002911
subtract baseline	10,1


Time (s)	A880-A510	A880-A775	A880-A975	A880	I510	I775	I975	I880	
0.037000	-0.002990	-0.002195	-0.007599	0.000706	4201.763635	15173.577158	3254.058261	8671.460106
0.537000	0.000616	-0.001125	-0.022847	0.004271	4201.875052	15104.248682	3242.809046	8625.227297
1.037500	-0.000676	0.000109	0.006025	0.004152	4198.708266	15141.782899	3260.349636	8626.753976
1.537500	-0.006091	-0.001001	0.010473	0.006969	4176.730349	15033.116365	3261.372340	8590.482335
2.038000	-0.000283	-0.001045	0.004842	0.000785	4208.888285	15203.470055	3261.720059	8670.435411
2.535500	-0.002691	-0.000975	-0.010559	0.003673	4194.574508	15124.965328	3250.461066	8632.946163
3.035500	0.001724	-0.000580	-0.017135	-0.000796	4218.684499	15260.777333	3249.194476	8691.058659
3.536000	-0.003195	-0.001164	-0.001772	0.003498	4193.692221	15124.608362	3255.918691	8635.213944
4.036500	-0.002307	-0.000310	-0.002552	0.000902	4203.081260	15220.745850	3257.038171	8668.904035
4.536000	0.002700	-0.000615	-0.013388	0.002947	4211.121794	15155.149237	3249.196731	8642.343834
5.037000	0.004459	-0.000035	-0.001937	0.000793	4221.830137	15231.509050	3257.486332	8670.328714
5.537500	-0.004845	-0.000341	-0.009110	0.001105	4195.689854	15214.211190	3252.893561	8666.271802
6.035000	-0.001823	-0.000994	-0.012148	0.000582	4205.258345	15210.551270	3251.368214	8673.073632
6.535000	0.005347	-0.000501	-0.003327	0.000973	4223.776880	15213.389920	3256.515699	8667.976949
7.035000	0.001064	0.000908	-0.012876	0.001807	4209.773338	15229.503482	3250.189312	8657.139050
7.535500	0.002130	-0.001486	-0.003768	-0.000538	4219.090735	15228.132396	3257.176639	8687.683101
8.036000	0.004483	-0.000120	-0.004088	0.000438	4222.870383	15239.046733	3256.376629	8674.946303
8.536000	0.001371	-0.001870	0.005282	-0.001099	4218.547934	15233.102299	3263.184537	8695.020880
9.036500	0.001759	0.001181	0.002828	-0.000259	4217.305904	15295.165849	3261.110433	8684.034681
9.537000	0.002345	0.000000	-0.003090	0.000000	4218.204594	15254.705329	3257.263345	8680.661590
10.037500	-0.000598	0.001271	-0.006413	0.001204	4206.894110	15256.588802	3254.478776	8664.979988
10.537000	-0.001533	-0.000632	0.006507	-0.001297	4211.153218	15273.386121	3264.085454	8697.605889
11.037500	0.000000	-0.001072	-0.002334	0.000062	4211.625217	15222.919456	3257.692501	8679.847158
11.535000	-0.000437	0.001777	0.000000	0.001361	4206.904634	15266.390600	3258.334730	8662.934325
12.035500	-0.002641	-0.001360	-0.002180	-0.000125	4204.958089	15220.122299	3257.904300	8682.297043
12.536000	0.002742	-0.000295	-0.001594	0.002005	4213.806797	15190.328353	3256.948987	8654.566015
13.035500	0.001925	0.000088	0.001570	-0.002167	4223.001908	15318.126909	3261.518623	8708.997632
13.536500	0.003460	0.000280	0.003511	0.000225	4220.645026	15256.234509	3261.235302	8677.726233
14.036500	-0.000519	-0.000864	-0.020951	-0.000603	4212.023251	15247.380472	3246.800609	8688.530985
14.536500	0.002596	-0.001628	-0.017598	0.001862	4213.798003	15157.178591	3247.329536	8656.430171
15.036500	0.000787	-0.000424	0.012079	0.000107	4213.650123	15239.836271	3266.741315	8679.269730
15.536000	0.002675	-0.001788	-0.008188	0.003058	4210.752120	15119.511804	3252.267100	8640.916177
16.035000	0.005962	-0.000205	0.013233	-0.000427	4229.336763	15260.929165	3267.823373	8686.229905
16.535500	-0.001805	-0.001452	-0.002709	-0.001440	4210.801084	15254.373393	3258.391828	8699.475941
17.035500	-0.001107	0.001028	0.011716	0.000331	4207.884354	15274.297499	3266.365349	8676.351338
17.536000	-0.000824	-0.000669	0.007470	0.001215	4206.250565	15201.951239	3263.104751	8664.835331
18.036500	0.002566	0.000230	-0.001423	-0.001019	4221.607305	15289.800747	3258.929706	8693.973982
18.536500	0.005277	0.000803	-0.004834	0.002670	4218.922203	15202.431327	3254.548044	8645.944786
19.037000	0.001773	-0.000788	0.002543	-0.000324	4217.524586	15241.687682	3260.972481	8684.890958
19.537000	0.001668	-0.001099	-0.001488	0.000820	4214.108782	15200.971874	3257.747568	8669.971448
20.037500	0.000826	-0.001401	-0.005363	0.000253	4213.357477	15208.394163	3255.706222	8677.360574
20.534500	0.000908	-0.001032	0.007283	0.000358	4213.296952	15215.785854	3263.528572	8675.996356
21.037500	0.004289	0.000425	-0.015037	0.001147	4220.390078	15234.444362	3249.287121	8665.713293
21.535000	0.003074	-0.000194	0.000961	0.001237	4216.813055	15214.619226	3259.008976	8664.547308
22.036000	0.004342	-0.001418	-0.011634	0.000071	4223.493670	15212.992066	3251.988512	8679.734175
22.535500	0.004716	0.000428	-0.012518	0.001071	4221.773416	15236.697839	3250.848978	8666.712753
23.036500	0.000893	-0.000937	-0.008512	0.000530	4212.785525	15213.615398	3253.608138	8673.754115
23.537000	0.003003	-0.001356	-0.013943	-0.000080	4220.228463	15218.959589	3250.684052	8681.711405
24.037000	-0.000365	-0.001676	-0.002607	-0.000091	4211.048867	15210.329711	3257.619015	8681.853235
24.537500	-0.002021	-0.000490	0.010140	0.000213	4205.722339	15234.992895	3265.434687	8677.878803
25.035000	0.002495	-0.001182	0.015667	0.000656	4216.818638	15203.246518	3268.693563	8672.115323
25.540000	0.000511	-0.000161	-0.001635	0.000358	4212.213078	15240.152899	3257.942394	8675.992445
26.035000	-0.000446	-0.000347	-0.009452	0.000738	4208.570737	15224.282851	3252.908812	8671.039219
26.535500	0.002760	0.000316	0.012935	0.001159	4216.166249	15231.087044	3266.615844	8665.565267
27.036000	-0.000320	-0.001415	-0.002059	-0.000027	4210.995901	15215.811526	3257.918122	8681.008269
27.536000	0.003188	-0.000655	-0.000436	-0.000100	4220.791819	15239.133580	3258.972087	8681.968174
28.036500	0.005201	0.000288	0.001607	-0.002382	4232.645548	15329.846219	3261.676560	8711.814864
28.536500	0.000769	-0.001005	-0.007752	-0.000391	4214.963252	15237.496294	3254.635353	8685.768110
29.053500	-0.001564	-0.001126	0.011438	-0.000687	4209.406925	15242.396067	3266.838986	8689.629498
29.536500	0.001988	-0.001341	0.001279	-0.002187	4223.228989	15278.479529	3261.348603	8709.262192
30.035000	0.002689	-0.000669	0.014355	-0.000421	4220.300847	15247.749945	3268.541565	8686.153261
30.537500	-0.000257	-0.001127	-0.000265	-0.000472	4212.381610	15236.344937	3259.310183	8686.826044
31.035500	0.006245	-0.000630	0.004126	-0.000418	4230.094985	15248.758845	3262.025396	8686.110757
31.535500	0.003480	-0.001196	0.011640	0.001933	4216.021432	15167.243861	3265.294635	8655.506544
32.036000	0.004384	-0.000823	-0.000102	0.001531	4219.597468	15188.834531	3258.165915	8660.727400
32.536500	0.005628	-0.000938	0.008153	-0.001535	4231.480991	15271.469744	3265.282620	8700.726092
33.037000	0.007199	0.000000	0.007548	-0.001181	4234.855687	15287.888233	3264.672013	8696.083839
33.536500	-0.000399	-0.000664	-0.001265	-0.000031	4210.791597	15236.943550	3258.413397	8681.065544
34.040000	0.001117	-0.000956	0.019561	-0.000748	4216.887315	15248.848072	3272.129604	8690.422392
34.537000	0.004671	-0.000841	0.017614	0.000925	4222.050350	15205.242126	3269.777273	8668.605938
35.037000	0.000374	-0.001326	-0.006921	-0.001448	4216.770761	15258.133619	3255.793599	8699.578033
35.535500	0.007465	-0.000492	-0.009567	0.000952	4229.682276	15214.268631	3252.708805	8668.256097
36.035500	-0.000150	-0.001690	0.001884	-0.000161	4211.825370	15211.889360	3260.457532	8682.762274
36.536000	-0.002031	-0.001611	0.003221	-0.000167	4206.724886	15214.247372	3261.299612	8682.840781
37.036500	0.001780	-0.001782	-0.005799	0.000124	4216.319909	15201.367421	3255.517335	8679.049178
37.536000	0.001370	-0.000655	-0.003916	0.001581	4211.220907	15192.141385	3255.779174	8660.080936
38.036500	-0.000681	-0.000176	0.004537	0.001852	4204.912683	15197.947792	3260.858733	8656.556810
38.537000	0.005727	-0.001550	0.016791	0.001417	4223.600145	15171.730197	3268.926999	8662.202853
39.037500	0.002357	0.000043	0.006298	0.001873	4213.116561	15203.469908	3261.951239	8656.286537
39.535000	0.002512	-0.000635	0.008331	0.000928	4216.122028	15210.944144	3263.830983	8668.570050
40.037500	0.005378	-0.001751	0.016650	0.000820	4224.282427	15182.773037	3269.221372	8669.969432
40.535000	-0.000705	-0.000904	0.004113	0.000550	4208.379378	15213.973426	3261.409385	8673.489616
41.036000	0.002741	-0.002724	0.007910	0.000266	4218.559693	15171.094999	3263.983497	8677.186436
41.535000	0.001932	-0.000874	0.001520	0.001578	4212.760722	15186.082107	3259.144965	8660.111617
42.036000	0.002526	0.000280	-0.000322	0.002198	4212.689820	15201.010546	3257.616244	8652.065081
42.536500	0.002420	-0.000563	0.001709	0.001306	4214.835976	15202.378391	3259.432194	8663.656982
43.036500	0.006301	0.001656	-0.004230	0.001876	4223.920164	15248.534667	3255.405170	8656.247341
43.537000	0.004131	-0.001084	-0.002181	0.001459	4219.101259	15183.556680	3256.923820	8661.664141
44.037500	0.003134	-0.000195	0.009103	0.001600	4215.983289	15204.438763	3263.894089	8659.822814
44.539500	0.003457	0.000316	0.007609	0.001097	4218.243973	15232.796730	3263.266819	8666.364179
45.034500	0.004071	-0.000195	0.003395	-0.001660	4227.518730	15295.868485	3262.347414	8702.355168
45.535500	0.006302	-0.000449	0.002469	-0.000425	4230.273597	15254.036513	3260.989317	8686.209962
46.035000	0.006005	-0.000356	0.011293	-0.000473	4229.584053	15257.972082	3266.608563	8686.829894
46.535500	0.001077	0.000487	-0.014374	0.001344	4211.068284	15230.677306	3249.567137	8663.156290
47.036500	0.003086	-0.000021	-0.009063	-0.000651	4222.024708	15272.407745	3253.992746	8689.161624
47.536500	0.006702	-0.000514	0.005076	-0.000408	4231.334396	15251.746085	3262.618410	8685.988479
48.037000	0.004546	-0.001684	0.013178	-0.001863	4229.391952	15259.730164	3268.712343	8705.013033
48.549000	-0.000590	-0.001231	-0.002441	0.000962	4207.572538	15193.319128	3257.069724	8668.125791
49.035000	0.002826	-0.000023	-0.000258	0.002291	4213.254065	15189.947381	3257.598359	8650.858457
49.535000	0.004396	-0.000649	0.001812	0.001504	4219.705623	15194.457759	3259.373443	8661.081389
50.061500	0.002721	-0.001215	-0.008275	-0.001341	4222.920433	15258.257839	3254.896968	8698.184188
50.535500	0.000448	-0.000237	-0.005663	-0.000016	4213.059643	15248.490868	3255.687063	8680.867462
51.035500	0.002939	-0.002728	-0.016231	-0.002743	4227.384685	15255.125120	3250.909828	8716.553976
51.536000	0.003848	-0.000039	0.008398	-0.002510	4229.253856	15324.235589	3266.060993	8713.504071
52.036000	0.008432	-0.001217	0.014191	-0.005884	4251.463400	15386.340155	3271.977072	8757.934903
52.536500	-0.002103	-0.000018	-0.008202	0.017207	4160.315923	14780.855953	3243.810629	8460.589310
53.037000	-0.040116	-0.026951	-0.018585	0.205745	3700.106677	10200.112700	3150.066436	6542.996363
53.537500	0.000043	-0.013580	-0.013958	-0.045368	4342.268476	16180.081844	3279.467352	9304.478465
54.037500	0.006349	-0.008247	0.005702	-0.131084	4652.433394	19238.157383	3359.313440	10676.707223
54.534500	-0.006605	-0.014677	0.005563	-0.043873	4317.860404	16102.078207	3291.790586	9282.877867
55.035500	-0.024151	-0.015697	-0.012745	0.040301	4048.536168	13780.561298	3228.081926	8178.601475
55.536000	-0.035708	-0.018446	-0.003742	-0.042451	4230.317620	15947.213905	3284.395895	9262.385108
56.035500	-0.025572	-0.010109	-0.025689	-0.086302	4389.451374	17591.534434	3299.691758	9926.076739
56.536500	-0.016125	-0.009183	-0.009773	-0.099217	4461.387955	18061.846424	3321.037676	10134.680992
57.036500	-0.018033	-0.009595	-0.010058	-0.093300	4435.793142	17844.920806	3316.325062	10038.335747
57.536500	-0.013639	-0.011436	-0.001079	-0.076868	4397.309640	17236.124843	3310.750899	9777.578726
58.036500	-0.010521	-0.009620	0.012452	-0.077734	4409.926483	17323.900156	3321.605455	9791.076476
58.540000	-0.005723	-0.006467	0.002609	-0.069363	4398.606266	17153.636244	3307.932678	9661.729207
59.034500	-0.008769	-0.007022	-0.009237	-0.069392	4389.117373	17136.600886	3299.363664	9662.177796
59.535000	-0.009030	-0.007089	-0.006171	-0.065107	4374.943916	16996.320764	3298.493094	9596.911588
60.035500	-0.014815	-0.008638	-0.026979	-0.063255	4351.469368	16887.704255	3282.743580	9568.911066
60.535500	-0.011168	-0.009288	-0.016987	-0.082280	4422.389321	17484.897419	3303.060631	9862.372557
61.036000	-0.009923	-0.003599	-0.018907	-0.076926	4409.262533	17496.058473	3297.839591	9778.492065
61.536500	-0.017687	-0.007716	-0.015702	-0.068175	4357.721760	17074.838235	3293.916693	9643.574372
62.036000	-0.009112	-0.005881	-0.005899	-0.086040	4441.189533	17724.803287	3313.994748	9921.921791
62.536500	-0.001775	-0.005720	-0.026550	-0.069897	4412.826463	17195.273024	3287.570700	9669.917122
63.037000	-0.012224	-0.006434	-0.013315	-0.072596	4388.331383	17259.962911	3298.739303	9711.395842
63.536500	-0.012748	-0.007811	-0.021028	-0.064631	4362.003348	16957.991534	3287.746727	9589.712814
64.035500	-0.016888	-0.006161	-0.010508	-0.104957	4477.905646	18367.394024	3324.888895	10229.385575
64.535500	-0.012431	-0.006169	-0.014215	-0.123490	4556.722750	19034.063596	3336.564651	10543.899656
65.038500	-0.012825	-0.007993	-0.021179	-0.128091	4571.603982	19136.484357	3334.676266	10624.077523
65.578500	-0.019700	-0.005158	-0.015174	-0.133745	4567.270219	19453.624410	3344.090528	10723.787916
66.036500	-0.018315	-0.006623	-0.011044	-0.136482	4581.946159	19501.693987	3349.754323	10772.511074
66.536500	-0.020799	-0.007697	-0.009200	-0.139131	4582.540938	19561.407307	3353.509301	10819.983838
67.037000	-0.014218	-0.006502	-0.014422	-0.139144	4606.324043	19607.353157	3349.159725	10820.217565
67.534000	-0.019954	-0.007576	-0.010697	-0.141501	4594.088336	19656.273449	3354.242969	10862.684433
68.040000	-0.017705	-0.005381	-0.011181	-0.140970	4600.296162	19719.918712	3353.389545	10853.089978
68.535000	-0.016657	-0.005920	-0.017014	-0.140270	4601.556028	19672.519324	3347.944984	10840.473229
69.035000	-0.016461	-0.005781	-0.011583	-0.138137	4594.556876	19596.443106	3350.683333	10802.138327
69.535500	-0.013276	-0.004923	-0.013702	-0.136036	4598.468790	19549.193242	3347.182913	10764.552853
70.036000	-0.014406	-0.004962	-0.002733	-0.134128	4587.523830	19475.496094	3354.741325	10730.587853
70.536000	-0.011867	-0.004825	-0.012150	-0.131429	4586.947580	19379.007022	3344.670478	10682.789344
71.036500	-0.014652	-0.004939	-0.017370	-0.130774	4574.648284	19350.125772	3339.886788	10671.226894
71.537000	-0.014441	-0.003994	-0.012347	-0.127135	4562.488271	19249.435571	3341.007698	10607.346831
72.037000	-0.009674	-0.003654	-0.022671	-0.125605	4573.966200	19205.157915	3331.521981	10580.647175
72.534500	-0.009672	-0.002994	-0.014488	-0.123459	4566.357496	19150.066504	3336.320921	10543.367801
73.037500	-0.012163	-0.004114	-0.009648	-0.123093	4556.272243	19095.127987	3339.920596	10537.025329
73.535000	-0.011828	-0.003007	-0.000921	-0.120659	4548.899563	19046.234227	3345.046736	10494.983112
74.035000	-0.008918	-0.002995	0.000871	-0.119062	4553.505271	18988.060067	3345.206549	10467.533936
74.535000	-0.011090	-0.003581	-0.005210	-0.116468	4536.860403	18871.932408	3338.156856	10423.160409
75.035500	-0.007516	-0.002595	-0.013729	-0.112638	4535.967741	18768.748933	3328.359794	10358.114119
75.536000	-0.009533	-0.002659	-0.008241	-0.113431	4531.725185	18795.134163	3333.307204	10371.531339
76.036500	-0.006940	-0.002154	-0.010393	-0.110830	4531.695936	18719.406471	3329.556736	10327.611250
76.536500	-0.015182	-0.002564	-0.019415	-0.107920	4493.579835	18600.245629	3320.319862	10278.779049
77.039500	-0.010437	-0.002520	-0.008968	-0.107950	4509.780668	18602.890863	3328.417047	10279.287143
77.537000	-0.009352	-0.003265	-0.019042	-0.107195	4510.906786	18549.344159	3320.051034	10266.668919
78.034500	-0.010599	-0.001851	-0.024646	-0.105459	4500.755276	18537.831667	3314.498062	10237.736500
78.535500	-0.007084	-0.001722	-0.015258	-0.102388	4502.261740	18433.422952	3319.271388	10186.846095
79.035500	-0.008126	-0.001270	-0.009447	-0.101940	4497.214469	18433.543510	3323.378731	10179.454471
79.535500	-0.008596	-0.003265	-0.027631	-0.102115	4496.217456	18369.283869	3309.784845	10182.338723
80.036000	-0.009911	-0.000464	0.001606	-0.099611	4483.359993	18379.769131	3330.169443	10141.131361
80.536000	-0.008630	-0.000585	0.004849	-0.099743	4488.106663	18380.167516	3332.833567	10143.306972
81.036000	-0.008279	-0.002905	-0.016534	-0.099808	4489.505120	18300.885703	3316.349781	10144.374743
81.536500	-0.006443	-0.000807	-0.009594	-0.099456	4494.507874	18362.219774	3321.357594	10138.594331
82.037000	-0.010209	-0.001428	-0.015678	-0.098755	4479.500452	18315.745642	3316.200796	10127.109334
82.535000	-0.011894	-0.000301	-0.022424	-0.097283	4468.986481	18303.630547	3310.062004	10103.041254
83.034500	-0.009045	-0.002047	-0.009973	-0.094345	4468.691859	18140.207614	3317.179020	10055.256462
83.535500	-0.011399	-0.000541	-0.020383	-0.096637	4468.488839	18272.581587	3311.095984	10092.508974
84.035500	-0.009372	-0.001147	-0.025362	-0.096864	4475.980890	18259.297886	3307.587370	10096.199356
84.535500	-0.009214	-0.001351	-0.000742	-0.096608	4475.655239	18243.246013	3325.987633	10092.031172
85.036000	-0.011621	-0.001920	-0.024633	-0.091789	4451.768525	18056.160922	3304.412789	10013.948391
85.536500	-0.011886	-0.000868	-0.005593	-0.093926	4457.919729	18166.585629	3320.187626	10048.460795
86.036500	-0.011591	-0.001104	-0.018109	-0.094104	4459.476342	18164.573597	3310.903345	10051.343604
86.537000	-0.008457	-0.000571	-0.007835	-0.092830	4465.620580	18138.856725	3317.650626	10030.741230
87.040000	-0.009965	-0.003178	-0.024044	-0.094050	4464.667540	18090.793593	3306.490888	10050.480712
87.534500	-0.009161	-0.000461	-0.016516	-0.091201	4457.919779	18086.214495	3309.932781	10004.471548
88.035000	-0.014963	-0.001423	-0.018434	-0.090251	4435.864686	18020.284828	3307.818930	9989.212911
88.535000	-0.007690	0.000158	-0.012243	-0.088103	4452.572648	18000.766176	3310.803642	9954.800972
89.035500	-0.011299	-0.001345	-0.024462	-0.083906	4427.197208	17806.051026	3298.855307	9888.055577
89.535500	-0.010692	0.000279	-0.027345	-0.086598	4437.867161	17953.250185	3298.719404	9930.796300
90.036000	-0.011210	-0.002009	-0.016689	-0.087297	4438.454479	17898.895138	3306.931456	9941.929622
90.536500	-0.011836	-0.002682	-0.000395	-0.086312	4433.231759	17842.403564	3318.349660	9926.243836
91.037000	-0.013971	-0.001959	-0.017218	-0.079440	4404.390217	17634.702627	3300.845649	9817.750051
91.540000	-0.012796	-0.001960	-0.013133	-0.083971	4422.590166	17787.408595	3307.100134	9889.082922
92.034500	-0.013876	-0.003351	-0.015902	-0.084539	4420.951386	17759.554885	3305.491318	9898.091348
92.535000	-0.009717	0.000350	-0.012480	-0.080079	4419.981449	17733.884962	3304.734652	9827.760733
93.035000	-0.013266	-0.002393	-0.016540	-0.075558	4394.357732	17490.642485	3298.551776	9757.219556
93.535500	-0.009276	-0.001663	-0.001596	-0.079171	4418.490549	17635.620981	3312.078047	9813.542793
94.036500	-0.009870	-0.001036	-0.003730	-0.078484	4414.392760	17633.581958	3309.984474	9802.789992
94.535500	-0.006419	-0.001803	-0.008962	-0.076475	4419.004298	17540.791827	3304.671926	9771.464267
95.036500	-0.011715	-0.000182	-0.006220	-0.075982	4400.586211	17578.432539	3306.312295	9763.803844
95.536500	-0.007258	-0.003020	-0.020092	-0.076964	4417.882776	17516.531496	3297.024330	9779.076382
96.036500	-0.013435	-0.001961	-0.021483	-0.075922	4394.971731	17517.093597	3295.301765	9762.868998
96.559500	-0.013293	-0.001079	-0.013306	-0.073213	4386.917363	17456.465019	3299.186947	9720.915157
97.034500	-0.010420	-0.002698	0.003470	-0.075362	4402.718729	17474.033107	3313.015095	9754.171065
97.535000	-0.012456	-0.002202	-0.011282	-0.073950	4391.849858	17443.684201	3301.166238	9732.300735
98.035500	-0.008588	-0.000321	-0.012279	-0.071333	4395.783364	17419.328875	3298.577322	9691.947994
98.563000	-0.010674	-0.001814	-0.018119	-0.069137	4382.366894	17297.955610	3292.896623	9658.279678
99.036000	-0.015637	-0.002808	-0.033426	-0.065622	4356.183230	17150.982917	3279.994334	9604.725603
