sample name	sample
index	61
start time	 02-11-2021  03:11:54 PM


Wavelength (nm)	Absorbance
494.344910	-0.315252
494.563924	-0.315252
494.782919	-0.315252
495.001897	NaN
495.220856	-0.864962
495.439797	-1.417069
495.658719	NaN
495.877624	NaN
496.096510	NaN
496.315378	NaN
496.534227	1.296187
496.753059	-0.510557
496.971872	-0.167600
497.190667	-0.010160
497.409444	-0.011193
497.628203	-0.010862
497.846943	-0.007679
498.065665	-0.010181
498.284369	-0.008675
498.503055	-0.009475
498.721723	-0.007685
498.940372	-0.007814
499.159003	-0.008380
499.377616	-0.007184
499.596210	-0.007595
499.814787	-0.006275
500.033345	-0.004518
500.251885	-0.004337
500.470406	-0.004626
500.688910	-0.002098
500.907395	-0.002193
501.125862	-0.001000
501.344311	-0.002050
501.562742	-0.000681
501.781154	-0.002424
501.999548	-0.002424
502.217924	-0.003397
502.436282	-0.003116
502.654621	-0.005917
502.872942	-0.005317
503.091245	-0.006009
503.309530	-0.006273
503.527797	-0.007762
503.746045	-0.008545
503.964275	-0.009513
504.182487	-0.008434
504.400681	-0.008543
504.618856	-0.008073
504.837013	-0.008630
505.055152	-0.008969
505.273273	-0.008199
505.491376	-0.005326
505.709460	-0.003582
505.927526	-0.002550
506.145574	-0.002969
506.363604	-0.001935
506.581615	-0.001623
506.799608	-0.000376
507.017583	0.000961
507.235540	0.001240
507.453478	-0.000401
507.671399	-0.000848
507.889301	-0.002145
508.107185	-0.002825
508.325050	-0.003468
508.542898	-0.005258
508.760727	-0.007057
508.978538	-0.006720
509.196330	-0.006674
509.414105	-0.006318
509.631861	-0.005768
509.849599	-0.004773
510.067319	-0.002337
510.285021	-0.002382
510.502704	-0.001027
510.720369	-0.001001
510.938016	0.000129
511.155645	-0.000137
511.373255	-0.001183
511.590848	-0.001905
511.808422	-0.002322
512.025977	-0.003412
512.243515	-0.002928
512.461034	-0.003251
512.678536	-0.003494
512.896018	-0.004754
513.113483	-0.003541
513.330930	-0.004135
513.548358	-0.003418
513.765768	-0.003267
513.983160	-0.004496
514.200533	-0.004850
514.417889	-0.003998
514.635226	-0.001844
514.852545	-0.002901
515.069845	-0.005673
515.287128	-0.003697
515.504392	-0.005163
515.721638	-0.004092
515.938866	-0.003273
516.156075	-0.002873
516.373267	-0.003923
516.590440	-0.004937
516.807594	-0.004358
517.024731	-0.002795
517.241850	-0.003439
517.458950	-0.001810
517.676032	-0.002519
517.893095	-0.001823
518.110141	-0.001958
518.327168	-0.000955
518.544177	-0.000357
518.761168	-0.000254
518.978141	-0.000281
519.195095	0.000230
519.412031	-0.000428
519.628949	-0.000381
519.845849	-0.001167
520.062731	-0.000851
520.279594	-0.002070
520.496439	-0.003040
520.713266	-0.004077
520.930074	-0.004000
521.146865	-0.005080
521.363637	-0.005108
521.580391	-0.005984
521.797127	-0.005140
522.013844	-0.005727
522.230543	-0.005404
522.447224	-0.004352
522.663887	-0.004010
522.880532	-0.003878
523.097158	-0.003791
523.313766	-0.003169
523.530356	-0.003457
523.746928	-0.004879
523.963481	-0.003899
524.180017	-0.003304
524.396534	-0.003956
524.613032	-0.003404
524.829513	-0.003789
525.045975	-0.002497
525.262420	-0.002949
525.478845	-0.002090
525.695253	-0.001583
525.911643	-0.002670
526.128014	-0.002956
526.344367	-0.001767
526.560702	-0.000901
526.777018	-0.001180
526.993316	-0.002454
527.209597	-0.002756
527.425858	-0.002296
527.642102	-0.001856
527.858328	-0.000602
528.074535	-0.000557
528.290724	-0.001985
528.506894	-0.002708
528.723047	-0.002678
528.939181	-0.001811
529.155297	-0.001390
529.371395	-0.002173
529.587475	-0.002162
529.803536	-0.003665
530.019579	-0.003737
530.235604	-0.003228
530.451611	-0.002869
530.667600	-0.002576
530.883570	-0.003089
531.099522	-0.002998
531.315456	-0.002973
531.531372	-0.002983
531.747269	-0.001462
531.963148	-0.001192
532.179009	-0.000898
532.394852	-0.001366
532.610676	-0.001783
532.826482	-0.001724
533.042271	-0.001892
533.258040	-0.001614
533.473792	-0.002203
533.689525	-0.002880
533.905240	-0.002749
534.120937	-0.002274
534.336616	-0.002111
534.552277	-0.002142
534.767919	-0.001570
534.983543	-0.000867
535.199149	-0.001855
535.414736	-0.001095
535.630306	-0.001115
535.845857	-0.001226
536.061390	-0.002178
536.276904	-0.002173
536.492401	-0.001706
536.707879	-0.002184
536.923339	-0.002515
537.138781	-0.001419
537.354204	-0.001780
537.569610	-0.002245
537.784997	-0.002413
538.000366	-0.003012
538.215716	-0.001912
538.431049	-0.001987
538.646363	-0.001724
538.861659	-0.002206
539.076937	-0.002278
539.292196	-0.002177
539.507438	-0.002699
539.722661	-0.003066
539.937866	-0.002231
540.153052	-0.003312
540.368221	-0.003831
540.583371	-0.004352
540.798503	-0.004707
541.013617	-0.004827
541.228712	-0.004625
541.443789	-0.003808
541.658848	-0.003474
541.873889	-0.003775
542.088912	-0.003843
542.303916	-0.002814
542.518902	-0.002934
542.733870	-0.002461
542.948820	-0.002378
543.163752	-0.003018
543.378665	-0.002707
543.593560	-0.002139
543.808437	-0.002468
544.023295	-0.002085
544.238136	-0.002589
544.452958	-0.002909
544.667762	-0.002662
544.882548	-0.002911
545.097315	-0.002614
545.312064	-0.003045
545.526795	-0.002799
545.741508	-0.002281
545.956203	-0.002593
546.170879	-0.002324
546.385537	-0.001735
546.600177	-0.001643
546.814799	-0.001088
547.029402	-0.000733
547.243988	-0.000711
547.458555	-0.001738
547.673103	-0.001764
547.887634	-0.001627
548.102146	-0.001626
548.316640	-0.001835
548.531116	-0.002125
548.745574	-0.001797
548.960013	-0.002258
549.174435	-0.001860
549.388838	-0.001488
549.603222	-0.001915
549.817589	-0.001854
550.031937	-0.002104
550.246267	-0.001351
550.460579	-0.001156
550.674873	-0.001325
550.889148	-0.001783
551.103405	-0.002413
551.317644	-0.002361
551.531865	-0.001343
551.746068	-0.001203
551.960252	-0.000921
552.174418	-0.001719
552.388566	-0.001854
552.602696	-0.002644
552.816807	-0.002388
553.030900	-0.002278
553.244975	-0.002683
553.459032	-0.003905
553.673070	-0.004296
553.887091	-0.004374
554.101093	-0.005079
554.315077	-0.004967
554.529042	-0.005080
554.742990	-0.004263
554.956919	-0.003776
555.170830	-0.003630
555.384722	-0.003318
555.598597	-0.003016
555.812453	-0.002901
556.026291	-0.001792
556.240111	-0.002146
556.453913	-0.001812
556.667696	-0.002708
556.881461	-0.002484
557.095208	-0.002168
557.308937	-0.001847
557.522647	-0.002052
557.736339	-0.002802
557.950013	-0.002687
558.163669	-0.002453
558.377307	-0.002253
558.590926	-0.002128
558.804527	-0.002088
559.018110	-0.002039
559.231675	-0.001973
559.445221	-0.002275
559.658749	-0.001652
559.872259	-0.001836
560.085751	-0.002378
560.299225	-0.002594
560.512680	-0.001766
560.726117	-0.001996
560.939536	-0.002481
561.152937	-0.001664
561.366319	-0.001036
561.579683	-0.001112
561.793029	-0.001113
562.006357	-0.000574
562.219667	-0.000708
562.432958	-0.001053
562.646231	-0.001422
562.859486	-0.000807
563.072723	-0.001939
563.285941	-0.001829
563.499141	-0.001936
563.712323	-0.002251
563.925487	-0.002223
564.138632	-0.002545
564.351760	-0.002720
564.564869	-0.002415
564.777960	-0.002243
564.991032	-0.001791
565.204087	-0.002218
565.417123	-0.001698
565.630141	-0.001420
565.843140	-0.001391
566.056122	-0.000527
566.269085	-0.000359
566.482030	-0.000347
566.694957	-0.000477
566.907866	-0.000316
567.120756	0.000526
567.333628	-0.000186
567.546482	0.000127
567.759318	0.000032
567.972135	-0.000058
568.184935	0.000317
568.397716	0.000148
568.610478	-0.000048
568.823223	-0.000073
569.035949	-0.000381
569.248657	0.000096
569.461347	0.000170
569.674019	0.000361
569.886672	0.000990
570.099308	0.000187
570.311925	0.000392
570.524523	0.000611
570.737104	0.000353
570.949666	-0.000231
571.162210	-0.000090
571.374736	-0.000201
571.587244	-0.000320
571.799733	-0.001133
572.012205	-0.001045
572.224658	-0.001286
572.437092	-0.001131
572.649509	-0.001126
572.861907	-0.001218
573.074287	-0.001494
573.286649	-0.001522
573.498993	-0.001483
573.711318	-0.001344
573.923625	-0.001287
574.135914	-0.001061
574.348185	-0.001464
574.560438	-0.001316
574.772672	-0.001179
574.984888	-0.000989
575.197086	-0.001001
575.409266	-0.000868
575.621427	-0.001170
575.833570	-0.001041
576.045695	-0.001299
576.257802	-0.001151
576.469890	-0.001222
576.681961	-0.001483
576.894013	-0.002213
577.106046	-0.002703
577.318062	-0.002406
577.530059	-0.002096
577.742039	-0.002158
577.954000	-0.001871
578.165942	-0.001892
578.377867	-0.002095
578.589773	-0.001790
578.801661	-0.001206
579.013531	-0.001147
579.225382	-0.001370
579.437216	-0.001396
579.649031	-0.000951
579.860828	-0.001208
580.072606	-0.001237
580.284367	-0.000886
580.496109	-0.000275
580.707833	-0.000263
580.919539	0.000189
581.131227	0.000090
581.342896	0.000252
581.554547	-0.000276
581.766180	-0.000214
581.977795	-0.000688
582.189391	-0.000733
582.400969	-0.001319
582.612529	-0.000973
582.824071	-0.001103
583.035595	-0.001000
583.247100	-0.001160
583.458587	-0.000623
583.670056	-0.000002
583.881506	0.000457
584.092939	0.000446
584.304353	0.000673
584.515749	0.000339
584.727127	0.000954
584.938486	0.001290
585.149828	0.001119
585.361151	0.000676
585.572456	0.000318
585.783742	0.000648
585.995011	0.000921
586.206261	0.001272
586.417493	0.001214
586.628706	0.000687
586.839902	0.000381
587.051079	0.000611
587.262238	0.000291
587.473379	0.000034
587.684502	-0.000230
587.895606	-0.000672
588.106692	-0.001525
588.317760	-0.001617
588.528810	-0.002221
588.739841	-0.002224
588.950855	-0.002070
589.161850	-0.001344
589.372827	-0.001121
589.583785	-0.000519
589.794726	-0.000285
590.005648	0.000481
590.216552	0.000796
590.427437	0.001496
590.638305	0.001354
590.849154	0.001191
591.059985	0.000865
591.270798	0.000743
591.481592	0.000457
591.692369	0.000313
591.903127	-0.000145
592.113867	0.000284
592.324588	0.000534
592.535292	0.000892
592.745977	0.000636
592.956644	0.000637
593.167293	0.000884
593.377923	0.000390
593.588536	-0.000054
593.799130	0.000445
594.009706	-0.000226
594.220263	-0.000618
594.430803	-0.000935
594.641324	-0.000692
594.851827	-0.000911
595.062312	-0.001204
595.272778	-0.001076
595.483227	-0.000676
595.693657	-0.000725
595.904069	-0.000490
596.114462	-0.000414
596.324838	-0.000312
596.535195	-0.000151
596.745534	0.000109
596.955855	0.000597
597.166157	0.000448
597.376441	0.000147
597.586707	-0.000253
597.796955	-0.000151
598.007185	-0.000627
598.217396	-0.000730
598.427589	-0.000969
598.637764	-0.000705
598.847921	-0.001189
599.058060	-0.001356
599.268180	-0.000871
599.478282	-0.000605
599.688366	-0.000810
599.898431	-0.000703
600.108479	-0.000796
600.318508	-0.000793
600.528519	-0.001230
600.738511	-0.001170
600.948486	-0.000297
601.158442	-0.000141
601.368380	-0.000110
601.578300	-0.000206
601.788202	0.000050
601.998085	0.000074
602.207950	0.000173
602.417797	0.000292
602.627626	0.000251
602.837436	-0.000737
603.047228	-0.001177
603.257002	-0.001415
603.466758	-0.000974
603.676496	-0.000870
603.886215	-0.001055
604.095916	-0.000999
604.305599	-0.000842
604.515264	-0.000870
604.724910	-0.000044
604.934538	-0.000262
605.144148	-0.000238
605.353740	-0.000978
605.563314	-0.001157
605.772869	-0.000526
605.982406	-0.000607
606.191925	-0.000679
606.401425	-0.000624
606.610908	-0.001289
606.820372	-0.000651
607.029818	-0.000641
607.239246	0.000205
607.448655	0.000685
607.658047	0.000229
607.867420	0.000037
608.076775	0.000071
608.286111	0.000314
608.495430	0.000678
608.704730	0.000591
608.914012	0.000770
609.123275	0.000659
609.332521	0.000437
609.541748	0.000529
609.750957	0.000913
609.960148	0.000830
610.169321	0.000623
610.378475	0.000718
610.587611	0.000482
610.796729	0.000634
611.005829	-0.000068
611.214910	-0.000256
611.423974	-0.000195
611.633019	-0.000404
611.842045	-0.000601
612.051054	-0.001120
612.260044	-0.001547
612.469017	-0.001148
612.677970	-0.001341
612.886906	-0.000927
613.095824	-0.001177
613.304723	-0.001271
613.513604	-0.000981
613.722467	-0.001157
613.931311	-0.000655
614.140138	-0.000306
614.348946	-0.000462
614.557736	-0.000190
614.766507	-0.000260
614.975261	-0.000220
615.183996	-0.000239
615.392713	-0.000610
615.601412	-0.000056
615.810092	0.000094
616.018754	-0.000088
616.227399	-0.000183
616.436024	-0.000606
616.644632	-0.000391
616.853222	0.000058
617.061793	0.000309
617.270346	0.000437
617.478880	0.000464
617.687397	0.000264
617.895895	0.000330
618.104375	0.000455
618.312837	0.000479
618.521281	0.000318
618.729706	0.000127
618.938113	0.000028
619.146502	-0.000017
619.354873	-0.000165
619.563226	0.000365
619.771560	0.000527
619.979876	0.000963
620.188174	0.001151
620.396453	0.001254
620.604715	0.001510
620.812958	0.001556
621.021183	0.001661
621.229390	0.001675
621.437578	0.001453
621.645748	0.001648
621.853900	0.001099
622.062034	0.001384
622.270150	0.001443
622.478247	0.001298
622.686326	0.001313
622.894387	0.001397
623.102430	0.001755
623.310454	0.001852
623.518461	0.001628
623.726449	0.001878
623.934418	0.002010
624.142370	0.002141
624.350303	0.002339
624.558218	0.002404
624.766115	0.002439
624.973994	0.002427
625.181855	0.002656
625.389697	0.002601
625.597521	0.002403
625.805327	0.002122
626.013114	0.002114
626.220883	0.002111
626.428634	0.002166
626.636367	0.001985
626.844082	0.001889
627.051778	0.001619
627.259457	0.001629
627.467117	0.001551
627.674758	0.001313
627.882382	0.001325
628.089987	0.001086
628.297574	0.001073
628.505143	0.001342
628.712694	0.001432
628.920226	0.001500
629.127740	0.001687
629.335236	0.001983
629.542714	0.002230
629.750174	0.002294
629.957615	0.002669
630.165038	0.002741
630.372443	0.003023
630.579829	0.003033
630.787198	0.002833
630.994548	0.002806
631.201880	0.002864
631.409194	0.002793
631.616489	0.002834
631.823766	0.002602
632.031025	0.002521
632.238266	0.002143
632.445489	0.002069
632.652693	0.002299
632.859879	0.002370
633.067047	0.002300
633.274197	0.002717
633.481329	0.002523
633.688442	0.002751
633.895537	0.002904
634.102614	0.003194
634.309672	0.002866
634.516713	0.003126
634.723735	0.003276
634.930739	0.002971
635.137724	0.002877
635.344692	0.003285
635.551641	0.002944
635.758572	0.002903
635.965485	0.002560
636.172379	0.002443
636.379256	0.001728
636.586114	0.001758
636.792954	0.002190
636.999775	0.001908
637.206579	0.001738
637.413364	0.001798
637.620131	0.001342
637.826880	0.001296
638.033610	0.001687
638.240323	0.002049
638.447017	0.002014
638.653692	0.002032
638.860350	0.002168
639.066990	0.001886
639.273611	0.001746
639.480214	0.002134
639.686798	0.002427
639.893365	0.002278
640.099913	0.002106
640.306443	0.002198
640.512955	0.002050
640.719449	0.001798
640.925924	0.001860
641.132381	0.001956
641.338820	0.001803
641.545241	0.001568
641.751644	0.001850
641.958028	0.002026
642.164394	0.002148
642.370742	0.002010
642.577071	0.002248
642.783383	0.002097
642.989676	0.001959
643.195951	0.001756
643.402207	0.001739
643.608446	0.001515
643.814666	0.001127
644.020868	0.000608
644.227052	0.000860
644.433218	0.000749
644.639365	0.000881
644.845494	0.001323
645.051605	0.001663
645.257698	0.002046
645.463772	0.002141
645.669828	0.002608
645.875866	0.002892
646.081886	0.002732
646.287888	0.002581
646.493871	0.002800
646.699836	0.002745
646.905783	0.002839
647.111712	0.002732
647.317622	0.002603
647.523514	0.002494
647.729388	0.002471
647.935244	0.002397
648.141082	0.002439
648.346901	0.002401
648.552702	0.002168
648.758485	0.002211
648.964250	0.002100
649.169996	0.002124
649.375724	0.002365
649.581434	0.002195
649.787126	0.002280
649.992800	0.002278
650.198455	0.002409
650.404092	0.002623
650.609711	0.002765
650.815311	0.002816
651.020894	0.002881
651.226458	0.002874
651.432004	0.002883
651.637532	0.002907
651.843041	0.003227
652.048532	0.003034
652.254006	0.002766
652.459460	0.002603
652.664897	0.002659
652.870315	0.002881
653.075716	0.002841
653.281097	0.002969
653.486461	0.003444
653.691807	0.003534
653.897134	0.003398
654.102443	0.003533
654.307734	0.003574
654.513006	0.003487
654.718261	0.003411
654.923497	0.003251
655.128715	0.003263
655.333915	0.003119
655.539096	0.003078
655.744259	0.003120
655.949404	0.003414
656.154531	0.003462
656.359640	0.003512
656.564730	0.003389
656.769802	0.003524
656.974856	0.003373
657.179892	0.003103
657.384909	0.002883
657.589908	0.002687
657.794889	0.002447
657.999852	0.002436
658.204797	0.002448
658.409723	0.002520
658.614631	0.002481
658.819521	0.002794
659.024393	0.002700
659.229246	0.002936
659.434081	0.003333
659.638898	0.003617
659.843697	0.003390
660.048478	0.003219
660.253240	0.003080
660.457984	0.002798
660.662710	0.002770
660.867417	0.002844
661.072107	0.002467
661.276778	0.002632
661.481431	0.002808
661.686066	0.002718
661.890682	0.002653
662.095281	0.002780
662.299861	0.003084
662.504422	0.002989
662.708966	0.003013
662.913491	0.003218
663.117999	0.003005
663.322488	0.002541
663.526958	0.002713
663.731411	0.002894
663.935845	0.002878
664.140261	0.002797
664.344659	0.002426
664.549038	0.002576
664.753400	0.002553
664.957743	0.002548
665.162068	0.002693
665.366375	0.002543
665.570663	0.002823
665.774933	0.002824
665.979185	0.002751
666.183419	0.003284
666.387635	0.003152
666.591832	0.003300
666.796011	0.003305
667.000172	0.003308
667.204315	0.003653
667.408439	0.003525
667.612545	0.003774
667.816634	0.004308
668.020703	0.004301
668.224755	0.004691
668.428788	0.004641
668.632803	0.004772
668.836800	0.004836
669.040779	0.004757
669.244739	0.004778
669.448681	0.004850
669.652605	0.004322
669.856511	0.004420
670.060399	0.004000
670.264268	0.004040
670.468119	0.003927
670.671952	0.003804
670.875767	0.003755
671.079563	0.003624
671.283341	0.003613
671.487101	0.003840
671.690843	0.003556
671.894567	0.003875
672.098272	0.003829
672.301959	0.003907
672.505628	0.004117
672.709278	0.004259
672.912911	0.004408
673.116525	0.004618
673.320121	0.004698
673.523699	0.004974
673.727258	0.004953
673.930799	0.004880
674.134322	0.004697
674.337827	0.004638
674.541314	0.004887
674.744782	0.005141
674.948232	0.004933
675.151664	0.004668
675.355078	0.004614
675.558474	0.004686
675.761851	0.004853
675.965210	0.005180
676.168551	0.005191
676.371873	0.004735
676.575178	0.004374
676.778464	0.004023
676.981732	0.004082
677.184981	0.004135
677.388213	0.004057
677.591426	0.004142
677.794621	0.003799
677.997798	0.003722
678.200956	0.003865
678.404097	0.003944
678.607219	0.004094
678.810323	0.004422
679.013408	0.004020
679.216476	0.003826
679.419525	0.003841
679.622556	0.004201
679.825569	0.004029
680.028563	0.003947
680.231540	0.003858
680.434498	0.003977
680.637438	0.004017
680.840359	0.004459
681.043263	0.004645
681.246148	0.004611
681.449015	0.004259
681.651864	0.004711
681.854694	0.005050
682.057506	0.005384
682.260301	0.005628
682.463076	0.005506
682.665834	0.005145
682.868573	0.005041
683.071295	0.004983
683.273998	0.005280
683.476682	0.005147
683.679349	0.004803
683.881997	0.004777
684.084627	0.004491
684.287239	0.004576
684.489833	0.005126
684.692408	0.005037
684.894965	0.005195
685.097504	0.005162
685.300025	0.004860
685.502527	0.004822
685.705012	0.004563
685.907478	0.004491
686.109925	0.004171
686.312355	0.004008
686.514766	0.004085
686.717159	0.003823
686.919534	0.003799
687.121891	0.004241
687.324230	0.004589
687.526550	0.004886
687.728852	0.004959
687.931136	0.005186
688.133401	0.005060
688.335649	0.005031
688.537878	0.005358
688.740089	0.005410
688.942281	0.005468
689.144456	0.005523
689.346612	0.005548
689.548750	0.005711
689.750870	0.005598
689.952971	0.005825
690.155055	0.005968
690.357120	0.005949
690.559167	0.006042
690.761195	0.005882
690.963206	0.005775
691.165198	0.005883
691.367172	0.005753
691.569128	0.006016
691.771065	0.006175
691.972984	0.006455
692.174885	0.006531
692.376768	0.006714
692.578633	0.006971
692.780479	0.006931
692.982308	0.006798
693.184118	0.006874
693.385909	0.007046
693.587683	0.006986
693.789438	0.006491
693.991175	0.006415
694.192894	0.006401
694.394595	0.006177
694.596277	0.006046
694.797941	0.006198
694.999587	0.006156
695.201215	0.005926
695.402824	0.005801
695.604416	0.005984
695.805989	0.005965
696.007543	0.005945
696.209080	0.005948
696.410598	0.006184
696.612099	0.006080
696.813580	0.006336
697.015044	0.006537
697.216490	0.006523
697.417917	0.006628
697.619326	0.006771
697.820717	0.006919
698.022089	0.007089
698.223444	0.007082
698.424780	0.007064
698.626098	0.006746
698.827397	0.006565
699.028679	0.006815
699.229942	0.006975
699.431187	0.007006
699.632414	0.006754
699.833622	0.006698
700.034813	0.006650
700.235985	0.006643
700.437139	0.006843
700.638274	0.006681
700.839392	0.006188
701.040491	0.005991
701.241572	0.005776
701.442635	0.005811
701.643679	0.005914
701.844706	0.005995
702.045714	0.006067
702.246704	0.006174
702.447675	0.006478
702.648629	0.006953
702.849564	0.007004
703.050481	0.007306
703.251380	0.007483
703.452260	0.007280
703.653122	0.007332
703.853966	0.007265
704.054792	0.007452
704.255600	0.007201
704.456389	0.006890
704.657160	0.007157
704.857913	0.007101
705.058648	0.007004
705.259365	0.007139
705.460063	0.006852
705.660743	0.006898
705.861405	0.006659
706.062048	0.006685
706.262674	0.006608
706.463281	0.006280
706.663870	0.006065
706.864441	0.005891
707.064993	0.005929
707.265527	0.005822
707.466043	0.005663
707.666541	0.005903
707.867021	0.005972
708.067482	0.006117
708.267925	0.006215
708.468350	0.006296
708.668757	0.006710
708.869145	0.006676
709.069516	0.006984
709.269868	0.007218
709.470201	0.007074
709.670517	0.007059
709.870814	0.006786
710.071093	0.006530
710.271354	0.006587
710.471597	0.006109
710.671821	0.005917
710.872028	0.005982
711.072216	0.005876
711.272385	0.005708
711.472537	0.005732
711.672670	0.005761
711.872785	0.005737
712.072882	0.005422
712.272961	0.005625
712.473021	0.005862
712.673063	0.005921
712.873087	0.006154
713.073093	0.006435
713.273081	0.006588
713.473050	0.007018
713.673001	0.007458
713.872934	0.007535
714.072849	0.007460
714.272745	0.007439
714.472623	0.007290
714.672483	0.007037
714.872325	0.006856
715.072148	0.006680
715.271954	0.006592
715.471741	0.006192
715.671509	0.006431
715.871260	0.006542
716.070992	0.006638
716.270707	0.006635
716.470403	0.006631
716.670080	0.006364
716.869740	0.006264
717.069381	0.006259
717.269004	0.006479
717.468609	0.006302
717.668195	0.006247
717.867764	0.005902
718.067314	0.006194
718.266846	0.006328
718.466360	0.006623
718.665855	0.006436
718.865332	0.006280
719.064791	0.006508
719.264232	0.006593
719.463655	0.006695
719.663059	0.006914
719.862445	0.006647
720.061813	0.006322
720.261163	0.006245
720.460494	0.006458
720.659807	0.006263
720.859102	0.005947
721.058379	0.005994
721.257638	0.005843
721.456878	0.005865
721.656100	0.005966
721.855304	0.006201
722.054490	0.006340
722.253657	0.006519
722.452806	0.007056
722.651937	0.007052
722.851050	0.007221
723.050145	0.007385
723.249221	0.007236
723.448279	0.007161
723.647319	0.006984
723.846340	0.006817
724.045344	0.006748
724.244329	0.006262
724.443296	0.006443
724.642245	0.005948
724.841175	0.005676
725.040088	0.005636
725.238982	0.005512
725.437857	0.005702
725.636715	0.005702
725.835554	0.005503
726.034376	0.005562
726.233179	0.005527
726.431963	0.005734
726.630730	0.005607
726.829478	0.005761
727.028208	0.005995
727.226920	0.005883
727.425614	0.005873
727.624289	0.005956
727.822946	0.006027
728.021585	0.005856
728.220206	0.005552
728.418808	0.005555
728.617392	0.005121
728.815958	0.004819
729.014506	0.004666
729.213036	0.004449
729.411547	0.004442
729.610040	0.004189
729.808515	0.003999
730.006972	0.004207
730.205410	0.004404
730.403831	0.004751
730.602233	0.004908
730.800616	0.005059
730.998982	0.005132
731.197329	0.005152
731.395658	0.005332
731.593969	0.005506
731.792262	0.005923
731.990536	0.005713
732.188793	0.005603
732.387031	0.005402
732.585250	0.005265
732.783452	0.005355
732.981635	0.005382
733.179800	0.005419
733.377947	0.005517
733.576076	0.004909
733.774186	0.004931
733.972278	0.004665
734.170352	0.004595
734.368408	0.004627
734.566446	0.004493
734.764465	0.004302
734.962466	0.004040
735.160449	0.004164
735.358413	0.004215
735.556360	0.004146
735.754288	0.004260
735.952198	0.004157
736.150090	0.003786
736.347963	0.003646
736.545818	0.003628
736.743655	0.003864
736.941474	0.003280
737.139275	0.003079
737.337057	0.003018
737.534821	0.002960
737.732567	0.002957
737.930295	0.003129
738.128005	0.003176
738.325696	0.003117
738.523369	0.003000
738.721024	0.002881
738.918660	0.002995
739.116279	0.002856
739.313879	0.002863
739.511461	0.002714
739.709024	0.002695
739.906570	0.002856
740.104097	0.002858
740.301606	0.002690
740.499097	0.003034
740.696569	0.002942
740.894024	0.003009
741.091460	0.003069
741.288878	0.003062
741.486277	0.003004
741.683659	0.002984
741.881022	0.002901
742.078367	0.002558
742.275694	0.002765
742.473002	0.003126
742.670293	0.003299
742.867565	0.003233
743.064819	0.003445
743.262054	0.003592
743.459272	0.003492
743.656471	0.003626
743.853652	0.004208
744.050815	0.003740
744.247959	0.003460
744.445085	0.003505
744.642194	0.003358
744.839283	0.003209
745.036355	0.003074
745.233408	0.002967
745.430444	0.002717
745.627461	0.002317
745.824459	0.002430
746.021440	0.002250
746.218402	0.001894
746.415346	0.001829
746.612272	0.001927
746.809180	0.002062
747.006069	0.002325
747.202940	0.002374
747.399793	0.002260
747.596628	0.002636
747.793444	0.002990
747.990243	0.003170
748.187023	0.003205
748.383784	0.003047
748.580528	0.002971
748.777253	0.002565
748.973960	0.002855
749.170649	0.003110
749.367320	0.002839
749.563973	0.002744
749.760607	0.002718
749.957223	0.003083
750.153821	0.002995
750.350400	0.002799
750.546962	0.002984
750.743505	0.002719
750.940030	0.002876
751.136536	0.002874
751.333025	0.002977
751.529495	0.002835
751.725947	0.002577
751.922381	0.002687
752.118796	0.002606
752.315194	0.002630
752.511573	0.002841
752.707934	0.002479
752.904276	0.002400
753.100601	0.002191
753.296907	0.002328
753.493195	0.002216
753.689465	0.002236
753.885716	0.002477
754.081949	0.002607
754.278164	0.002465
754.474361	0.002844
754.670540	0.002795
754.866700	0.002897
755.062843	0.002867
755.258967	0.003264
755.455072	0.003346
755.651160	0.003223
755.847229	0.003199
756.043280	0.003515
756.239313	0.003645
756.435328	0.003604
756.631324	0.003488
756.827302	0.003334
757.023262	0.003239
757.219204	0.003352
757.415127	0.003613
757.611033	0.003337
757.806920	0.003153
758.002788	0.002901
758.198639	0.003229
758.394471	0.003561
758.590286	0.003899
758.786081	0.003821
758.981859	0.003706
759.177619	0.003639
759.373360	0.003968
759.569083	0.004146
759.764788	0.004378
759.960474	0.004197
760.156143	0.003947
760.351793	0.003901
760.547425	0.003990
760.743038	0.003989
760.938634	0.003783
761.134211	0.003667
761.329770	0.003600
761.525311	0.003225
761.720833	0.003578
761.916338	0.003635
762.111824	0.003742
762.307292	0.003700
762.502741	0.003931
762.698173	0.004120
762.893586	0.003635
763.088981	0.003220
763.284358	0.003149
763.479716	0.002916
763.675057	0.002953
763.870379	0.002905
764.065683	0.002893
764.260968	0.002645
764.456236	0.002605
764.651485	0.003047
764.846716	0.003281
765.041929	0.003772
765.237123	0.003746
765.432299	0.003879
765.627457	0.003678
765.822597	0.003618
766.017719	0.003806
766.212822	0.003801
766.407907	0.003888
766.602974	0.004140
766.798023	0.003686
766.993054	0.003662
767.188066	0.003423
767.383060	0.003344
767.578036	0.003422
767.772993	0.003451
767.967933	0.003343
768.162854	0.003270
768.357757	0.003068
768.552642	0.003331
768.747508	0.003311
768.942356	0.003253
769.137186	0.003657
769.331998	0.003791
769.526792	0.003728
769.721567	0.004019
769.916324	0.003796
770.111063	0.004121
770.305784	0.004052
770.500486	0.004014
770.695171	0.004360
770.889837	0.004284
771.084484	0.004100
771.279114	0.004215
771.473725	0.004067
771.668318	0.004266
771.862893	0.003988
772.057450	0.003913
772.251988	0.004098
772.446509	0.003574
772.641011	0.003295
772.835494	0.003312
773.029960	0.003299
773.224407	0.003271
773.418836	0.003364
773.613247	0.003383
773.807640	0.003578
774.002014	0.003416
774.196370	0.003952
774.390708	0.004164
774.585028	0.004389
774.779330	0.004293
774.973613	0.004586
775.167878	0.004571
775.362125	0.004665
775.556354	0.004442
775.750564	0.004503
775.944756	0.004434
776.138930	0.004280
776.333086	0.004372
776.527223	0.004614
776.721343	0.004559
776.915444	0.004098
777.109526	0.004041
777.303591	0.004160
777.497637	0.004242
777.691666	0.004038
777.885676	0.004574
778.079667	0.004225
778.273641	0.004077
778.467596	0.003683
778.661533	0.004365
778.855452	0.004337
779.049352	0.004255
779.243235	0.004056
779.437099	0.004032
779.630945	0.003604
779.824773	0.003840
780.018582	0.003687
780.212373	0.003834
780.406146	0.003566
780.599901	0.003749
780.793638	0.003851
780.987356	0.004005
781.181056	0.004325
781.374738	0.004408
781.568402	0.004163
781.762047	0.004109
781.955674	0.004188
782.149283	0.004368
782.342874	0.004295
782.536447	0.004394
782.730001	0.004185
782.923537	0.003921
783.117055	0.003803
783.310555	0.003888
783.504036	0.003869
783.697499	0.003952
783.890944	0.003884
784.084371	0.003621
784.277780	0.003637
784.471170	0.003508
784.664542	0.003443
784.857896	0.003506
785.051231	0.003544
785.244549	0.003731
785.437848	0.003847
785.631129	0.003639
785.824392	0.004125
786.017636	0.003970
786.210863	0.004160
786.404071	0.004541
786.597260	0.004966
786.790432	0.004998
786.983585	0.004894
787.176721	0.004425
787.369838	0.004492
787.562936	0.004212
787.756017	0.004407
787.949079	0.004681
788.142123	0.004442
788.335149	0.004144
788.528156	0.004143
788.721146	0.004333
788.914117	0.004432
789.107070	0.004662
789.300005	0.004466
789.492921	0.004304
789.685819	0.004345
789.878699	0.004586
790.071561	0.004561
790.264405	0.004658
790.457230	0.004586
790.650037	0.004830
790.842826	0.004872
791.035597	0.005241
791.228349	0.005402
791.421084	0.005060
791.613800	0.004974
791.806497	0.004951
791.999177	0.004894
792.191838	0.004833
792.384481	0.004824
792.577106	0.004739
792.769713	0.004356
792.962301	0.004606
793.154871	0.004878
793.347423	0.004868
793.539957	0.004844
793.732473	0.004840
793.924970	0.004972
794.117449	0.005051
794.309910	0.004717
794.502353	0.004878
794.694777	0.004451
794.887183	0.004186
795.079571	0.003979
795.271941	0.003936
795.464293	0.003761
795.656626	0.003667
795.848941	0.003662
796.041238	0.004116
796.233516	0.004113
796.425777	0.004298
796.618019	0.004324
796.810243	0.004669
797.002449	0.004805
797.194636	0.005165
797.386805	0.005400
797.578956	0.005708
797.771089	0.005683
797.963204	0.005805
798.155300	0.005802
798.347378	0.006187
798.539438	0.006072
798.731480	0.006403
798.923503	0.006341
799.115509	0.006735
799.307496	0.006336
799.499465	0.006482
799.691415	0.006484
799.883348	0.006466
800.075262	0.006022
800.267158	0.006007
800.459035	0.005591
800.650895	0.005573
800.842736	0.005089
801.034559	0.005123
801.226364	0.004977
801.418150	0.004859
801.609919	0.004893
801.801669	0.005401
801.993401	0.005463
802.185114	0.005386
802.376810	0.004979
802.568487	0.004855
802.760146	0.004878
802.951787	0.004735
803.143409	0.005302
803.335014	0.005101
803.526600	0.004900
803.718168	0.005156
803.909717	0.005319
804.101249	0.005691
804.292762	0.006007
804.484257	0.005867
804.675734	0.005826
804.867192	0.005413
805.058632	0.005925
805.250054	0.005905
805.441458	0.005507
805.632844	0.005498
805.824211	0.005320
806.015561	0.005130
806.206891	0.005150
806.398204	0.005164
806.589499	0.005175
806.780775	0.004926
806.972033	0.004925
807.163273	0.005394
807.354495	0.005338
807.545698	0.005835
807.736883	0.005951
807.928050	0.006367
808.119199	0.006652
808.310329	0.006694
808.501441	0.006873
808.692535	0.007204
808.883611	0.007147
809.074669	0.007329
809.265708	0.006977
809.456729	0.007029
809.647732	0.006751
809.838717	0.006802
810.029683	0.006979
810.220632	0.006876
810.411562	0.006718
810.602474	0.006379
810.793367	0.006269
810.984242	0.006326
811.175100	0.005915
811.365938	0.006123
811.556759	0.006155
811.747562	0.006169
811.938346	0.006135
812.129112	0.006326
812.319860	0.006161
812.510589	0.006072
812.701300	0.006118
812.891994	0.006688
813.082668	0.006672
813.273325	0.006688
813.463964	0.006358
813.654584	0.006614
813.845186	0.006316
814.035769	0.006326
814.226335	0.006381
814.416882	0.006183
814.607411	0.005677
814.797922	0.005562
814.988415	0.005606
815.178889	0.005971
815.369345	0.006115
815.559783	0.006284
815.750203	0.006491
815.940605	0.006744
816.130988	0.006780
816.321353	0.007124
816.511700	0.007206
816.702028	0.006843
816.892339	0.006675
817.082631	0.006341
817.272905	0.006207
817.463161	0.006135
817.653398	0.006053
817.843617	0.006386
818.033819	0.006255
818.224001	0.006044
818.414166	0.006067
818.604312	0.005929
818.794440	0.005775
818.984550	0.005696
819.174642	0.005858
819.364716	0.005682
819.554771	0.005157
819.744808	0.005254
819.934827	0.005572
820.124827	0.005789
820.314810	0.005812
820.504774	0.006077
820.694720	0.006014
820.884647	0.005835
821.074557	0.005773
821.264448	0.006411
821.454321	0.006658
821.644176	0.006536
821.834012	0.006483
822.023831	0.006594
822.213631	0.006459
822.403413	0.006480
822.593176	0.006445
822.782922	0.006771
822.972649	0.006386
823.162358	0.006418
823.352049	0.006701
823.541721	0.006724
823.731376	0.006850
823.921012	0.006800
824.110629	0.006940
824.300229	0.006897
824.489811	0.006726
824.679374	0.006754
824.868919	0.006567
825.058445	0.006391
825.247954	0.006496
825.437444	0.006205
825.626916	0.006628
825.816370	0.006682
826.005806	0.006936
826.195223	0.007129
826.384622	0.007212
826.574003	0.006937
826.763366	0.006521
826.952711	0.006485
827.142037	0.006554
827.331345	0.005834
827.520635	0.005902
827.709906	0.006000
827.899160	0.005790
828.088395	0.005737
828.277612	0.006011
828.466810	0.006185
828.655991	0.006110
828.845153	0.006411
829.034297	0.007073
829.223423	0.006901
829.412531	0.007027
829.601620	0.007234
829.790691	0.007336
829.979744	0.007039
830.168779	0.007026
830.357795	0.006949
830.546793	0.006868
830.735773	0.006669
830.924735	0.006651
831.113679	0.006387
831.302604	0.006162
831.491511	0.006015
831.680400	0.006147
831.869271	0.006371
832.058123	0.006111
832.246957	0.006145
832.435773	0.006101
832.624571	0.006323
832.813351	0.006502
833.002112	0.006770
833.190855	0.006884
833.379580	0.006654
833.568287	0.006455
833.756975	0.006793
833.945645	0.006882
834.134297	0.006770
834.322931	0.006488
834.511547	0.006552
834.700144	0.006382
834.888723	0.006824
835.077284	0.007025
835.265826	0.007387
835.454351	0.007224
835.642857	0.007368
835.831345	0.007436
836.019815	0.007538
836.208266	0.007323
836.396699	0.007597
836.585114	0.007194
836.773511	0.007168
836.961890	0.007049
837.150250	0.007075
837.338592	0.006741
837.526916	0.006786
837.715222	0.006827
837.903510	0.006890
838.091779	0.006672
838.280030	0.006910
838.468263	0.007350
838.656477	0.007747
838.844674	0.008139
839.032852	0.008127
839.221012	0.008322
839.409153	0.008353
839.597277	0.008329
839.785382	0.008235
839.973469	0.008023
840.161538	0.007685
840.349589	0.007268
840.537621	0.006836
840.725635	0.007061
840.913631	0.006917
841.101609	0.006617
841.289568	0.006667
841.477509	0.007160
841.665432	0.007485
841.853337	0.007565
842.041224	0.007792
842.229092	0.008207
842.416942	0.008029
842.604774	0.008423
842.792588	0.009107
842.980383	0.009738
843.168160	0.009906
843.355919	0.009865
843.543660	0.010194
843.731382	0.010201
843.919087	0.009840
844.106773	0.009617
844.294441	0.009340
844.482090	0.009325
844.669722	0.008890
844.857335	0.008382
845.044930	0.008018
845.232507	0.008090
845.420065	0.008159
845.607605	0.008879
845.795127	0.009325
845.982631	0.009534
846.170117	0.009324
846.357584	0.009436
846.545033	0.009602
846.732464	0.009762
846.919877	0.009438
847.107272	0.009208
847.294648	0.008460
847.482006	0.008051
847.669346	0.007452
847.856667	0.007647
848.043971	0.007511
848.231256	0.007608
848.418523	0.007488
848.605771	0.007707
848.793002	0.007716
848.980214	0.008191
849.167408	0.008443
849.354584	0.008616
849.541742	0.008471
849.728881	0.008658
849.916002	0.008736
850.103105	0.008987
850.290190	0.008872
850.477256	0.009332
850.664304	0.009301
850.851334	0.009256
851.038346	0.009409
851.225340	0.009782
851.412315	0.009615
851.599272	0.009628
851.786211	0.009170
851.973132	0.009405
852.160034	0.008966
852.346918	0.009037
852.533784	0.009181
852.720632	0.009152
852.907462	0.008833
853.094273	0.008510
853.281066	0.008751
853.467841	0.008731
853.654598	0.008637
853.841336	0.008627
854.028056	0.008278
854.214758	0.008671
854.401442	0.008941
854.588107	0.009118
854.774755	0.009481
854.961384	0.009033
855.147995	0.009600
855.334587	0.009405
855.521162	0.009636
855.707718	0.009618
855.894256	0.009390
856.080775	0.009104
856.267277	0.009513
856.453760	0.009353
856.640225	0.009243
856.826672	0.008909
857.013101	0.009101
857.199511	0.008643
857.385903	0.009147
857.572277	0.009037
857.758633	0.009205
857.944970	0.008650
858.131290	0.008894
858.317591	0.008987
858.503873	0.009337
858.690138	0.009422
858.876384	0.009898
859.062612	0.009675
859.248822	0.009556
859.435014	0.009685
859.621188	0.010047
859.807343	0.010374
859.993480	0.010669
860.179599	0.010332
860.365699	0.010271
860.551781	0.010591
860.737846	0.011089
860.923891	0.011465
861.109919	0.011499
861.295929	0.011638
861.481920	0.011238
861.667893	0.011136
861.853848	0.011345
862.039784	0.011010
862.225702	0.010495
862.411603	0.010220
862.597484	0.010240
862.783348	0.010743
862.969193	0.010493
863.155021	0.011003
863.340830	0.011063
863.526620	0.011191
863.712393	0.011342
863.898147	0.011540
864.083883	0.011239
864.269601	0.011020
864.455301	0.010502
864.640982	0.010498
864.826645	0.010332
865.012290	0.010185
865.197917	0.010008
865.383526	0.010250
865.569116	0.010541
865.754688	0.010760
865.940242	0.010689
866.125777	0.010696
866.311295	0.010464
866.496794	0.010200
866.682275	0.010672
866.867737	0.011132
867.053182	0.011331
867.238608	0.011365
867.424016	0.011583
867.609406	0.011962
867.794778	0.012120
867.980131	0.012073
868.165466	0.012116
868.350783	0.012132
868.536082	0.011874
868.721362	0.011607
868.906625	0.011423
869.091869	0.011173
869.277094	0.011011
869.462302	0.011237
869.647491	0.011207
869.832662	0.011214
870.017815	0.010708
870.202950	0.010730
870.388066	0.010863
870.573165	0.010698
870.758245	0.010513
870.943306	0.010581
871.128350	0.010445
871.313375	0.010571
871.498382	0.010550
871.683371	0.010614
871.868342	0.010604
872.053294	0.011066
872.238229	0.011205
872.423144	0.011564
872.608042	0.011638
872.792922	0.011314
872.977783	0.011453
873.162626	0.011868
873.347451	0.012129
873.532258	0.012383
873.717046	0.011727
873.901816	0.011873
874.086568	0.011710
874.271302	0.011615
874.456017	0.011562
874.640715	0.011535
874.825394	0.010871
875.010055	0.010700
875.194697	0.010727
875.379322	0.010755
875.563928	0.010613
875.748516	0.010365
875.933085	0.009793
876.117637	0.010009
876.302170	0.010097
876.486685	0.010462
876.671182	0.010265
876.855661	0.010214
877.040121	0.010563
877.224563	0.010506
877.408987	0.010747
877.593393	0.011182
877.777780	0.011120
877.962150	0.011119
878.146501	0.011159
878.330833	0.011736
878.515148	0.011492
878.699444	0.011372
878.883722	0.011679
879.067982	0.011808
879.252224	0.011241
879.436447	0.011174
879.620653	0.011461
879.804840	0.011737
879.989008	0.011512
880.173159	0.011841
880.357291	0.011713
880.541405	0.011373
880.725501	0.011550
880.909579	0.012502
881.093638	0.013106
881.277680	0.012389
881.461703	0.011679
881.645707	0.011456
881.829694	0.011122
882.013662	0.011336
882.197612	0.011363
882.381544	0.011033
882.565458	0.011027
882.749353	0.010744
882.933230	0.010919
883.117089	0.011303
883.300930	0.011494
883.484753	0.011664
883.668557	0.011722
883.852343	0.012049
884.036111	0.012429
884.219861	0.012124
884.403592	0.012076
884.587305	0.011890
884.771000	0.011507
884.954677	0.012095
885.138335	0.012313
885.321976	0.012005
885.505598	0.011538
885.689201	0.011031
885.872787	0.010838
886.056354	0.010763
886.239904	0.011043
886.423434	0.011494
886.606947	0.010870
886.790442	0.010390
886.973918	0.010733
887.157376	0.010751
887.340816	0.011045
887.524237	0.010925
887.707641	0.010817
887.891026	0.010979
888.074393	0.010511
888.257741	0.010576
888.441072	0.010494
888.624384	0.010191
888.807678	0.010801
888.990954	0.010387
889.174211	0.010426
889.357451	0.010693
889.540672	0.010574
889.723875	0.011234
889.907059	0.010822
890.090226	0.011317
890.273374	0.011030
890.456504	0.010687
890.639616	0.011044
890.822709	0.011202
891.005785	0.010649
891.188842	0.010916
891.371881	0.010722
891.554901	0.011605
891.737904	0.011031
891.920888	0.011153
892.103854	0.011123
892.286802	0.011091
892.469731	0.011200
892.652643	0.011091
892.835536	0.010504
893.018410	0.010337
893.201267	0.009222
893.384106	0.009195
893.566926	0.009091
893.749728	0.008978
893.932511	0.009223
894.115277	0.008661
894.298024	0.009209
894.480753	0.009156
894.663464	0.009055
894.846157	0.009451
895.028831	0.009785
895.211487	0.009944
895.394125	0.010144
895.576745	0.009780
895.759346	0.010426
895.941930	0.010342
896.124495	0.010361
896.307041	0.010542
896.489570	0.010150
896.672080	0.010006
896.854573	0.009512
897.037046	0.009198
897.219502	0.009404
897.401940	0.008935
897.584359	0.008564
897.766760	0.008591
897.949143	0.008363
898.131507	0.008919
898.313854	0.008918
898.496182	0.009366
898.678492	0.009102
898.860783	0.009348
899.043057	0.009199
899.225312	0.009313
899.407549	0.009205
899.589768	0.009786
899.771968	0.009350
899.954151	0.009414
900.136315	0.009497
900.318461	0.009465
900.500588	0.008776
900.682698	0.009673
900.864789	0.010065
901.046862	0.010510
901.228917	0.009617
901.410953	0.009726
901.592971	0.010186
901.774972	0.010355
901.956953	0.010995
902.138917	0.011388
902.320862	0.010913
902.502790	0.010676
902.684699	0.010681
902.866589	0.010829
903.048462	0.010906
903.230316	0.010891
903.412152	0.010673
903.593970	0.010868
903.775770	0.010582
903.957551	0.010483
904.139314	0.010348
904.321059	0.010009
904.502786	0.009950
904.684494	0.010262
904.866185	0.010126
905.047857	0.010495
905.229510	0.009881
905.411146	0.009858
905.592763	0.010318
905.774363	0.010329
905.955943	0.010677
906.137506	0.010455
906.319051	0.010308
906.500577	0.009837
906.682085	0.009416
906.863575	0.009102
907.045046	0.009395
907.226500	0.008843
907.407935	0.008555
907.589352	0.008284
907.770750	0.008302
907.952131	0.007944
908.133493	0.008244
908.314837	0.007742
908.496163	0.007918
908.677470	0.007109
908.858760	0.007062
909.040031	0.007517
909.221284	0.007731
909.402518	0.007718
909.583735	0.007637
909.764933	0.007595
909.946113	0.007898
910.127275	0.007905
910.308418	0.008467
910.489544	0.008509
910.670651	0.008022
910.851740	0.007311
911.032810	0.007466
911.213863	0.007799
911.394897	0.007367
911.575913	0.007283
911.756911	0.007272
911.937890	0.007266
912.118851	0.006846
912.299794	0.006703
912.480719	0.007108
912.661626	0.007145
912.842514	0.006950
913.023384	0.007017
913.204236	0.007600
913.385070	0.007855
913.565886	0.007901
913.746683	0.008304
913.927462	0.009337
914.108223	0.009321
914.288965	0.009903
914.469690	0.010113
914.650396	0.010615
914.831084	0.010340
915.011754	0.010229
915.192405	0.010004
915.373038	0.009754
915.553653	0.008989
915.734250	0.008845
915.914829	0.008764
916.095389	0.008732
916.275931	0.008434
916.456455	0.008249
916.636961	0.007722
916.817448	0.007811
916.997917	0.007867
917.178368	0.007726
917.358801	0.007865
917.539216	0.007283
917.719612	0.007146
917.899990	0.006564
918.080350	0.006707
918.260692	0.006766
918.441015	0.006528
918.621320	0.006071
918.801607	0.005986
918.981876	0.006217
919.162127	0.006230
919.342359	0.006907
919.522573	0.006965
919.702769	0.006694
919.882947	0.006809
920.063106	0.007373
920.243247	0.007155
920.423370	0.008244
920.603475	0.007913
920.783562	0.007821
920.963630	0.007122
921.143680	0.007230
921.323712	0.007499
921.503725	0.007977
921.683721	0.007219
921.863698	0.008644
922.043657	0.007441
922.223598	0.006952
922.403520	0.006682
922.583424	0.006110
922.763311	0.006588
922.943178	0.005892
923.123028	0.005472
923.302859	0.005898
923.482673	0.004592
923.662467	0.004565
923.842244	0.005096
924.022003	0.004917
924.201743	0.005166
924.381465	0.004530
924.561169	0.005017
924.740854	0.004942
924.920522	0.003985
925.100171	0.004470
925.279802	0.004362
925.459414	0.004149
925.639009	0.003487
925.818585	0.002868
925.998143	0.003539
926.177683	0.002600
926.357205	0.002638
926.536708	0.003430
926.716193	0.003446
926.895660	0.003285
927.075109	0.002424
927.254539	0.003262
927.433951	0.002937
927.613345	0.001801
927.792721	0.001524
927.972079	0.001144
928.151418	0.000738
928.330739	0.000174
928.510042	0.000516
928.689327	0.001106
928.868593	0.000992
929.047841	0.001062
929.227071	0.001621
929.406283	0.002413
929.585476	0.002036
929.764652	0.002247
929.943809	0.002316
930.122948	0.001290
930.302068	0.000843
930.481171	0.000673
930.660255	0.001239
930.839321	0.000830
931.018369	0.000262
931.197398	0.000255
931.376409	-0.000381
931.555402	-0.001156
931.734377	-0.001316
931.913334	-0.001907
932.092272	-0.002351
932.271192	-0.002584
932.450094	-0.003295
932.628978	-0.001937
932.807844	-0.002073
932.986691	-0.002312
933.165520	-0.002495
933.344331	-0.001976
933.523123	-0.001523
933.701898	-0.001444
933.880654	-0.001933
934.059392	-0.001419
934.238111	-0.002508
934.416813	-0.002632
934.595496	-0.003129
934.774161	-0.002954
934.952808	-0.002649
935.131437	-0.002566
935.310047	-0.003431
935.488639	-0.003818
935.667213	-0.004725
935.845769	-0.005233
936.024306	-0.005319
936.202825	-0.005869
936.381326	-0.006503
936.559809	-0.006828
936.738274	-0.007736
936.916720	-0.007579
937.095148	-0.007420
937.273558	-0.007659
937.451950	-0.007563
937.630323	-0.007448
937.808678	-0.006400
937.987015	-0.005768
938.165334	-0.006200
938.343635	-0.004820
938.521917	-0.004880
938.700181	-0.004746
938.878427	-0.004193
939.056655	-0.004272
939.234864	-0.004970
939.413055	-0.004734
939.591228	-0.004721
939.769383	-0.005375
939.947519	-0.004971
940.125638	-0.003208
940.303738	-0.004300
940.481820	-0.005060
940.659883	-0.005381
940.837929	-0.004931
941.015956	-0.005632
941.193965	-0.005210
941.371955	-0.005040
941.549928	-0.006692
941.727882	-0.008594
941.905818	-0.008562
942.083736	-0.008245
942.261636	-0.007783
942.439517	-0.009113
942.617380	-0.009784
942.795225	-0.010799
942.973052	-0.012253
943.150860	-0.013471
943.328651	-0.013401
943.506423	-0.012468
943.684176	-0.014015
943.861912	-0.014616
944.039629	-0.014751
944.217328	-0.013867
944.395009	-0.013868
944.572672	-0.011384
944.750317	-0.008965
944.927943	-0.008913
945.105551	-0.009677
945.283141	-0.009360
945.460712	-0.010087
945.638265	-0.007931
945.815801	-0.007216
945.993317	-0.005914
946.170816	-0.008234
946.348297	-0.009788
946.525759	-0.011061
946.703203	-0.009628
946.880629	-0.007241
947.058036	-0.008434
947.235425	-0.009148
947.412797	-0.009620
947.590149	-0.012275
947.767484	-0.012753
947.944800	-0.010580
948.122099	-0.009475
948.299379	-0.009253
948.476640	-0.009867
948.653884	-0.007196
948.831109	-0.008559
949.008316	-0.010406
949.185505	-0.006737
949.362676	-0.006626
949.539828	-0.008905
949.716962	-0.007585
949.894078	-0.011583
950.071176	-0.014121
950.248256	-0.017226
950.425317	-0.016229
950.602360	-0.014745
950.779385	-0.017049
950.956391	-0.015650
951.133380	-0.014921
951.310350	-0.017584
951.487302	-0.014571
951.664235	-0.013415
951.841151	-0.014486
952.018048	-0.015901
952.194927	-0.017690
952.371788	-0.018182
952.548631	-0.020191
952.725455	-0.023573
952.902261	-0.022097
953.079049	-0.020053
953.255819	-0.017173
953.432570	-0.016195
953.609303	-0.016570
953.786018	-0.015403
953.962715	-0.014773
954.139394	-0.012726
954.316054	-0.010608
954.492696	-0.010037
954.669320	-0.010053
954.845926	-0.016114
955.022513	-0.013565
955.199083	-0.011017
955.375634	-0.014304
955.552166	-0.015038
955.728681	-0.013435
955.905177	-0.015920
956.081655	-0.015191
956.258115	-0.019120
956.434557	-0.011001
956.610980	-0.013944
956.787385	-0.017014
956.963772	-0.014933
957.140141	-0.012683
957.316492	-0.011746
957.492824	-0.011768
957.669138	-0.014915
957.845434	-0.011904
958.021712	-0.014879
958.197971	-0.010794
958.374212	-0.007040
958.550435	-0.006438
958.726640	-0.007288
958.902826	-0.008322
959.078995	-0.006343
959.255145	-0.006066
959.431277	-0.007062
959.607390	-0.008351
959.783486	-0.009545
959.959563	-0.007719
960.135622	-0.008852
960.311662	-0.008057
960.487685	-0.009944
960.663689	-0.007497
960.839675	-0.003901
961.015643	-0.005730
961.191593	-0.004109
961.367524	-0.002453
961.543437	-0.008199
961.719332	-0.006736
961.895209	-0.012068
962.071067	-0.007383
962.246907	-0.008082
962.422730	-0.010395
962.598533	-0.010433
962.774319	-0.013527
962.950086	-0.012321
963.125835	-0.011332
963.301566	-0.013792
963.477279	-0.009399
963.652973	-0.010488
963.828650	-0.012160
964.004308	-0.014666
964.179947	-0.014318
964.355569	-0.013120
964.531172	-0.013884
964.706757	-0.011998
964.882324	-0.008449
965.057873	-0.006868
965.233403	-0.010305
965.408916	-0.007627
965.584410	-0.000469
965.759885	0.000045
965.935343	-0.001023
966.110782	-0.000698
966.286203	0.002534
966.461606	-0.000518
966.636991	-0.005394
966.812357	-0.008114
966.987705	-0.013598
967.163035	-0.015732
967.338347	-0.015464
967.513641	-0.011188
967.688916	-0.016878
967.864173	-0.013346
968.039412	-0.010914
968.214632	-0.009143
968.389835	-0.000410
968.565019	0.001850
968.740185	0.000756
968.915333	-0.000553
969.090462	-0.004224
969.265573	-0.000895
969.440667	-0.008736
969.615741	-0.007668
969.790798	-0.007046
969.965836	-0.013123
970.140856	-0.011224
970.315858	-0.007133
970.490842	-0.004368
970.665808	-0.002411
970.840755	-0.002831
971.015684	-0.000263
971.190595	0.001615
971.365487	0.000867
971.540362	0.002689
971.715218	0.001432
971.890056	-0.003490
972.064875	-0.004201
972.239677	-0.001428
972.414460	-0.002352
972.589225	-0.005094
972.763972	-0.006418
972.938700	-0.004685
973.113411	-0.002389
973.288103	-0.003605
973.462777	-0.001685
973.637432	-0.002391
973.812070	-0.006116
973.986689	-0.003795
974.161290	-0.001868
974.335873	-0.002220
974.510437	-0.002061
974.684984	-0.004129
974.859512	0.000739
975.034022	-0.004674
975.208513	-0.005936
975.382987	-0.008709
975.557442	-0.006155
975.731879	-0.006819
975.906298	-0.007730
976.080698	-0.008323
976.255080	-0.005551
976.429445	-0.010485
976.603790	-0.006000
976.778118	-0.003157
976.952427	0.004408
977.126719	-0.001253
977.300992	-0.005209
977.475246	-0.006214
977.649483	-0.004616
977.823701	-0.004951
977.997901	-0.001290
978.172083	-0.003028
978.346247	-0.000523
978.520392	-0.004712
978.694519	-0.001584
978.868628	0.006182
979.042719	0.009405
979.216791	0.005195
979.390845	0.002590
979.564882	0.000802
979.738899	0.006120
979.912899	0.002130
980.086880	0.003895
980.260843	0.002255
980.434788	-0.002159
980.608715	-0.006686
980.782623	-0.007493
980.956514	-0.002573
981.130386	-0.000375
981.304240	-0.004492
981.478075	-0.006972
981.651892	-0.007392
981.825692	-0.009223
981.999472	-0.004977
982.173235	-0.002809
982.346980	-0.001774
982.520706	-0.007299
982.694414	-0.006583
982.868104	-0.006322
983.041775	0.000892
983.215428	0.000879
983.389064	0.003637
983.562680	-0.002093
983.736279	0.002929
983.909860	0.007869
984.083422	0.006955
984.256966	0.006169
984.430491	0.007389
984.603999	0.001782
984.777488	0.003614
984.950959	0.003808
985.124412	0.007172
985.297847	0.001467
985.471263	-0.006996
985.644661	-0.004556
985.818041	-0.008259
985.991403	-0.012301
986.164747	-0.011041
986.338072	-0.011765
986.511379	-0.012463
986.684668	-0.012838
986.857938	-0.013698
987.031191	-0.008316
987.204425	-0.007911
987.377641	-0.005975
987.550839	-0.000839
987.724018	0.001032
987.897179	-0.001205
988.070322	0.000211
988.243447	0.000397
988.416554	0.001076
988.589642	0.001418
988.762712	-0.000668
988.935764	-0.003177
989.108798	-0.005928
989.281813	-0.006913
989.454811	-0.004548
989.627790	-0.006737
989.800751	-0.009958
989.973693	-0.008141
990.146617	-0.007822
990.319524	-0.005221
990.492412	-0.005004
990.665281	-0.003220
990.838133	-0.001471
991.010966	-0.003441
991.183781	-0.002022
991.356578	-0.000416
991.529356	-0.002480
991.702117	-0.005398
991.874859	-0.008117
992.047583	-0.004657
992.220288	-0.006046
992.392976	-0.007834
992.565645	-0.005998
992.738296	-0.004698
992.910929	-0.003717
993.083543	-0.005102
993.256139	-0.001508
993.428718	-0.000852
993.601277	0.001083
993.773819	0.001899
993.946342	0.005172
994.118848	0.003158
994.291335	0.001368
994.463803	0.001185
994.636254	0.003944
994.808686	0.004605
994.981100	0.004286
995.153496	0.000828
995.325874	-0.000788
995.498233	-0.004586
995.670574	-0.005172
995.842897	-0.003499
996.015202	-0.002370
996.187488	-0.002315
996.359757	-0.002573
996.532007	-0.001674
996.704239	-0.001527
996.876452	-0.001011
997.048648	-0.001718
997.220825	-0.002115
997.392984	-0.004861
997.565124	-0.007696
997.737247	-0.005540
997.909351	-0.003058
998.081437	-0.002128
998.253505	-0.000956
998.425554	-0.000098
998.597586	0.002840
998.769599	0.003949
998.941594	0.002969
999.113571	0.003259
999.285529	0.003040
999.457469	-0.003576
999.629391	-0.005180
999.801295	-0.005370
999.973181	-0.002369
1000.145048	-0.003729
1000.316897	-0.002043
1000.488728	0.000603
1000.660541	0.004677
1000.832335	0.003500
1001.004111	0.006360
1001.175869	0.004491
1001.347609	0.005037
1001.519331	0.001131
1001.691034	-0.001749
1001.862719	-0.002195
1002.034386	-0.006159
1002.206035	-0.009165
1002.377665	-0.013275
1002.549277	-0.016318
1002.720871	-0.015454
1002.892447	-0.016784
1003.064004	-0.015133
1003.235544	-0.013786
1003.407065	-0.016142
1003.578568	-0.013095
1003.750052	-0.013228
1003.921519	-0.009870
1004.092967	-0.009293
1004.264397	-0.007913
1004.435809	-0.008206
1004.607202	-0.008515
1004.778577	-0.007608
1004.949934	-0.002820
1005.121273	-0.005322
1005.292594	-0.005044
1005.463896	-0.005754
1005.635180	-0.001219
1005.806446	-0.004660
1005.977694	-0.000405
1006.148923	-0.002240
1006.320135	-0.000817
1006.491328	-0.001021
1006.662503	0.000612
1006.833659	-0.000020
1007.004798	-0.000323
1007.175918	-0.004616
1007.347020	-0.003371
1007.518103	-0.008825
1007.689169	-0.004939
1007.860216	-0.007163
1008.031245	-0.009229
1008.202256	-0.008812
1008.373248	-0.009654
1008.544223	-0.010181
1008.715179	-0.008580
1008.886117	-0.006947
1009.057036	-0.005800
1009.227938	-0.009881
1009.398821	-0.007745
1009.569686	-0.010179
1009.740533	-0.011575
1009.911361	-0.008932
1010.082172	-0.006357
1010.252964	-0.005992
1010.423738	-0.005436
1010.594493	-0.007874
1010.765231	-0.004454
1010.935950	-0.007766
1011.106651	-0.005083
1011.277334	-0.003828
1011.447998	-0.002997
1011.618645	-0.004274
1011.789273	-0.005446
1011.959882	-0.003744
1012.130474	-0.002069
1012.301048	-0.002020
1012.471603	-0.001025
1012.642140	-0.003308
1012.812658	-0.003658
1012.983159	-0.004479
1013.153641	-0.002879
1013.324105	-0.000582
1013.494551	-0.001665
1013.664979	-0.000120
1013.835388	0.000088
1014.005779	0.000015
1014.176152	0.002282
1014.346507	0.001585
1014.516843	0.001756
1014.687162	0.001850
1014.857462	0.003095
1015.027744	0.001319
1015.198007	0.004677
1015.368252	0.006461
1015.538480	0.008530
1015.708689	0.005290
1015.878879	0.004899
1016.049052	0.002780
1016.219206	0.002334
1016.389342	0.001779
1016.559460	0.002156
1016.729559	-0.002870
1016.899641	-0.005988
1017.069704	-0.004953
1017.239749	-0.004057
1017.409775	-0.002014
1017.579784	-0.000708
1017.749774	-0.000816
1017.919746	-0.002674
1018.089700	-0.002903
1018.259635	-0.001531
1018.429553	-0.003466
1018.599452	-0.006020
1018.769333	-0.006660
1018.939195	-0.005376
1019.109040	-0.005058
1019.278866	-0.008412
1019.448674	-0.007191
1019.618464	-0.007958
1019.788235	-0.004968
1019.957989	-0.006881
1020.127724	-0.005070
1020.297441	-0.005710
1020.467139	-0.006489
1020.636820	-0.005984
1020.806482	-0.004603
1020.976126	-0.005636
1021.145752	-0.007557
1021.315359	-0.008354
1021.484948	-0.005977
1021.654519	-0.008333
1021.824072	-0.002226
1021.993607	-0.003410
1022.163123	-0.005174
1022.332621	-0.002151
1022.502101	-0.000952
1022.671563	0.002998
1022.841007	0.000365
1023.010432	0.004141
1023.179839	0.007006
1023.349228	0.005630
1023.518598	0.008712
1023.687951	0.007213
1023.857285	0.005982
1024.026601	0.004149
1024.195899	0.003652
1024.365178	0.005223
1024.534439	0.001666
1024.703682	-0.001741
1024.872907	-0.003742
1025.042114	-0.007070
1025.211302	-0.006785
1025.380472	-0.007643
1025.549624	-0.007843
1025.718758	-0.008853
1025.887873	-0.007356
1026.056970	-0.005730
1026.226049	-0.003190
1026.395110	-0.004769
1026.564153	-0.004329
1026.733177	0.000634
1026.902183	0.002364
1027.071171	0.002926
1027.240141	0.004236
1027.409092	0.005547
1027.578026	0.003461
1027.746940	0.002083
1027.915837	0.004326
1028.084716	0.006146
1028.253576	0.003690
1028.422418	0.002268
1028.591242	-0.000611
1028.760048	0.001147
1028.928835	-0.002308
1029.097604	-0.000753
1029.266355	-0.002180
1029.435088	-0.003619
1029.603803	-0.002422
1029.772499	-0.002991
1029.941177	-0.003391
1030.109837	-0.003918
1030.278478	-0.004753
1030.447102	-0.004852
1030.615707	-0.005097
1030.784294	-0.002371
1030.952863	-0.001644
1031.121413	-0.004051
1031.289945	-0.003690
1031.458460	-0.002674
1031.626955	0.001824
1031.795433	-0.000384
1031.963892	-0.000752
1032.132334	-0.002177
1032.300756	0.000289
1032.469161	-0.000280
1032.637548	0.001748
1032.805916	0.000667
1032.974266	-0.000654
1033.142598	-0.000944
1033.310911	0.002230
1033.479207	0.004031
1033.647484	0.005085
1033.815743	0.002773
1033.983983	0.001877
1034.152206	-0.001390
1034.320410	-0.002688
1034.488596	-0.002899
1034.656764	-0.002605
1034.824914	-0.003921
1034.993045	-0.006923
1035.161158	-0.005512
1035.329253	-0.006553
1035.497330	-0.005067
1035.665388	-0.003411
1035.833428	-0.001618
1036.001450	0.002611
1036.169454	0.000423
1036.337440	-0.001229
1036.505407	0.002851
1036.673356	0.001190
1036.841287	-0.000249
1037.009200	-0.004312
1037.177094	-0.004638
1037.344970	-0.006379
1037.512828	-0.009942
1037.680668	-0.009177
1037.848489	-0.008782
1038.016293	-0.009656
1038.184078	-0.008511
1038.351845	-0.008402
1038.519593	-0.001589
1038.687324	-0.002934
1038.855036	0.001785
1039.022730	0.005811
1039.190406	0.009518
1039.358063	0.007814
1039.525702	0.004908
1039.693323	0.004604
1039.860926	0.009306
1040.028511	0.005181
1040.196077	0.005989
1040.363625	0.004660
1040.531155	0.001491
1040.698667	-0.004581
1040.866161	-0.002485
1041.033636	0.001209
1041.201093	0.000556
1041.368532	-0.003247
1041.535952	-0.004509
1041.703355	-0.005452
1041.870739	-0.007043
1042.038105	-0.006978
1042.205452	-0.003502
1042.372782	-0.005885
1042.540093	-0.005731
1042.707386	-0.004865
1042.874661	-0.001755
1043.041918	0.001145
1043.209156	0.004317
1043.376376	0.002091
1043.543578	0.002780
1043.710762	0.001773
1043.877927	0.000224
1044.045074	-0.001728
1044.212203	-0.001156
1044.379314	-0.004097
1044.546407	-0.002091
1044.713481	-0.004686
1044.880537	0.000898
1045.047575	-0.000278
1045.214595	-0.001435
1045.381596	0.004976
1045.548579	0.005304
1045.715544	0.005017
1045.882491	0.004073
1046.049420	0.002568
1046.216330	0.002640
1046.383222	-0.001438
1046.550096	-0.000087
1046.716951	0.002607
1046.883789	0.000091
1047.050608	0.001720
1047.217409	-0.002474
1047.384192	-0.000902
1047.550956	0.000011
1047.717703	0.002068
1047.884431	0.008708
1048.051140	0.008073
1048.217832	0.007411
1048.384505	0.011491
1048.551161	0.010506
1048.717798	0.011370
1048.884416	0.012949
1049.051017	0.013071
1049.217599	0.011912
1049.384163	0.003052
1049.550709	0.006718
1049.717237	0.006684
1049.883746	0.003807
1050.050237	0.000723
1050.216710	0.001222
1050.383165	0.002445
1050.549601	-0.003280
1050.716019	-0.003690
1050.882420	0.000615
1051.048801	-0.003765
1051.215165	-0.006134
1051.381510	-0.008439
1051.547837	-0.008909
1051.714146	-0.003656
1051.880437	-0.006023
1052.046709	-0.004500
1052.212964	-0.004278
1052.379200	-0.004765
1052.545417	-0.005601
1052.711617	-0.002062
1052.877798	-0.002168
1053.043961	0.000359
1053.210106	-0.003298
1053.376233	-0.004595
1053.542341	-0.005824
1053.708432	-0.005690
1053.874504	-0.006431
1054.040557	-0.007144
1054.206593	-0.004298
1054.372610	-0.001146
1054.538609	0.001050
1054.704590	-0.002010
1054.870553	-0.000278
1055.036497	0.001647
1055.202424	0.002286
1055.368331	0.003903
1055.534221	0.007205
1055.700093	0.003580
1055.865946	0.002720
1056.031781	0.001518
1056.197598	0.002403
1056.363397	0.000037
1056.529177	0.002039
1056.694939	0.002106
1056.860683	0.001288
1057.026409	0.001321
1057.192116	-0.002250
1057.357806	-0.001312
1057.523477	0.000636
1057.689130	0.001524
1057.854764	0.006898
1058.020381	0.008268
1058.185979	0.004520
1058.351559	-0.001883
1058.517120	-0.002686
1058.682664	0.002258
1058.848189	0.003641
1059.013696	-0.001751
1059.179185	-0.002742
1059.344656	-0.010222
1059.510108	-0.011320
1059.675542	-0.010777
1059.840958	-0.001578
1060.006356	-0.001410
1060.171735	-0.005339
1060.337096	-0.006966
1060.502439	-0.004317
1060.667764	-0.000528
1060.833071	0.001385
1060.998359	-0.003088
1061.163629	0.000088
1061.328881	-0.006618
1061.494115	-0.007682
1061.659330	-0.005157
1061.824527	-0.007912
1061.989706	-0.008352
1062.154867	-0.014280
1062.320010	-0.010725
1062.485134	-0.007506
1062.650240	-0.005486
1062.815328	-0.002141
1062.980398	-0.001426
1063.145449	-0.003067
1063.310482	-0.006457
1063.475497	-0.006617
1063.640494	-0.004369
1063.805473	-0.004174
1063.970433	-0.005172
1064.135375	-0.008704
1064.300299	-0.008235
1064.465204	-0.011167
1064.630092	-0.012481
1064.794961	-0.009475
1064.959812	-0.008462
1065.124645	-0.007702
1065.289459	-0.011998
1065.454256	-0.013442
1065.619034	-0.015240
1065.783793	-0.016558
1065.948535	-0.017132
1066.113258	-0.016548
1066.277964	-0.014597
1066.442651	-0.013152
1066.607319	-0.013696
1066.771970	-0.008126
1066.936602	-0.004261
1067.101216	-0.000800
1067.265812	-0.004386
1067.430389	-0.003682
1067.594949	-0.006233
1067.759490	-0.004895
1067.924013	-0.007068
1068.088518	-0.001704
1068.253004	-0.008185
1068.417472	-0.008721
1068.581922	-0.010881
1068.746354	-0.007309
1068.910768	-0.008653
1069.075163	-0.004917
1069.239540	-0.011826
1069.403899	-0.013591
1069.568240	-0.021269
1069.732562	-0.014995
1069.896866	-0.012939
1070.061152	-0.011489
1070.225420	-0.006972
1070.389670	-0.006415
1070.553901	-0.008073
1070.718114	-0.004995
1070.882309	-0.003459
1071.046486	-0.001625
1071.210644	-0.002145
1071.374784	-0.002619
1071.538906	-0.003349
1071.703010	-0.004984
1071.867096	0.000119
1072.031163	-0.000397
1072.195212	0.001364
1072.359243	0.003981
1072.523256	0.003128
1072.687250	0.000594
1072.851226	-0.002766
1073.015184	0.004047
1073.179124	0.003316
1073.343045	-0.002819
1073.506949	-0.001972
1073.670834	-0.006056
1073.834701	-0.007750
1073.998549	-0.007631
1074.162380	-0.012415
1074.326192	-0.009166
1074.489986	-0.014552
1074.653761	-0.016850
1074.817519	-0.016129
1074.981258	-0.014049
1075.144979	-0.011867
1075.308682	-0.017405
1075.472367	-0.008243
1075.636033	-0.007161
1075.799681	-0.013696
1075.963311	-0.015260
1076.126923	-0.012390
1076.290516	-0.009155
1076.454092	-0.009635
1076.617649	-0.015147
1076.781187	-0.008363
1076.944708	-0.011999
1077.108210	-0.003517
1077.271695	-0.002970
1077.435160	-0.006464
1077.598608	-0.013986
1077.762038	-0.016466
1077.925449	-0.018375
1078.088842	-0.011174
1078.252217	-0.013469
1078.415573	-0.015881
1078.578912	-0.024873
1078.742232	-0.019529
1078.905534	-0.015391
1079.068817	-0.012041
1079.232083	-0.012208
1079.395330	-0.013541
1079.558559	-0.013038
1079.721770	-0.015754
1079.884962	-0.017004
1080.048136	-0.015151
1080.211293	-0.016924
1080.374430	-0.014768
1080.537550	-0.017884
1080.700651	-0.014679
1080.863735	-0.013279
1081.026800	-0.010600
1081.189846	-0.010785
1081.352875	-0.004078
1081.515885	0.002452
1081.678877	0.000948
1081.841851	-0.002533
1082.004807	0.000519
1082.167744	-0.003824
1082.330663	-0.003802
1082.493564	-0.011028
1082.656447	-0.016536
1082.819312	-0.017779
1082.982158	-0.027318
1083.144986	-0.024045
1083.307796	-0.028740
1083.470587	-0.026199
1083.633361	-0.023975
1083.796116	-0.017668
1083.958853	-0.017411
1084.121571	-0.011284
1084.284272	-0.012012
1084.446954	-0.009052
1084.609618	-0.016104
1084.772264	-0.013638
1084.934892	-0.016753
1085.097501	-0.016991
1085.260092	-0.017427
1085.422665	-0.007035
1085.585220	0.000306
1085.747756	0.001410
1085.910274	0.005890
1086.072774	0.012774
1086.235256	0.015845
1086.397720	0.022505
1086.560165	0.023972
1086.722592	0.017093
1086.885001	0.008586
1087.047392	0.002534
1087.209764	-0.010941
1087.372119	-0.016497
1087.534455	-0.019433
1087.696772	-0.017914
1087.859072	-0.019874
1088.021353	-0.016654
1088.183616	-0.012764
1088.345861	-0.012668
1088.508088	-0.012522
1088.670296	0.001495
1088.832486	0.008388
1088.994658	0.013780
1089.156812	0.012548
1089.318948	0.009561
1089.481065	0.006310
1089.643164	0.002980
1089.805245	0.004328
1089.967308	0.003927
1090.129352	-0.000402
1090.291378	0.000848
1090.453386	-0.003188
1090.615376	-0.002492
1090.777347	-0.004462
1090.939301	-0.011603
1091.101236	-0.002529
1091.263153	-0.003045
1091.425051	-0.001644
1091.586932	-0.007840
1091.748794	-0.013444
1091.910638	-0.010032
1092.072463	-0.013399
1092.234271	-0.009102
1092.396060	-0.004672
1092.557831	-0.012303
1092.719584	-0.011363
1092.881319	-0.008925
1093.043035	0.005647
1093.204733	0.005873
1093.366413	0.001901
1093.528075	0.007253
1093.689718	0.002511
1093.851343	0.011907
1094.012950	0.016656
1094.174539	0.018771
1094.336110	0.021492
1094.497662	0.016108
1094.659196	0.015004
1094.820712	0.012697
1094.982210	0.012403
1095.143689	0.014804
1095.305151	0.003607
1095.466594	0.003465
1095.628018	0.004768
1095.789425	0.000957
1095.950813	-0.003775
1096.112183	-0.001448
1096.273535	-0.002814
1096.434869	-0.002082
1096.596184	-0.003514
1096.757482	0.006850
1096.918761	-0.004056
1097.080021	-0.003260
1097.241264	-0.006483
1097.402488	-0.006142
1097.563694	-0.017818
1097.724882	-0.014990
1097.886052	-0.018556
1098.047203	-0.011759
1098.208336	-0.021287
1098.369451	-0.018495
1098.530548	-0.012735
1098.691627	-0.013529
1098.852687	-0.011083
1099.013729	-0.003211
1099.174753	-0.005294
1099.335758	0.001183
1099.496746	-0.001520
1099.657715	0.008062
1099.818666	0.019741
1099.979599	0.012731
1100.140513	0.017443
1100.301409	0.023191
1100.462287	0.033590
1100.623147	0.039884
1100.783989	0.029536
1100.944812	0.020669
1101.105617	0.012122
1101.266404	0.006886
1101.427173	0.003566
1101.587923	-0.004576
1101.748656	-0.014628
1101.909370	-0.012488
1102.070066	-0.027456
1102.230743	-0.024144
1102.391403	-0.023723
1102.552044	-0.026423
1102.712667	-0.026681
1102.873271	-0.022289
1103.033858	-0.010856
1103.194426	-0.013357
1103.354976	-0.022540
1103.515508	-0.011084
1103.676021	-0.016722
1103.836517	-0.012356
1103.996994	-0.005617
1104.157453	-0.000190
1104.317893	-0.003858
1104.478316	-0.016319
1104.638720	-0.012598
1104.799106	-0.009613
1104.959474	-0.005581
1105.119823	0.005512
1105.280155	0.008719
1105.440468	0.006079
1105.600763	-0.005478
1105.761039	-0.012710
1105.921298	-0.013833
1106.081538	-0.015163
1106.241760	-0.023978
1106.401964	-0.024537
1106.562149	-0.024989
1106.722316	-0.028532
1106.882465	-0.033034
1107.042596	-0.029699
1107.202709	-0.023128
1107.362803	-0.011833
1107.522879	-0.004332
1107.682937	-0.001006
1107.842977	-0.005090
1108.002999	-0.013054
1108.163002	-0.007693
1108.322987	-0.006816
1108.482954	-0.006164
1108.642902	-0.011444
1108.802833	-0.017878
1108.962745	-0.033403
1109.122639	-0.036439
1109.282515	-0.038628
1109.442372	-0.030605
1109.602211	-0.032076
1109.762032	-0.024937
1109.921835	-0.021144
1110.081620	-0.026520
1110.241386	-0.024082
1110.401134	-0.017835
1110.560864	-0.012669
1110.720576	-0.014087
1110.880269	-0.010448
1111.039945	-0.013382
1111.199602	-0.013714
1111.359240	-0.014985
1111.518861	-0.004444
1111.678463	-0.002444
1111.838047	0.004986
1111.997613	0.015408
1112.157161	0.019951
1112.316690	0.000304
1112.476202	-0.011749
1112.635695	-0.026243
1112.795169	-0.026990
1112.954626	-0.029130
1113.114064	-0.041354
1113.273484	-0.041155
1113.432886	-0.041879
1113.592270	-0.047651
1113.751635	-0.035728
1113.910983	-0.024499
1114.070312	-0.007677
1114.229622	-0.008667
1114.388915	-0.007732
1114.548189	0.003477
1114.707445	0.000008
1114.866683	-0.017985
1115.025903	-0.008405
1115.185104	0.013173
1115.344287	0.014673
1115.503452	0.019606
1115.662599	0.018383
1115.821727	0.036216
1115.980838	0.039813
1116.139930	0.043791
1116.299004	0.056467
1116.458059	0.048786
1116.617097	0.037129
1116.776116	0.039760
1116.935117	0.038970
1117.094099	0.039090
1117.253064	0.024994
1117.412010	0.010371
1117.570938	0.021895
1117.729848	0.029303
1117.888740	0.023167
1118.047613	0.015610
1118.206468	0.011324
1118.365305	0.008997
1118.524124	0.010047
1118.682924	0.007018
1118.841707	0.029841
1119.000471	0.007776
1119.159216	-0.004893
1119.317944	-0.000106
1119.476653	-0.025562
1119.635344	-0.024908
1119.794017	-0.033866
1119.952672	-0.044605
1120.111308	-0.043469
1120.269927	-0.054334
1120.428527	-0.039640
1120.587108	-0.049082
1120.745672	-0.037434
1120.904217	-0.019908
1121.062744	-0.012054
1121.221253	-0.005611
1121.379744	0.011926
1121.538216	0.011215
1121.696671	0.006708
1121.855107	-0.014180
1122.013524	0.003634
1122.171924	-0.003369
1122.330305	-0.010615
1122.488668	-0.016612
1122.647013	-0.018128
1122.805340	-0.035600
1122.963648	-0.035420
1123.121938	-0.025360
1123.280210	-0.019166
1123.438464	-0.015716
1123.596700	-0.018259
1123.754917	-0.030938
1123.913116	-0.028499
1124.071297	-0.025338
1124.229459	-0.020810
1124.387604	-0.012100
1124.545730	-0.010678
1124.703838	-0.004338
1124.861928	-0.003723
1125.019999	-0.008302
1125.178052	0.006964
1125.336088	0.002437
1125.494104	0.003584
1125.652103	-0.012509
1125.810083	-0.026158
1125.968045	-0.051209
1126.125989	-0.057853
1126.283915	-0.072019
1126.441823	-0.077512
1126.599712	-0.070137
1126.757583	-0.070314
1126.915436	-0.088582
1127.073270	-0.075149
1127.231087	-0.073401
1127.388885	-0.046226
1127.546665	-0.047427
1127.704426	-0.048794
1127.862170	-0.044627
1128.019895	-0.040361
1128.177602	-0.052154
1128.335291	-0.045709
1128.492961	-0.057938
1128.650614	-0.070512
1128.808248	-0.078635
1128.965864	-0.078523
1129.123461	-0.066361
1129.281041	-0.043223
1129.438602	-0.046203
1129.596145	-0.018385
1129.753670	-0.016462
1129.911176	0.015799
1130.068665	0.016052
1130.226135	0.008398
1130.383587	0.006692
1130.541020	-0.002934
1130.698436	-0.026561
1130.855833	-0.020429
1131.013212	-0.027230
1131.170573	-0.044936
1131.327915	-0.038408
1131.485239	-0.023947
1131.642545	-0.021806
1131.799833	-0.024692
1131.957103	-0.014993
1132.114354	0.002640
1132.271588	-0.013359
1132.428803	-0.018095
1132.585999	-0.001184
1132.743178	-0.018165
1132.900338	0.006444
1133.057480	-0.007480
1133.214604	0.007431
1133.371710	0.010278
1133.528797	-0.006216
1133.685866	0.005465
1133.842917	-0.003340
1133.999950	-0.003598
1134.156964	-0.012371
1134.313960	-0.028358
1134.470938	-0.007989
1134.627898	-0.010935
1134.784840	-0.002481
1134.941763	-0.000745
1135.098668	-0.001102
1135.255555	0.015828
1135.412424	0.019064
1135.569274	0.034469
1135.726107	0.014060
1135.882921	-0.011358
1136.039716	-0.010586
1136.196494	-0.031087
1136.353253	-0.032655
1136.509995	-0.048407
1136.666717	-0.069208
1136.823422	-0.055076
1136.980109	-0.049029
1137.136777	-0.035704
1137.293427	0.005952
1137.450059	-0.002897
1137.606672	-0.003133
1137.763267	0.004041
1137.919844	0.021709
1138.076403	0.036794
1138.232944	0.032002
1138.389466	0.019607
1138.545971	0.016325
1138.702457	0.000272
1138.858924	0.007955
1139.015374	-0.005454
1139.171805	-0.011164
1139.328218	0.001370
1139.484613	-0.000352
1139.640990	-0.009947
1139.797348	-0.010259
1139.953688	0.001507
1140.110010	0.006005
1140.266314	-0.011602
1140.422600	-0.000838
1140.578867	-0.001037
1140.735116	-0.041310
1140.891347	-0.042930
1141.047559	-0.037866
1141.203754	-0.030657
1141.359930	-0.033894
1141.516088	-0.039334
1141.672228	-0.013281
1141.828349	-0.012042
1141.984452	0.011494
1142.140537	0.024664
1142.296604	0.022255
1142.452653	0.016645
1142.608683	0.006302
1142.764695	0.025332
1142.920689	0.036814
1143.076665	0.026860
1143.232622	0.034863
1143.388562	0.038626
1143.544483	0.049949
1143.700385	0.083244
1143.856270	0.073413
1144.012136	0.063399
1144.167985	0.032031
1144.323814	0.039171
1144.479626	0.029970
1144.635420	-0.001518
1144.791195	-0.003802
1144.946952	-0.023357
1145.102691	-0.039698
1145.258411	-0.037048
1145.414113	0.001475
1145.569798	-0.001905
1145.725463	-0.012631
1145.881111	0.000328
1146.036741	0.036291
1146.192352	0.022481
1146.347945	0.041781
1146.503519	0.014790
1146.659076	0.009948
1146.814614	-0.012003
1146.970134	-0.002290
1147.125636	-0.004661
1147.281120	-0.014324
1147.436585	-0.026924
1147.592032	-0.048139
1147.747461	-0.055274
1147.902872	-0.045020
1148.058265	-0.051659
1148.213639	-0.071031
1148.368995	-0.051512
1148.524333	-0.048790
1148.679653	-0.016637
1148.834954	-0.033099
1148.990237	-0.026477
1149.145502	-0.006365
1149.300749	0.017085
1149.455977	0.021685
1149.611188	0.027901
1149.766380	-0.009463
1149.921553	-0.020442
1150.076709	-0.038078
1150.231846	0.007737
1150.386966	0.027471
1150.542066	-0.002059
1150.697149	-0.052258
1150.852214	-0.020739
1151.007260	-0.011278
1151.162288	0.026151
1151.317298	0.044893
1151.472289	0.065594
1151.627263	0.048233
1151.782218	0.048296
1151.937155	0.085635
1152.092073	0.140128
1152.246974	0.115761
1152.401856	0.106796
1152.556720	0.075035
1152.711566	0.077811
1152.866393	0.057579
1153.021203	0.058433
1153.175994	0.050931
1153.330767	0.008455
1153.485521	0.017288
1153.640258	0.029947
1153.794976	0.033730
1153.949676	0.020771
1154.104358	-0.029227
1154.259021	-0.033961
1154.413667	-0.066209
1154.568294	-0.052671
1154.722903	-0.023573
1154.877493	-0.041991
1155.032066	-0.061377
1155.186620	-0.096296
1155.341156	-0.074987
1155.495674	-0.070927
1155.650173	-0.064183
1155.804654	-0.026156
1155.959118	-0.043994
1156.113562	-0.027525
1156.267989	-0.041524
1156.422397	-0.042186
1156.576788	-0.000385
1156.731160	-0.003073
1156.885513	0.019280
1157.039849	0.024087
1157.194166	-0.001405
1157.348465	-0.001302
1157.502746	-0.018149
1157.657009	-0.007049
1157.811253	0.020031
1157.965479	0.009790
1158.119687	0.005348
1158.273877	0.013104
1158.428048	0.027706
1158.582201	0.062266
1158.736337	0.049516
1158.890453	0.051961
1159.044552	0.049332
1159.198632	0.027175
1159.352694	0.050526
1159.506738	0.037972
1159.660764	0.048923
1159.814771	0.027517
1159.968761	-0.007313
1160.122732	0.013807
1160.276685	0.008000
1160.430619	0.040110
1160.584535	0.092985
1160.738434	0.106617
1160.892313	0.116042
1161.046175	0.116069
1161.200019	0.076587
1161.353844	0.066295
1161.507651	0.062878
1161.661440	0.066436
1161.815210	0.020257
1161.968962	0.009682
1162.122697	-0.009036
1162.276412	-0.017072
1162.430110	-0.061815
1162.583789	-0.099292
1162.737451	-0.112024
1162.891094	-0.108313
1163.044718	-0.085633
1163.198325	-0.054782
1163.351913	-0.064030
1163.505483	-0.076765
1163.659035	-0.046253
1163.812569	-0.015526
1163.966084	0.067655
1164.119581	0.104771
1164.273060	0.064780
1164.426521	0.000774
1164.579964	0.026241
1164.733388	0.006012
1164.886794	-0.007896
1165.040182	-0.044975
1165.193551	-0.045949
1165.346903	-0.086751
1165.500236	-0.083093
1165.653551	-0.056898
1165.806848	-0.031281
1165.960126	-0.062737
1166.113386	-0.098708
1166.266628	-0.063089
1166.419852	-0.036950
1166.573058	-0.034143
1166.726245	-0.001295
1166.879414	0.004129
1167.032565	0.019820
1167.185698	0.052132
1167.338812	0.066679
1167.491909	0.062448
1167.644987	0.029320
1167.798046	0.047891
1167.951088	0.041844
1168.104111	0.041936
1168.257117	0.044515
1168.410103	-0.003356
1168.563072	-0.004589
1168.716023	-0.028970
1168.868955	0.029210
1169.021869	0.032627
1169.174765	0.038440
1169.327642	0.096771
1169.480501	0.058029
1169.633343	0.036986
1169.786165	0.051101
1169.938970	0.051172
1170.091757	0.111864
1170.244525	0.077852
1170.397275	0.059249
1170.550007	-0.014996
1170.702720	-0.014646
1170.855415	0.072405
1171.008092	0.084714
1171.160751	0.088950
1171.313392	0.043850
1171.466014	1.353252
1171.618619	-0.053079
1171.771205	-0.053079
1171.923772	-0.053079
