sample name	sample
index	1317
start time	 05-03-2021  10:43:24 AM
880	0.008287
Peak Time (s)	92.537
Peak Height 	0.008287
calc peak height	90,93
Baseline Time (s)	9.037
Baseline Value 	-0.004894
subtract baseline	10,4
Abs	-0.009824
Peak Time (s)	91.038
Peak Height 	-0.009824
calc peak height	90,93
Baseline Time (s)	10.537
Baseline Value 	0.003781
subtract baseline	10,3
PK_550	0.001099
Peak Time (s)	91.537
Peak Height 	0.001099
calc peak height	90,93
Baseline Time (s)	9.54
Baseline Value 	3.9888E-4
subtract baseline	10,2
PK_880	-0.015160
Peak Time (s)	90.537
Peak Height 	-0.01516
calc peak height	90,93
Baseline Time (s)	9.037
Baseline Value 	0.001263
subtract baseline	10,1


Time (s)	A880-A510	A880-A775	A880-A975	A880	I510	I775	I975	I880	
0.040000	-0.000457	0.000001	-0.002746	0.002910	6094.067426	42813.764952	3847.667379	22097.655020
0.540000	-0.001405	-0.000662	-0.005151	0.004102	6078.369323	42644.054534	3839.630976	22045.098388
1.037500	-0.002282	-0.000250	-0.005931	0.003729	6074.682366	42715.757210	3838.723741	22061.516815
1.554500	-0.004004	-0.001212	-0.008451	0.005980	6045.768589	42422.979918	3828.174008	21962.514674
2.038000	0.000990	0.000100	-0.001272	0.001355	6116.225190	42965.788572	3854.488147	22166.488460
2.535500	-0.000231	-0.000325	0.003035	0.001143	6108.756757	42946.127041	3864.750049	22175.864020
3.038500	0.000938	-0.000574	-0.004729	-0.001288	6135.463359	43147.317891	3852.650094	22283.990434
3.536000	-0.000326	0.000481	-0.002713	0.001335	6106.635602	43002.645459	3851.281255	22167.370454
4.036500	0.000917	-0.000844	-0.002608	0.000077	6125.159918	42996.473167	3854.356581	22223.231475
4.536500	-0.002499	-0.000805	-0.003348	-0.000096	6101.165494	43016.093078	3853.077753	22230.923663
5.037000	-0.000290	-0.000650	-0.002586	-0.000286	6118.897792	43047.870857	3855.226014	22239.366332
5.534000	0.000307	0.000068	-0.001667	0.000570	6116.974420	43035.145192	3855.368321	22201.317376
6.034500	-0.000267	-0.000477	-0.005598	0.000097	6116.229291	43028.504330	3847.578797	22222.328394
6.535000	0.002312	-0.000894	0.000507	-0.000152	6137.243446	43013.004890	3861.941519	22233.426973
7.038000	0.002035	-0.000049	-0.001405	0.000278	6131.968699	43051.240242	3856.622206	22214.278727
7.535500	-0.000305	0.000828	0.000374	0.000757	6111.069714	43088.038828	3859.572061	22193.024778
8.036000	-0.000365	-0.000333	0.001286	-0.000271	6118.232655	43075.741614	3863.987910	22238.709343
8.536000	0.001559	-0.000784	0.002536	-0.000338	6133.017937	43040.254091	3866.995912	22241.674570
9.036500	0.000000	0.000077	0.000861	0.000000	6118.925411	43088.489636	3862.400129	22226.644932
9.539500	-0.000409	0.000000	0.001272	0.000642	6111.145902	43022.232007	3861.875625	22198.128618
10.037500	-0.001030	0.000175	-0.001562	0.000162	6110.108769	43082.613318	3856.531593	22219.456866
10.537500	0.001575	0.000677	0.000000	0.000039	6130.335305	43140.448036	3860.353738	22224.929466
11.035000	0.000773	-0.000194	-0.002638	-0.000621	6129.276581	43120.844038	3855.867056	22254.279526
11.535500	-0.001529	-0.000899	-0.003405	-0.001526	6118.899916	43139.328741	3856.178625	22294.622790
12.035500	-0.000265	0.000093	0.002225	-0.000523	6120.834208	43138.318467	3866.707255	22249.896565
12.535500	0.001398	-0.000039	0.001302	-0.000426	6132.473060	43117.168828	3864.376562	22245.597112
13.036000	0.002154	-0.000040	0.001390	-0.002341	6152.408531	43294.388674	3868.959728	22331.026035
13.536500	-0.000428	0.000146	0.002068	-0.000731	6121.174484	43162.505372	3866.825135	22259.199002
14.038000	-0.000260	-0.001205	0.001613	-0.001061	6124.869643	43068.184522	3866.539558	22273.891705
14.536500	-0.002736	-0.000190	-0.004140	0.001778	6085.645854	42900.206899	3847.079547	22147.739235
15.037500	-0.000987	-0.000255	-0.001878	-0.000452	6114.964089	43099.610023	3857.206063	22246.755038
15.552500	0.002210	-0.000239	0.000697	-0.000841	6141.618367	43137.021284	3863.943877	22264.080365
16.035000	0.000685	0.000586	0.005683	-0.000647	6128.816489	43195.481054	3874.936900	22255.461244
16.540500	0.001192	0.000374	0.000304	0.000089	6127.106067	43107.720591	3860.929401	22222.668605
17.036000	0.000143	-0.000378	-0.000453	-0.001169	6128.659370	43154.512395	3862.069624	22278.683670
17.539000	0.003329	0.000213	0.000900	-0.003640	6170.990309	43438.647834	3870.814977	22389.186030
18.036000	0.001656	-0.001056	0.000467	-0.000758	6136.872340	43053.975930	3863.230418	22260.404121
18.536500	-0.002499	0.000215	0.003424	0.001446	6089.815088	42967.938831	3864.947199	22162.438857
19.039500	-0.001377	-0.000413	-0.003248	0.000244	6106.928298	43020.786452	3852.533488	22215.778277
19.537000	-0.003778	-0.000164	0.003211	0.000806	6085.130227	42991.913094	3865.922341	22190.818305
20.037500	-0.001198	0.000306	0.000223	0.001127	6101.741547	43005.765653	3858.389028	22176.609117
20.534500	-0.000206	-0.000075	-0.000545	0.000571	6113.171303	43021.825272	3857.907576	22201.253785
21.035000	-0.002348	0.000055	-0.001000	0.001101	6093.463754	42984.953718	3855.675156	22177.725288
21.535500	-0.000557	-0.000351	-0.000098	0.000585	6110.470489	42995.113233	3858.889328	22200.640773
22.036000	-0.000934	0.000301	-0.000378	0.000817	6105.980446	43033.830430	3857.728828	22190.363423
22.536000	0.000113	0.000679	0.000931	0.001692	6107.242437	42988.038372	3858.714282	22151.551986
23.039000	0.001274	0.000777	-0.000971	0.001983	6113.676356	42970.273534	3853.748385	22138.658976
23.539500	-0.000186	0.000012	-0.003246	0.000947	6110.538129	42995.166499	3850.954435	22184.570920
24.037000	0.001797	-0.000037	-0.002069	0.000452	6128.906363	43036.298398	3854.727814	22206.558624
24.536500	-0.000130	0.000298	-0.005822	0.001066	6110.073640	43010.603738	3844.906480	22179.310960
25.040500	-0.001459	-0.000126	0.002453	0.000459	6104.742122	43027.420191	3864.983932	22206.246566
25.535000	-0.000835	-0.000278	-0.001889	0.000497	6109.064620	43009.917856	3855.033152	22204.553479
26.035500	-0.000989	-0.000933	-0.001984	0.000107	6110.812494	42985.528765	3855.698670	22221.887802
26.535500	-0.001456	-0.001095	-0.001400	-0.000232	6109.866520	43001.847846	3857.790522	22236.966832
27.035500	-0.001941	0.000223	-0.001379	0.002489	6086.265387	42872.862263	3851.688551	22116.286358
27.535500	-0.000801	-0.000523	0.000572	-0.000902	6119.675629	43116.368725	3863.796544	22266.789548
28.036500	0.002442	-0.000557	0.001118	-0.003402	6162.529704	43344.875646	3870.771099	22378.525722
28.539500	0.001848	-0.000024	0.000453	-0.000845	6138.940627	43157.281079	3863.396083	22264.241565
29.042000	-0.001263	-0.000041	-0.000895	-0.001567	6121.180265	43222.491594	3861.968941	22296.446159
29.537500	0.001644	0.000667	-0.000589	-0.000414	6134.208186	43181.302913	3860.042393	22245.047058
30.037500	0.000537	-0.000444	0.006844	-0.001142	6131.397933	43145.956932	3878.765655	22277.519726
30.535500	-0.000434	0.000644	-0.001051	-0.000613	6120.251386	43197.594821	3859.446143	22253.905985
31.043000	0.000546	-0.000226	-0.001821	-0.001253	6132.288075	43176.387027	3859.151701	22282.463870
31.537000	-0.000160	-0.000108	-0.000607	0.001516	6106.528040	42931.787821	3855.627905	22159.346053
32.036000	0.001780	0.000149	0.000530	0.001339	6122.193089	42971.647458	3858.602771	22167.171471
32.591000	-0.001748	-0.001148	0.004142	-0.001776	6119.139547	43139.517908	3873.986992	22305.807040
33.039000	-0.000596	0.000304	-0.001201	0.004832	6078.947748	42665.591591	3846.821460	22012.946104
33.536500	-0.000300	0.000571	0.002381	-0.000466	6120.152322	43177.233383	3866.933478	22247.371059
34.038000	-0.000153	-0.000560	0.001898	-0.001404	6128.209012	43159.375894	3867.975858	22289.165984
34.537500	0.000241	-0.000060	-0.002018	0.000703	6115.503678	43011.059142	3854.274988	22195.416732
35.038000	-0.002564	-0.000365	-0.003939	0.002226	6083.620404	42842.893322	3846.524609	22127.895406
35.535500	-0.000829	-0.000240	-0.002006	0.001212	6103.829597	42947.556446	3853.151755	22172.809273
36.038500	0.002117	-0.000604	-0.001258	0.000806	6128.658679	42951.493370	3855.760588	22190.839148
36.536000	-0.001280	0.000688	0.001421	0.001886	6095.544689	42970.983714	3859.384000	22142.939510
37.039000	-0.001771	0.000165	-0.004040	0.003142	6082.720231	42807.502864	3844.248777	22087.418645
37.535500	-0.002651	-0.000209	-0.004923	0.001267	6090.018552	42945.400236	3846.469232	22170.370966
38.036500	-0.000422	-0.000625	0.004488	0.000926	6108.948955	42938.500058	3868.571145	22185.500260
38.536500	-0.000089	0.000177	-0.000256	0.001496	6107.200192	42959.838608	3856.465854	22160.235179
39.037500	-0.001790	-0.000282	-0.002654	0.002522	6087.123068	42823.361303	3848.744032	22114.803145
39.535000	-0.001327	0.000019	0.000956	0.000988	6101.816549	42992.092465	3860.369213	22182.754829
40.035000	0.000280	-0.000249	0.003570	0.001098	6112.863735	42957.232431	3866.076663	22177.862758
40.535000	-0.001554	-0.000633	0.000559	0.000516	6103.622131	42975.554609	3860.540594	22203.724429
41.035500	-0.000725	0.000370	0.003631	0.003321	6089.079346	42809.954243	3861.147362	22079.539022
41.536000	-0.000901	-0.000502	0.001832	0.000708	6107.019951	42969.850594	3862.999082	22195.174069
42.036000	-0.000232	0.000133	-0.000275	0.001505	6106.071852	42954.912798	3856.403643	22159.819195
42.539000	0.000170	0.000183	-0.003798	0.001265	6110.824105	42981.655635	3848.999106	22170.479138
43.037000	-0.001603	0.000686	0.000793	0.002986	6085.090948	42869.702023	3855.468539	22094.312219
43.537000	0.000278	-0.000255	-0.001056	0.000972	6113.781942	42968.289261	3855.841200	22183.450235
44.035000	-0.002381	-0.000191	0.002316	0.001167	6092.730631	42956.238930	3863.056558	22174.798837
44.535000	0.002279	0.000383	0.006765	-0.001976	6150.614560	43299.760112	3880.513765	22314.724350
45.038000	-0.000562	0.000921	-0.005320	0.005906	6071.346060	42623.857527	3835.249917	21965.779953
45.538500	0.002092	0.000018	0.000714	-0.000803	6140.453316	43157.306567	3863.895489	22262.377288
46.036000	0.002885	0.000248	0.002212	-0.000506	6144.154898	43151.108366	3866.639708	22249.148313
46.536500	-0.000852	-0.000021	0.000975	-0.000579	6116.900208	43132.953695	3863.981058	22252.401830
47.036500	-0.000431	0.000134	-0.003501	0.004761	6080.679564	42656.606541	3841.837988	22016.084537
47.536000	0.002109	0.000177	0.004618	-0.000611	6139.147105	43154.225247	3872.399969	22253.832618
48.061000	0.000540	-0.000252	-0.003926	0.000590	6118.556034	43003.766219	3850.228874	22200.435321
48.537000	-0.000421	-0.000322	-0.003144	0.001381	6105.597728	42924.499823	3850.209716	22165.334987
49.042000	-0.000842	-0.000254	-0.002921	0.003798	6084.719347	42709.163041	3845.286130	22058.493863
49.557000	0.002533	0.000020	0.000429	-0.000787	6143.627364	43156.041959	3863.211706	22261.695453
50.035000	0.001635	0.000271	-0.003331	-0.000795	6136.985435	43179.917784	3854.691975	22262.012469
50.536000	0.001047	0.000047	-0.001284	-0.000263	6128.652008	43110.078109	3858.124555	22238.355110
51.035500	-0.002040	-0.000320	0.000842	0.003666	6076.913651	42715.129136	3854.042826	22064.302733
51.536500	0.001903	-0.000421	0.004845	-0.000951	6140.144118	43130.406441	3873.704497	22268.975927
52.039000	0.001786	-0.000432	0.002670	0.001801	6118.816762	42875.878215	3862.419666	22146.725698
52.536500	0.033031	-0.017676	0.034079	0.526196	3934.196758	14450.574125	3191.093476	8663.144467
53.034500	0.013845	-0.015793	-0.013294	0.182560	5082.775971	28382.460289	3502.073756	15598.478730
53.537500	-0.003251	-0.024854	-0.018155	-0.111365	7028.758389	51918.358276	4096.789271	27872.070531
54.035000	-0.024615	-0.033279	-0.027294	-0.145296	7149.966808	54877.847933	4168.672528	29900.264677
54.535000	-0.029541	-0.049169	-0.030903	-0.221599	7909.087356	62621.708588	4404.723299	35083.753171
55.035000	-0.009013	-0.079740	-0.018507	-0.272883	8809.751162	65534.801842	4646.591962	39116.063857
55.536000	0.001047	-0.065488	-0.013150	-0.253290	8681.434152	64770.301446	4589.403981	37519.085642
56.036000	0.002433	-0.028368	0.002051	-0.186824	7876.895427	60733.628489	4398.312684	32608.213639
56.539000	-0.004449	-0.016746	-0.008266	-0.145468	7353.716295	56912.560109	4227.232877	29910.974615
57.037000	-0.006169	-0.014152	-0.015487	-0.123216	7114.558834	54526.340531	4138.387706	28562.529558
57.536000	-0.000667	-0.009387	-0.011406	-0.119495	7131.869431	54650.202621	4139.436627	28343.663604
58.037000	-0.001108	-0.009017	-0.009442	-0.108241	7019.433334	53371.806077	4112.638041	27693.168068
58.537500	0.000984	-0.007107	-0.006997	-0.083554	6810.608709	50797.530138	4050.756897	26323.852830
59.035000	-0.005916	-0.007953	-0.012622	-0.078874	6707.718523	50193.221390	4023.145821	26072.960208
59.534500	-0.001876	-0.007694	-0.011020	-0.066587	6636.091436	48903.740220	3995.195152	25426.876694
60.035500	0.000612	-0.006140	-0.002531	-0.048736	6506.251310	47212.809640	3971.267530	24520.257039
60.536000	-0.000603	-0.007273	-0.005542	-0.050360	6509.650859	47262.904727	3967.767248	24601.223049
61.036500	-0.004749	-0.005370	-0.015476	-0.041504	6403.191159	46559.770098	3921.420068	24163.456964
61.536500	-0.006233	-0.007645	-0.011172	-0.039819	6377.720312	46164.240016	3927.758110	24081.134228
62.037000	-0.005825	-0.007326	-0.009694	-0.025891	6271.131458	44832.397239	3897.956392	23413.059520
62.537000	-0.002137	-0.007078	-0.011896	-0.006637	6152.449737	43040.660514	3848.556419	22524.047288
63.037500	-0.005868	-0.000129	-0.011801	-0.036515	6354.269084	46585.050901	3918.252631	23920.741703
63.537500	-0.005933	-0.003290	-0.005385	0.001901	6061.386551	42605.130134	3844.017441	22142.292266
64.035000	-0.013193	-0.001150	-0.015702	-0.041434	6335.186799	46978.039899	3920.706696	24160.033701
64.535500	-0.010064	0.001076	-0.019400	-0.041658	6361.809703	47226.884839	3912.359308	24170.990717
65.046500	-0.012761	0.001677	-0.010649	-0.040985	6335.052161	47219.572323	3931.867552	24138.050985
65.535500	-0.013027	0.001173	-0.009291	-0.039372	6320.218706	47004.429890	3931.248167	24059.362861
66.039500	-0.013315	-0.000438	-0.016138	-0.038952	6314.652201	46799.161509	3913.691705	24038.940161
66.536500	-0.014649	-0.000589	-0.012983	-0.037740	6294.691137	46661.911658	3918.357515	23980.069095
67.037000	-0.017438	-0.001859	-0.011365	-0.039343	6285.433327	46695.264357	3926.134489	24057.936380
67.537000	-0.017980	-0.002467	-0.013388	-0.040594	6290.972558	46760.178257	3924.267673	24118.968231
68.037500	-0.016509	-0.000856	-0.014806	-0.039815	6296.371865	46844.067733	3918.962854	24080.962137
68.535000	-0.018925	-0.001996	-0.017293	-0.041226	6288.520565	46871.344510	3916.374695	24149.825509
69.035000	-0.023644	-0.002771	-0.026811	-0.037895	6226.300106	46458.517685	3885.962302	23987.577582
69.535500	-0.020412	-0.002259	-0.017997	-0.042871	6289.754393	47011.253730	3918.637462	24230.413166
70.035500	-0.019330	-0.002022	-0.016385	-0.042706	6296.920891	47018.584740	3922.125041	24222.322256
70.536500	-0.022410	-0.002500	-0.018649	-0.042011	6267.520194	46899.731884	3915.003446	24188.238980
71.036500	-0.025207	-0.002310	-0.020965	-0.037927	6214.594750	46507.891386	3899.764010	23989.136148
71.536500	-0.024049	-0.002836	-0.024103	-0.040404	6242.448913	46703.800447	3898.203134	24109.674730
72.038000	-0.023579	-0.001921	-0.019305	-0.038262	6229.608842	46580.540925	3904.490825	24005.410521
72.537500	-0.023186	-0.001235	-0.023193	-0.035468	6211.257802	46369.498748	3888.744839	23870.153038
73.038000	-0.024763	-0.001596	-0.020966	-0.030523	6161.896337	45842.663286	3882.406884	23632.857493
73.535000	-0.022498	-0.001663	-0.020399	-0.032243	6191.967754	46006.076130	3887.736852	23715.106442
74.035500	-0.026502	-0.001856	-0.019486	-0.031126	6153.377332	45876.465842	3887.258568	23661.631508
74.535500	-0.022462	-0.000836	-0.024183	-0.028956	6167.416052	45763.067847	3871.349998	23558.221950
75.036000	-0.027780	-0.001191	-0.027250	-0.026204	6107.264918	45458.154914	3858.066855	23427.821259
75.539000	-0.024530	0.000109	-0.020902	-0.026834	6136.042623	45647.367431	3874.018029	23457.600624
76.037000	-0.023687	0.000125	-0.022118	-0.025852	6135.014434	45552.584932	3868.966717	23411.212657
76.537000	-0.024964	-0.000587	-0.021851	-0.025753	6124.777645	45473.188238	3869.352443	23406.542398
77.036500	-0.026243	-0.000583	-0.022186	-0.023128	6095.922664	45217.604859	3862.586382	23283.065481
77.534500	-0.025929	-0.000060	-0.024401	-0.024538	6108.633383	45405.969224	3860.752771	23349.305701
78.035500	-0.024054	-0.000130	-0.023082	-0.023407	6114.136497	45288.747264	3861.180946	23296.132178
78.540500	-0.025217	-0.000561	-0.026174	-0.022925	6101.988293	45199.976564	3853.084140	23273.542468
79.035500	-0.028044	-0.000392	-0.026968	-0.018574	6049.501101	44795.450739	3841.542875	23070.574934
79.538500	-0.023776	0.000284	-0.023565	-0.020259	6092.961665	45023.326913	3852.954314	23148.905159
80.037000	-0.024489	0.000247	-0.018612	-0.019185	6079.852466	44915.952765	3861.745265	23098.930918
80.536500	-0.022459	0.000857	-0.028594	-0.017957	6085.729453	44856.387139	3836.555650	23041.955413
81.037000	-0.024022	0.000103	-0.021463	-0.013962	6045.227863	44401.066906	3843.536212	22857.651409
81.536500	-0.022888	-0.000321	-0.017733	-0.015702	6066.102588	44526.689916	3855.835795	22937.698994
82.036500	-0.023117	0.000079	-0.020139	-0.013905	6051.370618	44393.328521	3846.370890	22855.010866
82.534000	-0.022951	-0.000096	-0.022896	-0.012899	6045.276135	44280.878268	3837.973996	22808.863155
83.035000	-0.023826	0.000262	-0.019573	-0.009682	6015.785020	44009.979801	3838.209687	22662.037416
83.534500	-0.021571	-0.000081	-0.019745	-0.010655	6039.032389	44069.502598	3839.992586	22706.330505
84.035500	-0.019168	-0.000163	-0.014421	-0.008598	6041.528850	43867.694258	3847.292463	22612.806555
84.536000	-0.023230	-0.000382	-0.017866	-0.007546	6004.759870	43748.192874	3837.257300	22565.147922
85.039000	-0.020697	-0.000202	-0.016114	-0.006335	6014.219613	43651.559129	3838.458082	22510.412672
85.536500	-0.018093	-0.000489	-0.019951	-0.005009	6023.397183	43500.797298	3827.051601	22450.679042
86.037500	-0.020439	-0.000315	-0.019890	-0.003749	5997.578006	43399.657515	3824.422111	22394.098165
86.537000	-0.018863	0.000037	-0.018993	-0.002296	5998.455945	43297.379156	3823.205718	22329.033224
87.034500	-0.020563	-0.000884	-0.019829	-0.000769	5975.518318	43070.813277	3818.050039	22260.890676
87.534500	-0.018242	-0.000215	-0.017682	-0.000045	5986.848318	43065.742043	3821.151512	22228.646618
88.035000	-0.018197	-0.000976	-0.011741	0.000837	5980.904926	42914.364222	3832.258887	22189.454117
88.536000	-0.020313	-0.001064	-0.019133	0.001746	5959.518576	42822.926956	3814.102130	22149.165027
89.036000	-0.015762	0.000424	-0.018183	0.003674	5978.054602	42782.589630	3811.985714	22063.964898
89.538500	-0.016093	0.000372	-0.016865	0.004607	5969.105200	42692.342522	3812.816760	22022.841550
90.036500	-0.015276	-0.000133	-0.018327	0.005615	5967.757831	42554.300899	3807.486482	21978.535043
90.537000	-0.015160	-0.000169	-0.010297	0.006084	5965.266459	42508.297114	3823.896558	21957.950570
91.037500	-0.015487	0.000409	-0.009824	0.007033	5956.274417	42474.613046	3822.856123	21916.417701
91.537000	-0.016358	0.001099	-0.010464	0.008047	5943.037300	42445.200384	3819.244950	21872.087701
92.034500	-0.015274	-0.000596	-0.018815	0.007152	5956.937874	42372.533449	3803.140659	21911.186771
92.537000	-0.015364	0.000281	-0.013533	0.008287	5948.326821	42349.174682	3812.065654	21861.622320
93.035000	-0.014411	0.000454	-0.016345	0.009298	5947.918658	42273.325717	3803.836164	21817.559224
93.535500	-0.012356	0.000471	-0.014042	0.009481	5961.078500	42258.242296	3808.388226	21809.565778
94.035500	-0.014919	0.000584	-0.009910	0.010376	5936.804078	42187.562198	3815.386518	21770.670503
94.536500	-0.016681	0.000521	-0.011638	0.010603	5922.932655	42161.466937	3811.154151	21760.832034
95.112000	-0.014158	-0.000162	-0.010078	0.011240	5936.091016	42042.603003	3813.150122	21733.216633
95.536500	-0.016154	-0.000318	-0.013936	0.009964	5931.061334	42143.471037	3807.579643	21788.593054
99.213500	-0.013945	0.000293	-0.010576	0.009940	5946.683397	42200.702491	3814.887714	21789.630054
102.474000	-0.015216	0.001216	-0.010723	0.007448	5955.266040	42510.293820	3819.987483	21898.259621
102.583000	-0.015995	0.000185	-0.013307	0.005931	5960.452791	42554.424862	3817.661610	21964.664714
102.747500	-0.018104	0.000448	-0.014681	0.011468	5907.054014	42076.965847	3802.752076	21723.334514
102.944500	-0.015540	0.000180	-0.014830	0.006067	5962.708436	42541.665304	3814.061780	21958.714434
103.071000	-0.017148	0.000735	-0.014955	0.005441	5955.788041	42649.324989	3815.146919	21986.171369
103.174000	-0.015784	0.000302	-0.014238	0.004960	5968.801288	42653.772451	3817.750484	22007.332399
103.275500	-0.015042	-0.000010	-0.011701	0.004816	5975.058572	42638.360261	3823.597675	22013.641541
103.373000	-0.014473	0.001344	-0.014997	0.005621	5973.396422	42688.619338	3814.666517	21978.303929
103.472000	-0.014725	0.000247	-0.010620	0.004688	5978.218144	42673.606944	3826.249112	22019.298201
103.591000	-0.015333	0.000404	-0.011521	0.004872	5972.608111	42671.094279	3823.869963	22011.192703
103.681000	-0.016777	-0.000081	-0.009861	0.003933	5969.039684	42712.602573	3829.576878	22052.531431
103.780000	-0.015731	-0.000274	-0.014575	0.003945	5976.350702	42693.793899	3819.224362	22051.995423
103.870500	-0.016598	0.000954	-0.015556	0.004256	5968.021030	42777.764143	3816.416211	22038.318692
103.963000	-0.017536	-0.000462	-0.017288	0.002877	5971.133367	42774.366671	3815.646928	22099.103946
104.052500	-0.015547	0.000491	-0.018956	0.005094	5969.526357	42658.799373	3807.254767	22001.438010
104.140000	-0.018103	0.000102	-0.017585	0.008502	5927.668406	42313.452251	3802.884381	21852.242338
104.537000	-0.016245	-0.000553	-0.013741	0.002633	5982.007229	42788.380034	3823.910914	22109.902948
105.044500	-0.017602	-0.000822	-0.012980	0.000958	5984.263910	42917.442851	3829.258991	22184.085205
105.537000	-0.018044	-0.000640	-0.011757	0.000091	5987.287065	43013.993227	3833.873194	22222.610880
