sample name	sample
index	819
start time	 03-31-2021  03:52:59 PM
880	-0.050267
Peak Time (s)	90.037
Peak Height 	-0.05027
calc peak height	90,93
Baseline Time (s)	11.536
Baseline Value 	-0.003991
subtract baseline	10,4
Abs	-0.014160
Peak Time (s)	90.537
Peak Height 	-0.01416
calc peak height	90,93
Baseline Time (s)	10.535
Baseline Value 	-5.8655E-4
subtract baseline	10,3
PK_550	-0.006145
Peak Time (s)	90.037
Peak Height 	-0.006145
calc peak height	90,93
Baseline Time (s)	10.037
Baseline Value 	4.0131E-4
subtract baseline	10,2
PK_880	-0.024628
Peak Time (s)	91.535
Peak Height 	-0.02463
calc peak height	90,93
Baseline Time (s)	11.536
Baseline Value 	0.002065
subtract baseline	10,1


Time (s)	A880-A510	A880-A775	A880-A975	A880	I510	I775	I975	I880	
0.037000	-0.003038	-0.000849	0.003783	0.002819	6616.263577	39345.470852	4053.902920	21623.600116
0.537000	-0.000043	0.000192	0.000458	0.004401	6627.563141	39300.377035	4043.352807	21556.377132
1.037500	-0.000173	-0.000152	-0.002554	0.004239	6627.821992	39285.252762	4037.281872	21563.258859
1.535500	-0.001165	-0.000039	0.002162	0.002671	6632.440991	39425.337088	4050.724139	21629.902881
2.036000	-0.000434	0.000017	0.002943	0.002072	6643.132782	39479.973588	4053.701192	21655.413328
2.536000	-0.003147	-0.000270	0.002857	0.005330	6595.405552	39184.961404	4046.502290	21517.056005
3.036000	0.002055	-0.000237	0.008874	-0.000989	6688.090274	39715.392882	4073.339573	21786.398129
3.536500	-0.001426	-0.000443	0.005984	0.000364	6648.904628	39584.492772	4064.022982	21728.398890
4.037000	-0.000862	-0.000464	0.002608	0.000678	6650.917726	39556.422777	4055.994015	21714.956819
4.537000	-0.000755	-0.000005	0.002774	0.000298	6654.850095	39626.759347	4057.176445	21731.221714
5.035000	0.000194	-0.000147	0.006780	0.000549	6660.489873	39593.825359	4065.358839	21720.466897
5.535000	-0.000098	-0.000138	0.001575	0.000455	6658.886717	39602.507110	4054.240345	21724.513406
6.035000	-0.000623	0.000231	0.003844	0.000525	6654.085253	39627.541818	4059.007801	21721.519210
6.535000	0.000280	0.000238	0.002267	0.001164	6656.210903	39574.589569	4054.202629	21694.196612
7.035500	-0.000457	-0.000434	0.004254	-0.000521	6663.877909	39659.536872	4062.178474	21766.323163
7.536500	-0.000530	0.000065	0.005792	-0.000283	6661.365143	39681.460723	4065.018712	21756.128085
8.036000	-0.001032	-0.000153	0.001761	-0.000464	6658.765419	39678.372481	4056.633248	21763.881305
8.536500	-0.000879	-0.000584	-0.004193	-0.000401	6659.486239	39636.782265	4043.674981	21761.147667
9.037000	-0.002699	-0.000789	0.004937	-0.000570	6646.169722	39633.768785	4063.774294	21768.406694
9.539500	0.000300	0.000079	0.005704	0.000179	6664.339631	39643.766672	4063.814936	21736.307926
10.037000	0.000296	0.000000	-0.001467	-0.000070	6666.324615	39658.092031	4048.813067	21746.980837
10.535000	-0.000599	0.000271	0.000000	0.000268	6656.345393	39652.390489	4051.241654	21732.481281
11.035500	0.000548	0.000127	-0.000015	0.000339	6665.058524	39634.457670	4051.056985	21729.474513
11.535500	0.000000	-0.000484	0.006644	0.000000	6663.360454	39611.613762	4066.263130	21743.979331
12.036000	0.000457	0.000290	0.000305	0.000009	6666.994347	39675.812245	4052.460527	21743.604133
12.536000	-0.001051	-0.000390	0.003274	0.002127	6637.727152	39441.438729	4054.298424	21653.090533
13.036500	0.001554	0.000377	0.001441	0.000883	6668.801560	39609.740652	4053.025225	21706.196677
13.537000	-0.000444	-0.000587	0.002726	0.000573	6655.136615	39554.945892	4056.476585	21719.455766
14.037000	-0.002506	0.000362	0.001212	0.002688	6621.566981	39457.448012	4048.643339	21629.199234
14.537500	-0.002132	0.000015	-0.000309	0.002232	6628.204463	39466.458880	4046.355405	21648.588394
15.037000	-0.000566	0.000507	0.003021	0.001334	6648.011966	39582.823186	4055.465603	21686.908379
15.535500	-0.001639	-0.000924	0.005151	0.000480	6646.247788	39534.468218	4061.951648	21723.434713
16.035500	0.001232	-0.000508	0.005038	0.000849	6666.465825	39538.420029	4060.900696	21707.662025
16.538500	-0.002393	-0.000953	-0.002979	0.002000	6627.973281	39405.019815	4041.139702	21658.477194
17.036000	0.000094	0.000024	0.003732	-0.003041	6688.825768	39910.471499	4066.545935	21874.704080
17.536500	-0.000108	-0.000262	0.001749	0.001246	6652.412085	39525.716886	4052.905761	21690.659220
18.036500	0.000509	-0.000509	0.000518	0.001664	6654.024035	39470.226924	4049.353046	21672.847399
18.537000	-0.001194	-0.000855	0.004220	0.001108	6644.774329	39487.704870	4058.558815	21696.583120
19.037500	0.000434	0.000073	0.001644	0.001711	6653.031222	39514.857189	4051.675321	21670.806609
19.537000	0.000010	-0.000499	0.002020	0.001550	6650.918616	39480.520876	4052.835890	21677.711135
20.035000	-0.001884	0.000168	0.004253	0.001592	6635.332126	39532.806543	4057.577509	21675.905935
20.535500	-0.000274	-0.000139	0.001776	0.001325	6650.442516	39529.491852	4052.794646	21687.312388
21.035500	-0.000397	0.000656	-0.001999	0.002139	6642.890780	39527.860279	4042.936579	21652.584304
21.535500	-0.003091	-0.000736	0.000345	0.001151	6629.181219	39494.010628	4050.083564	21694.719385
22.036500	0.000935	0.000476	0.000181	0.002458	6651.058441	39486.174774	4046.921308	21638.988493
22.536500	-0.003586	-0.000525	0.002576	0.001147	6625.253346	39512.059042	4054.908273	21694.903025
23.036500	-0.002305	-0.000712	-0.000563	0.000810	6638.234824	39524.628682	4048.863555	21709.305903
23.534500	-0.001522	0.000013	-0.000470	0.001962	6635.268192	39488.931960	4046.590201	21660.122661
24.037500	-0.004018	-0.000861	0.002332	0.000608	6626.107074	39529.016397	4055.547420	21717.953122
24.537500	-0.000315	-0.000680	0.001849	0.001187	6651.227369	39495.774202	4053.250777	21693.212282
25.035500	-0.003333	-0.000225	0.001943	0.001147	6627.282501	39537.225916	4053.539727	21694.917284
25.535500	0.000864	0.000249	0.005334	0.001668	6656.855288	39533.233181	4059.761609	21672.648446
26.035500	-0.001572	-0.000612	-0.000596	0.000893	6643.466191	39526.051074	4048.614575	21705.778799
26.536000	0.000219	-0.000517	0.003080	0.001425	6653.610931	39489.520923	4055.397540	21683.045035
27.036000	-0.001454	0.000057	0.005845	-0.000876	6658.685674	39730.684569	4066.432789	21781.555084
27.537000	0.000115	0.000336	0.003314	-0.000176	6665.713038	39695.192432	4059.379257	21751.517744
28.036500	-0.001630	-0.000510	-0.002403	0.000378	6647.139264	39577.674388	4045.839543	21727.776340
28.534500	-0.000089	-0.000433	0.001604	0.000615	6657.662919	39564.239917	4053.955061	21717.637361
29.037000	0.000477	0.000534	-0.001931	0.001181	6657.666427	39597.922373	4045.131420	21693.458252
29.534500	-0.000055	-0.000252	0.000643	0.000738	6656.945162	39569.142839	4051.615365	21712.397708
30.038000	-0.002111	0.000147	0.001445	0.000830	6639.634960	39594.905139	4053.147167	21708.451879
30.535500	-0.001699	-0.000380	0.005221	0.002484	6629.665026	39412.485756	4057.745051	21637.891996
31.036000	-0.001989	-0.000621	0.001258	0.001837	6632.521378	39446.374610	4050.571315	21665.447687
31.536000	-0.002218	0.000689	-0.000868	0.001537	6633.101137	39581.069865	4046.648642	21678.271837
32.036000	-0.000943	-0.001189	0.003380	0.000171	6654.350774	39538.148885	4058.767532	21736.651658
32.536500	0.000404	0.000157	0.004045	0.000821	6659.986845	39596.476214	4058.800668	21708.836792
33.039500	-0.001227	0.000633	0.003770	0.000881	6646.334005	39631.388598	4058.072629	21706.267607
33.538500	0.001411	0.000424	0.004791	-0.001322	6685.557893	39799.160024	4065.100305	21800.695333
34.034500	-0.003358	-0.000129	0.002583	0.001231	6626.410936	39538.152290	4054.742074	21691.325688
34.535000	-0.000831	-0.000126	-0.001558	0.002088	6639.810262	39466.721162	4043.988115	21654.734862
35.035500	-0.002569	-0.000180	0.002864	0.001780	6628.324526	39487.968250	4054.159801	21667.861324
35.537000	-0.001442	-0.000692	0.003279	0.001255	6641.594252	39489.076779	4056.195674	21690.286916
36.035500	-0.000760	-0.000281	-0.000895	0.001730	6643.264456	39483.779628	4046.175917	21670.033657
36.539000	-0.003148	-0.000222	-0.001170	0.001600	6625.129528	39499.480961	4045.862988	21675.545660
37.037000	-0.002557	0.000702	0.003932	0.001863	6627.762258	39554.839214	4056.295221	21664.358164
37.536000	-0.002996	-0.000544	-0.002150	0.001286	6628.871971	39498.886102	4044.438549	21688.977444
38.040000	-0.001556	0.000034	0.002330	0.002153	6633.463943	39474.649997	4052.200943	21651.962509
38.534500	-0.002370	0.000202	0.003246	0.002294	6625.806770	39476.943116	4053.876101	21645.979531
39.035000	-0.001283	-0.000094	0.000083	0.001969	6637.139339	39479.372357	4047.762115	21659.837465
39.535000	-0.000984	0.000301	0.000247	0.002054	6638.848674	39505.228958	4047.930706	21656.187211
40.035500	-0.001557	0.000337	0.000811	0.001727	6636.881625	39535.636989	4049.847270	21670.153049
40.535500	-0.001178	0.000098	0.004721	0.002034	6637.454961	39490.048783	4057.635968	21657.067524
41.036000	-0.004323	-0.000463	-0.001376	0.001712	6614.841947	39469.961475	4045.182132	21670.782756
41.536000	-0.000189	0.000419	0.003456	0.002082	6645.026312	39512.804580	4054.788810	21655.004593
42.036500	-0.001948	0.000002	0.002121	0.002159	6630.268897	39471.535259	4051.739563	21651.720212
42.540000	-0.001038	-0.000548	0.000487	0.001085	6646.211670	39515.317958	4050.531277	21697.537129
43.037000	-0.000031	0.000162	0.001441	0.001965	6647.241095	39501.153001	4050.691003	21660.006730
43.537500	-0.000212	-0.000072	-0.002990	0.001311	6651.052266	39536.195501	4042.588482	21687.897850
44.035000	0.000872	-0.000454	0.004523	-0.003619	6699.911740	39919.032016	4069.550478	21899.681595
44.535500	-0.001343	0.000248	0.006243	0.000818	6645.909043	39604.423872	4063.597130	21708.981632
45.035500	-0.001494	-0.000508	0.000258	0.000862	6644.341560	39537.285170	4050.518951	21707.084177
45.536500	-0.001834	-0.000298	0.004401	0.000648	6643.326315	39572.871881	4059.951770	21716.254193
46.036000	-0.000260	0.000158	0.003750	0.000610	6656.321726	39614.290929	4058.617497	21717.860684
46.536500	-0.001741	-0.000244	0.006412	0.001025	6641.034801	39545.751881	4063.512834	21700.110164
47.036500	-0.000562	-0.000677	0.004188	0.000367	6655.848640	39564.620413	4060.100308	21728.271349
47.537000	-0.000792	0.000053	0.006274	0.001979	6640.997645	39490.854233	4061.131051	21659.395192
48.037000	-0.000660	-0.000566	0.002345	0.000476	6654.180463	39564.841129	4055.862071	21723.613571
48.537000	0.001410	0.000262	0.003192	0.000960	6667.005909	39593.646683	4056.646916	21702.896410
49.035000	-0.001276	-0.000173	0.001560	0.000337	6650.330408	39609.387440	4054.463039	21729.546315
49.536000	0.000620	-0.000026	0.005727	-0.002286	6686.962576	39842.495065	4069.265280	21842.146679
50.035500	0.003838	0.000150	0.005389	0.000829	6687.804990	39595.265786	4061.708298	21708.502240
50.535500	-0.001024	-0.000100	0.007621	0.003185	6629.454102	39377.378290	4061.438041	21608.033874
51.036500	-0.001969	-0.001854	0.002620	0.007399	6588.336734	38883.323080	4041.567964	21429.701322
51.536500	-0.046082	-0.009777	0.003060	0.024092	6138.808311	36915.897612	4007.533724	20740.016629
52.037000	-0.045962	-0.007719	-0.008049	-0.052020	6712.744005	43569.070988	4151.638160	24111.423557
52.537000	-0.061693	-0.056298	-0.019126	-0.275131	8894.788148	63546.942316	4804.120040	38194.617758
53.035000	-0.049188	-0.150978	-0.012002	-0.383883	10745.819280	65535.000000	5320.647257	48169.792043
53.537500	-0.046110	-0.138371	-0.014369	-0.371275	10580.917385	65535.000000	5245.892297	46881.326128
54.035500	-0.036756	-0.117282	-0.017098	-0.350187	10382.749669	65535.000000	5132.178995	44808.031735
54.535500	-0.032813	-0.080769	-0.015714	-0.312499	9841.874110	65366.527458	4970.414351	41344.518463
55.035500	-0.031866	-0.074920	-0.018777	-0.304760	9737.989035	65096.414977	4924.832547	40669.701482
55.536000	-0.019916	-0.087951	-0.016618	-0.320856	10177.614522	65535.000000	5002.525708	42086.746077
56.036000	-0.019084	-0.065280	-0.016476	-0.293202	9756.598037	64823.790563	4886.667829	39684.122797
56.539500	-0.019511	-0.038731	-0.016170	-0.252051	9153.210854	62785.550231	4727.637402	36380.334085
57.037000	-0.019968	-0.024073	-0.013258	-0.217907	8693.300480	60170.150906	4615.736676	33867.003627
57.540500	-0.020629	-0.019764	-0.015947	-0.198984	8448.784079	58284.345654	4542.881961	32556.894190
58.035000	-0.020616	-0.014386	-0.016940	-0.170321	8110.363901	55407.669921	4448.636486	30678.065700
58.535000	-0.020692	-0.013191	-0.018581	-0.155389	7941.791453	53781.495330	4398.701044	29747.288353
59.035500	-0.019995	-0.010315	-0.018734	-0.135564	7735.216642	51844.657283	4340.986391	28559.967798
59.535500	-0.020614	-0.007933	-0.022416	-0.109802	7464.842772	49294.039032	4260.621565	27095.851537
60.039000	-0.021726	-0.007531	-0.017287	-0.095842	7317.589428	47876.740960	4237.564737	26338.079943
60.535500	-0.022102	-0.006711	-0.018943	-0.088138	7240.725045	47173.750821	4213.630350	25930.166085
61.039000	-0.022332	-0.006216	-0.019037	-0.087092	7228.719878	47117.956591	4210.750521	25875.352656
61.536500	-0.020593	-0.005553	-0.019875	-0.091425	7286.167234	47626.311012	4219.601961	26103.291650
62.037000	-0.012571	-0.002174	-0.023506	-0.094844	7396.651153	48327.566434	4219.063790	26284.824477
62.537500	-0.012577	-0.001991	-0.023678	-0.096541	7413.225515	48523.441400	4222.948817	26375.439749
63.034000	-0.010111	-0.002412	-0.023297	-0.097058	7442.622358	48533.446026	4225.239385	26403.094377
63.535000	-0.010348	-0.001533	-0.024573	-0.096738	7437.119591	48591.876719	4221.169447	26385.989961
64.036500	-0.009491	-0.001926	-0.026397	-0.093496	7413.628441	48213.365625	4208.340421	26213.079411
64.536000	-0.011146	-0.002320	-0.021980	-0.092383	7386.516442	48057.349948	4216.687946	26154.001662
65.036000	-0.012602	-0.001075	-0.027789	-0.089506	7344.442032	47888.997615	4194.873435	26002.048255
65.536500	-0.010498	-0.001274	-0.021957	-0.088944	7359.370846	47810.720124	4208.058218	25972.495423
66.037000	-0.013353	-0.001905	-0.023604	-0.089201	7334.242744	47772.295294	4204.563048	25985.985498
66.537000	-0.011707	-0.003129	-0.018319	-0.089051	7348.697335	47631.449244	4217.524845	25978.107417
67.037000	-0.011813	-0.002945	-0.025298	-0.087678	7334.410733	47509.903748	4196.524614	25906.032337
67.534500	-0.012005	-0.002549	-0.021393	-0.086047	7316.875525	47384.050647	4202.201405	25820.672298
68.035000	-0.013434	-0.003650	-0.026790	-0.085628	7299.175491	47229.646547	4187.738689	25798.820047
68.535000	-0.014849	-0.004283	-0.023498	-0.084956	7279.271098	47097.516911	4194.230517	25763.803910
69.036000	-0.015179	-0.003174	-0.015588	-0.083373	7261.107958	47049.488203	4210.068012	25681.467816
69.535500	-0.015132	-0.004492	-0.021223	-0.082861	7256.702306	46864.987830	4194.677404	25654.895883
70.036500	-0.017108	-0.004848	-0.023211	-0.077715	7189.873570	46315.137109	4177.087737	25389.712978
70.536000	-0.016263	-0.004946	-0.022887	-0.080138	7220.408932	46546.648702	4183.827892	25514.184963
71.036500	-0.013899	-0.003738	-0.018018	-0.078550	7227.693517	46508.769090	4191.933564	25432.530527
71.537000	-0.016123	-0.004130	-0.016344	-0.078278	7204.309731	46442.520379	4195.413998	25418.546374
72.037000	-0.016899	-0.004049	-0.022103	-0.073864	7156.114899	46012.975593	4170.401014	25193.260342
72.534500	-0.016264	-0.004143	-0.021993	-0.078014	7200.525587	46414.956197	4180.804775	25405.027208
73.035500	-0.015467	-0.003983	-0.017517	-0.077193	7200.303892	46349.162890	4189.810469	25362.957825
73.535500	-0.018377	-0.004484	-0.018595	-0.077797	7178.836907	46359.400885	4188.638022	25393.887630
74.036000	-0.018035	-0.004170	-0.019050	-0.072844	7136.266832	45900.600653	4175.353760	25141.529240
74.538500	-0.016472	-0.004126	-0.016929	-0.075968	7179.545771	46213.460640	4188.235839	25300.376398
75.039000	-0.017411	-0.005625	-0.016522	-0.076529	7176.040933	46120.587597	4190.632117	25329.021703
75.536500	-0.017129	-0.005443	-0.023938	-0.075504	7169.148849	46037.328301	4169.926103	25276.700632
76.036500	-0.017901	-0.004488	-0.016217	-0.073260	7141.324232	45910.247670	4183.314801	25162.612663
76.537000	-0.018675	-0.005315	-0.018377	-0.073112	7132.852906	45814.465390	4177.652366	25155.101892
77.034500	-0.021237	-0.005452	-0.016755	-0.070902	7089.300788	45584.656818	4176.214104	25043.362313
77.538000	-0.019651	-0.005141	-0.021948	-0.068219	7079.363513	45353.755776	4157.142900	24908.469740
78.035500	-0.021004	-0.005917	-0.022943	-0.067547	7061.070479	45213.345355	4153.149908	24874.809306
78.536000	-0.020512	-0.005364	-0.023917	-0.066605	7057.011970	45175.648137	4148.579806	24827.701179
79.036000	-0.020448	-0.006745	-0.016704	-0.067151	7062.512069	45095.054161	4167.211561	24854.989964
79.536000	-0.023055	-0.005443	-0.019575	-0.065246	7022.048227	45036.811775	4155.702985	24759.930545
80.036500	-0.020933	-0.005814	-0.015466	-0.064633	7035.534214	44942.106364	4164.116697	24729.457455
80.536500	-0.021381	-0.006507	-0.016414	-0.064907	7033.981307	44901.853231	4162.490461	24743.087473
81.036500	-0.021753	-0.006228	-0.017896	-0.063505	7018.134682	44794.117631	4155.555274	24673.430635
81.534500	-0.021268	-0.006855	-0.019004	-0.062864	7016.743093	44672.695054	4151.372793	24641.656284
82.037000	-0.021100	-0.007461	-0.016767	-0.062878	7018.369767	44616.285274	4156.760771	24642.395095
82.540500	-0.022778	-0.006630	-0.023286	-0.061830	6994.144754	44595.526952	4138.764343	24590.532213
83.035000	-0.021456	-0.006607	-0.020958	-0.061138	6999.727069	44531.741759	4142.627956	24556.381886
83.535500	-0.021168	-0.006928	-0.020411	-0.060402	6995.756161	44431.268265	4142.182051	24520.121738
84.039000	-0.020670	-0.006366	-0.015787	-0.059783	6994.680490	44425.862238	4151.697289	24489.660587
84.536500	-0.021727	-0.006144	-0.014986	-0.058872	6977.292865	44360.493409	4151.435072	24444.928679
85.036000	-0.020924	-0.006386	-0.015292	-0.058341	6979.691300	44287.193237	4149.438809	24418.883094
85.536500	-0.021132	-0.006462	-0.023171	-0.057793	6973.028916	44228.297837	4129.562103	24392.090823
86.037000	-0.027103	-0.007136	-0.015911	-0.051774	6868.859495	43600.458476	4132.465601	24099.552416
86.537500	-0.020071	-0.006017	-0.019123	-0.055876	6965.494275	44089.273938	4134.551962	24298.449766
87.037500	-0.020631	-0.006653	-0.012241	-0.055867	6960.490384	44028.611209	4150.814481	24298.005446
87.535000	-0.021244	-0.006732	-0.019760	-0.055786	6954.413491	44013.642504	4132.848108	24294.099928
88.035500	-0.025527	-0.006598	-0.017531	-0.049918	6866.467731	43477.948263	4124.354283	24010.176373
88.541000	-0.022317	-0.005867	-0.016039	-0.054720	6935.702411	43994.675333	4139.088393	24242.201943
89.036500	-0.022492	-0.005830	-0.020521	-0.054705	6934.049007	43996.697803	4128.539175	24241.489604
89.536500	-0.024041	-0.006064	-0.019792	-0.055094	6923.943002	44011.245270	4131.150108	24260.374734
90.037000	-0.024808	-0.006145	-0.021259	-0.050267	6875.617929	43552.479884	4116.531417	24026.956128
90.537000	-0.026735	-0.006922	-0.014160	-0.055967	6908.151418	44012.769543	4146.486767	24302.906935
91.037000	-0.024802	-0.007873	-0.017026	-0.056600	6930.431913	43982.805198	4141.195857	24333.780939
91.535000	-0.024628	-0.007096	-0.018611	-0.055766	6924.687044	43977.456539	4135.495844	24293.099414
92.035500	-0.025630	-0.007728	-0.014576	-0.056470	6922.095916	43984.212172	4146.693160	24327.432004
92.535000	-0.025762	-0.006524	-0.016383	-0.055729	6914.513547	44027.764011	4140.658512	24291.308626
93.035500	-0.023390	-0.007057	-0.017340	-0.056133	6938.666177	44015.596840	4139.350455	24310.971823
93.535500	-0.024303	-0.006505	-0.021417	-0.056426	6933.266476	44095.169152	4130.465275	24325.280758
94.036500	-0.024108	-0.007213	-0.013649	-0.056859	6938.743403	44069.304202	4149.825206	24346.434174
94.536500	-0.025983	-0.006315	-0.017652	-0.056866	6922.466924	44154.553356	4140.346409	24346.745720
95.037000	-0.023600	-0.006786	-0.015517	-0.057184	6946.021119	44140.079185	4146.153784	24362.273790
95.534500	-0.023064	-0.007041	-0.015003	-0.057321	6951.909372	44129.014940	4147.700011	24368.996602
96.037500	-0.024581	-0.007680	-0.017023	-0.058056	6945.070797	44138.096212	4144.649851	24404.957720
