sample name	sample
index	999
start time	 04-14-2021  04:35:27 PM
880	0.020131
Peak Time (s)	102.037
Peak Height 	0.02013
calc peak height	100,103
Baseline Time (s)	8.536
Baseline Value 	-0.003549
subtract baseline	10,4
Abs	0.041956
Peak Time (s)	102.537
Peak Height 	0.04196
calc peak height	100,103
Baseline Time (s)	8.536
Baseline Value 	0.002723
subtract baseline	10,3
PK_550	0.026665
Peak Time (s)	101.039
Peak Height 	0.02667
calc peak height	100,103
Baseline Time (s)	10.537
Baseline Value 	-8.9432E-6
subtract baseline	10,2
PK_880	0.043965
Peak Time (s)	102.537
Peak Height 	0.04396
calc peak height	100,103
Baseline Time (s)	11.037
Baseline Value 	0.00166
subtract baseline	10,1


Time (s)	A880-A510	A880-A775	A880-A975	A880	I510	I775	I975	I880	
0.036000	-0.002277	-0.000608	0.000921	0.002350	6325.502001	42144.017995	3973.074614	22221.180428
0.536000	-0.000622	0.000036	-0.004718	0.005577	6313.472673	41912.110452	3952.810238	22078.842989
1.036000	-0.003766	0.000296	-0.004095	0.004521	6297.557964	42030.060646	3956.615858	22125.294815
1.537000	-0.001453	0.000075	-0.001458	0.002159	6333.290255	42222.792072	3968.034199	22229.630314
2.037500	-0.000886	-0.000283	-0.005631	0.001681	6341.338991	42233.728198	3959.583357	22250.841461
2.534000	0.000398	-0.000015	-0.004539	0.003213	6339.422338	42119.691893	3958.579811	22182.994605
3.037500	0.000675	-0.000016	-0.001549	-0.001320	6376.670333	42529.755471	3975.849715	22384.344398
3.535500	0.003451	0.000652	0.001505	0.000582	6383.483906	42417.702762	3978.520535	22299.634917
4.038500	0.000651	0.001448	0.004866	0.001344	6355.808453	42420.793440	3984.573585	22265.789637
4.536000	-0.001757	-0.000572	-0.002372	0.000904	6340.609080	42277.669065	3968.817529	22285.292834
5.036000	-0.000011	0.000109	0.001587	0.000585	6356.556893	42368.160237	3978.703775	22299.469952
5.536500	0.001731	-0.000056	-0.003101	0.000801	6368.390958	42333.794060	3967.381745	22289.907293
6.037000	-0.000193	0.000015	-0.001598	0.000521	6355.640564	42365.473017	3971.483546	22302.324906
6.537500	-0.000079	0.000150	-0.001354	0.000698	6355.157250	42361.691605	3971.638986	22294.474046
7.037500	-0.001601	0.000750	0.005534	0.000929	6341.626943	42395.183411	3987.106075	22284.210200
7.534500	0.000237	0.000942	-0.004140	0.000745	6357.238878	42429.189783	3965.127104	22292.371888
8.035500	-0.001220	0.001035	0.004631	0.001282	6341.839894	42388.989732	3984.168769	22268.523244
8.536000	0.000026	-0.000072	0.000000	0.000000	6361.374464	42404.803328	3976.380226	22325.509220
9.036000	-0.001028	-0.000301	-0.002079	0.000083	6352.573238	42376.581501	3971.383689	22321.820039
9.536000	0.001328	-0.000417	0.004008	-0.000711	6377.008830	42437.976931	3987.371218	22357.164960
10.036500	-0.001217	0.000268	0.002294	-0.000037	6352.041405	42439.034940	3981.795713	22327.153786
10.536500	-0.001030	0.000000	-0.002397	-0.000076	6353.788438	42418.264717	3971.018619	22328.897107
11.037000	0.000000	0.000570	-0.004700	0.000356	6358.413613	42430.786309	3964.735129	22309.662654
11.534000	0.000215	0.000026	0.004041	0.000001	6362.831371	42413.617393	3985.783369	22325.478869
12.037000	0.000425	0.001121	-0.004418	0.000794	6358.318798	42441.081104	3964.378098	22290.204908
12.535000	-0.004974	-0.000370	-0.009728	0.004757	6286.597983	41949.174597	3943.375164	22114.905871
13.035000	-0.001172	0.000382	0.005221	0.000582	6347.608479	42393.176359	3987.184965	22299.610973
13.538500	-0.003696	-0.000381	-0.004002	0.000811	6326.424555	42303.488789	3965.291409	22289.461767
14.035500	-0.001164	0.000126	-0.001974	0.002373	6333.873077	42208.119030	3966.359420	22220.181059
14.536000	-0.005919	-0.000999	-0.004395	0.003918	6285.794009	41968.024598	3957.304667	22151.907808
15.039000	-0.000047	-0.000581	-0.003207	0.000567	6356.415980	42307.443675	3967.675068	22300.292990
15.537000	-0.000157	0.000761	0.001277	0.001543	6348.019656	42340.519096	3975.763922	22256.931641
16.037000	-0.002040	0.000920	0.000336	0.001473	6334.057914	42361.249878	3973.750358	22260.053111
16.537500	-0.002042	0.000566	-0.002731	0.004485	6310.964157	42057.527103	3959.800268	22126.880365
17.037000	0.001397	0.000675	-0.004597	-0.002652	6392.699917	42714.171084	3971.884369	22443.910182
17.537500	-0.002296	-0.000311	-0.002673	0.000639	6338.500722	42325.264763	3968.734662	22297.074844
18.038000	-0.000532	0.000131	0.000500	0.001469	6345.705315	42290.263882	3974.139699	22260.248153
18.535000	0.000251	-0.000281	-0.005384	0.003204	6338.360304	42096.516873	3956.679119	22183.392419
19.036000	-0.002758	0.000360	0.003241	0.001980	6324.648075	42264.662935	3979.305965	22237.552922
19.536000	0.000139	0.000473	0.006031	0.001832	6348.079144	42288.256281	3986.155496	22244.123011
20.036500	-0.001114	0.000109	0.000452	0.001525	6340.783689	42283.221174	3973.897846	22257.756032
20.536500	-0.002020	0.000061	-0.004173	0.003682	6317.269564	42084.389289	3958.345481	22162.297837
21.037000	0.001202	-0.000211	-0.003550	0.001333	6360.154717	42271.597629	3965.130254	22266.249872
21.537500	-0.003027	-0.000203	0.001050	0.000941	6330.559796	42307.741883	3976.631771	22283.645198
22.034500	-0.000677	0.000484	-0.002017	0.002206	6338.907601	42255.495090	3966.643120	22227.562090
22.535000	-0.000633	-0.000233	0.000569	0.003568	6328.769233	42068.170844	3969.455178	22167.316731
23.035500	0.000090	0.000295	0.004267	0.001502	6350.248076	42302.081155	3982.807590	22258.779528
23.536000	-0.001170	0.000206	0.001309	0.001608	6339.716269	42284.456505	3975.688336	22254.081024
24.039000	-0.000863	-0.000193	-0.003949	0.001505	6342.870455	42257.658552	3963.823917	22258.638659
24.536500	-0.002313	0.001028	0.000193	0.002309	6325.540539	42295.345773	3971.489467	22222.987942
25.036000	-0.003592	0.000222	-0.000648	0.001449	6322.335611	42300.274477	3971.534929	22261.118957
25.536500	-0.002163	0.000747	-0.000437	0.002200	6327.530119	42279.775215	3970.287654	22227.814078
26.037000	-0.002181	-0.000310	0.001710	0.001310	6334.225359	42264.796164	3977.307515	22267.300528
26.535000	-0.000188	0.000345	-0.003803	0.001850	6345.418696	42275.105589	3963.368768	22243.331738
27.037000	0.000471	0.000201	0.002116	-0.001115	6373.483685	42530.852684	3983.892505	22375.204794
27.542000	0.001429	0.000887	-0.001828	0.000378	6369.332140	42457.565878	3971.282782	22308.695501
28.035500	-0.000489	0.000495	-0.002212	0.001760	6343.784462	42296.754579	3967.218559	22247.310203
28.536000	-0.001561	0.001119	-0.006774	0.001965	6333.958258	42334.775421	3956.337340	22238.254613
29.036500	0.001109	-0.000539	0.002158	0.000610	6365.041905	42307.312589	3979.973894	22298.396558
29.536500	-0.000644	0.000795	-0.004204	0.001449	6344.996946	42352.121804	3963.368992	22261.133095
30.036500	-0.002564	0.000857	0.005711	0.002077	6325.398688	42300.867816	3984.835647	22233.281713
30.537000	-0.000913	0.000733	0.002950	0.003091	6330.284541	42198.124732	3976.053027	22188.410289
31.037000	-0.002243	0.000404	-0.004917	0.002598	6323.863369	42212.886965	3959.119119	22210.210169
31.534500	-0.000177	0.000038	0.001156	0.000772	6353.829299	42344.855083	3977.270024	22291.182892
32.035000	-0.001247	0.000798	-0.000690	0.002885	6329.303784	42222.605980	3968.132851	22197.515095
32.538000	-0.005071	-0.000476	-0.004167	0.006395	6273.478211	41793.186276	3952.205122	22042.936855
33.038000	0.000701	0.000001	0.002639	0.001188	6357.404791	42303.870328	3979.748049	22272.716724
33.536000	0.000680	0.000405	0.000876	0.001233	6356.887979	42336.337358	3975.554069	22270.698014
34.036500	-0.000859	0.000244	0.000807	0.001938	6339.565178	42258.011710	3973.761926	22239.422705
34.536500	-0.001025	-0.000504	-0.004357	0.003450	6326.676094	42054.458197	3958.456527	22172.559514
35.037000	-0.001480	0.000247	0.002429	0.001211	6340.381060	42323.997590	3979.204834	22271.660173
35.537500	0.002335	0.001296	-0.004150	0.002131	6362.754195	42335.730011	3961.932917	22230.873308
36.037000	-0.000575	-0.000517	-0.000399	0.001842	6342.497322	42198.096900	3971.202617	22243.705340
36.535000	0.000740	0.000430	0.001176	0.001713	6353.639966	42295.126466	3975.136256	22249.390159
37.038000	-0.001471	-0.000564	-0.001313	0.000638	6344.867347	42302.530352	3971.871372	22297.140871
37.536000	-0.002418	-0.000045	0.002279	0.001027	6334.578877	42314.262151	3979.283122	22279.831606
38.035500	-0.000668	0.000144	0.000300	0.001545	6344.061792	42284.457072	3973.500397	22256.845794
38.536500	-0.000854	0.001158	-0.001231	0.002270	6337.052709	42310.660715	3968.303250	22224.734089
39.036500	-0.000490	0.000790	-0.001804	0.001970	6342.164063	42304.507100	3967.675292	22238.031442
39.536500	0.001450	0.001998	-0.002008	0.002568	6352.515924	42359.673109	3965.833419	22211.521718
40.037000	0.000100	0.000309	0.000207	0.001723	6348.621204	42283.336532	3972.875073	22248.978086
40.537000	-0.002686	0.000573	0.001034	0.004071	6309.210107	42095.401514	3969.367130	22145.125773
41.035000	0.000345	0.000910	0.000206	0.001963	6348.653517	42315.950890	3972.316451	22238.313210
41.535500	-0.001405	-0.000507	0.000991	0.001130	6341.584501	42263.231608	3976.060532	22275.295540
42.035500	-0.000965	0.000297	0.003672	0.001376	6343.079897	42313.676447	3981.713965	22264.365769
42.536000	-0.000605	0.000391	-0.002447	0.003591	6328.809600	42122.231309	3962.488973	22166.319439
43.036000	0.001457	0.000799	-0.000552	0.002514	6352.993802	42256.205050	3969.303112	22213.932078
43.536000	0.000557	0.000834	-0.002394	0.002147	6348.870766	42292.463636	3965.913049	22230.157777
44.037000	-0.001549	0.000770	-0.003788	0.000817	6342.882560	42407.100384	3965.768953	22289.173805
44.537000	-0.001335	0.000128	-0.004940	0.004198	6318.564264	42044.019755	3955.430639	22139.538503
45.037000	-0.001022	-0.000270	0.003848	0.000697	6347.875976	42323.791302	3983.707612	22294.507912
45.534500	-0.002763	0.000056	0.003207	0.000729	6334.218986	42350.402596	3982.138164	22293.092919
46.035000	-0.000649	-0.000979	-0.000402	0.003969	6325.573742	41965.239691	3966.304198	22149.646588
46.538000	-0.003871	-0.000248	-0.005031	0.003917	6301.354905	42035.510490	3955.861826	22151.948058
47.035500	-0.001176	-0.000152	0.002369	0.000737	6346.376578	42330.818941	3980.169235	22292.734691
47.536000	0.000240	0.000738	-0.003033	0.001797	6349.132532	42315.506178	3965.252867	22245.693309
48.036000	-0.001736	-0.000172	-0.002717	0.004061	6316.544792	42029.312453	3960.798787	22145.566244
48.536500	-0.002413	-0.000040	-0.004040	0.003548	6315.288582	42087.310337	3958.951578	22168.196319
49.037000	-0.001476	0.000634	-0.000704	0.000810	6343.503822	42395.366774	3972.878378	22289.485833
49.537000	-0.000137	0.001735	0.001253	0.001666	6347.223192	42417.616152	3975.422056	22251.472941
50.034500	-0.003274	0.001185	-0.002761	0.004154	6304.096629	42143.055110	3960.486908	22141.468326
50.534500	-0.000802	0.000931	0.001696	0.012902	6256.629188	41340.632457	3950.751006	21759.643007
51.038000	0.018687	-0.004695	0.004182	0.053052	6105.113130	37507.910703	3869.296464	20102.482329
51.535500	0.011974	-0.015225	-0.009002	0.169104	5339.400605	28790.436724	3637.890915	16090.501362
52.035500	-0.005805	-0.028751	-0.018336	-0.123335	7407.167396	51994.121784	4251.563886	28674.529780
52.536000	-0.010244	-0.081573	-0.023153	-0.275226	9190.723974	64540.526620	4768.012076	39427.310911
53.036500	0.000404	-0.089206	-0.012163	-0.288395	9539.965098	65329.695638	4870.856173	40549.016379
53.536500	-0.000628	-0.074520	-0.011858	-0.269166	9241.645758	64681.321199	4789.814640	38922.418732
54.037000	-0.001681	-0.058026	-0.011941	-0.246302	8906.972519	63783.723613	4696.170305	37079.849037
54.537000	0.000736	-0.036594	-0.012198	-0.211855	8486.669789	61989.937411	4563.614569	34480.598770
55.034500	0.003601	-0.039964	-0.009553	-0.221807	8651.159567	62890.475143	4610.510679	35210.538443
55.534500	0.007719	-0.046359	-0.006907	-0.233371	8859.100324	63607.115252	4665.065779	36079.853458
56.035000	0.002581	-0.027237	-0.007087	-0.191713	8260.134655	60543.825216	4509.410767	33053.641170
56.535000	0.006019	-0.019641	-0.009733	-0.167089	8009.477474	58332.372586	4415.737512	31396.696347
57.036000	0.005372	-0.014150	-0.005987	-0.148286	7789.872765	56662.839901	4366.477659	30193.180329
57.535500	0.005425	-0.010373	-0.009182	-0.098962	7275.669469	51322.855298	4207.441604	27273.013353
58.036000	-0.000165	-0.010091	-0.010696	-0.096334	7195.423572	51062.607512	4195.694772	27126.488927
58.536500	0.002006	-0.006580	-0.009231	-0.070861	6976.021981	48694.067114	4129.790960	25751.751956
59.037000	0.003027	-0.007249	-0.007158	-0.065429	6935.794706	48056.936969	4120.854311	25468.830986
59.537500	0.000899	-0.004176	-0.003159	-0.036562	6664.377330	45460.507544	4056.821154	24023.503147
60.035000	0.003647	-0.002803	-0.000994	-0.016394	6520.130095	43663.354301	4012.698939	23069.233490
60.537000	-0.000607	-0.003252	-0.002142	-0.002708	6377.501729	42362.111560	3977.693465	22446.450337
61.035500	0.002802	-0.001633	-0.007728	0.013518	6279.143977	41061.153624	3928.344290	21733.059550
61.535500	0.003102	-0.000164	0.001233	0.023148	6209.348560	40353.031643	3926.866350	21322.060684
62.036000	0.002743	0.000855	-0.005994	0.037835	6099.909679	39196.696370	3879.793696	20712.582766
62.536000	0.006712	0.000337	-0.002607	0.043269	6089.450898	38704.370000	3875.516246	20492.259553
63.036500	0.004846	0.000165	-0.004330	0.050533	6025.089077	38098.755353	3856.975777	20202.026497
63.537000	0.004106	0.000639	0.001247	0.055843	5983.183496	37710.457403	3857.522521	19992.902542
64.037000	0.005060	0.001290	-0.005414	0.060408	5958.438211	37399.235197	3834.880113	19815.131417
64.537500	0.009925	0.002909	0.003888	0.048602	6074.390955	38478.338353	3877.942200	20278.697202
65.035000	0.008876	0.002962	0.004180	0.069792	5920.696034	36794.282920	3835.297926	19455.571323
65.535000	0.012116	0.004287	0.008343	0.068329	5952.546649	37011.779630	3846.577662	19511.135448
66.035500	0.010664	0.005655	0.002535	0.078746	5872.824135	36311.044561	3814.441430	19119.633852
66.535500	0.014153	0.006491	0.008759	0.073194	5933.347908	36804.165523	3837.645678	19327.106468
67.036000	0.019211	0.008409	0.008199	0.066808	6011.790742	37456.163627	3849.360491	19569.054972
67.536500	0.017498	0.008493	0.016070	0.055604	6078.441212	38362.766844	3888.833421	20002.254127
68.036500	0.014848	0.007525	0.007457	0.049764	6101.168458	38761.354974	3882.986833	20232.510745
68.536500	0.018544	0.010277	0.011839	0.033259	6249.043014	40381.496545	3927.960595	20900.300776
69.037500	0.015508	0.010097	0.011730	0.027061	6272.814211	40902.664174	3941.480324	21157.675708
69.535000	0.016859	0.010894	0.009267	0.019552	6340.363915	41634.013746	3952.832031	21474.475374
70.035000	0.018318	0.010757	0.011589	0.014646	6389.747465	42060.228752	3969.321600	21684.412768
70.535500	0.017936	0.011972	0.011009	0.011933	6408.022268	42414.929133	3974.241657	21801.573477
71.036000	0.021457	0.012410	0.015720	0.009744	6453.174627	42653.864902	3990.320023	21896.574720
71.536000	0.019992	0.013128	0.017421	0.007927	6455.982558	42885.824741	3998.616768	21975.842946
72.036500	0.021565	0.013749	0.017596	0.005769	6485.841469	43141.714842	4004.158173	22070.410906
72.536500	0.020580	0.013509	0.020737	0.004034	6491.875131	43280.046524	4015.832345	22146.785378
73.036500	0.022570	0.014641	0.023887	0.003916	6508.884880	43395.969250	4023.726373	22151.957109
73.537000	0.023508	0.014733	0.023234	0.001729	6534.260567	43608.426459	4027.456184	22248.687840
74.037000	0.018362	0.014436	0.019823	0.005033	6466.071023	43273.382994	4011.234151	22102.764817
74.535000	0.024620	0.016003	0.021571	-0.000668	6562.976413	43952.612391	4029.246140	22355.289219
75.035500	0.024627	0.016366	0.022358	-0.001357	6568.696084	44051.757061	4032.849878	22386.015259
75.535500	0.027811	0.016795	0.028873	-0.000983	6591.884014	44056.970550	4047.982778	22369.313171
76.035500	0.022460	0.016329	0.016691	0.003616	6510.427510	43581.230817	4007.132747	22165.218727
76.536000	0.022336	0.015758	0.018874	0.002815	6515.912046	43602.673060	4014.281316	22200.602241
77.036500	0.025444	0.017122	0.020541	-0.002421	6584.196602	44224.040641	4031.007849	22433.575680
77.536500	0.027272	0.017832	0.030174	-0.002853	6602.923443	44332.472414	4055.879285	22452.913553
78.037000	0.024930	0.017457	0.024371	0.000436	6556.454201	43985.566998	4033.388944	22306.114883
78.537000	0.027752	0.018848	0.025971	-0.003625	6613.342846	44502.917400	4047.338363	22487.552933
79.034500	0.030335	0.018865	0.027918	-0.004065	6638.618085	44546.626454	4053.274291	22507.328626
79.538000	0.029019	0.019151	0.028821	-0.003808	6625.441444	44549.386204	4054.886859	22495.777303
80.035500	0.027169	0.020200	0.024898	0.001083	6569.536028	44183.694489	4033.095105	22277.372334
80.535500	0.028216	0.019636	0.025466	0.002122	6569.598924	44032.063505	4031.942419	22231.292599
81.035500	0.031456	0.020769	0.027646	-0.003002	6639.099966	44627.116992	4049.951930	22459.622014
81.536500	0.033089	0.021044	0.028072	-0.002563	6649.127312	44611.324710	4049.917743	22439.925401
82.036500	0.031206	0.021742	0.024052	0.002394	6592.029966	44205.566851	4027.826882	22219.221306
82.536500	0.034365	0.021887	0.027184	-0.001938	6654.610168	44632.305360	4046.163437	22411.986332
83.037000	0.032783	0.021791	0.030456	-0.001562	6638.147568	44587.014281	4053.361891	22395.174483
83.537500	0.033758	0.021564	0.028912	-0.001608	6646.715340	44569.653359	4049.629757	22397.202396
84.037500	0.035346	0.022645	0.033426	-0.000331	6649.339719	44550.981851	4057.708162	22340.255464
84.535500	0.036936	0.022168	0.028905	-0.000081	6660.629106	44481.512108	4045.825273	22329.121033
85.035500	0.036044	0.022295	0.028877	0.000140	6651.244020	44472.560364	4045.207832	22319.268633
85.538000	0.035928	0.022328	0.033494	0.000761	6645.054919	44416.550288	4055.146219	22291.676183
86.036000	0.038011	0.021762	0.028656	0.000590	6664.035028	44378.788121	4043.548975	22299.246245
86.536500	0.035498	0.022030	0.032832	0.001217	6637.612327	44344.738352	4052.358570	22271.431952
87.036500	0.036191	0.022536	0.031929	0.002048	6636.453550	44313.795265	4048.043112	22234.553883
87.536500	0.038857	0.023159	0.034388	0.002867	6651.971213	44295.137563	4052.121089	22198.302184
88.037000	0.037262	0.022777	0.031916	0.003650	6632.001799	44184.558735	4044.043424	22163.711929
88.537500	0.035312	0.022859	0.033798	0.003433	6617.519885	44212.933896	4049.246733	22173.291375
89.038000	0.039736	0.023526	0.030346	0.004914	6642.150938	44135.805473	4037.059917	22108.008502
89.535000	0.039552	0.023852	0.028557	0.005293	6637.428280	44130.817461	4031.746698	22091.310446
90.036000	0.037162	0.023848	0.028421	0.010726	6572.410858	43619.440277	4018.222459	21853.890729
90.539000	0.036948	0.024356	0.027453	0.013154	6550.719609	43440.423567	4010.059380	21748.768738
91.036500	0.039952	0.023755	0.032025	0.007395	6623.179278	43923.202402	4035.088976	21999.097771
91.539000	0.040268	0.024010	0.036915	0.007924	6621.402747	43897.490877	4045.837443	21975.988389
92.036500	0.038847	0.025215	0.035734	0.008968	6600.879564	43912.550677	4040.340742	21930.389946
92.537000	0.037588	0.023556	0.030797	0.014491	6545.017824	43241.966502	4014.875535	21691.088325
93.034500	0.038900	0.024900	0.033824	0.009977	6592.954744	43788.158548	4033.171964	21886.456256
93.540500	0.040368	0.025329	0.038297	0.010634	6599.676962	43766.670363	4042.552040	21857.884142
94.035500	0.040217	0.025683	0.037639	0.013935	6571.138442	43491.188037	4032.822146	21715.044055
94.535500	0.042047	0.025212	0.033482	0.011646	6605.220837	43660.954595	4028.263183	21813.998972
95.035500	0.041619	0.025227	0.038877	0.011789	6600.469869	43649.025646	4041.133763	21807.783261
95.536000	0.041023	0.025681	0.038622	0.012199	6592.138615	43653.150987	4039.496699	21790.060114
96.036000	0.041352	0.025847	0.037300	0.013157	6586.927506	43579.150943	4033.898420	21748.635423
96.536500	0.040638	0.025749	0.036242	0.013187	6580.778920	43567.160379	4031.236775	21747.325951
97.037000	0.043473	0.026196	0.037755	0.013928	6598.110269	43539.743470	4033.123800	21715.371061
97.534000	0.040363	0.025460	0.035241	0.013745	6573.907984	43488.189682	4027.433720	21723.249690
98.034500	0.042115	0.026228	0.034284	0.014711	6580.393436	43469.658177	4022.761971	21681.619364
98.534500	0.043294	0.025782	0.039442	0.015212	6585.992253	43381.627137	4034.109460	21660.080730
99.035500	0.041293	0.026504	0.035520	0.016009	6562.932637	43374.676715	4022.612763	21625.851018
99.535500	0.043021	0.026852	0.042909	0.016775	6570.852169	43335.875307	4038.784892	21593.039315
100.036000	0.042677	0.026232	0.038515	0.016438	6570.793373	43309.643831	4028.851171	21607.469864
100.536000	0.042479	0.026665	0.040450	0.017150	6563.300977	43283.656090	4031.833938	21576.958869
101.039000	0.041702	0.026665	0.037121	0.017388	6554.969279	43261.669433	4023.150331	21566.771735
101.539500	0.042624	0.026527	0.033350	0.017626	6560.589145	43226.853967	4013.477690	21556.634474
102.037000	0.040956	0.026177	0.036455	0.020131	6526.489951	42963.478387	4014.917829	21449.841506
102.537000	0.043965	0.025980	0.041956	0.018259	6566.398689	43117.712802	4032.806447	21529.567416
103.040000	0.043572	0.027691	0.044588	0.019622	6551.994545	43149.943331	4035.915805	21471.505993
103.535000	0.042684	0.026596	0.040283	0.019031	6549.567206	43103.398466	4026.840396	21496.674518
104.035000	0.044190	0.027364	0.041115	0.020289	6551.598388	43058.284763	4025.807018	21443.158914
104.535000	0.040320	0.027254	0.030403	0.025835	6475.323200	42540.272502	3987.019232	21209.038891
105.036000	0.044747	0.027693	0.041797	0.021272	6548.104815	42997.931393	4025.073798	21401.423760
105.536000	0.044854	0.027675	0.040391	0.021436	6547.641462	42981.232347	4021.268488	21394.491197
106.036500	0.044506	0.027476	0.041106	0.021803	6541.797826	42929.198508	4022.110431	21378.934700
106.537000	0.040964	0.028145	0.033803	0.027874	6464.165685	42435.985462	3990.209959	21123.717086
107.037500	0.043408	0.026422	0.042748	0.022120	6530.263423	42803.412992	4025.322038	21365.507277
107.538000	0.043543	0.027374	0.038872	0.022740	6526.322061	42833.889760	4014.458996	21339.325191
108.035000	0.043766	0.027491	0.040449	0.025590	6505.026969	42584.095138	4011.400350	21219.310405
108.535000	0.045167	0.027946	0.040449	0.023947	6529.702834	42775.645763	4015.346693	21288.380728
109.034500	0.045156	0.027596	0.038213	0.024527	6524.904286	42690.646147	4008.591596	21263.968075
109.535000	0.046564	0.028290	0.043937	0.025804	6525.961132	42637.413819	4019.277474	21210.311304
110.035500	0.044327	0.027113	0.036683	0.025648	6509.089974	42544.441716	4002.274522	21216.877995
110.536500	0.046420	0.028128	0.040596	0.026965	6515.370727	42516.954055	4008.461013	21161.692645
111.037000	0.045454	0.027512	0.044896	0.026381	6512.283242	42514.085724	4020.203403	21186.151115
111.537000	0.045351	0.028597	0.042275	0.027951	6498.760149	42470.016773	4010.118596	21120.507936
112.034500	0.042692	0.028350	0.042759	0.028776	6470.767494	42372.821055	4009.303179	21086.111462
112.539500	0.045252	0.028039	0.042613	0.028136	6496.466214	42402.540678	4010.485902	21112.782296
