sample name	sample
index	4
start time	 02-11-2021  11:16:07 AM


Wavelength (nm)	Absorbance
494.344910	0.030321
494.563924	0.030321
494.782919	0.030321
495.001897	-0.121170
495.220856	0.019684
495.439797	0.021672
495.658719	0.023420
495.877624	0.035443
496.096510	0.000115
496.315378	-0.015143
496.534227	-0.018632
496.753059	-0.011668
496.971872	-0.009419
497.190667	-0.011649
497.409444	-0.000909
497.628203	-0.000121
497.846943	0.001374
498.065665	0.010860
498.284369	0.011113
498.503055	0.011080
498.721723	0.011673
498.940372	0.011024
499.159003	0.011039
499.377616	0.010613
499.596210	0.011712
499.814787	0.010412
500.033345	0.006998
500.251885	0.008101
500.470406	0.009083
500.688910	0.009732
500.907395	0.011570
501.125862	0.011194
501.344311	0.011835
501.562742	0.011714
501.781154	0.013678
501.999548	0.016339
502.217924	0.015817
502.436282	0.015104
502.654621	0.013142
502.872942	0.010844
503.091245	0.012765
503.309530	0.013017
503.527797	0.013349
503.746045	0.014168
503.964275	0.012564
504.182487	0.013294
504.400681	0.013862
504.618856	0.014787
504.837013	0.016548
505.055152	0.014939
505.273273	0.014892
505.491376	0.014621
505.709460	0.013222
505.927526	0.013170
506.145574	0.010933
506.363604	0.011359
506.581615	0.012434
506.799608	0.011612
507.017583	0.012405
507.235540	0.012413
507.453478	0.012144
507.671399	0.011845
507.889301	0.013686
508.107185	0.016465
508.325050	0.013900
508.542898	0.014001
508.760727	0.013967
508.978538	0.014184
509.196330	0.014712
509.414105	0.015706
509.631861	0.015613
509.849599	0.013959
510.067319	0.012886
510.285021	0.013644
510.502704	0.012252
510.720369	0.013395
510.938016	0.012776
511.155645	0.011467
511.373255	0.010476
511.590848	0.009580
511.808422	0.009772
512.025977	0.009289
512.243515	0.011360
512.461034	0.011558
512.678536	0.009509
512.896018	0.009228
513.113483	0.009876
513.330930	0.009592
513.548358	0.011770
513.765768	0.011417
513.983160	0.010649
514.200533	0.009346
514.417889	0.008701
514.635226	0.009919
514.852545	0.009376
515.069845	0.009879
515.287128	0.010358
515.504392	0.009378
515.721638	0.009681
515.938866	0.009972
516.156075	0.010294
516.373267	0.011630
516.590440	0.011928
516.807594	0.014060
517.024731	0.013797
517.241850	0.013523
517.458950	0.013688
517.676032	0.014678
517.893095	0.016148
518.110141	0.015535
518.327168	0.014786
518.544177	0.013450
518.761168	0.013602
518.978141	0.014149
519.195095	0.014333
519.412031	0.014410
519.628949	0.013975
519.845849	0.013883
520.062731	0.014397
520.279594	0.015265
520.496439	0.016557
520.713266	0.015710
520.930074	0.015852
521.146865	0.015095
521.363637	0.015101
521.580391	0.014601
521.797127	0.013221
522.013844	0.013702
522.230543	0.012829
522.447224	0.013569
522.663887	0.013999
522.880532	0.012875
523.097158	0.014529
523.313766	0.014028
523.530356	0.013541
523.746928	0.014200
523.963481	0.013856
524.180017	0.014021
524.396534	0.013450
524.613032	0.012918
524.829513	0.012799
525.045975	0.011279
525.262420	0.012178
525.478845	0.012352
525.695253	0.012341
525.911643	0.011029
526.128014	0.010000
526.344367	0.009277
526.560702	0.008440
526.777018	0.008182
526.993316	0.009200
527.209597	0.008624
527.425858	0.009251
527.642102	0.009368
527.858328	0.009879
528.074535	0.010876
528.290724	0.011494
528.506894	0.011543
528.723047	0.011984
528.939181	0.011503
529.155297	0.011176
529.371395	0.010891
529.587475	0.011050
529.803536	0.010999
530.019579	0.010951
530.235604	0.010703
530.451611	0.011407
530.667600	0.011985
530.883570	0.012276
531.099522	0.012441
531.315456	0.012253
531.531372	0.011398
531.747269	0.012753
531.963148	0.012257
532.179009	0.012249
532.394852	0.011573
532.610676	0.010929
532.826482	0.010608
533.042271	0.011040
533.258040	0.011658
533.473792	0.012478
533.689525	0.011630
533.905240	0.011606
534.120937	0.012766
534.336616	0.013280
534.552277	0.013292
534.767919	0.014076
534.983543	0.013649
535.199149	0.013714
535.414736	0.013945
535.630306	0.014668
535.845857	0.014945
536.061390	0.013336
536.276904	0.014250
536.492401	0.014302
536.707879	0.013516
536.923339	0.014736
537.138781	0.015895
537.354204	0.015548
537.569610	0.015127
537.784997	0.015872
538.000366	0.017645
538.215716	0.016412
538.431049	0.016685
538.646363	0.017448
538.861659	0.016896
539.076937	0.015791
539.292196	0.016336
539.507438	0.016531
539.722661	0.015692
539.937866	0.014796
540.153052	0.015830
540.368221	0.016180
540.583371	0.016396
540.798503	0.016599
541.013617	0.015977
541.228712	0.015546
541.443789	0.016049
541.658848	0.016677
541.873889	0.016561
542.088912	0.016405
542.303916	0.015610
542.518902	0.015617
542.733870	0.014957
542.948820	0.015509
543.163752	0.015944
543.378665	0.015182
543.593560	0.015213
543.808437	0.015574
544.023295	0.015576
544.238136	0.016344
544.452958	0.015849
544.667762	0.015975
544.882548	0.016276
545.097315	0.015500
545.312064	0.016054
545.526795	0.015997
545.741508	0.016299
545.956203	0.016487
546.170879	0.016076
546.385537	0.015787
546.600177	0.015158
546.814799	0.015058
547.029402	0.015610
547.243988	0.015160
547.458555	0.015739
547.673103	0.014801
547.887634	0.014670
548.102146	0.014732
548.316640	0.014527
548.531116	0.015066
548.745574	0.015377
548.960013	0.015444
549.174435	0.015292
549.388838	0.015166
549.603222	0.015627
549.817589	0.015088
550.031937	0.014869
550.246267	0.015185
550.460579	0.014656
550.674873	0.013377
550.889148	0.012303
551.103405	0.012834
551.317644	0.012122
551.531865	0.011480
551.746068	0.011323
551.960252	0.011213
552.174418	0.011577
552.388566	0.011802
552.602696	0.011920
552.816807	0.012570
553.030900	0.011801
553.244975	0.012023
553.459032	0.012670
553.673070	0.013110
553.887091	0.013152
554.101093	0.012540
554.315077	0.013162
554.529042	0.013312
554.742990	0.013277
554.956919	0.013968
555.170830	0.013908
555.384722	0.013517
555.598597	0.013406
555.812453	0.013314
556.026291	0.013549
556.240111	0.013223
556.453913	0.013761
556.667696	0.014101
556.881461	0.013431
557.095208	0.013258
557.308937	0.013095
557.522647	0.013693
557.736339	0.013535
557.950013	0.013573
558.163669	0.013281
558.377307	0.013093
558.590926	0.012902
558.804527	0.013575
559.018110	0.013797
559.231675	0.014024
559.445221	0.013398
559.658749	0.013556
559.872259	0.012932
560.085751	0.013136
560.299225	0.013090
560.512680	0.013258
560.726117	0.013011
560.939536	0.012848
561.152937	0.012649
561.366319	0.012568
561.579683	0.012042
561.793029	0.012833
562.006357	0.013006
562.219667	0.012748
562.432958	0.012506
562.646231	0.012419
562.859486	0.012699
563.072723	0.012873
563.285941	0.013175
563.499141	0.014067
563.712323	0.014029
563.925487	0.014231
564.138632	0.014515
564.351760	0.014355
564.564869	0.014493
564.777960	0.014287
564.991032	0.013780
565.204087	0.013298
565.417123	0.012693
565.630141	0.012093
565.843140	0.011962
566.056122	0.011588
566.269085	0.011498
566.482030	0.011505
566.694957	0.011611
566.907866	0.012830
567.120756	0.013351
567.333628	0.013802
567.546482	0.014071
567.759318	0.014080
567.972135	0.014588
568.184935	0.014758
568.397716	0.015060
568.610478	0.015130
568.823223	0.014089
569.035949	0.014161
569.248657	0.014429
569.461347	0.014310
569.674019	0.014724
569.886672	0.014799
570.099308	0.014777
570.311925	0.014353
570.524523	0.014463
570.737104	0.014867
570.949666	0.014261
571.162210	0.014548
571.374736	0.014990
571.587244	0.014552
571.799733	0.014234
572.012205	0.014395
572.224658	0.014459
572.437092	0.014106
572.649509	0.013730
572.861907	0.013937
573.074287	0.013690
573.286649	0.013858
573.498993	0.013761
573.711318	0.014060
573.923625	0.013731
574.135914	0.013566
574.348185	0.013331
574.560438	0.013560
574.772672	0.013831
574.984888	0.013300
575.197086	0.012531
575.409266	0.012688
575.621427	0.012089
575.833570	0.012363
576.045695	0.011811
576.257802	0.012105
576.469890	0.011935
576.681961	0.011268
576.894013	0.011789
577.106046	0.012004
577.318062	0.011541
577.530059	0.011789
577.742039	0.011372
577.954000	0.011774
578.165942	0.011532
578.377867	0.011163
578.589773	0.010845
578.801661	0.010164
579.013531	0.009856
579.225382	0.009679
579.437216	0.009657
579.649031	0.009975
579.860828	0.009778
580.072606	0.009903
580.284367	0.010087
580.496109	0.010554
580.707833	0.010870
580.919539	0.011135
581.131227	0.011720
581.342896	0.011813
581.554547	0.011694
581.766180	0.011846
581.977795	0.011159
582.189391	0.011309
582.400969	0.011561
582.612529	0.011411
582.824071	0.011797
583.035595	0.011547
583.247100	0.011472
583.458587	0.011792
583.670056	0.011624
583.881506	0.012174
584.092939	0.012432
584.304353	0.012208
584.515749	0.012253
584.727127	0.012134
584.938486	0.012619
585.149828	0.012593
585.361151	0.012069
585.572456	0.012633
585.783742	0.012747
585.995011	0.012313
586.206261	0.012272
586.417493	0.012266
586.628706	0.011882
586.839902	0.011409
587.051079	0.010985
587.262238	0.011129
587.473379	0.010632
587.684502	0.010873
587.895606	0.011349
588.106692	0.011981
588.317760	0.011906
588.528810	0.012139
588.739841	0.012610
588.950855	0.013192
589.161850	0.013619
589.372827	0.014077
589.583785	0.013870
589.794726	0.013682
590.005648	0.013549
590.216552	0.013605
590.427437	0.013808
590.638305	0.013295
590.849154	0.013888
591.059985	0.013431
591.270798	0.013234
591.481592	0.012904
591.692369	0.013180
591.903127	0.012938
592.113867	0.013056
592.324588	0.013258
592.535292	0.013160
592.745977	0.012453
592.956644	0.012348
593.167293	0.012743
593.377923	0.013393
593.588536	0.012868
593.799130	0.013109
594.009706	0.012779
594.220263	0.012463
594.430803	0.012470
594.641324	0.012155
594.851827	0.012302
595.062312	0.011321
595.272778	0.010552
595.483227	0.010653
595.693657	0.010387
595.904069	0.011020
596.114462	0.011303
596.324838	0.011315
596.535195	0.012083
596.745534	0.012345
596.955855	0.012773
597.166157	0.013332
597.376441	0.013797
597.586707	0.013972
597.796955	0.013360
598.007185	0.013411
598.217396	0.013767
598.427589	0.013337
598.637764	0.013253
598.847921	0.013252
599.058060	0.013188
599.268180	0.012919
599.478282	0.012650
599.688366	0.013144
599.898431	0.013366
600.108479	0.012571
600.318508	0.012607
600.528519	0.012767
600.738511	0.012477
600.948486	0.012498
601.158442	0.012020
601.368380	0.012484
601.578300	0.012250
601.788202	0.011663
601.998085	0.012397
602.207950	0.012182
602.417797	0.012308
602.627626	0.012779
602.837436	0.012901
603.047228	0.013889
603.257002	0.013334
603.466758	0.013076
603.676496	0.013338
603.886215	0.013362
604.095916	0.013452
604.305599	0.013241
604.515264	0.013324
604.724910	0.012971
604.934538	0.012304
605.144148	0.012092
605.353740	0.012071
605.563314	0.011888
605.772869	0.011510
605.982406	0.011197
606.191925	0.011075
606.401425	0.010773
606.610908	0.010937
606.820372	0.011121
607.029818	0.011526
607.239246	0.011707
607.448655	0.011687
607.658047	0.011739
607.867420	0.011842
608.076775	0.011760
608.286111	0.011406
608.495430	0.011262
608.704730	0.011002
608.914012	0.010658
609.123275	0.010383
609.332521	0.010478
609.541748	0.010576
609.750957	0.010930
609.960148	0.011113
610.169321	0.011434
610.378475	0.011237
610.587611	0.011468
610.796729	0.011566
611.005829	0.011835
611.214910	0.011499
611.423974	0.011471
611.633019	0.011345
611.842045	0.011136
612.051054	0.011188
612.260044	0.011409
612.469017	0.011291
612.677970	0.011346
612.886906	0.010866
613.095824	0.011069
613.304723	0.010998
613.513604	0.010772
613.722467	0.010670
613.931311	0.010758
614.140138	0.010737
614.348946	0.010492
614.557736	0.010790
614.766507	0.011419
614.975261	0.011366
615.183996	0.011271
615.392713	0.011435
615.601412	0.011565
615.810092	0.011418
616.018754	0.011580
616.227399	0.011939
616.436024	0.011950
616.644632	0.011872
616.853222	0.012011
617.061793	0.011870
617.270346	0.011928
617.478880	0.011774
617.687397	0.012076
617.895895	0.011529
618.104375	0.011241
618.312837	0.011032
618.521281	0.010868
618.729706	0.010492
618.938113	0.010476
619.146502	0.010210
619.354873	0.010118
619.563226	0.009802
619.771560	0.010298
619.979876	0.010479
620.188174	0.010219
620.396453	0.010285
620.604715	0.010479
620.812958	0.010525
621.021183	0.010645
621.229390	0.010641
621.437578	0.010879
621.645748	0.010204
621.853900	0.010039
622.062034	0.010131
622.270150	0.010105
622.478247	0.009819
622.686326	0.009664
622.894387	0.009634
623.102430	0.009872
623.310454	0.009607
623.518461	0.009989
623.726449	0.010017
623.934418	0.009788
624.142370	0.009751
624.350303	0.009728
624.558218	0.009912
624.766115	0.009993
624.973994	0.009658
625.181855	0.009709
625.389697	0.009973
625.597521	0.010020
625.805327	0.010172
626.013114	0.010178
626.220883	0.010388
626.428634	0.010554
626.636367	0.010349
626.844082	0.010689
627.051778	0.010507
627.259457	0.010575
627.467117	0.010293
627.674758	0.010387
627.882382	0.009943
628.089987	0.009557
628.297574	0.009532
628.505143	0.009481
628.712694	0.009610
628.920226	0.010017
629.127740	0.009928
629.335236	0.010455
629.542714	0.010511
629.750174	0.010925
629.957615	0.011211
630.165038	0.011214
630.372443	0.011239
630.579829	0.011087
630.787198	0.010810
630.994548	0.010683
631.201880	0.010667
631.409194	0.010467
631.616489	0.010456
631.823766	0.010193
632.031025	0.010268
632.238266	0.010618
632.445489	0.010583
632.652693	0.010679
632.859879	0.010812
633.067047	0.010301
633.274197	0.010352
633.481329	0.010147
633.688442	0.010737
633.895537	0.010374
634.102614	0.010630
634.309672	0.010511
634.516713	0.010667
634.723735	0.010362
634.930739	0.010721
635.137724	0.010996
635.344692	0.011028
635.551641	0.010867
635.758572	0.011342
635.965485	0.010693
636.172379	0.010869
636.379256	0.010772
636.586114	0.010810
636.792954	0.010708
636.999775	0.010673
637.206579	0.010837
637.413364	0.011064
637.620131	0.010945
637.826880	0.011443
638.033610	0.011568
638.240323	0.011484
638.447017	0.011539
638.653692	0.011685
638.860350	0.011977
639.066990	0.012165
639.273611	0.011961
639.480214	0.011894
639.686798	0.011587
639.893365	0.011347
640.099913	0.011126
640.306443	0.011055
640.512955	0.010716
640.719449	0.010235
640.925924	0.009835
641.132381	0.009731
641.338820	0.009363
641.545241	0.008988
641.751644	0.009007
641.958028	0.008854
642.164394	0.008771
642.370742	0.008896
642.577071	0.009000
642.783383	0.008964
642.989676	0.008830
643.195951	0.008856
643.402207	0.009119
643.608446	0.008955
643.814666	0.009010
644.020868	0.008977
644.227052	0.008713
644.433218	0.008477
644.639365	0.008581
644.845494	0.008417
645.051605	0.008471
645.257698	0.008459
645.463772	0.008618
645.669828	0.008747
645.875866	0.008644
646.081886	0.008741
646.287888	0.008805
646.493871	0.008590
646.699836	0.008787
646.905783	0.008737
647.111712	0.008732
647.317622	0.008419
647.523514	0.008507
647.729388	0.008856
647.935244	0.009085
648.141082	0.008905
648.346901	0.009318
648.552702	0.009453
648.758485	0.009654
648.964250	0.009554
649.169996	0.009771
649.375724	0.009338
649.581434	0.009121
649.787126	0.009077
649.992800	0.009369
650.198455	0.009198
650.404092	0.008958
650.609711	0.008859
650.815311	0.008980
651.020894	0.008920
651.226458	0.009081
651.432004	0.008990
651.637532	0.008931
651.843041	0.009155
652.048532	0.009218
652.254006	0.009434
652.459460	0.009669
652.664897	0.009859
652.870315	0.010017
653.075716	0.010442
653.281097	0.010634
653.486461	0.010578
653.691807	0.010632
653.897134	0.010768
654.102443	0.011086
654.307734	0.011178
654.513006	0.011220
654.718261	0.010868
654.923497	0.010688
655.128715	0.010924
655.333915	0.011399
655.539096	0.011247
655.744259	0.011170
655.949404	0.010707
656.154531	0.010615
656.359640	0.010798
656.564730	0.011171
656.769802	0.011042
656.974856	0.010737
657.179892	0.010224
657.384909	0.009877
657.589908	0.009757
657.794889	0.009872
657.999852	0.009615
658.204797	0.009313
658.409723	0.009060
658.614631	0.009141
658.819521	0.009029
659.024393	0.008971
659.229246	0.009201
659.434081	0.009240
659.638898	0.009047
659.843697	0.009173
660.048478	0.009025
660.253240	0.009136
660.457984	0.009149
660.662710	0.009116
660.867417	0.009405
661.072107	0.009116
661.276778	0.009008
661.481431	0.009292
661.686066	0.009483
661.890682	0.009883
662.095281	0.010100
662.299861	0.010023
662.504422	0.010176
662.708966	0.009853
662.913491	0.009908
663.117999	0.009996
663.322488	0.009828
663.526958	0.009683
663.731411	0.009511
663.935845	0.009400
664.140261	0.009804
664.344659	0.009938
664.549038	0.010144
664.753400	0.010205
664.957743	0.010147
665.162068	0.010137
665.366375	0.010220
665.570663	0.009820
665.774933	0.009489
665.979185	0.009275
666.183419	0.009422
666.387635	0.009317
666.591832	0.009625
666.796011	0.010031
667.000172	0.010176
667.204315	0.010073
667.408439	0.010305
667.612545	0.010646
667.816634	0.010503
668.020703	0.010428
668.224755	0.010583
668.428788	0.010191
668.632803	0.010071
668.836800	0.009911
669.040779	0.010022
669.244739	0.010308
669.448681	0.010139
669.652605	0.010240
669.856511	0.010121
670.060399	0.010413
670.264268	0.010823
670.468119	0.010561
670.671952	0.010919
670.875767	0.010677
671.079563	0.010821
671.283341	0.011082
671.487101	0.011237
671.690843	0.011201
671.894567	0.011014
672.098272	0.010723
672.301959	0.010719
672.505628	0.010496
672.709278	0.010805
672.912911	0.010606
673.116525	0.010758
673.320121	0.010868
673.523699	0.011127
673.727258	0.011124
673.930799	0.011144
674.134322	0.011582
674.337827	0.011548
674.541314	0.011472
674.744782	0.011273
674.948232	0.011334
675.151664	0.011204
675.355078	0.010963
675.558474	0.010980
675.761851	0.010954
675.965210	0.010595
676.168551	0.010549
676.371873	0.010256
676.575178	0.010384
676.778464	0.010231
676.981732	0.010160
677.184981	0.010068
677.388213	0.009944
677.591426	0.010095
677.794621	0.010034
677.997798	0.010232
678.200956	0.010461
678.404097	0.010433
678.607219	0.010265
678.810323	0.010625
679.013408	0.011017
679.216476	0.011135
679.419525	0.011108
679.622556	0.011120
679.825569	0.011187
680.028563	0.011298
680.231540	0.011428
680.434498	0.011424
680.637438	0.011034
680.840359	0.010879
681.043263	0.010731
681.246148	0.010817
681.449015	0.011133
681.651864	0.011013
681.854694	0.010926
682.057506	0.010653
682.260301	0.010860
682.463076	0.010764
682.665834	0.010823
682.868573	0.010741
683.071295	0.010829
683.273998	0.010954
683.476682	0.010877
683.679349	0.010912
683.881997	0.010985
684.084627	0.010722
684.287239	0.010936
684.489833	0.010654
684.692408	0.010786
684.894965	0.010770
685.097504	0.010352
685.300025	0.010410
685.502527	0.010263
685.705012	0.010283
685.907478	0.010412
686.109925	0.010119
686.312355	0.010299
686.514766	0.010245
686.717159	0.009971
686.919534	0.010022
687.121891	0.009854
687.324230	0.010077
687.526550	0.010063
687.728852	0.009923
687.931136	0.010075
688.133401	0.009908
688.335649	0.010162
688.537878	0.010288
688.740089	0.010519
688.942281	0.010705
689.144456	0.010456
689.346612	0.010397
689.548750	0.010470
689.750870	0.010509
689.952971	0.010717
690.155055	0.010758
690.357120	0.011156
690.559167	0.011111
690.761195	0.011023
690.963206	0.011322
691.165198	0.011436
691.367172	0.011598
691.569128	0.011513
691.771065	0.011632
691.972984	0.011645
692.174885	0.011565
692.376768	0.011554
692.578633	0.011827
692.780479	0.011870
692.982308	0.011912
693.184118	0.011833
693.385909	0.011837
693.587683	0.011932
693.789438	0.011728
693.991175	0.011694
694.192894	0.011375
694.394595	0.010946
694.596277	0.010757
694.797941	0.010868
694.999587	0.010766
695.201215	0.010964
695.402824	0.010667
695.604416	0.010826
695.805989	0.010684
696.007543	0.010952
696.209080	0.011236
696.410598	0.011431
696.612099	0.011498
696.813580	0.011577
697.015044	0.011536
697.216490	0.011646
697.417917	0.011185
697.619326	0.011089
697.820717	0.010813
698.022089	0.010435
698.223444	0.010108
698.424780	0.009964
698.626098	0.009940
698.827397	0.009791
699.028679	0.009557
699.229942	0.009791
699.431187	0.009849
699.632414	0.010037
699.833622	0.009993
700.034813	0.010090
700.235985	0.010096
700.437139	0.010068
700.638274	0.010111
700.839392	0.010387
701.040491	0.010491
701.241572	0.010304
701.442635	0.010581
701.643679	0.011143
701.844706	0.011075
702.045714	0.011100
702.246704	0.011283
702.447675	0.011459
702.648629	0.011231
702.849564	0.011305
703.050481	0.011498
703.251380	0.011191
703.452260	0.011003
703.653122	0.011292
703.853966	0.011310
704.054792	0.011489
704.255600	0.011368
704.456389	0.011790
704.657160	0.011990
704.857913	0.012026
705.058648	0.012138
705.259365	0.012293
705.460063	0.012254
705.660743	0.012144
705.861405	0.011951
706.062048	0.012113
706.262674	0.011822
706.463281	0.011595
706.663870	0.011930
706.864441	0.011837
707.064993	0.011687
707.265527	0.011584
707.466043	0.011603
707.666541	0.011441
707.867021	0.011452
708.067482	0.011427
708.267925	0.011568
708.468350	0.011106
708.668757	0.011230
708.869145	0.011438
709.069516	0.011023
709.269868	0.010943
709.470201	0.011030
709.670517	0.010800
709.870814	0.010822
710.071093	0.010622
710.271354	0.010840
710.471597	0.010739
710.671821	0.010638
710.872028	0.011197
711.072216	0.011320
711.272385	0.011380
711.472537	0.011542
711.672670	0.011538
711.872785	0.011415
712.072882	0.011224
712.272961	0.011007
712.473021	0.010757
712.673063	0.010442
712.873087	0.010210
713.073093	0.009973
713.273081	0.009817
713.473050	0.009447
713.673001	0.009260
713.872934	0.009218
714.072849	0.009393
714.272745	0.009351
714.472623	0.009269
714.672483	0.009365
714.872325	0.009395
715.072148	0.009581
715.271954	0.009583
715.471741	0.009719
715.671509	0.009430
715.871260	0.009359
716.070992	0.009410
716.270707	0.009533
716.470403	0.009269
716.670080	0.009163
716.869740	0.009021
717.069381	0.009493
717.269004	0.009566
717.468609	0.009938
717.668195	0.009871
717.867764	0.009745
718.067314	0.009456
718.266846	0.009466
718.466360	0.009352
718.665855	0.009184
718.865332	0.009087
719.064791	0.008886
719.264232	0.008630
719.463655	0.008651
719.663059	0.008664
719.862445	0.008832
720.061813	0.008655
720.261163	0.008778
720.460494	0.008724
720.659807	0.008458
720.859102	0.008635
721.058379	0.008403
721.257638	0.008299
721.456878	0.008274
721.656100	0.008381
721.855304	0.008681
722.054490	0.008560
722.253657	0.008537
722.452806	0.008316
722.651937	0.008204
722.851050	0.008383
723.050145	0.008194
723.249221	0.008003
723.448279	0.007537
723.647319	0.007190
723.846340	0.007162
724.045344	0.007285
724.244329	0.007278
724.443296	0.006972
724.642245	0.006742
724.841175	0.006803
725.040088	0.006908
725.238982	0.007190
725.437857	0.007432
725.636715	0.007188
725.835554	0.006857
726.034376	0.006822
726.233179	0.006726
726.431963	0.006720
726.630730	0.006627
726.829478	0.006601
727.028208	0.006104
727.226920	0.006171
727.425614	0.006024
727.624289	0.005934
727.822946	0.005913
728.021585	0.006048
728.220206	0.005672
728.418808	0.005795
728.617392	0.005758
728.815958	0.006016
729.014506	0.005967
729.213036	0.006360
729.411547	0.006600
729.610040	0.006834
729.808515	0.006652
730.006972	0.006981
730.205410	0.006813
730.403831	0.006877
730.602233	0.006801
730.800616	0.006549
730.998982	0.006357
731.197329	0.005932
731.395658	0.005863
731.593969	0.006029
731.792262	0.005927
731.990536	0.005737
732.188793	0.005361
732.387031	0.005562
732.585250	0.005398
732.783452	0.005425
732.981635	0.005645
733.179800	0.005396
733.377947	0.005241
733.576076	0.005163
733.774186	0.005424
733.972278	0.005592
734.170352	0.005451
734.368408	0.005952
734.566446	0.006041
734.764465	0.006173
734.962466	0.006188
735.160449	0.006248
735.358413	0.006672
735.556360	0.006872
735.754288	0.006804
735.952198	0.006983
736.150090	0.006661
736.347963	0.006305
736.545818	0.006124
736.743655	0.006182
736.941474	0.006360
737.139275	0.006102
737.337057	0.006149
737.534821	0.006283
737.732567	0.006222
737.930295	0.006377
738.128005	0.006517
738.325696	0.006608
738.523369	0.006893
738.721024	0.006824
738.918660	0.007111
739.116279	0.007036
739.313879	0.007148
739.511461	0.007089
739.709024	0.007265
739.906570	0.007219
740.104097	0.007294
740.301606	0.007126
740.499097	0.007203
740.696569	0.007122
740.894024	0.007034
741.091460	0.007040
741.288878	0.007063
741.486277	0.006731
741.683659	0.006734
741.881022	0.006690
742.078367	0.006808
742.275694	0.006839
742.473002	0.006775
742.670293	0.006481
742.867565	0.006517
743.064819	0.006434
743.262054	0.006452
743.459272	0.006675
743.656471	0.006553
743.853652	0.006552
744.050815	0.006403
744.247959	0.006428
744.445085	0.006556
744.642194	0.006573
744.839283	0.006460
745.036355	0.006164
745.233408	0.006229
745.430444	0.006181
745.627461	0.005741
745.824459	0.005685
746.021440	0.005452
746.218402	0.005339
746.415346	0.005259
746.612272	0.005304
746.809180	0.005674
747.006069	0.005256
747.202940	0.005058
747.399793	0.004863
747.596628	0.004880
747.793444	0.004571
747.990243	0.004441
748.187023	0.004322
748.383784	0.004414
748.580528	0.004407
748.777253	0.004398
748.973960	0.004448
749.170649	0.005063
749.367320	0.004927
749.563973	0.005389
749.760607	0.005376
749.957223	0.005289
750.153821	0.005026
750.350400	0.004997
750.546962	0.005266
750.743505	0.005225
750.940030	0.005028
751.136536	0.004936
751.333025	0.004649
751.529495	0.004786
751.725947	0.004663
751.922381	0.004825
752.118796	0.004696
752.315194	0.004474
752.511573	0.004775
752.707934	0.004498
752.904276	0.005014
753.100601	0.005179
753.296907	0.005249
753.493195	0.005419
753.689465	0.005408
753.885716	0.005455
754.081949	0.005682
754.278164	0.005549
754.474361	0.005817
754.670540	0.005390
754.866700	0.005317
755.062843	0.005171
755.258967	0.004890
755.455072	0.004897
755.651160	0.004837
755.847229	0.004820
756.043280	0.004857
756.239313	0.004791
756.435328	0.005131
756.631324	0.005187
756.827302	0.005396
757.023262	0.005671
757.219204	0.005554
757.415127	0.005746
757.611033	0.005783
757.806920	0.005526
758.002788	0.005361
758.198639	0.005063
758.394471	0.005067
758.590286	0.005143
758.786081	0.005025
758.981859	0.005312
759.177619	0.005050
759.373360	0.005395
759.569083	0.005789
759.764788	0.005813
759.960474	0.005844
760.156143	0.006118
760.351793	0.006291
760.547425	0.006291
760.743038	0.006140
760.938634	0.006461
761.134211	0.005991
761.329770	0.006135
761.525311	0.006016
761.720833	0.006023
761.916338	0.005850
762.111824	0.005669
762.307292	0.005723
762.502741	0.006040
762.698173	0.005899
762.893586	0.005888
763.088981	0.005984
763.284358	0.006456
763.479716	0.006332
763.675057	0.006319
763.870379	0.006663
764.065683	0.006725
764.260968	0.006658
764.456236	0.006349
764.651485	0.006332
764.846716	0.006057
765.041929	0.006025
765.237123	0.006462
765.432299	0.006716
765.627457	0.006404
765.822597	0.006345
766.017719	0.006061
766.212822	0.006702
766.407907	0.006819
766.602974	0.006485
766.798023	0.006382
766.993054	0.006340
767.188066	0.006067
767.383060	0.005990
767.578036	0.005902
767.772993	0.006201
767.967933	0.005964
768.162854	0.006125
768.357757	0.006360
768.552642	0.006277
768.747508	0.006276
768.942356	0.006334
769.137186	0.006317
769.331998	0.006492
769.526792	0.006246
769.721567	0.006329
769.916324	0.006207
770.111063	0.006268
770.305784	0.006325
770.500486	0.005769
770.695171	0.006064
770.889837	0.005915
771.084484	0.005890
771.279114	0.005856
771.473725	0.005470
771.668318	0.005233
771.862893	0.005148
772.057450	0.005021
772.251988	0.005547
772.446509	0.004938
772.641011	0.004848
772.835494	0.004784
773.029960	0.004733
773.224407	0.004629
773.418836	0.004470
773.613247	0.004306
773.807640	0.004145
774.002014	0.004099
774.196370	0.004523
774.390708	0.004732
774.585028	0.004686
774.779330	0.004949
774.973613	0.005226
775.167878	0.005642
775.362125	0.006203
775.556354	0.006381
775.750564	0.006259
775.944756	0.006189
776.138930	0.005922
776.333086	0.005858
776.527223	0.005731
776.721343	0.005470
776.915444	0.005297
777.109526	0.004691
777.303591	0.004713
777.497637	0.004676
777.691666	0.004521
777.885676	0.004508
778.079667	0.004347
778.273641	0.004245
778.467596	0.004299
778.661533	0.004147
778.855452	0.004164
779.049352	0.004170
779.243235	0.003979
779.437099	0.003892
779.630945	0.004333
779.824773	0.004348
780.018582	0.004385
780.212373	0.004326
780.406146	0.004444
780.599901	0.004230
780.793638	0.003984
780.987356	0.004227
781.181056	0.004393
781.374738	0.004028
781.568402	0.004233
781.762047	0.004176
781.955674	0.004184
782.149283	0.004295
782.342874	0.004564
782.536447	0.004945
782.730001	0.004907
782.923537	0.004988
783.117055	0.005186
783.310555	0.005350
783.504036	0.005519
783.697499	0.005580
783.890944	0.005705
784.084371	0.005735
784.277780	0.005622
784.471170	0.005586
784.664542	0.005312
784.857896	0.005111
785.051231	0.005140
785.244549	0.005014
785.437848	0.005110
785.631129	0.004870
785.824392	0.004819
786.017636	0.004846
786.210863	0.004679
786.404071	0.004744
786.597260	0.004668
786.790432	0.004566
786.983585	0.004383
787.176721	0.004230
787.369838	0.004404
787.562936	0.004432
787.756017	0.004246
787.949079	0.004359
788.142123	0.004229
788.335149	0.004234
788.528156	0.004026
788.721146	0.003916
788.914117	0.003786
789.107070	0.003514
789.300005	0.003671
789.492921	0.003774
789.685819	0.003668
789.878699	0.003572
790.071561	0.003610
790.264405	0.003513
790.457230	0.003870
790.650037	0.003944
790.842826	0.003781
791.035597	0.003584
791.228349	0.003620
791.421084	0.003587
791.613800	0.003681
791.806497	0.004082
791.999177	0.004504
792.191838	0.004458
792.384481	0.004463
792.577106	0.004730
792.769713	0.004845
792.962301	0.005124
793.154871	0.005452
793.347423	0.005622
793.539957	0.005387
793.732473	0.005089
793.924970	0.005159
794.117449	0.005011
794.309910	0.004994
794.502353	0.004961
794.694777	0.004519
794.887183	0.004155
795.079571	0.004172
795.271941	0.003918
795.464293	0.004057
795.656626	0.003815
795.848941	0.004214
796.041238	0.004221
796.233516	0.004084
796.425777	0.004235
796.618019	0.004354
796.810243	0.004431
797.002449	0.005055
797.194636	0.005205
797.386805	0.005244
797.578956	0.005203
797.771089	0.005311
797.963204	0.005378
798.155300	0.005769
798.347378	0.005767
798.539438	0.005370
798.731480	0.005338
798.923503	0.005510
799.115509	0.005408
799.307496	0.005493
799.499465	0.005645
799.691415	0.005948
799.883348	0.005600
800.075262	0.005838
800.267158	0.005859
800.459035	0.005482
800.650895	0.005074
800.842736	0.005376
801.034559	0.005417
801.226364	0.004944
801.418150	0.005021
801.609919	0.005159
801.801669	0.004972
801.993401	0.005226
802.185114	0.005162
802.376810	0.005181
802.568487	0.005191
802.760146	0.005086
802.951787	0.005267
803.143409	0.004800
803.335014	0.004692
803.526600	0.004742
803.718168	0.004622
803.909717	0.004549
804.101249	0.004603
804.292762	0.004310
804.484257	0.004256
804.675734	0.004321
804.867192	0.004681
805.058632	0.004561
805.250054	0.004514
805.441458	0.004518
805.632844	0.004731
805.824211	0.004702
806.015561	0.004821
806.206891	0.004930
806.398204	0.004908
806.589499	0.004700
806.780775	0.004638
806.972033	0.004803
807.163273	0.005239
807.354495	0.005006
807.545698	0.005103
807.736883	0.004868
807.928050	0.004868
808.119199	0.005016
808.310329	0.005003
808.501441	0.004894
808.692535	0.004806
808.883611	0.004648
809.074669	0.004861
809.265708	0.004665
809.456729	0.005125
809.647732	0.005076
809.838717	0.004799
810.029683	0.004570
810.220632	0.004575
810.411562	0.004597
810.602474	0.004201
810.793367	0.004160
810.984242	0.004000
811.175100	0.004034
811.365938	0.003506
811.556759	0.003544
811.747562	0.003801
811.938346	0.003987
812.129112	0.003951
812.319860	0.004608
812.510589	0.004469
812.701300	0.004751
812.891994	0.004501
813.082668	0.004915
813.273325	0.005286
813.463964	0.005366
813.654584	0.005716
813.845186	0.005879
814.035769	0.005303
814.226335	0.005566
814.416882	0.005942
814.607411	0.005979
814.797922	0.006441
814.988415	0.006447
815.178889	0.006661
815.369345	0.006468
815.559783	0.006266
815.750203	0.006637
815.940605	0.006328
816.130988	0.006048
816.321353	0.006025
816.511700	0.005568
816.702028	0.005555
816.892339	0.005379
817.082631	0.004976
817.272905	0.004987
817.463161	0.004826
817.653398	0.004929
817.843617	0.004877
818.033819	0.004509
818.224001	0.004526
818.414166	0.004309
818.604312	0.004005
818.794440	0.004374
818.984550	0.004319
819.174642	0.004114
819.364716	0.004329
819.554771	0.004510
819.744808	0.004723
819.934827	0.005068
820.124827	0.004967
820.314810	0.005338
820.504774	0.005254
820.694720	0.005120
820.884647	0.005273
821.074557	0.005022
821.264448	0.004712
821.454321	0.004964
821.644176	0.004805
821.834012	0.005105
822.023831	0.005126
822.213631	0.005037
822.403413	0.005467
822.593176	0.005753
822.782922	0.005867
822.972649	0.005923
823.162358	0.005816
823.352049	0.005804
823.541721	0.005491
823.731376	0.005386
823.921012	0.005256
824.110629	0.005245
824.300229	0.004988
824.489811	0.004771
824.679374	0.004734
824.868919	0.005002
825.058445	0.004829
825.247954	0.004429
825.437444	0.003941
825.626916	0.004185
825.816370	0.003746
826.005806	0.003995
826.195223	0.003991
826.384622	0.004128
826.574003	0.003982
826.763366	0.004028
826.952711	0.004529
827.142037	0.004650
827.331345	0.004769
827.520635	0.004639
827.709906	0.004436
827.899160	0.004788
828.088395	0.004766
828.277612	0.004602
828.466810	0.004576
828.655991	0.004482
828.845153	0.005013
829.034297	0.005017
829.223423	0.005271
829.412531	0.004977
829.601620	0.004750
829.790691	0.004689
829.979744	0.004312
830.168779	0.004360
830.357795	0.004175
830.546793	0.003783
830.735773	0.003722
830.924735	0.003668
831.113679	0.003905
831.302604	0.003858
831.491511	0.003700
831.680400	0.004035
831.869271	0.003891
832.058123	0.003867
832.246957	0.003876
832.435773	0.003681
832.624571	0.003757
832.813351	0.003676
833.002112	0.003575
833.190855	0.003318
833.379580	0.003435
833.568287	0.003537
833.756975	0.003562
833.945645	0.003791
834.134297	0.003654
834.322931	0.003370
834.511547	0.003166
834.700144	0.003470
834.888723	0.003855
835.077284	0.003916
835.265826	0.004012
835.454351	0.004029
835.642857	0.003876
835.831345	0.003896
836.019815	0.003696
836.208266	0.004215
836.396699	0.004537
836.585114	0.004368
836.773511	0.004189
836.961890	0.004055
837.150250	0.004033
837.338592	0.003736
837.526916	0.004114
837.715222	0.004675
837.903510	0.004629
838.091779	0.003920
838.280030	0.004407
838.468263	0.004383
838.656477	0.004557
838.844674	0.005141
839.032852	0.005479
839.221012	0.005436
839.409153	0.005826
839.597277	0.005591
839.785382	0.006120
839.973469	0.005949
840.161538	0.006417
840.349589	0.006794
840.537621	0.006514
840.725635	0.006619
840.913631	0.006611
841.101609	0.006602
841.289568	0.006772
841.477509	0.006785
841.665432	0.006793
841.853337	0.006341
842.041224	0.005821
842.229092	0.005641
842.416942	0.005483
842.604774	0.005436
842.792588	0.004992
842.980383	0.005250
843.168160	0.004917
843.355919	0.004659
843.543660	0.004826
843.731382	0.005030
843.919087	0.005745
844.106773	0.006314
844.294441	0.006596
844.482090	0.007112
844.669722	0.007136
844.857335	0.007391
845.044930	0.008018
845.232507	0.008269
845.420065	0.008238
845.607605	0.007981
845.795127	0.007802
845.982631	0.007589
846.170117	0.007738
846.357584	0.007633
846.545033	0.007929
846.732464	0.007923
846.919877	0.008034
847.107272	0.008571
847.294648	0.008542
847.482006	0.008337
847.669346	0.008882
847.856667	0.009079
848.043971	0.009231
848.231256	0.009200
848.418523	0.009060
848.605771	0.009059
848.793002	0.009278
848.980214	0.009142
849.167408	0.009478
849.354584	0.009434
849.541742	0.009050
849.728881	0.009201
849.916002	0.009173
850.103105	0.009523
850.290190	0.009630
850.477256	0.009227
850.664304	0.009601
850.851334	0.009847
851.038346	0.010027
851.225340	0.010111
851.412315	0.009865
851.599272	0.009781
851.786211	0.009923
851.973132	0.009995
852.160034	0.010122
852.346918	0.010298
852.533784	0.010087
852.720632	0.009992
852.907462	0.009774
853.094273	0.010266
853.281066	0.010665
853.467841	0.010163
853.654598	0.010249
853.841336	0.010119
854.028056	0.010115
854.214758	0.010471
854.401442	0.010322
854.588107	0.010986
854.774755	0.010586
854.961384	0.010566
855.147995	0.010481
855.334587	0.010330
855.521162	0.010294
855.707718	0.010237
855.894256	0.009994
856.080775	0.009931
856.267277	0.009027
856.453760	0.009204
856.640225	0.009104
856.826672	0.009304
857.013101	0.009492
857.199511	0.009875
857.385903	0.009734
857.572277	0.009602
857.758633	0.009831
857.944970	0.010229
858.131290	0.010602
858.317591	0.010499
858.503873	0.010373
858.690138	0.010056
858.876384	0.009678
859.062612	0.009792
859.248822	0.010105
859.435014	0.010187
859.621188	0.010361
859.807343	0.009576
859.993480	0.009912
860.179599	0.009949
860.365699	0.009962
860.551781	0.010116
860.737846	0.010062
860.923891	0.010166
861.109919	0.009493
861.295929	0.009320
861.481920	0.009611
861.667893	0.009829
861.853848	0.009948
862.039784	0.009975
862.225702	0.010139
862.411603	0.010289
862.597484	0.009549
862.783348	0.009706
862.969193	0.009520
863.155021	0.009196
863.340830	0.008860
863.526620	0.009087
863.712393	0.009217
863.898147	0.009101
864.083883	0.008691
864.269601	0.008886
864.455301	0.008674
864.640982	0.008526
864.826645	0.008897
865.012290	0.009265
865.197917	0.008816
865.383526	0.008667
865.569116	0.008257
865.754688	0.008380
865.940242	0.008885
866.125777	0.009194
866.311295	0.009417
866.496794	0.009198
866.682275	0.008668
866.867737	0.008828
867.053182	0.008519
867.238608	0.008944
867.424016	0.009408
867.609406	0.009289
867.794778	0.009521
867.980131	0.009795
868.165466	0.010106
868.350783	0.009698
868.536082	0.009763
868.721362	0.010092
868.906625	0.009952
869.091869	0.009577
869.277094	0.009512
869.462302	0.009567
869.647491	0.009352
869.832662	0.009745
870.017815	0.009881
870.202950	0.009935
870.388066	0.010097
870.573165	0.009997
870.758245	0.010240
870.943306	0.009980
871.128350	0.009519
871.313375	0.009995
871.498382	0.009166
871.683371	0.009171
871.868342	0.008738
872.053294	0.008523
872.238229	0.008542
872.423144	0.008127
872.608042	0.008087
872.792922	0.008421
872.977783	0.008257
873.162626	0.008702
873.347451	0.008808
873.532258	0.009218
873.717046	0.009085
873.901816	0.009199
874.086568	0.009810
874.271302	0.010190
874.456017	0.010038
874.640715	0.009785
874.825394	0.009449
875.010055	0.010053
875.194697	0.010415
875.379322	0.010677
875.563928	0.010534
875.748516	0.010186
875.933085	0.009556
876.117637	0.009792
876.302170	0.009795
876.486685	0.010118
876.671182	0.009652
876.855661	0.009337
877.040121	0.009650
877.224563	0.009673
877.408987	0.009789
877.593393	0.010102
877.777780	0.009827
877.962150	0.010173
878.146501	0.010261
878.330833	0.010129
878.515148	0.010274
878.699444	0.010193
878.883722	0.010491
879.067982	0.010538
879.252224	0.010959
879.436447	0.010844
879.620653	0.010344
879.804840	0.009806
879.989008	0.010402
880.173159	0.009964
880.357291	0.010233
880.541405	0.009579
880.725501	0.009632
880.909579	0.009918
881.093638	0.010070
881.277680	0.010890
881.461703	0.011500
881.645707	0.011682
881.829694	0.012007
882.013662	0.012029
882.197612	0.013140
882.381544	0.013133
882.565458	0.012674
882.749353	0.013079
882.933230	0.012730
883.117089	0.012767
883.300930	0.012777
883.484753	0.012665
883.668557	0.012243
883.852343	0.011529
884.036111	0.011345
884.219861	0.011139
884.403592	0.010663
884.587305	0.010842
884.771000	0.010686
884.954677	0.010261
885.138335	0.010221
885.321976	0.010685
885.505598	0.011040
885.689201	0.010864
885.872787	0.010923
886.056354	0.011174
886.239904	0.011141
886.423434	0.011098
886.606947	0.011684
886.790442	0.011871
886.973918	0.011376
887.157376	0.011353
887.340816	0.011727
887.524237	0.011838
887.707641	0.012045
887.891026	0.012016
888.074393	0.012347
888.257741	0.012146
888.441072	0.012662
888.624384	0.012839
888.807678	0.012678
888.990954	0.012640
889.174211	0.012693
889.357451	0.012702
889.540672	0.012507
889.723875	0.012184
889.907059	0.011943
890.090226	0.011722
890.273374	0.011807
890.456504	0.012496
890.639616	0.011966
890.822709	0.012122
891.005785	0.011949
891.188842	0.011906
891.371881	0.011959
891.554901	0.011785
891.737904	0.011324
891.920888	0.011375
892.103854	0.010983
892.286802	0.010774
892.469731	0.010826
892.652643	0.010717
892.835536	0.010645
893.018410	0.010501
893.201267	0.010373
893.384106	0.010963
893.566926	0.010408
893.749728	0.010516
893.932511	0.011745
894.115277	0.011467
894.298024	0.011737
894.480753	0.011199
894.663464	0.011694
894.846157	0.011790
895.028831	0.011648
895.211487	0.011852
895.394125	0.011278
895.576745	0.010959
895.759346	0.011234
895.941930	0.011038
896.124495	0.011524
896.307041	0.011705
896.489570	0.011305
896.672080	0.010943
896.854573	0.011066
897.037046	0.011071
897.219502	0.010838
897.401940	0.010436
897.584359	0.010534
897.766760	0.010503
897.949143	0.009442
898.131507	0.009557
898.313854	0.009606
898.496182	0.009446
898.678492	0.009614
898.860783	0.008904
899.043057	0.009313
899.225312	0.008597
899.407549	0.009046
899.589768	0.009429
899.771968	0.009123
899.954151	0.009341
900.136315	0.008911
900.318461	0.009232
900.500588	0.009996
900.682698	0.009259
900.864789	0.009920
901.046862	0.010019
901.228917	0.009947
901.410953	0.010291
901.592971	0.010078
901.774972	0.011045
901.956953	0.010515
902.138917	0.009962
902.320862	0.010527
902.502790	0.010438
902.684699	0.009550
902.866589	0.009505
903.048462	0.008961
903.230316	0.008738
903.412152	0.008213
903.593970	0.008730
903.775770	0.009303
903.957551	0.009250
904.139314	0.009282
904.321059	0.009466
904.502786	0.009539
904.684494	0.010054
904.866185	0.010010
905.047857	0.009571
905.229510	0.009306
905.411146	0.009561
905.592763	0.009680
905.774363	0.009721
905.955943	0.011049
906.137506	0.010930
906.319051	0.011041
906.500577	0.011287
906.682085	0.012181
906.863575	0.012009
907.045046	0.011951
907.226500	0.011332
907.407935	0.010681
907.589352	0.009275
907.770750	0.008789
907.952131	0.008987
908.133493	0.009393
908.314837	0.008512
908.496163	0.008085
908.677470	0.007635
908.858760	0.007589
909.040031	0.007979
909.221284	0.008211
909.402518	0.008821
909.583735	0.008465
909.764933	0.007897
909.946113	0.008666
910.127275	0.008816
910.308418	0.008313
910.489544	0.008057
910.670651	0.008685
910.851740	0.008228
911.032810	0.007691
911.213863	0.007538
911.394897	0.007367
911.575913	0.007027
911.756911	0.007301
911.937890	0.007071
912.118851	0.007502
912.299794	0.007056
912.480719	0.007774
912.661626	0.007976
912.842514	0.008337
913.023384	0.008658
913.204236	0.008805
913.385070	0.008697
913.565886	0.009304
913.746683	0.009300
913.927462	0.009174
914.108223	0.009226
914.288965	0.009299
914.469690	0.009060
914.650396	0.009378
914.831084	0.008762
915.011754	0.007715
915.192405	0.007826
915.373038	0.007498
915.553653	0.006817
915.734250	0.005355
915.914829	0.005087
916.095389	0.004418
916.275931	0.003497
916.456455	0.002681
916.636961	0.002887
916.817448	0.002966
916.997917	0.002942
917.178368	0.003388
917.358801	0.004296
917.539216	0.003793
917.719612	0.004054
917.899990	0.003989
918.080350	0.004571
918.260692	0.005375
918.441015	0.004641
918.621320	0.004473
918.801607	0.003682
918.981876	0.002992
919.162127	0.003607
919.342359	0.003544
919.522573	0.003981
919.702769	0.004542
919.882947	0.004383
920.063106	0.004737
920.243247	0.005401
920.423370	0.006230
920.603475	0.006829
920.783562	0.007222
920.963630	0.007029
921.143680	0.006368
921.323712	0.005841
921.503725	0.004966
921.683721	0.005012
921.863698	0.005090
922.043657	0.004356
922.223598	0.003196
922.403520	0.002893
922.583424	0.003291
922.763311	0.003508
922.943178	0.002579
923.123028	0.002734
923.302859	0.001676
923.482673	0.001369
923.662467	0.001111
923.842244	0.001754
924.022003	0.001625
924.201743	0.001155
924.381465	-0.000474
924.561169	0.000327
924.740854	0.000724
924.920522	0.000412
925.100171	-0.000928
925.279802	-0.001285
925.459414	-0.001641
925.639009	-0.002799
925.818585	-0.002223
925.998143	-0.000916
926.177683	-0.000877
926.357205	-0.001332
926.536708	-0.000317
926.716193	0.000381
926.895660	0.001422
927.075109	0.001978
927.254539	0.002131
927.433951	0.001396
927.613345	0.001411
927.792721	0.000231
927.972079	0.000055
928.151418	-0.000551
928.330739	0.000327
928.510042	-0.000506
928.689327	-0.001498
928.868593	-0.001178
929.047841	-0.000890
929.227071	-0.001627
929.406283	-0.001348
929.585476	-0.001799
929.764652	-0.001465
929.943809	-0.001567
930.122948	-0.001804
930.302068	-0.002109
930.481171	-0.002593
930.660255	-0.004459
930.839321	-0.004162
931.018369	-0.003308
931.197398	-0.003427
931.376409	-0.003195
931.555402	-0.004708
931.734377	-0.004096
931.913334	-0.004133
932.092272	-0.004082
932.271192	-0.002230
932.450094	-0.002974
932.628978	-0.003674
932.807844	-0.003061
932.986691	-0.003662
933.165520	-0.003688
933.344331	-0.003754
933.523123	-0.004001
933.701898	-0.004238
933.880654	-0.005511
934.059392	-0.005272
934.238111	-0.005709
934.416813	-0.005437
934.595496	-0.006607
934.774161	-0.006386
934.952808	-0.005854
935.131437	-0.006133
935.310047	-0.006225
935.488639	-0.006561
935.667213	-0.005592
935.845769	-0.005252
936.024306	-0.006121
936.202825	-0.006471
936.381326	-0.006658
936.559809	-0.007520
936.738274	-0.006955
936.916720	-0.007510
937.095148	-0.006480
937.273558	-0.008137
937.451950	-0.009419
937.630323	-0.009023
937.808678	-0.008219
937.987015	-0.008661
938.165334	-0.010944
938.343635	-0.011598
938.521917	-0.011776
938.700181	-0.011430
938.878427	-0.010647
939.056655	-0.010061
939.234864	-0.011132
939.413055	-0.011877
939.591228	-0.012012
939.769383	-0.008232
939.947519	-0.006353
940.125638	-0.004849
940.303738	-0.006209
940.481820	-0.005969
940.659883	-0.006579
940.837929	-0.005681
941.015956	-0.005636
941.193965	-0.005165
941.371955	-0.007425
941.549928	-0.007300
941.727882	-0.008792
941.905818	-0.008069
942.083736	-0.009821
942.261636	-0.008579
942.439517	-0.011481
942.617380	-0.012294
942.795225	-0.013504
942.973052	-0.012520
943.150860	-0.013504
943.328651	-0.014023
943.506423	-0.014556
943.684176	-0.013163
943.861912	-0.012998
944.039629	-0.010118
944.217328	-0.008553
944.395009	-0.007792
944.572672	-0.009742
944.750317	-0.009749
944.927943	-0.008507
945.105551	-0.010977
945.283141	-0.013176
945.460712	-0.015766
945.638265	-0.015897
945.815801	-0.015826
945.993317	-0.018970
946.170816	-0.020734
946.348297	-0.020068
946.525759	-0.020288
946.703203	-0.017692
946.880629	-0.015942
947.058036	-0.013145
947.235425	-0.012863
947.412797	-0.012260
947.590149	-0.008217
947.767484	-0.005930
947.944800	-0.005535
948.122099	-0.006493
948.299379	-0.007032
948.476640	-0.007391
948.653884	-0.007857
948.831109	-0.010296
949.008316	-0.012220
949.185505	-0.014232
949.362676	-0.014743
949.539828	-0.017391
949.716962	-0.018371
949.894078	-0.019506
950.071176	-0.019488
950.248256	-0.020098
950.425317	-0.018752
950.602360	-0.018905
950.779385	-0.018077
950.956391	-0.015852
951.133380	-0.017576
951.310350	-0.016682
951.487302	-0.016955
951.664235	-0.015543
951.841151	-0.015157
952.018048	-0.015714
952.194927	-0.015062
952.371788	-0.013841
952.548631	-0.014205
952.725455	-0.013507
952.902261	-0.011779
953.079049	-0.009952
953.255819	-0.009722
953.432570	-0.011968
953.609303	-0.012642
953.786018	-0.013155
953.962715	-0.013159
954.139394	-0.012754
954.316054	-0.009958
954.492696	-0.012583
954.669320	-0.014530
954.845926	-0.015335
955.022513	-0.015316
955.199083	-0.014217
955.375634	-0.011336
955.552166	-0.013829
955.728681	-0.017678
955.905177	-0.018480
956.081655	-0.016544
956.258115	-0.017033
956.434557	-0.016507
956.610980	-0.014285
956.787385	-0.012097
956.963772	-0.018630
957.140141	-0.016424
957.316492	-0.013858
957.492824	-0.016268
957.669138	-0.015186
957.845434	-0.011547
958.021712	-0.010744
958.197971	-0.010234
958.374212	-0.012128
958.550435	-0.005800
958.726640	-0.006102
958.902826	-0.001176
959.078995	0.002844
959.255145	0.005770
959.431277	0.005437
959.607390	-0.000038
959.783486	-0.002413
959.959563	-0.005180
960.135622	-0.006587
960.311662	-0.011354
960.487685	-0.016763
960.663689	-0.017173
960.839675	-0.020051
961.015643	-0.020790
961.191593	-0.017112
961.367524	-0.013278
961.543437	-0.010692
961.719332	-0.010049
961.895209	-0.006114
962.071067	-0.006310
962.246907	-0.007814
962.422730	-0.010629
962.598533	-0.006997
962.774319	-0.004652
962.950086	-0.007305
963.125835	-0.008317
963.301566	-0.009355
963.477279	-0.009053
963.652973	-0.005553
963.828650	-0.003830
964.004308	0.002034
964.179947	-0.001203
964.355569	-0.007585
964.531172	-0.005180
964.706757	-0.001421
964.882324	0.002228
965.057873	0.007740
965.233403	0.008530
965.408916	0.007308
965.584410	0.003379
965.759885	0.002939
965.935343	0.006730
966.110782	0.004503
966.286203	0.004415
966.461606	0.004764
966.636991	0.002187
966.812357	-0.001772
966.987705	-0.000023
967.163035	-0.000031
967.338347	0.000843
967.513641	-0.000281
967.688916	0.002449
967.864173	0.001003
968.039412	0.000000
968.214632	-0.003473
968.389835	0.000125
968.565019	0.000988
968.740185	0.003742
968.915333	0.005935
969.090462	0.008869
969.265573	0.010815
969.440667	0.009862
969.615741	0.008347
969.790798	0.013997
969.965836	0.012626
970.140856	0.008528
970.315858	0.008937
970.490842	0.005408
970.665808	0.004218
970.840755	-0.000752
971.015684	-0.002799
971.190595	-0.000429
971.365487	-0.003370
971.540362	-0.004796
971.715218	0.001135
971.890056	-0.000258
972.064875	0.002451
972.239677	0.002718
972.414460	0.005048
972.589225	0.008539
972.763972	0.002317
972.938700	-0.001614
973.113411	-0.004013
973.288103	-0.005924
973.462777	-0.007721
973.637432	-0.006987
973.812070	-0.005440
973.986689	-0.004973
974.161290	-0.005097
974.335873	-0.003360
974.510437	0.000793
974.684984	0.005100
974.859512	0.005513
975.034022	0.005836
975.208513	0.002436
975.382987	-0.001654
975.557442	-0.001803
975.731879	-0.004301
975.906298	-0.000947
976.080698	-0.007065
976.255080	-0.008449
976.429445	-0.008479
976.603790	-0.005695
976.778118	-0.002070
976.952427	-0.001117
977.126719	0.000040
977.300992	0.001133
977.475246	0.001380
977.649483	0.005095
977.823701	0.002626
977.997901	0.000735
978.172083	-0.000665
978.346247	-0.001125
978.520392	-0.000328
978.694519	0.000498
978.868628	0.004138
979.042719	0.002297
979.216791	0.004999
979.390845	0.007776
979.564882	0.008370
979.738899	0.011484
979.912899	0.010554
980.086880	0.009151
980.260843	0.007332
980.434788	0.006691
980.608715	0.006993
980.782623	0.008168
980.956514	0.011307
981.130386	0.010876
981.304240	0.009649
981.478075	0.006101
981.651892	0.007417
981.825692	0.007095
981.999472	0.007830
982.173235	0.008702
982.346980	0.005538
982.520706	0.001737
982.694414	0.000683
982.868104	-0.004536
983.041775	-0.006985
983.215428	-0.004571
983.389064	-0.001944
983.562680	-0.005053
983.736279	-0.003982
983.909860	-0.002420
984.083422	0.000346
984.256966	-0.000682
984.430491	-0.000641
984.603999	0.004297
984.777488	0.004177
984.950959	-0.000777
985.124412	-0.002371
985.297847	-0.002357
985.471263	-0.002976
985.644661	-0.005572
985.818041	-0.004166
985.991403	-0.004079
986.164747	-0.006056
986.338072	-0.010922
986.511379	-0.012963
986.684668	-0.012810
986.857938	-0.013318
987.031191	-0.017069
987.204425	-0.018933
987.377641	-0.018535
987.550839	-0.019326
987.724018	-0.017990
987.897179	-0.013022
988.070322	-0.005309
988.243447	-0.001120
988.416554	-0.000911
988.589642	0.004925
988.762712	0.005238
988.935764	0.001982
989.108798	0.008132
989.281813	0.009876
989.454811	0.009798
989.627790	0.004588
989.800751	0.006688
989.973693	-0.001035
990.146617	-0.004171
990.319524	-0.004040
990.492412	0.000047
990.665281	-0.004378
990.838133	-0.006094
991.010966	-0.004535
991.183781	-0.006719
991.356578	-0.012749
991.529356	-0.007721
991.702117	-0.006668
991.874859	-0.005747
992.047583	-0.006327
992.220288	-0.003691
992.392976	-0.002892
992.565645	-0.007460
992.738296	-0.003276
992.910929	-0.001965
993.083543	-0.002337
993.256139	-0.001329
993.428718	0.001049
993.601277	-0.002655
993.773819	-0.002157
993.946342	-0.000970
994.118848	0.000507
994.291335	0.000165
994.463803	0.003082
994.636254	0.002872
994.808686	0.000429
994.981100	-0.001792
995.153496	0.002047
995.325874	0.000931
995.498233	0.002597
995.670574	-0.000222
995.842897	0.002474
996.015202	0.002029
996.187488	0.005526
996.359757	0.006359
996.532007	0.006985
996.704239	0.002535
996.876452	0.005627
997.048648	0.004117
997.220825	0.003967
997.392984	0.002156
997.565124	0.000166
997.737247	-0.004945
997.909351	-0.008746
998.081437	-0.010268
998.253505	-0.006452
998.425554	-0.010196
998.597586	-0.010817
998.769599	-0.007701
998.941594	-0.008945
999.113571	-0.007405
999.285529	-0.009764
999.457469	-0.003687
999.629391	-0.001431
999.801295	0.003641
999.973181	0.002597
1000.145048	-0.000420
1000.316897	-0.001749
1000.488728	0.001115
1000.660541	0.002089
1000.832335	0.007145
1001.004111	0.006469
1001.175869	0.004039
1001.347609	0.001852
1001.519331	0.001976
1001.691034	0.005880
1001.862719	0.007406
1002.034386	0.005069
1002.206035	0.001996
1002.377665	0.003420
1002.549277	0.005324
1002.720871	0.006071
1002.892447	0.002282
1003.064004	0.003674
1003.235544	0.003061
1003.407065	0.005284
1003.578568	0.008248
1003.750052	0.008592
1003.921519	0.009217
1004.092967	0.006394
1004.264397	0.006052
1004.435809	0.007376
1004.607202	0.004804
1004.778577	0.007015
1004.949934	0.002268
1005.121273	0.000509
1005.292594	0.003091
1005.463896	0.000669
1005.635180	0.002253
1005.806446	0.001158
1005.977694	-0.001428
1006.148923	0.002967
1006.320135	-0.000322
1006.491328	0.001466
1006.662503	0.000189
1006.833659	-0.003189
1007.004798	-0.000830
1007.175918	-0.002661
1007.347020	-0.001873
1007.518103	-0.000757
1007.689169	0.000657
1007.860216	-0.002583
1008.031245	-0.004252
1008.202256	-0.002505
1008.373248	-0.002688
1008.544223	-0.004204
1008.715179	-0.002965
1008.886117	-0.000747
1009.057036	-0.000469
1009.227938	-0.005522
1009.398821	-0.002318
1009.569686	0.001092
1009.740533	0.002617
1009.911361	0.001427
1010.082172	0.001558
1010.252964	0.000445
1010.423738	0.002659
1010.594493	0.002154
1010.765231	0.002626
1010.935950	0.005099
1011.106651	0.006531
1011.277334	0.002294
1011.447998	0.004809
1011.618645	0.001723
1011.789273	0.002196
1011.959882	-0.001661
1012.130474	0.000145
1012.301048	0.002606
1012.471603	-0.002013
1012.642140	-0.003996
1012.812658	-0.000106
1012.983159	-0.003999
1013.153641	0.000580
1013.324105	-0.000816
1013.494551	0.000395
1013.664979	0.000933
1013.835388	-0.000637
1014.005779	0.001944
1014.176152	0.001653
1014.346507	-0.000543
1014.516843	0.007293
1014.687162	0.006114
1014.857462	0.003838
1015.027744	0.000938
1015.198007	-0.002664
1015.368252	-0.005431
1015.538480	-0.006356
1015.708689	-0.007608
1015.878879	-0.006550
1016.049052	-0.009291
1016.219206	-0.008241
1016.389342	-0.001956
1016.559460	-0.000940
1016.729559	0.000467
1016.899641	0.003084
1017.069704	0.003920
1017.239749	0.003033
1017.409775	-0.003552
1017.579784	-0.005355
1017.749774	-0.004977
1017.919746	-0.008186
1018.089700	-0.008476
1018.259635	-0.009399
1018.429553	-0.009034
1018.599452	-0.010819
1018.769333	-0.012192
1018.939195	-0.006043
1019.109040	-0.007491
1019.278866	-0.009334
1019.448674	-0.005497
1019.618464	-0.002574
1019.788235	-0.001914
1019.957989	-0.004623
1020.127724	-0.003577
1020.297441	-0.001684
1020.467139	-0.006424
1020.636820	-0.007809
1020.806482	-0.011210
1020.976126	-0.010494
1021.145752	-0.014474
1021.315359	-0.012890
1021.484948	-0.009942
1021.654519	-0.008081
1021.824072	-0.005998
1021.993607	-0.007025
1022.163123	-0.000282
1022.332621	0.001405
1022.502101	-0.003608
1022.671563	-0.003501
1022.841007	-0.004298
1023.010432	-0.003902
1023.179839	-0.005151
1023.349228	-0.006077
1023.518598	-0.002397
1023.687951	-0.003556
1023.857285	-0.004464
1024.026601	-0.004855
1024.195899	-0.003400
1024.365178	-0.001678
1024.534439	-0.003141
1024.703682	-0.002753
1024.872907	-0.002863
1025.042114	0.000021
1025.211302	-0.001875
1025.380472	0.004292
1025.549624	0.007851
1025.718758	0.007139
1025.887873	0.007066
1026.056970	0.009070
1026.226049	0.008763
1026.395110	0.005649
1026.564153	0.005901
1026.733177	0.007804
1026.902183	0.001462
1027.071171	0.000147
1027.240141	-0.000416
1027.409092	0.001452
1027.578026	-0.000275
1027.746940	0.004037
1027.915837	0.008214
1028.084716	0.001668
1028.253576	0.002919
1028.422418	0.004179
1028.591242	0.002027
1028.760048	0.006719
1028.928835	0.005706
1029.097604	0.006587
1029.266355	0.000062
1029.435088	-0.002730
1029.603803	-0.000249
1029.772499	-0.002693
1029.941177	-0.000796
1030.109837	-0.000081
1030.278478	-0.004007
1030.447102	-0.003873
1030.615707	-0.004054
1030.784294	-0.003909
1030.952863	-0.004902
1031.121413	-0.002162
1031.289945	-0.002960
1031.458460	-0.002833
1031.626955	-0.004045
1031.795433	-0.003148
1031.963892	-0.006002
1032.132334	-0.005544
1032.300756	-0.002143
1032.469161	0.000140
1032.637548	0.000000
1032.805916	-0.001022
1032.974266	-0.001403
1033.142598	0.001628
1033.310911	0.002868
1033.479207	0.002206
1033.647484	0.003761
1033.815743	0.003664
1033.983983	0.003822
1034.152206	0.001697
1034.320410	0.004800
1034.488596	0.007121
1034.656764	0.004508
1034.824914	0.004056
1034.993045	0.002835
1035.161158	0.002266
1035.329253	0.000439
1035.497330	0.000094
1035.665388	0.000543
1035.833428	-0.001826
1036.001450	-0.004052
1036.169454	-0.003823
1036.337440	-0.002302
1036.505407	0.000700
1036.673356	0.000853
1036.841287	0.001640
1037.009200	0.002029
1037.177094	0.005894
1037.344970	0.003068
1037.512828	-0.000404
1037.680668	0.000308
1037.848489	-0.002123
1038.016293	-0.000912
1038.184078	-0.000288
1038.351845	0.001699
1038.519593	0.004828
1038.687324	0.005216
1038.855036	0.008359
1039.022730	0.006301
1039.190406	0.004981
1039.358063	0.006310
1039.525702	0.005814
1039.693323	0.003367
1039.860926	0.000298
1040.028511	-0.002429
1040.196077	-0.004537
1040.363625	-0.003660
1040.531155	0.001866
1040.698667	0.002791
1040.866161	0.005218
1041.033636	0.004976
1041.201093	0.006281
1041.368532	0.008403
1041.535952	0.003984
1041.703355	0.001248
1041.870739	0.000427
1042.038105	-0.003797
1042.205452	-0.002563
1042.372782	-0.006568
1042.540093	-0.008095
1042.707386	-0.010988
1042.874661	-0.014315
1043.041918	-0.010205
1043.209156	-0.009695
1043.376376	-0.011414
1043.543578	-0.006213
1043.710762	-0.008730
1043.877927	-0.006690
1044.045074	-0.004545
1044.212203	-0.002138
1044.379314	-0.003292
1044.546407	-0.003489
1044.713481	-0.003748
1044.880537	-0.002409
1045.047575	-0.004812
1045.214595	-0.003240
1045.381596	-0.003266
1045.548579	-0.003543
1045.715544	-0.002846
1045.882491	0.001658
1046.049420	0.002864
1046.216330	0.004498
1046.383222	0.005120
1046.550096	0.008533
1046.716951	0.006720
1046.883789	0.006275
1047.050608	0.004156
1047.217409	0.004221
1047.384192	0.002262
1047.550956	0.000108
1047.717703	-0.000752
1047.884431	0.000029
1048.051140	-0.004596
1048.217832	-0.002453
1048.384505	-0.001336
1048.551161	-0.003689
1048.717798	-0.001351
1048.884416	0.000774
1049.051017	0.005391
1049.217599	0.001594
1049.384163	0.001582
1049.550709	0.003667
1049.717237	0.004380
1049.883746	0.002178
1050.050237	0.002791
1050.216710	-0.000877
1050.383165	0.000426
1050.549601	-0.002577
1050.716019	0.004789
1050.882420	0.005928
1051.048801	0.004266
1051.215165	0.005648
1051.381510	0.005887
1051.547837	0.007793
1051.714146	0.010276
1051.880437	0.007924
1052.046709	0.008449
1052.212964	0.004811
1052.379200	0.001258
1052.545417	0.004449
1052.711617	0.002415
1052.877798	0.002089
1053.043961	0.005690
1053.210106	0.004337
1053.376233	0.004271
1053.542341	0.002220
1053.708432	-0.000031
1053.874504	0.005953
1054.040557	0.004879
1054.206593	0.004331
1054.372610	0.003805
1054.538609	0.003409
1054.704590	0.002264
1054.870553	-0.001019
1055.036497	-0.001915
1055.202424	-0.000465
1055.368331	-0.004674
1055.534221	-0.001188
1055.700093	-0.000221
1055.865946	0.001435
1056.031781	-0.001701
1056.197598	0.003047
1056.363397	0.005887
1056.529177	0.008235
1056.694939	0.004334
1056.860683	0.006488
1057.026409	0.003994
1057.192116	0.003023
1057.357806	0.006039
1057.523477	0.005650
1057.689130	0.001382
1057.854764	-0.000120
1058.020381	0.000245
1058.185979	0.006066
1058.351559	0.002567
1058.517120	0.005102
1058.682664	0.007684
1058.848189	0.003939
1059.013696	0.003447
1059.179185	0.003965
1059.344656	0.006898
1059.510108	0.009462
1059.675542	0.005468
1059.840958	0.004755
1060.006356	-0.000598
1060.171735	-0.004175
1060.337096	-0.009648
1060.502439	-0.008152
1060.667764	-0.008734
1060.833071	-0.011341
1060.998359	-0.014784
1061.163629	-0.011739
1061.328881	-0.012051
1061.494115	-0.013373
1061.659330	-0.012239
1061.824527	-0.007911
1061.989706	-0.008208
1062.154867	-0.008298
1062.320010	-0.009663
1062.485134	-0.006278
1062.650240	-0.006696
1062.815328	-0.001247
1062.980398	-0.000449
1063.145449	-0.002971
1063.310482	-0.003333
1063.475497	-0.001587
1063.640494	-0.003415
1063.805473	-0.000666
1063.970433	-0.005567
1064.135375	-0.004572
1064.300299	-0.011594
1064.465204	-0.011589
1064.630092	-0.013982
1064.794961	-0.015754
1064.959812	-0.016801
1065.124645	-0.014722
1065.289459	-0.016549
1065.454256	-0.011813
1065.619034	-0.011418
1065.783793	-0.009503
1065.948535	-0.004960
1066.113258	-0.002035
1066.277964	-0.002165
1066.442651	-0.004010
1066.607319	-0.004958
1066.771970	-0.007887
1066.936602	-0.012694
1067.101216	-0.017771
1067.265812	-0.019668
1067.430389	-0.021378
1067.594949	-0.018203
1067.759490	-0.015445
1067.924013	-0.014228
1068.088518	-0.015412
1068.253004	-0.013652
1068.417472	-0.013537
1068.581922	-0.012018
1068.746354	-0.010254
1068.910768	-0.010871
1069.075163	-0.015654
1069.239540	-0.015825
1069.403899	-0.013236
1069.568240	-0.010937
1069.732562	-0.003201
1069.896866	0.001892
1070.061152	0.006182
1070.225420	0.013871
1070.389670	0.013965
1070.553901	0.017934
1070.718114	0.020394
1070.882309	0.019739
1071.046486	0.019791
1071.210644	0.017793
1071.374784	0.014938
1071.538906	0.009292
1071.703010	0.005787
1071.867096	0.005931
1072.031163	0.005895
1072.195212	0.005642
1072.359243	-0.001464
1072.523256	-0.004272
1072.687250	-0.006883
1072.851226	-0.004830
1073.015184	-0.004784
1073.179124	-0.008804
1073.343045	-0.013406
1073.506949	-0.014423
1073.670834	-0.015352
1073.834701	-0.010831
1073.998549	-0.007110
1074.162380	-0.005536
1074.326192	-0.009073
1074.489986	-0.005970
1074.653761	-0.003278
1074.817519	-0.000429
1074.981258	-0.001333
1075.144979	-0.006901
1075.308682	-0.005643
1075.472367	-0.005277
1075.636033	-0.007728
1075.799681	-0.010512
1075.963311	-0.013488
1076.126923	-0.022510
1076.290516	-0.023966
1076.454092	-0.020786
1076.617649	-0.017976
1076.781187	-0.025132
1076.944708	-0.026375
1077.108210	-0.023711
1077.271695	-0.016957
1077.435160	-0.008380
1077.598608	0.004821
1077.762038	0.011699
1077.925449	0.008887
1078.088842	0.005860
1078.252217	0.010627
1078.415573	0.007233
1078.578912	0.005330
1078.742232	-0.000414
1078.905534	-0.005683
1079.068817	-0.010308
1079.232083	-0.016080
1079.395330	-0.016684
1079.558559	-0.010758
1079.721770	-0.006866
1079.884962	-0.007024
1080.048136	-0.009114
1080.211293	-0.013395
1080.374430	-0.015783
1080.537550	-0.016073
1080.700651	-0.016276
1080.863735	-0.017140
1081.026800	-0.016690
1081.189846	-0.020522
1081.352875	-0.018301
1081.515885	-0.015762
1081.678877	-0.009914
1081.841851	-0.006668
1082.004807	-0.007112
1082.167744	-0.012317
1082.330663	-0.014664
1082.493564	-0.016377
1082.656447	-0.013044
1082.819312	-0.012806
1082.982158	-0.010382
1083.144986	-0.010996
1083.307796	-0.014209
1083.470587	-0.012742
1083.633361	-0.004915
1083.796116	0.000801
1083.958853	0.002345
1084.121571	-0.004310
1084.284272	-0.006869
1084.446954	-0.006296
1084.609618	-0.001656
1084.772264	-0.001516
1084.934892	-0.002555
1085.097501	-0.001016
1085.260092	-0.001444
1085.422665	-0.002160
1085.585220	0.005385
1085.747756	0.006399
1085.910274	0.001951
1086.072774	-0.003178
1086.235256	0.001351
1086.397720	0.000729
1086.560165	0.000772
1086.722592	0.002520
1086.885001	0.007520
1087.047392	0.007321
1087.209764	0.005734
1087.372119	0.006757
1087.534455	0.004100
1087.696772	-0.000410
1087.859072	-0.001463
1088.021353	-0.006897
1088.183616	-0.012123
1088.345861	-0.020770
1088.508088	-0.027797
1088.670296	-0.018852
1088.832486	-0.019068
1088.994658	-0.017020
1089.156812	-0.010589
1089.318948	-0.009069
1089.481065	-0.006844
1089.643164	-0.000085
1089.805245	-0.001750
1089.967308	0.001797
1090.129352	0.000484
1090.291378	0.003149
1090.453386	0.007769
1090.615376	-0.000035
1090.777347	-0.005025
1090.939301	-0.004372
1091.101236	-0.008725
1091.263153	-0.005646
1091.425051	-0.005928
1091.586932	-0.007031
1091.748794	-0.016834
1091.910638	-0.018633
1092.072463	-0.014741
1092.234271	-0.006065
1092.396060	-0.009790
1092.557831	-0.003366
1092.719584	-0.001289
1092.881319	0.005628
1093.043035	-0.007808
1093.204733	-0.003396
1093.366413	-0.004411
1093.528075	-0.005737
1093.689718	-0.013523
1093.851343	-0.012897
1094.012950	-0.021819
1094.174539	-0.026870
1094.336110	-0.031796
1094.497662	-0.024919
1094.659196	-0.032582
1094.820712	-0.038142
1094.982210	-0.040023
1095.143689	-0.033761
1095.305151	-0.037376
1095.466594	-0.036442
1095.628018	-0.034845
1095.789425	-0.039792
1095.950813	-0.040565
1096.112183	-0.039329
1096.273535	-0.034934
1096.434869	-0.028578
1096.596184	-0.030993
1096.757482	-0.024024
1096.918761	-0.029423
1097.080021	-0.021538
1097.241264	-0.015766
1097.402488	-0.014472
1097.563694	-0.011355
1097.724882	-0.011617
1097.886052	-0.022415
1098.047203	-0.023321
1098.208336	-0.026298
1098.369451	-0.019294
1098.530548	-0.028887
1098.691627	-0.029096
1098.852687	-0.024118
1099.013729	-0.020207
1099.174753	-0.020485
1099.335758	-0.010493
1099.496746	-0.011818
1099.657715	-0.010824
1099.818666	-0.005273
1099.979599	0.006897
1100.140513	0.004904
1100.301409	0.006469
1100.462287	0.006902
1100.623147	0.008670
1100.783989	0.000947
1100.944812	-0.004531
1101.105617	-0.005651
1101.266404	-0.013041
1101.427173	-0.024784
1101.587923	-0.022386
1101.748656	-0.022212
1101.909370	-0.019471
1102.070066	-0.018127
1102.230743	-0.012647
1102.391403	0.001011
1102.552044	0.001699
1102.712667	0.003770
1102.873271	-0.001325
1103.033858	-0.009578
1103.194426	-0.017711
1103.354976	-0.015541
1103.515508	-0.016914
1103.676021	-0.022758
1103.836517	-0.036318
1103.996994	-0.035943
1104.157453	-0.032116
1104.317893	-0.020148
1104.478316	-0.015721
1104.638720	-0.015105
1104.799106	-0.024724
1104.959474	-0.025210
1105.119823	-0.019240
1105.280155	-0.004841
1105.440468	-0.004177
1105.600763	-0.007053
1105.761039	-0.008826
1105.921298	-0.007657
1106.081538	-0.009074
1106.241760	-0.004547
1106.401964	-0.008785
1106.562149	-0.003887
1106.722316	-0.019961
1106.882465	-0.022232
1107.042596	-0.026506
1107.202709	-0.025223
1107.362803	-0.028302
1107.522879	-0.028456
1107.682937	-0.016815
1107.842977	-0.001711
1108.002999	-0.011739
1108.163002	-0.008688
1108.322987	-0.002634
1108.482954	0.002941
1108.642902	-0.001306
1108.802833	0.012167
1108.962745	0.018621
1109.122639	0.007920
1109.282515	-0.004395
1109.442372	-0.004836
1109.602211	-0.001572
1109.762032	0.006370
1109.921835	0.002596
1110.081620	0.002373
1110.241386	-0.009124
1110.401134	-0.011342
1110.560864	-0.006281
1110.720576	0.002068
1110.880269	-0.000469
1111.039945	-0.000595
1111.199602	-0.011744
1111.359240	-0.012210
1111.518861	-0.020624
1111.678463	-0.016403
1111.838047	-0.026170
1111.997613	-0.034357
1112.157161	-0.039200
1112.316690	-0.032528
1112.476202	-0.024514
1112.635695	-0.021118
1112.795169	-0.021347
1112.954626	-0.008692
1113.114064	-0.003543
1113.273484	0.005137
1113.432886	0.005171
1113.592270	0.000549
1113.751635	-0.007287
1113.910983	-0.013503
1114.070312	-0.010445
1114.229622	-0.017092
1114.388915	-0.017338
1114.548189	-0.030336
1114.707445	-0.033042
1114.866683	-0.035538
1115.025903	-0.035455
1115.185104	-0.034180
1115.344287	-0.023623
1115.503452	-0.035380
1115.662599	-0.035123
1115.821727	-0.032498
1115.980838	-0.016791
1116.139930	-0.015049
1116.299004	-0.009394
1116.458059	-0.016567
1116.617097	-0.006328
1116.776116	-0.013879
1116.935117	-0.003301
1117.094099	0.008082
1117.253064	-0.000938
1117.412010	-0.013018
1117.570938	-0.008403
1117.729848	0.000104
1117.888740	0.012525
1118.047613	0.007607
1118.206468	0.003632
1118.365305	0.002186
1118.524124	-0.001979
1118.682924	0.005217
1118.841707	0.006860
1119.000471	-0.004490
1119.159216	-0.011502
1119.317944	-0.017509
1119.476653	-0.017609
1119.635344	-0.013181
1119.794017	-0.027025
1119.952672	-0.028725
1120.111308	-0.024208
1120.269927	-0.012307
1120.428527	-0.001072
1120.587108	-0.017849
1120.745672	-0.018758
1120.904217	-0.024240
1121.062744	-0.024991
1121.221253	-0.011319
1121.379744	0.000341
1121.538216	-0.013591
1121.696671	-0.033840
1121.855107	-0.046352
1122.013524	-0.037859
1122.171924	-0.025404
1122.330305	-0.024443
1122.488668	-0.029040
1122.647013	-0.028939
1122.805340	-0.035689
1122.963648	-0.024712
1123.121938	-0.015666
1123.280210	-0.013612
1123.438464	0.003761
1123.596700	0.002699
1123.754917	0.012255
1123.913116	0.014968
1124.071297	0.027482
1124.229459	0.018747
1124.387604	0.013815
1124.545730	0.020492
1124.703838	0.033673
1124.861928	0.016905
1125.019999	0.009990
1125.178052	-0.005778
1125.336088	-0.000066
1125.494104	-0.024532
1125.652103	-0.014196
1125.810083	-0.022865
1125.968045	-0.035171
1126.125989	-0.034681
1126.283915	-0.018923
1126.441823	-0.025460
1126.599712	-0.020366
1126.757583	-0.014318
1126.915436	0.001021
1127.073270	-0.006502
1127.231087	-0.004302
1127.388885	0.006322
1127.546665	-0.001650
1127.704426	-0.017713
1127.862170	-0.018673
1128.019895	-0.026703
1128.177602	-0.050496
1128.335291	-0.049793
1128.492961	-0.036215
1128.650614	-0.033717
1128.808248	-0.043487
1128.965864	-0.047089
1129.123461	-0.031439
1129.281041	-0.032638
1129.438602	-0.020157
1129.596145	-0.007562
1129.753670	-0.005602
1129.911176	-0.027443
1130.068665	-0.034804
1130.226135	-0.020773
1130.383587	-0.013976
1130.541020	-0.019730
1130.698436	-0.006740
1130.855833	-0.001489
1131.013212	-0.005081
1131.170573	-0.009055
1131.327915	-0.011329
1131.485239	-0.001066
1131.642545	-0.012533
1131.799833	-0.030789
1131.957103	-0.021707
1132.114354	-0.025752
1132.271588	-0.021065
1132.428803	-0.011715
1132.585999	-0.017477
1132.743178	-0.019293
1132.900338	-0.008923
1133.057480	-0.005912
1133.214604	0.005012
1133.371710	-0.001199
1133.528797	-0.001706
1133.685866	-0.011173
1133.842917	-0.024425
1133.999950	-0.026970
1134.156964	-0.019005
1134.313960	-0.028634
1134.470938	-0.019390
1134.627898	-0.001573
1134.784840	-0.020589
1134.941763	-0.024207
1135.098668	-0.024692
1135.255555	-0.022038
1135.412424	-0.005222
1135.569274	0.000741
1135.726107	-0.007444
1135.882921	-0.017609
1136.039716	-0.030947
1136.196494	-0.041185
1136.353253	-0.031287
1136.509995	-0.039303
1136.666717	-0.046859
1136.823422	-0.064290
1136.980109	-0.056690
1137.136777	-0.043085
1137.293427	-0.047520
1137.450059	-0.043134
1137.606672	-0.017213
1137.763267	-0.026006
1137.919844	-0.021415
1138.076403	-0.002797
1138.232944	-0.006540
1138.389466	-0.002875
1138.545971	0.004173
1138.702457	0.010669
1138.858924	0.009340
1139.015374	-0.007397
1139.171805	-0.011288
1139.328218	-0.015795
1139.484613	-0.032853
1139.640990	-0.043609
1139.797348	-0.037989
1139.953688	-0.054085
1140.110010	-0.066263
1140.266314	-0.074931
1140.422600	-0.067925
1140.578867	-0.058860
1140.735116	-0.053290
1140.891347	-0.042854
1141.047559	-0.026366
1141.203754	-0.045622
1141.359930	-0.044952
1141.516088	-0.034843
1141.672228	-0.030623
1141.828349	-0.013041
1141.984452	-0.024011
1142.140537	-0.023019
1142.296604	-0.033843
1142.452653	-0.023274
1142.608683	-0.023169
1142.764695	-0.015089
1142.920689	-0.010278
1143.076665	-0.026969
1143.232622	-0.041292
1143.388562	-0.041785
1143.544483	-0.044367
1143.700385	-0.043355
1143.856270	-0.049588
1144.012136	-0.058995
1144.167985	-0.057848
1144.323814	-0.067662
1144.479626	-0.050813
1144.635420	-0.053372
1144.791195	-0.045461
1144.946952	-0.036980
1145.102691	-0.028055
1145.258411	-0.019211
1145.414113	0.005500
1145.569798	-0.000193
1145.725463	0.008651
1145.881111	0.002330
1146.036741	0.010627
1146.192352	0.034364
1146.347945	0.027005
1146.503519	0.011960
1146.659076	0.007709
1146.814614	0.009051
1146.970134	0.015975
1147.125636	0.004092
1147.281120	0.021865
1147.436585	0.003063
1147.592032	-0.015798
1147.747461	-0.019203
1147.902872	-0.007447
1148.058265	-0.019826
1148.213639	-0.020532
1148.368995	-0.027924
1148.524333	-0.015537
1148.679653	-0.032094
1148.834954	-0.021697
1148.990237	-0.019091
1149.145502	-0.035593
1149.300749	-0.051414
1149.455977	-0.038558
1149.611188	-0.046405
1149.766380	-0.054600
1149.921553	-0.058582
1150.076709	-0.049583
1150.231846	-0.061855
1150.386966	-0.073789
1150.542066	-0.039704
1150.697149	-0.014510
1150.852214	-0.013297
1151.007260	-0.013328
1151.162288	-0.024238
1151.317298	-0.022265
1151.472289	-0.034782
1151.627263	-0.010994
1151.782218	0.011951
1151.937155	-0.004409
1152.092073	-0.005387
1152.246974	-0.011043
1152.401856	0.005127
1152.556720	0.019772
1152.711566	0.027075
1152.866393	0.041031
1153.021203	0.042759
1153.175994	0.020926
1153.330767	0.021565
1153.485521	-0.000740
1153.640258	-0.006801
1153.794976	-0.025755
1153.949676	0.000279
1154.104358	-0.024561
1154.259021	-0.021228
1154.413667	-0.037313
1154.568294	-0.039766
1154.722903	-0.046154
1154.877493	-0.018520
1155.032066	-0.009861
1155.186620	-0.030364
1155.341156	-0.064207
1155.495674	-0.048288
1155.650173	-0.038438
1155.804654	-0.039585
1155.959118	-0.048357
1156.113562	-0.044603
1156.267989	-0.052667
1156.422397	-0.064852
1156.576788	-0.049839
1156.731160	-0.044435
1156.885513	-0.054131
1157.039849	-0.075367
1157.194166	-0.087401
1157.348465	-0.063747
1157.502746	-0.071382
1157.657009	-0.086664
1157.811253	-0.086960
1157.965479	-0.082289
1158.119687	-0.065860
1158.273877	-0.054769
1158.428048	-0.054354
1158.582201	-0.029154
1158.736337	-0.041500
1158.890453	-0.041022
1159.044552	-0.028268
1159.198632	-0.027697
1159.352694	-0.029359
1159.506738	-0.023601
1159.660764	-0.024877
1159.814771	-0.024880
1159.968761	-0.023730
1160.122732	-0.025108
1160.276685	-0.010773
1160.430619	-0.021851
1160.584535	-0.020891
1160.738434	-0.024639
1160.892313	-0.048072
1161.046175	-0.053204
1161.200019	-0.049643
1161.353844	-0.058099
1161.507651	-0.062521
1161.661440	-0.067503
1161.815210	-0.065402
1161.968962	-0.077787
1162.122697	-0.082912
1162.276412	-0.083155
1162.430110	-0.082327
1162.583789	-0.081971
1162.737451	-0.088177
1162.891094	-0.080009
1163.044718	-0.081215
1163.198325	-0.075900
1163.351913	-0.047342
1163.505483	-0.033236
1163.659035	0.000603
1163.812569	0.020370
1163.966084	0.013949
1164.119581	0.030176
1164.273060	0.017574
1164.426521	0.020194
1164.579964	0.018045
1164.733388	0.013001
1164.886794	0.008086
1165.040182	-0.022424
1165.193551	-0.043454
1165.346903	-0.040166
1165.500236	-0.050399
1165.653551	-0.046162
1165.806848	-0.047885
1165.960126	-0.057473
1166.113386	-0.074072
1166.266628	-0.067642
1166.419852	-0.058918
1166.573058	-0.040021
1166.726245	-0.039466
1166.879414	-0.043895
1167.032565	-0.045652
1167.185698	-0.039399
1167.338812	-0.042882
1167.491909	-0.028461
1167.644987	-0.026348
1167.798046	-0.023357
1167.951088	-0.032438
1168.104111	-0.025688
1168.257117	-0.021460
1168.410103	-0.030502
1168.563072	-0.009279
1168.716023	-0.020930
1168.868955	-0.010805
1169.021869	-0.021349
1169.174765	-0.051309
1169.327642	-0.060352
1169.480501	-0.041173
1169.633343	-0.056781
1169.786165	-0.049548
1169.938970	-0.076829
1170.091757	-0.045492
1170.244525	-0.061342
1170.397275	-0.069221
1170.550007	-0.056662
1170.702720	-0.049685
1170.855415	-0.051651
1171.008092	-0.030585
1171.160751	-0.021489
1171.313392	-0.008263
1171.466014	0.237625
1171.618619	0.003692
1171.771205	0.003692
1171.923772	0.003692
