sample name	sample
index	416
start time	 03-08-2021  11:21:57 AM


Wavelength (nm)	Absorbance
494.344910	NaN
494.563924	NaN
494.782919	NaN
495.001897	-0.322406
495.220856	-0.231632
495.439797	-0.136652
495.658719	-0.076896
495.877624	-0.032902
496.096510	0.014041
496.315378	-0.075874
496.534227	-0.022307
496.753059	0.030882
496.971872	-0.011137
497.190667	0.021255
497.409444	0.020933
497.628203	0.019541
497.846943	0.019892
498.065665	0.020495
498.284369	0.019951
498.503055	0.020459
498.721723	0.020126
498.940372	0.019983
499.159003	0.018879
499.377616	0.018617
499.596210	0.017638
499.814787	0.016422
500.033345	0.016373
500.251885	0.016206
500.470406	0.015573
500.688910	0.015336
500.907395	0.015039
501.125862	0.014947
501.344311	0.014243
501.562742	0.015395
501.781154	0.015446
501.999548	0.014358
502.217924	0.014171
502.436282	0.014286
502.654621	0.014472
502.872942	0.014530
503.091245	0.014757
503.309530	0.015686
503.527797	0.014954
503.746045	0.015074
503.964275	0.015087
504.182487	0.015486
504.400681	0.015087
504.618856	0.014362
504.837013	0.014728
505.055152	0.015467
505.273273	0.014052
505.491376	0.014225
505.709460	0.013956
505.927526	0.013776
506.145574	0.013019
506.363604	0.013034
506.581615	0.013212
506.799608	0.013056
507.017583	0.012267
507.235540	0.013080
507.453478	0.013411
507.671399	0.013289
507.889301	0.013873
508.107185	0.014174
508.325050	0.014021
508.542898	0.013446
508.760727	0.013918
508.978538	0.013532
509.196330	0.013195
509.414105	0.012465
509.631861	0.013333
509.849599	0.012542
510.067319	0.012608
510.285021	0.012781
510.502704	0.013318
510.720369	0.012509
510.938016	0.013405
511.155645	0.013444
511.373255	0.014030
511.590848	0.014299
511.808422	0.014776
512.025977	0.014580
512.243515	0.014337
512.461034	0.014666
512.678536	0.014638
512.896018	0.014818
513.113483	0.014808
513.330930	0.014216
513.548358	0.013522
513.765768	0.013770
513.983160	0.014177
514.200533	0.014746
514.417889	0.014825
514.635226	0.015288
514.852545	0.015483
515.069845	0.015774
515.287128	0.015766
515.504392	0.016154
515.721638	0.016082
515.938866	0.015690
516.156075	0.015730
516.373267	0.015820
516.590440	0.015056
516.807594	0.014806
517.024731	0.015195
517.241850	0.015559
517.458950	0.015501
517.676032	0.015731
517.893095	0.015668
518.110141	0.015330
518.327168	0.014890
518.544177	0.014896
518.761168	0.014589
518.978141	0.014327
519.195095	0.014495
519.412031	0.014495
519.628949	0.014462
519.845849	0.014846
520.062731	0.014831
520.279594	0.014971
520.496439	0.014862
520.713266	0.014288
520.930074	0.013755
521.146865	0.013575
521.363637	0.013471
521.580391	0.013594
521.797127	0.013351
522.013844	0.013450
522.230543	0.013055
522.447224	0.013810
522.663887	0.014389
522.880532	0.014690
523.097158	0.014631
523.313766	0.014676
523.530356	0.014719
523.746928	0.015090
523.963481	0.014986
524.180017	0.015801
524.396534	0.015660
524.613032	0.015973
524.829513	0.015854
525.045975	0.015870
525.262420	0.015923
525.478845	0.015616
525.695253	0.016013
525.911643	0.016277
526.128014	0.016092
526.344367	0.016200
526.560702	0.016257
526.777018	0.016313
526.993316	0.016051
527.209597	0.016167
527.425858	0.015972
527.642102	0.015875
527.858328	0.015695
528.074535	0.015427
528.290724	0.015476
528.506894	0.015335
528.723047	0.015216
528.939181	0.015542
529.155297	0.015723
529.371395	0.016139
529.587475	0.016183
529.803536	0.016394
530.019579	0.016237
530.235604	0.015829
530.451611	0.015637
530.667600	0.015768
530.883570	0.016223
531.099522	0.015952
531.315456	0.016441
531.531372	0.016232
531.747269	0.016096
531.963148	0.016508
532.179009	0.016998
532.394852	0.017094
532.610676	0.016812
532.826482	0.016490
533.042271	0.016025
533.258040	0.015423
533.473792	0.015352
533.689525	0.015409
533.905240	0.015055
534.120937	0.014491
534.336616	0.014791
534.552277	0.015235
534.767919	0.015506
534.983543	0.015969
535.199149	0.016235
535.414736	0.016183
535.630306	0.016420
535.845857	0.016624
536.061390	0.016914
536.276904	0.016974
536.492401	0.017271
536.707879	0.017305
536.923339	0.017420
537.138781	0.017442
537.354204	0.017453
537.569610	0.017175
537.784997	0.017531
538.000366	0.017914
538.215716	0.017744
538.431049	0.017677
538.646363	0.016989
538.861659	0.017368
539.076937	0.017377
539.292196	0.017792
539.507438	0.018334
539.722661	0.018278
539.937866	0.018201
540.153052	0.018696
540.368221	0.018842
540.583371	0.019447
540.798503	0.019142
541.013617	0.018932
541.228712	0.018662
541.443789	0.018173
541.658848	0.018197
541.873889	0.017873
542.088912	0.017635
542.303916	0.017379
542.518902	0.017265
542.733870	0.017418
542.948820	0.017664
543.163752	0.018040
543.378665	0.017984
543.593560	0.017891
543.808437	0.018086
544.023295	0.018029
544.238136	0.018210
544.452958	0.018478
544.667762	0.018336
544.882548	0.018185
545.097315	0.017755
545.312064	0.018165
545.526795	0.018451
545.741508	0.018561
545.956203	0.018560
546.170879	0.018435
546.385537	0.018236
546.600177	0.018454
546.814799	0.018510
547.029402	0.018993
547.243988	0.018463
547.458555	0.018289
547.673103	0.018431
547.887634	0.018496
548.102146	0.018549
548.316640	0.019037
548.531116	0.019267
548.745574	0.019262
548.960013	0.019099
549.174435	0.019275
549.388838	0.018786
549.603222	0.018650
549.817589	0.018921
550.031937	0.018962
550.246267	0.018684
550.460579	0.018092
550.674873	0.017889
550.889148	0.017735
551.103405	0.018292
551.317644	0.019085
551.531865	0.019209
551.746068	0.018904
551.960252	0.018770
552.174418	0.018947
552.388566	0.019193
552.602696	0.019466
552.816807	0.019590
553.030900	0.019198
553.244975	0.019048
553.459032	0.018902
553.673070	0.018958
553.887091	0.019352
554.101093	0.018863
554.315077	0.018940
554.529042	0.019172
554.742990	0.019348
554.956919	0.019354
555.170830	0.019565
555.384722	0.019649
555.598597	0.019762
555.812453	0.019535
556.026291	0.019562
556.240111	0.019594
556.453913	0.019308
556.667696	0.019047
556.881461	0.019228
557.095208	0.019042
557.308937	0.019111
557.522647	0.019262
557.736339	0.019631
557.950013	0.019998
558.163669	0.019993
558.377307	0.020635
558.590926	0.020765
558.804527	0.020596
559.018110	0.020315
559.231675	0.020155
559.445221	0.019942
559.658749	0.019565
559.872259	0.019501
560.085751	0.019764
560.299225	0.019460
560.512680	0.019630
560.726117	0.019656
560.939536	0.019709
561.152937	0.020057
561.366319	0.019972
561.579683	0.020129
561.793029	0.020099
562.006357	0.019766
562.219667	0.019686
562.432958	0.019586
562.646231	0.019698
562.859486	0.019797
563.072723	0.019701
563.285941	0.019957
563.499141	0.020171
563.712323	0.020388
563.925487	0.020517
564.138632	0.020446
564.351760	0.020231
564.564869	0.020429
564.777960	0.020667
564.991032	0.020444
565.204087	0.020319
565.417123	0.020252
565.630141	0.020160
565.843140	0.020417
566.056122	0.020471
566.269085	0.020942
566.482030	0.020743
566.694957	0.020627
566.907866	0.020783
567.120756	0.020883
567.333628	0.021027
567.546482	0.021072
567.759318	0.020970
567.972135	0.020858
568.184935	0.020761
568.397716	0.020895
568.610478	0.020521
568.823223	0.020672
569.035949	0.020665
569.248657	0.020270
569.461347	0.020308
569.674019	0.020386
569.886672	0.020411
570.099308	0.020415
570.311925	0.020382
570.524523	0.020719
570.737104	0.020621
570.949666	0.020576
571.162210	0.020645
571.374736	0.020554
571.587244	0.020430
571.799733	0.020391
572.012205	0.020568
572.224658	0.020751
572.437092	0.020760
572.649509	0.020815
572.861907	0.021013
573.074287	0.021168
573.286649	0.021051
573.498993	0.021209
573.711318	0.021224
573.923625	0.021056
574.135914	0.021017
574.348185	0.021336
574.560438	0.021436
574.772672	0.021702
574.984888	0.022022
575.197086	0.022341
575.409266	0.022120
575.621427	0.022476
575.833570	0.022064
576.045695	0.022010
576.257802	0.021932
576.469890	0.021853
576.681961	0.021483
576.894013	0.021182
577.106046	0.021356
577.318062	0.021484
577.530059	0.021332
577.742039	0.021681
577.954000	0.021683
578.165942	0.021673
578.377867	0.022013
578.589773	0.021930
578.801661	0.022026
579.013531	0.021542
579.225382	0.021429
579.437216	0.021483
579.649031	0.021453
579.860828	0.021489
580.072606	0.021442
580.284367	0.021236
580.496109	0.021634
580.707833	0.021520
580.919539	0.021854
581.131227	0.022203
581.342896	0.022545
581.554547	0.022740
581.766180	0.022962
581.977795	0.023219
582.189391	0.023199
582.400969	0.022897
582.612529	0.023241
582.824071	0.023058
583.035595	0.023203
583.247100	0.022944
583.458587	0.022876
583.670056	0.022739
583.881506	0.022697
584.092939	0.023160
584.304353	0.023240
584.515749	0.022955
584.727127	0.023199
584.938486	0.022972
585.149828	0.023042
585.361151	0.023117
585.572456	0.023261
585.783742	0.023250
585.995011	0.023215
586.206261	0.023354
586.417493	0.023449
586.628706	0.023474
586.839902	0.023408
587.051079	0.023277
587.262238	0.023446
587.473379	0.023211
587.684502	0.023046
587.895606	0.022740
588.106692	0.022573
588.317760	0.022592
588.528810	0.022598
588.739841	0.022746
588.950855	0.022937
589.161850	0.023056
589.372827	0.023268
589.583785	0.023424
589.794726	0.023439
590.005648	0.023696
590.216552	0.023998
590.427437	0.023866
590.638305	0.023811
590.849154	0.023803
591.059985	0.023397
591.270798	0.023465
591.481592	0.023532
591.692369	0.023777
591.903127	0.023861
592.113867	0.023660
592.324588	0.023677
592.535292	0.024079
592.745977	0.024215
592.956644	0.024608
593.167293	0.024798
593.377923	0.024707
593.588536	0.024587
593.799130	0.024779
594.009706	0.025132
594.220263	0.025271
594.430803	0.024954
594.641324	0.025003
594.851827	0.024949
595.062312	0.024664
595.272778	0.024867
595.483227	0.025092
595.693657	0.024878
595.904069	0.024866
596.114462	0.025130
596.324838	0.025051
596.535195	0.024842
596.745534	0.024576
596.955855	0.024711
597.166157	0.024571
597.376441	0.024371
597.586707	0.024301
597.796955	0.024161
598.007185	0.023885
598.217396	0.023853
598.427589	0.023945
598.637764	0.024080
598.847921	0.024074
599.058060	0.024019
599.268180	0.024280
599.478282	0.024446
599.688366	0.024455
599.898431	0.024714
600.108479	0.025059
600.318508	0.025407
600.528519	0.025683
600.738511	0.025765
600.948486	0.025991
601.158442	0.026031
601.368380	0.026060
601.578300	0.026091
601.788202	0.025939
601.998085	0.025801
602.207950	0.025486
602.417797	0.025653
602.627626	0.025412
602.837436	0.025207
603.047228	0.025076
603.257002	0.025071
603.466758	0.025011
603.676496	0.025023
603.886215	0.025462
604.095916	0.025570
604.305599	0.025349
604.515264	0.025539
604.724910	0.025755
604.934538	0.025908
605.144148	0.025981
605.353740	0.025929
605.563314	0.026037
605.772869	0.025523
605.982406	0.025490
606.191925	0.025518
606.401425	0.025935
606.610908	0.025980
606.820372	0.025899
607.029818	0.025887
607.239246	0.025965
607.448655	0.026011
607.658047	0.026140
607.867420	0.026051
608.076775	0.026088
608.286111	0.025877
608.495430	0.025717
608.704730	0.025685
608.914012	0.025534
609.123275	0.025647
609.332521	0.025796
609.541748	0.026005
609.750957	0.026301
609.960148	0.026595
610.169321	0.026571
610.378475	0.026680
610.587611	0.026449
610.796729	0.026552
611.005829	0.026349
611.214910	0.026349
611.423974	0.026156
611.633019	0.025959
611.842045	0.025794
612.051054	0.025679
612.260044	0.025816
612.469017	0.025946
612.677970	0.026186
612.886906	0.026491
613.095824	0.026481
613.304723	0.026806
613.513604	0.027127
613.722467	0.027218
613.931311	0.027251
614.140138	0.027141
614.348946	0.027371
614.557736	0.027503
614.766507	0.027488
614.975261	0.027545
615.183996	0.027365
615.392713	0.027268
615.601412	0.027144
615.810092	0.027402
616.018754	0.027637
616.227399	0.027453
616.436024	0.027157
616.644632	0.027079
616.853222	0.027137
617.061793	0.027304
617.270346	0.027269
617.478880	0.027310
617.687397	0.027089
617.895895	0.026971
618.104375	0.027159
618.312837	0.027270
618.521281	0.027407
618.729706	0.027339
618.938113	0.027228
619.146502	0.027188
619.354873	0.026973
619.563226	0.027129
619.771560	0.027236
619.979876	0.027302
620.188174	0.027426
620.396453	0.027443
620.604715	0.027462
620.812958	0.027539
621.021183	0.027806
621.229390	0.028148
621.437578	0.028255
621.645748	0.028071
621.853900	0.027906
622.062034	0.027618
622.270150	0.027571
622.478247	0.027534
622.686326	0.027486
622.894387	0.027222
623.102430	0.027156
623.310454	0.026951
623.518461	0.027118
623.726449	0.027406
623.934418	0.027783
624.142370	0.027993
624.350303	0.028362
624.558218	0.028630
624.766115	0.028879
624.973994	0.028781
625.181855	0.028877
625.389697	0.028943
625.597521	0.028883
625.805327	0.028950
626.013114	0.028702
626.220883	0.028383
626.428634	0.028258
626.636367	0.028156
626.844082	0.028208
627.051778	0.028464
627.259457	0.028610
627.467117	0.028812
627.674758	0.028596
627.882382	0.028840
628.089987	0.028994
628.297574	0.029122
628.505143	0.029215
628.712694	0.029459
628.920226	0.029329
629.127740	0.029197
629.335236	0.029176
629.542714	0.029160
629.750174	0.029074
629.957615	0.029203
630.165038	0.029224
630.372443	0.029237
630.579829	0.029221
630.787198	0.029248
630.994548	0.029251
631.201880	0.028964
631.409194	0.029079
631.616489	0.029291
631.823766	0.029112
632.031025	0.028931
632.238266	0.029075
632.445489	0.029002
632.652693	0.029010
632.859879	0.028974
633.067047	0.028945
633.274197	0.028851
633.481329	0.028645
633.688442	0.028733
633.895537	0.029040
634.102614	0.028777
634.309672	0.029030
634.516713	0.029136
634.723735	0.029220
634.930739	0.029377
635.137724	0.029603
635.344692	0.029672
635.551641	0.029702
635.758572	0.029637
635.965485	0.029953
636.172379	0.029972
636.379256	0.030064
636.586114	0.030477
636.792954	0.030511
636.999775	0.030579
637.206579	0.030556
637.413364	0.030579
637.620131	0.030515
637.826880	0.030615
638.033610	0.030500
638.240323	0.030550
638.447017	0.030236
638.653692	0.030577
638.860350	0.030482
639.066990	0.030568
639.273611	0.030628
639.480214	0.030689
639.686798	0.030595
639.893365	0.030504
640.099913	0.030358
640.306443	0.030433
640.512955	0.030320
640.719449	0.030498
640.925924	0.030752
641.132381	0.030801
641.338820	0.030709
641.545241	0.030606
641.751644	0.030819
641.958028	0.031035
642.164394	0.031122
642.370742	0.031219
642.577071	0.031228
642.783383	0.031085
642.989676	0.031046
643.195951	0.031043
643.402207	0.031287
643.608446	0.031224
643.814666	0.031282
644.020868	0.031245
644.227052	0.031070
644.433218	0.031064
644.639365	0.031153
644.845494	0.031175
645.051605	0.031397
645.257698	0.031449
645.463772	0.031606
645.669828	0.031621
645.875866	0.031595
646.081886	0.031626
646.287888	0.031498
646.493871	0.031473
646.699836	0.031471
646.905783	0.031250
647.111712	0.031000
647.317622	0.030995
647.523514	0.030910
647.729388	0.031000
647.935244	0.031080
648.141082	0.031203
648.346901	0.031221
648.552702	0.031223
648.758485	0.031516
648.964250	0.031775
649.169996	0.031831
649.375724	0.031950
649.581434	0.032098
649.787126	0.032283
649.992800	0.032529
650.198455	0.032708
650.404092	0.032906
650.609711	0.032875
650.815311	0.032748
651.020894	0.032640
651.226458	0.032530
651.432004	0.032470
651.637532	0.032395
651.843041	0.032395
652.048532	0.032239
652.254006	0.032324
652.459460	0.032416
652.664897	0.032589
652.870315	0.032618
653.075716	0.032699
653.281097	0.032784
653.486461	0.032801
653.691807	0.032696
653.897134	0.032812
654.102443	0.032762
654.307734	0.032833
654.513006	0.032951
654.718261	0.033091
654.923497	0.033063
655.128715	0.033114
655.333915	0.033036
655.539096	0.033088
655.744259	0.033090
655.949404	0.033305
656.154531	0.033194
656.359640	0.032992
656.564730	0.032798
656.769802	0.032817
656.974856	0.032755
657.179892	0.033004
657.384909	0.033064
657.589908	0.033056
657.794889	0.032947
657.999852	0.032895
658.204797	0.032805
658.409723	0.033091
658.614631	0.033120
658.819521	0.033023
659.024393	0.032854
659.229246	0.032796
659.434081	0.032825
659.638898	0.032722
659.843697	0.032774
660.048478	0.033076
660.253240	0.033158
660.457984	0.033194
660.662710	0.033359
660.867417	0.033428
661.072107	0.033370
661.276778	0.033415
661.481431	0.033532
661.686066	0.033693
661.890682	0.033654
662.095281	0.033376
662.299861	0.033490
662.504422	0.033541
662.708966	0.033652
662.913491	0.033842
663.117999	0.033749
663.322488	0.033788
663.526958	0.033845
663.731411	0.033885
663.935845	0.034120
664.140261	0.034083
664.344659	0.034049
664.549038	0.034270
664.753400	0.034356
664.957743	0.034581
665.162068	0.034547
665.366375	0.034479
665.570663	0.034488
665.774933	0.034627
665.979185	0.034712
666.183419	0.034951
666.387635	0.034769
666.591832	0.034764
666.796011	0.034860
667.000172	0.035095
667.204315	0.035402
667.408439	0.035648
667.612545	0.035697
667.816634	0.035821
668.020703	0.035744
668.224755	0.035883
668.428788	0.035958
668.632803	0.036058
668.836800	0.036060
669.040779	0.036084
669.244739	0.035978
669.448681	0.036012
669.652605	0.035999
669.856511	0.036181
670.060399	0.036081
670.264268	0.036158
670.468119	0.036064
670.671952	0.036001
670.875767	0.035931
671.079563	0.035883
671.283341	0.035747
671.487101	0.035670
671.690843	0.035465
671.894567	0.035499
672.098272	0.035316
672.301959	0.035382
672.505628	0.035472
672.709278	0.035380
672.912911	0.035356
673.116525	0.035310
673.320121	0.035310
673.523699	0.035257
673.727258	0.035256
673.930799	0.035509
674.134322	0.035610
674.337827	0.035510
674.541314	0.035619
674.744782	0.035837
674.948232	0.035933
675.151664	0.036035
675.355078	0.036177
675.558474	0.036365
675.761851	0.036280
675.965210	0.036445
676.168551	0.036574
676.371873	0.036631
676.575178	0.036651
676.778464	0.036711
676.981732	0.036788
677.184981	0.036997
677.388213	0.037056
677.591426	0.036989
677.794621	0.036778
677.997798	0.036760
678.200956	0.036719
678.404097	0.036640
678.607219	0.036705
678.810323	0.036906
679.013408	0.036885
679.216476	0.036855
679.419525	0.036870
679.622556	0.036993
679.825569	0.037097
680.028563	0.037064
680.231540	0.037098
680.434498	0.037075
680.637438	0.036933
680.840359	0.036867
681.043263	0.036862
681.246148	0.036994
681.449015	0.036965
681.651864	0.036885
681.854694	0.036966
682.057506	0.037042
682.260301	0.037312
682.463076	0.037248
682.665834	0.037315
682.868573	0.037479
683.071295	0.037524
683.273998	0.037622
683.476682	0.037793
683.679349	0.037882
683.881997	0.037973
684.084627	0.037761
684.287239	0.037954
684.489833	0.038096
684.692408	0.038155
684.894965	0.038213
685.097504	0.038178
685.300025	0.038123
685.502527	0.038164
685.705012	0.038157
685.907478	0.038216
686.109925	0.038202
686.312355	0.038149
686.514766	0.038093
686.717159	0.038143
686.919534	0.038102
687.121891	0.038175
687.324230	0.038291
687.526550	0.038473
687.728852	0.038481
687.931136	0.038480
688.133401	0.038416
688.335649	0.038361
688.537878	0.038335
688.740089	0.038479
688.942281	0.038399
689.144456	0.038305
689.346612	0.038138
689.548750	0.038318
689.750870	0.038512
689.952971	0.038461
690.155055	0.038510
690.357120	0.038433
690.559167	0.038353
690.761195	0.038488
690.963206	0.038546
691.165198	0.038566
691.367172	0.038290
691.569128	0.038044
691.771065	0.038210
691.972984	0.038109
692.174885	0.038297
692.376768	0.038369
692.578633	0.038345
692.780479	0.038307
692.982308	0.038294
693.184118	0.038459
693.385909	0.038567
693.587683	0.038636
693.789438	0.038889
693.991175	0.038883
694.192894	0.038898
694.394595	0.038983
694.596277	0.038915
694.797941	0.039004
694.999587	0.039044
695.201215	0.039193
695.402824	0.039015
695.604416	0.038898
695.805989	0.038898
696.007543	0.038844
696.209080	0.038703
696.410598	0.038822
696.612099	0.038794
696.813580	0.038840
697.015044	0.038781
697.216490	0.038922
697.417917	0.039042
697.619326	0.039037
697.820717	0.039194
698.022089	0.039189
698.223444	0.039259
698.424780	0.039507
698.626098	0.039599
698.827397	0.039783
699.028679	0.039843
699.229942	0.039836
699.431187	0.039805
699.632414	0.039810
699.833622	0.039905
700.034813	0.039896
700.235985	0.039660
700.437139	0.039651
700.638274	0.039602
700.839392	0.039564
701.040491	0.039465
701.241572	0.039475
701.442635	0.039400
701.643679	0.039521
701.844706	0.039645
702.045714	0.039674
702.246704	0.039704
702.447675	0.039687
702.648629	0.039707
702.849564	0.039738
703.050481	0.039902
703.251380	0.039899
703.452260	0.039859
703.653122	0.039875
703.853966	0.039899
704.054792	0.039931
704.255600	0.039852
704.456389	0.040006
704.657160	0.040154
704.857913	0.040005
705.058648	0.040147
705.259365	0.040214
705.460063	0.039955
705.660743	0.040142
705.861405	0.040228
706.062048	0.040328
706.262674	0.040174
706.463281	0.040072
706.663870	0.040204
706.864441	0.039969
707.064993	0.039852
707.265527	0.040031
707.466043	0.039852
707.666541	0.039667
707.867021	0.039565
708.067482	0.039681
708.267925	0.039762
708.468350	0.039866
708.668757	0.040009
708.869145	0.040150
709.069516	0.040214
709.269868	0.040259
709.470201	0.040430
709.670517	0.040513
709.870814	0.040573
710.071093	0.040665
710.271354	0.040746
710.471597	0.040981
710.671821	0.041125
710.872028	0.041101
711.072216	0.041193
711.272385	0.041096
711.472537	0.041143
711.672670	0.041185
711.872785	0.041200
712.072882	0.041073
712.272961	0.040844
712.473021	0.040555
712.673063	0.040636
712.873087	0.040702
713.073093	0.040761
713.273081	0.040663
713.473050	0.040533
713.673001	0.040423
713.872934	0.040261
714.072849	0.040368
714.272745	0.040681
714.472623	0.040528
714.672483	0.040504
714.872325	0.040439
715.072148	0.040536
715.271954	0.040424
715.471741	0.040351
715.671509	0.040428
715.871260	0.040325
716.070992	0.040152
716.270707	0.040123
716.470403	0.039957
716.670080	0.039869
716.869740	0.039641
717.069381	0.039703
717.269004	0.039840
717.468609	0.039627
717.668195	0.039615
717.867764	0.039503
718.067314	0.039368
718.266846	0.039315
718.466360	0.039293
718.665855	0.039450
718.865332	0.039380
719.064791	0.039288
719.264232	0.039427
719.463655	0.039502
719.663059	0.039597
719.862445	0.039846
720.061813	0.039944
720.261163	0.039894
720.460494	0.039851
720.659807	0.039865
720.859102	0.039922
721.058379	0.039954
721.257638	0.039840
721.456878	0.039610
721.656100	0.039447
721.855304	0.039408
722.054490	0.039563
722.253657	0.039481
722.452806	0.039417
722.651937	0.039396
722.851050	0.039434
723.050145	0.039537
723.249221	0.039592
723.448279	0.039570
723.647319	0.039530
723.846340	0.039525
724.045344	0.039511
724.244329	0.039578
724.443296	0.039505
724.642245	0.039391
724.841175	0.039362
725.040088	0.039379
725.238982	0.039502
725.437857	0.039736
725.636715	0.039776
725.835554	0.039851
726.034376	0.039889
726.233179	0.039796
726.431963	0.039801
726.630730	0.039725
726.829478	0.039696
727.028208	0.039615
727.226920	0.039521
727.425614	0.039515
727.624289	0.039336
727.822946	0.039444
728.021585	0.039308
728.220206	0.039391
728.418808	0.039350
728.617392	0.039513
728.815958	0.039629
729.014506	0.039479
729.213036	0.039516
729.411547	0.039681
729.610040	0.039469
729.808515	0.039575
730.006972	0.039433
730.205410	0.039340
730.403831	0.039169
730.602233	0.038975
730.800616	0.038946
730.998982	0.038627
731.197329	0.038525
731.395658	0.038504
731.593969	0.038458
731.792262	0.038488
731.990536	0.038405
732.188793	0.038466
732.387031	0.038515
732.585250	0.038595
732.783452	0.038769
732.981635	0.038798
733.179800	0.038840
733.377947	0.038912
733.576076	0.038687
733.774186	0.038919
733.972278	0.038780
734.170352	0.038803
734.368408	0.038576
734.566446	0.038326
734.764465	0.038475
734.962466	0.038484
735.160449	0.038419
735.358413	0.038570
735.556360	0.038494
735.754288	0.038617
735.952198	0.038587
736.150090	0.038669
736.347963	0.038894
736.545818	0.038837
736.743655	0.038705
736.941474	0.038782
737.139275	0.038809
737.337057	0.038878
737.534821	0.038816
737.732567	0.038774
737.930295	0.038876
738.128005	0.038905
738.325696	0.038698
738.523369	0.038781
738.721024	0.038749
738.918660	0.038856
739.116279	0.038883
739.313879	0.038832
739.511461	0.038723
739.709024	0.038443
739.906570	0.038254
740.104097	0.038209
740.301606	0.038147
740.499097	0.038026
740.696569	0.037966
740.894024	0.037823
741.091460	0.037919
741.288878	0.037904
741.486277	0.037909
741.683659	0.037993
741.881022	0.038230
742.078367	0.038216
742.275694	0.038090
742.473002	0.038049
742.670293	0.037924
742.867565	0.037713
743.064819	0.037602
743.262054	0.037633
743.459272	0.037544
743.656471	0.037233
743.853652	0.037193
744.050815	0.037359
744.247959	0.037449
744.445085	0.037500
744.642194	0.037697
744.839283	0.037653
745.036355	0.037744
745.233408	0.037876
745.430444	0.038007
745.627461	0.038086
745.824459	0.038055
746.021440	0.037897
746.218402	0.037734
746.415346	0.037357
746.612272	0.037414
746.809180	0.037320
747.006069	0.037067
747.202940	0.037025
747.399793	0.036965
747.596628	0.036803
747.793444	0.036744
747.990243	0.036907
748.187023	0.037044
748.383784	0.036916
748.580528	0.036748
748.777253	0.036741
748.973960	0.036646
749.170649	0.036599
749.367320	0.036661
749.563973	0.036623
749.760607	0.036328
749.957223	0.036367
750.153821	0.036431
750.350400	0.036458
750.546962	0.036399
750.743505	0.036484
750.940030	0.036392
751.136536	0.036358
751.333025	0.036177
751.529495	0.036285
751.725947	0.036033
751.922381	0.036036
752.118796	0.036110
752.315194	0.036047
752.511573	0.036025
752.707934	0.036015
752.904276	0.035829
753.100601	0.035852
753.296907	0.035815
753.493195	0.036133
753.689465	0.036149
753.885716	0.036108
754.081949	0.036273
754.278164	0.036208
754.474361	0.036239
754.670540	0.036391
754.866700	0.036535
755.062843	0.036552
755.258967	0.036418
755.455072	0.036581
755.651160	0.036589
755.847229	0.036608
756.043280	0.036647
756.239313	0.036729
756.435328	0.036753
756.631324	0.036912
756.827302	0.036888
757.023262	0.036995
757.219204	0.036880
757.415127	0.036766
757.611033	0.036737
757.806920	0.036756
758.002788	0.036812
758.198639	0.036964
758.394471	0.036732
758.590286	0.036972
758.786081	0.036863
758.981859	0.036744
759.177619	0.036860
759.373360	0.036846
759.569083	0.036720
759.764788	0.036567
759.960474	0.036426
760.156143	0.036378
760.351793	0.036179
760.547425	0.036179
760.743038	0.036338
760.938634	0.036395
761.134211	0.036338
761.329770	0.036325
761.525311	0.036277
761.720833	0.036140
761.916338	0.036089
762.111824	0.036075
762.307292	0.036202
762.502741	0.036126
762.698173	0.035977
762.893586	0.035901
763.088981	0.035888
763.284358	0.035956
763.479716	0.036013
763.675057	0.036123
763.870379	0.036028
764.065683	0.035916
764.260968	0.035951
764.456236	0.035866
764.651485	0.035820
764.846716	0.035706
765.041929	0.035601
765.237123	0.035597
765.432299	0.035574
765.627457	0.035639
765.822597	0.035654
766.017719	0.035541
766.212822	0.035812
766.407907	0.035927
766.602974	0.036043
766.798023	0.036077
766.993054	0.035931
767.188066	0.035942
767.383060	0.035896
767.578036	0.035957
767.772993	0.036003
767.967933	0.035898
768.162854	0.035976
768.357757	0.036024
768.552642	0.035829
768.747508	0.035842
768.942356	0.035846
769.137186	0.035753
769.331998	0.035417
769.526792	0.035248
769.721567	0.035299
769.916324	0.035208
770.111063	0.034958
770.305784	0.035090
770.500486	0.035026
770.695171	0.035002
770.889837	0.035102
771.084484	0.035109
771.279114	0.035239
771.473725	0.035351
771.668318	0.035237
771.862893	0.035371
772.057450	0.035456
772.251988	0.035508
772.446509	0.035503
772.641011	0.035681
772.835494	0.035877
773.029960	0.035739
773.224407	0.035331
773.418836	0.035437
773.613247	0.035449
773.807640	0.035280
774.002014	0.035320
774.196370	0.035166
774.390708	0.034789
774.585028	0.034643
774.779330	0.034630
774.973613	0.034956
775.167878	0.034806
775.362125	0.034877
775.556354	0.034733
775.750564	0.034743
775.944756	0.034650
776.138930	0.034826
776.333086	0.034908
776.527223	0.034875
776.721343	0.034631
776.915444	0.034641
777.109526	0.034587
777.303591	0.034845
777.497637	0.034800
777.691666	0.035165
777.885676	0.035148
778.079667	0.035016
778.273641	0.035061
778.467596	0.035082
778.661533	0.035182
778.855452	0.035039
779.049352	0.034925
779.243235	0.034849
779.437099	0.034598
779.630945	0.034406
779.824773	0.034531
780.018582	0.034653
780.212373	0.034624
780.406146	0.034560
780.599901	0.034661
780.793638	0.034670
780.987356	0.034926
781.181056	0.035069
781.374738	0.035359
781.568402	0.035333
781.762047	0.035382
781.955674	0.035513
782.149283	0.035625
782.342874	0.035629
782.536447	0.035530
782.730001	0.035262
782.923537	0.035338
783.117055	0.035406
783.310555	0.035352
783.504036	0.035297
783.697499	0.035347
783.890944	0.035348
784.084371	0.035362
784.277780	0.035455
784.471170	0.035649
784.664542	0.035449
784.857896	0.035408
785.051231	0.035435
785.244549	0.035339
785.437848	0.035200
785.631129	0.035061
785.824392	0.035096
786.017636	0.035160
786.210863	0.034913
786.404071	0.034940
786.597260	0.034873
786.790432	0.034856
786.983585	0.034920
787.176721	0.034945
787.369838	0.034919
787.562936	0.034953
787.756017	0.034804
787.949079	0.034989
788.142123	0.034885
788.335149	0.034661
788.528156	0.034683
788.721146	0.034829
788.914117	0.034949
789.107070	0.035061
789.300005	0.034844
789.492921	0.034856
789.685819	0.034912
789.878699	0.035033
790.071561	0.035310
790.264405	0.035580
790.457230	0.035328
790.650037	0.035260
790.842826	0.035301
791.035597	0.035377
791.228349	0.035405
791.421084	0.035309
791.613800	0.035322
791.806497	0.035407
791.999177	0.035073
792.191838	0.035105
792.384481	0.034994
792.577106	0.034891
792.769713	0.034870
792.962301	0.034804
793.154871	0.034831
793.347423	0.034801
793.539957	0.034788
793.732473	0.034850
793.924970	0.035002
794.117449	0.035110
794.309910	0.035210
794.502353	0.035250
794.694777	0.035370
794.887183	0.035383
795.079571	0.035526
795.271941	0.035560
795.464293	0.035740
795.656626	0.035815
795.848941	0.035615
796.041238	0.035649
796.233516	0.035740
796.425777	0.035812
796.618019	0.035942
796.810243	0.035882
797.002449	0.036006
797.194636	0.036025
797.386805	0.036065
797.578956	0.036482
797.771089	0.036496
797.963204	0.036494
798.155300	0.036552
798.347378	0.036576
798.539438	0.036523
798.731480	0.036242
798.923503	0.035964
799.115509	0.035934
799.307496	0.035775
799.499465	0.035616
799.691415	0.035503
799.883348	0.035391
800.075262	0.035283
800.267158	0.035473
800.459035	0.035437
800.650895	0.035528
800.842736	0.035208
801.034559	0.035066
801.226364	0.035152
801.418150	0.035224
801.609919	0.035225
801.801669	0.035280
801.993401	0.035109
802.185114	0.035180
802.376810	0.035325
802.568487	0.035404
802.760146	0.035440
802.951787	0.035429
803.143409	0.035602
803.335014	0.035694
803.526600	0.035621
803.718168	0.035686
803.909717	0.035698
804.101249	0.035646
804.292762	0.035766
804.484257	0.035987
804.675734	0.036107
804.867192	0.036073
805.058632	0.036143
805.250054	0.036339
805.441458	0.036432
805.632844	0.036479
805.824211	0.036645
806.015561	0.036627
806.206891	0.036580
806.398204	0.036586
806.589499	0.036687
806.780775	0.036666
806.972033	0.036722
807.163273	0.036573
807.354495	0.036605
807.545698	0.036491
807.736883	0.036699
807.928050	0.036556
808.119199	0.036483
808.310329	0.036228
808.501441	0.036351
808.692535	0.036299
808.883611	0.036424
809.074669	0.036481
809.265708	0.036450
809.456729	0.036333
809.647732	0.036562
809.838717	0.036728
810.029683	0.036870
810.220632	0.036693
810.411562	0.036684
810.602474	0.036605
810.793367	0.036403
810.984242	0.036392
811.175100	0.036538
811.365938	0.036574
811.556759	0.036507
811.747562	0.036554
811.938346	0.036792
812.129112	0.036787
812.319860	0.036821
812.510589	0.036968
812.701300	0.037040
812.891994	0.037117
813.082668	0.037114
813.273325	0.037233
813.463964	0.037157
813.654584	0.036924
813.845186	0.036920
814.035769	0.037012
814.226335	0.036957
814.416882	0.037108
814.607411	0.037008
814.797922	0.036883
814.988415	0.036946
815.178889	0.037137
815.369345	0.037484
815.559783	0.037652
815.750203	0.037914
815.940605	0.038080
816.130988	0.038092
816.321353	0.038021
816.511700	0.038150
816.702028	0.037956
816.892339	0.038056
817.082631	0.037965
817.272905	0.038011
817.463161	0.037991
817.653398	0.037968
817.843617	0.038124
818.033819	0.038251
818.224001	0.038283
818.414166	0.038658
818.604312	0.038591
818.794440	0.038494
818.984550	0.038484
819.174642	0.038428
819.364716	0.038365
819.554771	0.038290
819.744808	0.038239
819.934827	0.038400
820.124827	0.038049
820.314810	0.037984
820.504774	0.038156
820.694720	0.038252
820.884647	0.038223
821.074557	0.038359
821.264448	0.038406
821.454321	0.038401
821.644176	0.038405
821.834012	0.038573
822.023831	0.038703
822.213631	0.038409
822.403413	0.038234
822.593176	0.038202
822.782922	0.038177
822.972649	0.037993
823.162358	0.038107
823.352049	0.037962
823.541721	0.037716
823.731376	0.037804
823.921012	0.037897
824.110629	0.037795
824.300229	0.037653
824.489811	0.037623
824.679374	0.037613
824.868919	0.037708
825.058445	0.037828
825.247954	0.038131
825.437444	0.038197
825.626916	0.038248
825.816370	0.038354
826.005806	0.038470
826.195223	0.038601
826.384622	0.038867
826.574003	0.038858
826.763366	0.038786
826.952711	0.038888
827.142037	0.039002
827.331345	0.039356
827.520635	0.039491
827.709906	0.039784
827.899160	0.039937
828.088395	0.039885
828.277612	0.040026
828.466810	0.040219
828.655991	0.040274
828.845153	0.040155
829.034297	0.040100
829.223423	0.040122
829.412531	0.040100
829.601620	0.040093
829.790691	0.040173
829.979744	0.040042
830.168779	0.039996
830.357795	0.039903
830.546793	0.039859
830.735773	0.039964
830.924735	0.040177
831.113679	0.040122
831.302604	0.040203
831.491511	0.040038
831.680400	0.040210
831.869271	0.040227
832.058123	0.040238
832.246957	0.040195
832.435773	0.039982
832.624571	0.039894
832.813351	0.039799
833.002112	0.039843
833.190855	0.040225
833.379580	0.040180
833.568287	0.040113
833.756975	0.040271
833.945645	0.040383
834.134297	0.040463
834.322931	0.040220
834.511547	0.040333
834.700144	0.040277
834.888723	0.040146
835.077284	0.040265
835.265826	0.040487
835.454351	0.040572
835.642857	0.040729
835.831345	0.040707
836.019815	0.040916
836.208266	0.040974
836.396699	0.041089
836.585114	0.041076
836.773511	0.041292
836.961890	0.041475
837.150250	0.041597
837.338592	0.041539
837.526916	0.041725
837.715222	0.041889
837.903510	0.041978
838.091779	0.041999
838.280030	0.041963
838.468263	0.041890
838.656477	0.041790
838.844674	0.041617
839.032852	0.041737
839.221012	0.041956
839.409153	0.042048
839.597277	0.042177
839.785382	0.042174
839.973469	0.042459
840.161538	0.042212
840.349589	0.042304
840.537621	0.042361
840.725635	0.042324
840.913631	0.042117
841.101609	0.042040
841.289568	0.042155
841.477509	0.042218
841.665432	0.042324
841.853337	0.042613
842.041224	0.042654
842.229092	0.042792
842.416942	0.043026
842.604774	0.043368
842.792588	0.043754
842.980383	0.043864
843.168160	0.044051
843.355919	0.044055
843.543660	0.044305
843.731382	0.044359
843.919087	0.044412
844.106773	0.044492
844.294441	0.044607
844.482090	0.044297
844.669722	0.044483
844.857335	0.044548
845.044930	0.044636
845.232507	0.044512
845.420065	0.044473
845.607605	0.044712
845.795127	0.044771
845.982631	0.044518
846.170117	0.044893
846.357584	0.044733
846.545033	0.044916
846.732464	0.045228
846.919877	0.045404
847.107272	0.045568
847.294648	0.045538
847.482006	0.045443
847.669346	0.045768
847.856667	0.045847
848.043971	0.045920
848.231256	0.045793
848.418523	0.045510
848.605771	0.045458
848.793002	0.045724
848.980214	0.045876
849.167408	0.046200
849.354584	0.046365
849.541742	0.046357
849.728881	0.046450
849.916002	0.046548
850.103105	0.046657
850.290190	0.046770
850.477256	0.046679
850.664304	0.046681
850.851334	0.046669
851.038346	0.046393
851.225340	0.046429
851.412315	0.046549
851.599272	0.046623
851.786211	0.046801
851.973132	0.046916
852.160034	0.046991
852.346918	0.047198
852.533784	0.047309
852.720632	0.047529
852.907462	0.047664
853.094273	0.047846
853.281066	0.047849
853.467841	0.047940
853.654598	0.048161
853.841336	0.048196
854.028056	0.047951
854.214758	0.047819
854.401442	0.047958
854.588107	0.048179
854.774755	0.048103
854.961384	0.048492
855.147995	0.048543
855.334587	0.048424
855.521162	0.048543
855.707718	0.048931
855.894256	0.049243
856.080775	0.049329
856.267277	0.049139
856.453760	0.049229
856.640225	0.049095
856.826672	0.049047
857.013101	0.049099
857.199511	0.049243
857.385903	0.049039
857.572277	0.049041
857.758633	0.049115
857.944970	0.049193
858.131290	0.049212
858.317591	0.049348
858.503873	0.049715
858.690138	0.049773
858.876384	0.049837
859.062612	0.049973
859.248822	0.050072
859.435014	0.050306
859.621188	0.050647
859.807343	0.050738
859.993480	0.050713
860.179599	0.050465
860.365699	0.050629
860.551781	0.050608
860.737846	0.050868
860.923891	0.051067
861.109919	0.050928
861.295929	0.050898
861.481920	0.051273
861.667893	0.051389
861.853848	0.051755
862.039784	0.051849
862.225702	0.051990
862.411603	0.052043
862.597484	0.051957
862.783348	0.052226
862.969193	0.052159
863.155021	0.051822
863.340830	0.051994
863.526620	0.052057
863.712393	0.052255
863.898147	0.052261
864.083883	0.052122
864.269601	0.052114
864.455301	0.052280
864.640982	0.052449
864.826645	0.052541
865.012290	0.052533
865.197917	0.052508
865.383526	0.052461
865.569116	0.052656
865.754688	0.052956
865.940242	0.053048
866.125777	0.052841
866.311295	0.052996
866.496794	0.053194
866.682275	0.053097
866.867737	0.053070
867.053182	0.053007
867.238608	0.052933
867.424016	0.053103
867.609406	0.053309
867.794778	0.053307
867.980131	0.053081
868.165466	0.053186
868.350783	0.053528
868.536082	0.053696
868.721362	0.053713
868.906625	0.053956
869.091869	0.054003
869.277094	0.053709
869.462302	0.053787
869.647491	0.054063
869.832662	0.053931
870.017815	0.053940
870.202950	0.053921
870.388066	0.054089
870.573165	0.054062
870.758245	0.054071
870.943306	0.054447
871.128350	0.054522
871.313375	0.054652
871.498382	0.054744
871.683371	0.054728
871.868342	0.054918
872.053294	0.054903
872.238229	0.054980
872.423144	0.054818
872.608042	0.054722
872.792922	0.054772
872.977783	0.054517
873.162626	0.054810
873.347451	0.054726
873.532258	0.054505
873.717046	0.054501
873.901816	0.054349
874.086568	0.054455
874.271302	0.054818
874.456017	0.054942
874.640715	0.055114
874.825394	0.054915
875.010055	0.055137
875.194697	0.055195
875.379322	0.055436
875.563928	0.055442
875.748516	0.055389
875.933085	0.054997
876.117637	0.054728
876.302170	0.054689
876.486685	0.055029
876.671182	0.055103
876.855661	0.055519
877.040121	0.055613
877.224563	0.055978
877.408987	0.056211
877.593393	0.056706
877.777780	0.057023
877.962150	0.057163
878.146501	0.057117
878.330833	0.057192
878.515148	0.056850
878.699444	0.056837
878.883722	0.056676
879.067982	0.056634
879.252224	0.056559
879.436447	0.056686
879.620653	0.056865
879.804840	0.056767
879.989008	0.056579
880.173159	0.056704
880.357291	0.056803
880.541405	0.056676
880.725501	0.056533
880.909579	0.056237
881.093638	0.056289
881.277680	0.056204
881.461703	0.056409
881.645707	0.056376
881.829694	0.056303
882.013662	0.056166
882.197612	0.056509
882.381544	0.056676
882.565458	0.057145
882.749353	0.056994
882.933230	0.056861
883.117089	0.056489
883.300930	0.056553
883.484753	0.056729
883.668557	0.056808
883.852343	0.056653
884.036111	0.056859
884.219861	0.056792
884.403592	0.056893
884.587305	0.057084
884.771000	0.057474
884.954677	0.057407
885.138335	0.057415
885.321976	0.057271
885.505598	0.057453
885.689201	0.057266
885.872787	0.057110
886.056354	0.056822
886.239904	0.056849
886.423434	0.056537
886.606947	0.056816
886.790442	0.056783
886.973918	0.056870
887.157376	0.056795
887.340816	0.056812
887.524237	0.056621
887.707641	0.057078
887.891026	0.057047
888.074393	0.057213
888.257741	0.057085
888.441072	0.057021
888.624384	0.057154
888.807678	0.057088
888.990954	0.057036
889.174211	0.057123
889.357451	0.056726
889.540672	0.056792
889.723875	0.056839
889.907059	0.056922
890.090226	0.057094
890.273374	0.056913
890.456504	0.057010
890.639616	0.056633
890.822709	0.056786
891.005785	0.057033
891.188842	0.056796
891.371881	0.056754
891.554901	0.056360
891.737904	0.056449
891.920888	0.056435
892.103854	0.056303
892.286802	0.057046
892.469731	0.057208
892.652643	0.057002
892.835536	0.056981
893.018410	0.057070
893.201267	0.057448
893.384106	0.057464
893.566926	0.057723
893.749728	0.057921
893.932511	0.057516
894.115277	0.056935
894.298024	0.057082
894.480753	0.057357
894.663464	0.057334
894.846157	0.057350
895.028831	0.056920
895.211487	0.056725
895.394125	0.056495
895.576745	0.056697
895.759346	0.056725
895.941930	0.056511
896.124495	0.056505
896.307041	0.056510
896.489570	0.056416
896.672080	0.056514
896.854573	0.056632
897.037046	0.056689
897.219502	0.056499
897.401940	0.056695
897.584359	0.056969
897.766760	0.056973
897.949143	0.056769
898.131507	0.056677
898.313854	0.056475
898.496182	0.056237
898.678492	0.056111
898.860783	0.055814
899.043057	0.055658
899.225312	0.055236
899.407549	0.054845
899.589768	0.054586
899.771968	0.054068
899.954151	0.054196
900.136315	0.054092
900.318461	0.054281
900.500588	0.054493
900.682698	0.054728
900.864789	0.054755
901.046862	0.054798
901.228917	0.055074
901.410953	0.055580
901.592971	0.055319
901.774972	0.055302
901.956953	0.054867
902.138917	0.054885
902.320862	0.055046
902.502790	0.055071
902.684699	0.054911
902.866589	0.054864
903.048462	0.054916
903.230316	0.054888
903.412152	0.055158
903.593970	0.055353
903.775770	0.055255
903.957551	0.054819
904.139314	0.054662
904.321059	0.055174
904.502786	0.055190
904.684494	0.055022
904.866185	0.055151
905.047857	0.054774
905.229510	0.054511
905.411146	0.054330
905.592763	0.054343
905.774363	0.054380
905.955943	0.054131
906.137506	0.053988
906.319051	0.053943
906.500577	0.053742
906.682085	0.053786
906.863575	0.054082
907.045046	0.053994
907.226500	0.053878
907.407935	0.053772
907.589352	0.053494
907.770750	0.052976
907.952131	0.053163
908.133493	0.053070
908.314837	0.052946
908.496163	0.052564
908.677470	0.052568
908.858760	0.052290
909.040031	0.052324
909.221284	0.052006
909.402518	0.052264
909.583735	0.051769
909.764933	0.051579
909.946113	0.051156
910.127275	0.050889
910.308418	0.050504
910.489544	0.050254
910.670651	0.050090
910.851740	0.050202
911.032810	0.050496
911.213863	0.050622
911.394897	0.050790
911.575913	0.050998
911.756911	0.050950
911.937890	0.051397
912.118851	0.051585
912.299794	0.051639
912.480719	0.051633
912.661626	0.051098
912.842514	0.051010
913.023384	0.050753
913.204236	0.050566
913.385070	0.050557
913.565886	0.050154
913.746683	0.050275
913.927462	0.050015
914.108223	0.049925
914.288965	0.049701
914.469690	0.049493
914.650396	0.049189
914.831084	0.049179
915.011754	0.049229
915.192405	0.049479
915.373038	0.049161
915.553653	0.049213
915.734250	0.048975
915.914829	0.049127
916.095389	0.049177
916.275931	0.049341
916.456455	0.049435
916.636961	0.049392
916.817448	0.048906
916.997917	0.048677
917.178368	0.048588
917.358801	0.048304
917.539216	0.047998
917.719612	0.047514
917.899990	0.047813
918.080350	0.047602
918.260692	0.047012
918.441015	0.046814
918.621320	0.047012
918.801607	0.046585
918.981876	0.046508
919.162127	0.045844
919.342359	0.045519
919.522573	0.044938
919.702769	0.044576
919.882947	0.044704
920.063106	0.044612
920.243247	0.043961
920.423370	0.043723
920.603475	0.043266
920.783562	0.043580
920.963630	0.043320
921.143680	0.042984
921.323712	0.042678
921.503725	0.042589
921.683721	0.042412
921.863698	0.042442
922.043657	0.042144
922.223598	0.042166
922.403520	0.042416
922.583424	0.042334
922.763311	0.042336
922.943178	0.042170
923.123028	0.041741
923.302859	0.041269
923.482673	0.041122
923.662467	0.041246
923.842244	0.041262
924.022003	0.040361
924.201743	0.040395
924.381465	0.039736
924.561169	0.039687
924.740854	0.039259
924.920522	0.038973
925.100171	0.038780
925.279802	0.038514
925.459414	0.037938
925.639009	0.037701
925.818585	0.037506
925.998143	0.037712
926.177683	0.037307
926.357205	0.037449
926.536708	0.037398
926.716193	0.036649
926.895660	0.036170
927.075109	0.036055
927.254539	0.035816
927.433951	0.035387
927.613345	0.035319
927.792721	0.035233
927.972079	0.034900
928.151418	0.034728
928.330739	0.034949
928.510042	0.034461
928.689327	0.034031
928.868593	0.034251
929.047841	0.033933
929.227071	0.033471
929.406283	0.033101
929.585476	0.032492
929.764652	0.032500
929.943809	0.032053
930.122948	0.032341
930.302068	0.032241
930.481171	0.031671
930.660255	0.031192
930.839321	0.030391
931.018369	0.030520
931.197398	0.030121
931.376409	0.029435
931.555402	0.029141
931.734377	0.028424
931.913334	0.028551
932.092272	0.027980
932.271192	0.027846
932.450094	0.028505
932.628978	0.027289
932.807844	0.027252
932.986691	0.026864
933.165520	0.026516
933.344331	0.026518
933.523123	0.025725
933.701898	0.025926
933.880654	0.025472
934.059392	0.024919
934.238111	0.025245
934.416813	0.025347
934.595496	0.025558
934.774161	0.025798
934.952808	0.025954
935.131437	0.026292
935.310047	0.025861
935.488639	0.025958
935.667213	0.025344
935.845769	0.024956
936.024306	0.024708
936.202825	0.024055
936.381326	0.022940
936.559809	0.022026
936.738274	0.021150
936.916720	0.020494
937.095148	0.020457
937.273558	0.020234
937.451950	0.019920
937.630323	0.019587
937.808678	0.020118
937.987015	0.020746
938.165334	0.021232
938.343635	0.021201
938.521917	0.021351
938.700181	0.021114
938.878427	0.020796
939.056655	0.020503
939.234864	0.019630
939.413055	0.018173
939.591228	0.017865
939.769383	0.016843
939.947519	0.016522
940.125638	0.015689
940.303738	0.015281
940.481820	0.015033
940.659883	0.015580
940.837929	0.015863
941.015956	0.015846
941.193965	0.014758
941.371955	0.014739
941.549928	0.014456
941.727882	0.014494
941.905818	0.013740
942.083736	0.014106
942.261636	0.013011
942.439517	0.012718
942.617380	0.012648
942.795225	0.013028
942.973052	0.012063
943.150860	0.012069
943.328651	0.012787
943.506423	0.013490
943.684176	0.012792
943.861912	0.012794
944.039629	0.012442
944.217328	0.012995
944.395009	0.013118
944.572672	0.013153
944.750317	0.012685
944.927943	0.011849
945.105551	0.011182
945.283141	0.010863
945.460712	0.010486
945.638265	0.010807
945.815801	0.010329
945.993317	0.009337
946.170816	0.010045
946.348297	0.009665
946.525759	0.009931
946.703203	0.010296
946.880629	0.010342
947.058036	0.010523
947.235425	0.010361
947.412797	0.009909
947.590149	0.011173
947.767484	0.010909
947.944800	0.010297
948.122099	0.009406
948.299379	0.009399
948.476640	0.009236
948.653884	0.009027
948.831109	0.008750
949.008316	0.008578
949.185505	0.007002
949.362676	0.007000
949.539828	0.007823
949.716962	0.008408
949.894078	0.008227
950.071176	0.008974
950.248256	0.008933
950.425317	0.009170
950.602360	0.009440
950.779385	0.010936
950.956391	0.011097
951.133380	0.010861
951.310350	0.010588
951.487302	0.010200
951.664235	0.009190
951.841151	0.009418
952.018048	0.008985
952.194927	0.009395
952.371788	0.008351
952.548631	0.007644
952.725455	0.006216
952.902261	0.006159
953.079049	0.006226
953.255819	0.005731
953.432570	0.005085
953.609303	0.004493
953.786018	0.004866
953.962715	0.004741
954.139394	0.004223
954.316054	0.004835
954.492696	0.006190
954.669320	0.005688
954.845926	0.007133
955.022513	0.006452
955.199083	0.007809
955.375634	0.006930
955.552166	0.006566
955.728681	0.007487
955.905177	0.008794
956.081655	0.006335
956.258115	0.006966
956.434557	0.004990
956.610980	0.005628
956.787385	0.004411
956.963772	0.004043
957.140141	0.003532
957.316492	0.002192
957.492824	0.001264
957.669138	0.002783
957.845434	0.000721
958.021712	0.002478
958.197971	0.002504
958.374212	0.002637
958.550435	0.002669
958.726640	0.003574
958.902826	0.004226
959.078995	0.005349
959.255145	0.004400
959.431277	0.005460
959.607390	0.004465
959.783486	0.004818
959.959563	0.006520
960.135622	0.006907
960.311662	0.007387
960.487685	0.008439
960.663689	0.008486
960.839675	0.009313
961.015643	0.010007
961.191593	0.012905
961.367524	0.013385
961.543437	0.011850
961.719332	0.013084
961.895209	0.011954
962.071067	0.010988
962.246907	0.010237
962.422730	0.010645
962.598533	0.011649
962.774319	0.009046
962.950086	0.009068
963.125835	0.008190
963.301566	0.007180
963.477279	0.008292
963.652973	0.008947
963.828650	0.009432
964.004308	0.009315
964.179947	0.008661
964.355569	0.008962
964.531172	0.007037
964.706757	0.008572
964.882324	0.008084
965.057873	0.009514
965.233403	0.008183
965.408916	0.009198
965.584410	0.009736
965.759885	0.007999
965.935343	0.009150
966.110782	0.009376
966.286203	0.009509
966.461606	0.010843
966.636991	0.009078
966.812357	0.010148
966.987705	0.008997
967.163035	0.008686
967.338347	0.009456
967.513641	0.009295
967.688916	0.010832
967.864173	0.009560
968.039412	0.008740
968.214632	0.010651
968.389835	0.012484
968.565019	0.014039
968.740185	0.016247
968.915333	0.017386
969.090462	0.014978
969.265573	0.014433
969.440667	0.014269
969.615741	0.015042
969.790798	0.013228
969.965836	0.011926
970.140856	0.010472
970.315858	0.009181
970.490842	0.008841
970.665808	0.010060
970.840755	0.010580
971.015684	0.011156
971.190595	0.010037
971.365487	0.009276
971.540362	0.008783
971.715218	0.008276
971.890056	0.007639
972.064875	0.008685
972.239677	0.010457
972.414460	0.011015
972.589225	0.012220
972.763972	0.011008
972.938700	0.011910
973.113411	0.011641
973.288103	0.012060
973.462777	0.012431
973.637432	0.010836
973.812070	0.011324
973.986689	0.010015
974.161290	0.009886
974.335873	0.010580
974.510437	0.009085
974.684984	0.009648
974.859512	0.010926
975.034022	0.011102
975.208513	0.011283
975.382987	0.010110
975.557442	0.011471
975.731879	0.012109
975.906298	0.013336
976.080698	0.015305
976.255080	0.015461
976.429445	0.014634
976.603790	0.013201
976.778118	0.013965
976.952427	0.013755
977.126719	0.013872
977.300992	0.014153
977.475246	0.013410
977.649483	0.012466
977.823701	0.014046
977.997901	0.012975
978.172083	0.014452
978.346247	0.014156
978.520392	0.012942
978.694519	0.012781
978.868628	0.011538
979.042719	0.012926
979.216791	0.012378
979.390845	0.012432
979.564882	0.013495
979.738899	0.010835
979.912899	0.010469
980.086880	0.013103
980.260843	0.011987
980.434788	0.013258
980.608715	0.012848
980.782623	0.013490
980.956514	0.011618
981.130386	0.012045
981.304240	0.012570
981.478075	0.013269
981.651892	0.011135
981.825692	0.011402
981.999472	0.009001
982.173235	0.008819
982.346980	0.008701
982.520706	0.007562
982.694414	0.009276
982.868104	0.009883
983.041775	0.008706
983.215428	0.009070
983.389064	0.009570
983.562680	0.010602
983.736279	0.010661
983.909860	0.011177
984.083422	0.011546
984.256966	0.009713
984.430491	0.010556
984.603999	0.011016
984.777488	0.011547
984.950959	0.009858
985.124412	0.011714
985.297847	0.012199
985.471263	0.012735
985.644661	0.013956
985.818041	0.013081
985.991403	0.013159
986.164747	0.012737
986.338072	0.013817
986.511379	0.015556
986.684668	0.014288
986.857938	0.012050
987.031191	0.011691
987.204425	0.011140
987.377641	0.011344
987.550839	0.011672
987.724018	0.009859
987.897179	0.009286
988.070322	0.009003
988.243447	0.007355
988.416554	0.007467
988.589642	0.006971
988.762712	0.006779
988.935764	0.008062
989.108798	0.005031
989.281813	0.010530
989.454811	0.010068
989.627790	0.009019
989.800751	0.009856
989.973693	0.010577
990.146617	0.012317
990.319524	0.014595
990.492412	0.015017
990.665281	0.017412
990.838133	0.013916
991.010966	0.015555
991.183781	0.016227
991.356578	0.018101
991.529356	0.017915
991.702117	0.017525
991.874859	0.017268
992.047583	0.017084
992.220288	0.016892
992.392976	0.017515
992.565645	0.015334
992.738296	0.017112
992.910929	0.017152
993.083543	0.018529
993.256139	0.018223
993.428718	0.018416
993.601277	0.017099
993.773819	0.017727
993.946342	0.016671
994.118848	0.017133
994.291335	0.015222
994.463803	0.014196
994.636254	0.012847
994.808686	0.011232
994.981100	0.010944
995.153496	0.012802
995.325874	0.012848
995.498233	0.013716
995.670574	0.014496
995.842897	0.014105
996.015202	0.012446
996.187488	0.012967
996.359757	0.014992
996.532007	0.013817
996.704239	0.011849
996.876452	0.010890
997.048648	0.011166
997.220825	0.009536
997.392984	0.010269
997.565124	0.010903
997.737247	0.011253
997.909351	0.010187
998.081437	0.009894
998.253505	0.008714
998.425554	0.010233
998.597586	0.010393
998.769599	0.010211
998.941594	0.010538
999.113571	0.009427
999.285529	0.009086
999.457469	0.008949
999.629391	0.009726
999.801295	0.012316
999.973181	0.011808
1000.145048	0.012265
1000.316897	0.014428
1000.488728	0.014786
1000.660541	0.014875
1000.832335	0.015419
1001.004111	0.014980
1001.175869	0.014853
1001.347609	0.013370
1001.519331	0.012955
1001.691034	0.011744
1001.862719	0.011094
1002.034386	0.010996
1002.206035	0.012109
1002.377665	0.011984
1002.549277	0.011787
1002.720871	0.011744
1002.892447	0.012230
1003.064004	0.010692
1003.235544	0.010629
1003.407065	0.009980
1003.578568	0.008843
1003.750052	0.009737
1003.921519	0.008747
1004.092967	0.009574
1004.264397	0.009164
1004.435809	0.009254
1004.607202	0.010053
1004.778577	0.010829
1004.949934	0.010688
1005.121273	0.011686
1005.292594	0.011210
1005.463896	0.012451
1005.635180	0.011425
1005.806446	0.011255
1005.977694	0.011385
1006.148923	0.012246
1006.320135	0.011546
1006.491328	0.011328
1006.662503	0.011062
1006.833659	0.011927
1007.004798	0.011172
1007.175918	0.011857
1007.347020	0.012843
1007.518103	0.011507
1007.689169	0.009585
1007.860216	0.009486
1008.031245	0.008603
1008.202256	0.007817
1008.373248	0.006685
1008.544223	0.006814
1008.715179	0.007491
1008.886117	0.006927
1009.057036	0.009290
1009.227938	0.011133
1009.398821	0.010562
1009.569686	0.012603
1009.740533	0.013235
1009.911361	0.013767
1010.082172	0.014555
1010.252964	0.013915
1010.423738	0.013838
1010.594493	0.014222
1010.765231	0.014736
1010.935950	0.016008
1011.106651	0.015722
1011.277334	0.014127
1011.447998	0.013269
1011.618645	0.011455
1011.789273	0.012500
1011.959882	0.011623
1012.130474	0.009843
1012.301048	0.009273
1012.471603	0.008696
1012.642140	0.008068
1012.812658	0.010579
1012.983159	0.011618
1013.153641	0.012742
1013.324105	0.010444
1013.494551	0.010554
1013.664979	0.009302
1013.835388	0.008499
1014.005779	0.008515
1014.176152	0.007820
1014.346507	0.007170
1014.516843	0.005478
1014.687162	0.005500
1014.857462	0.007159
1015.027744	0.008047
1015.198007	0.009919
1015.368252	0.011214
1015.538480	0.011140
1015.708689	0.010266
1015.878879	0.010110
1016.049052	0.010568
1016.219206	0.010398
1016.389342	0.009872
1016.559460	0.008629
1016.729559	0.006566
1016.899641	0.006689
1017.069704	0.006936
1017.239749	0.009769
1017.409775	0.009490
1017.579784	0.009484
1017.749774	0.009093
1017.919746	0.009253
1018.089700	0.009800
1018.259635	0.011840
1018.429553	0.011020
1018.599452	0.010850
1018.769333	0.010524
1018.939195	0.011147
1019.109040	0.012626
1019.278866	0.013782
1019.448674	0.014551
1019.618464	0.014840
1019.788235	0.014407
1019.957989	0.014244
1020.127724	0.013918
1020.297441	0.012716
1020.467139	0.013098
1020.636820	0.012559
1020.806482	0.010497
1020.976126	0.010062
1021.145752	0.009446
1021.315359	0.010073
1021.484948	0.010427
1021.654519	0.010111
1021.824072	0.009774
1021.993607	0.008181
1022.163123	0.006715
1022.332621	0.008105
1022.502101	0.006214
1022.671563	0.006659
1022.841007	0.004715
1023.010432	0.002941
1023.179839	0.004245
1023.349228	0.003746
1023.518598	0.004228
1023.687951	0.004546
1023.857285	0.003744
1024.026601	0.004309
1024.195899	0.004156
1024.365178	0.006007
1024.534439	0.007271
1024.703682	0.006767
1024.872907	0.008841
1025.042114	0.008159
1025.211302	0.009372
1025.380472	0.010842
1025.549624	0.011825
1025.718758	0.012154
1025.887873	0.011146
1026.056970	0.010578
1026.226049	0.008464
1026.395110	0.007812
1026.564153	0.008498
1026.733177	0.007281
1026.902183	0.006255
1027.071171	0.005922
1027.240141	0.006213
1027.409092	0.005930
1027.578026	0.006147
1027.746940	0.008518
1027.915837	0.007976
1028.084716	0.007660
1028.253576	0.008078
1028.422418	0.007122
1028.591242	0.007826
1028.760048	0.006460
1028.928835	0.007493
1029.097604	0.007792
1029.266355	0.007883
1029.435088	0.006019
1029.603803	0.007270
1029.772499	0.007190
1029.941177	0.008416
1030.109837	0.007190
1030.278478	0.007507
1030.447102	0.007395
1030.615707	0.006756
1030.784294	0.006273
1030.952863	0.008610
1031.121413	0.008492
1031.289945	0.009063
1031.458460	0.008435
1031.626955	0.009615
1031.795433	0.010936
1031.963892	0.009794
1032.132334	0.011196
1032.300756	0.009935
1032.469161	0.010320
1032.637548	0.009385
1032.805916	0.008763
1032.974266	0.009144
1033.142598	0.009167
1033.310911	0.009554
1033.479207	0.009807
1033.647484	0.010277
1033.815743	0.012442
1033.983983	0.009825
1034.152206	0.008847
1034.320410	0.009028
1034.488596	0.009367
1034.656764	0.007869
1034.824914	0.005479
1034.993045	0.006314
1035.161158	0.004626
1035.329253	0.003263
1035.497330	0.004787
1035.665388	0.006473
1035.833428	0.006698
1036.001450	0.005585
1036.169454	0.006249
1036.337440	0.008044
1036.505407	0.007248
1036.673356	0.007262
1036.841287	0.008741
1037.009200	0.009366
1037.177094	0.009833
1037.344970	0.009565
1037.512828	0.010632
1037.680668	0.010719
1037.848489	0.011599
1038.016293	0.011320
1038.184078	0.011163
1038.351845	0.009429
1038.519593	0.009236
1038.687324	0.008950
1038.855036	0.009646
1039.022730	0.008892
1039.190406	0.009696
1039.358063	0.008611
1039.525702	0.009184
1039.693323	0.009804
1039.860926	0.011499
1040.028511	0.011681
1040.196077	0.011394
1040.363625	0.010625
1040.531155	0.011659
1040.698667	0.011820
1040.866161	0.011494
1041.033636	0.010977
1041.201093	0.010739
1041.368532	0.010426
1041.535952	0.010860
1041.703355	0.010927
1041.870739	0.010142
1042.038105	0.009604
1042.205452	0.009497
1042.372782	0.008404
1042.540093	0.008265
1042.707386	0.008969
1042.874661	0.006147
1043.041918	0.005555
1043.209156	0.005651
1043.376376	0.006928
1043.543578	0.006825
1043.710762	0.006512
1043.877927	0.006452
1044.045074	0.006998
1044.212203	0.006531
1044.379314	0.008596
1044.546407	0.010343
1044.713481	0.009108
1044.880537	0.009989
1045.047575	0.010213
1045.214595	0.011029
1045.381596	0.011116
1045.548579	0.011170
1045.715544	0.010071
1045.882491	0.011064
1046.049420	0.009563
1046.216330	0.009786
1046.383222	0.008701
1046.550096	0.009957
1046.716951	0.009559
1046.883789	0.010819
1047.050608	0.011364
1047.217409	0.011623
1047.384192	0.011031
1047.550956	0.011878
1047.717703	0.013340
1047.884431	0.012714
1048.051140	0.011482
1048.217832	0.011006
1048.384505	0.012043
1048.551161	0.012040
1048.717798	0.012398
1048.884416	0.012137
1049.051017	0.010933
1049.217599	0.009155
1049.384163	0.010811
1049.550709	0.012310
1049.717237	0.011769
1049.883746	0.012030
1050.050237	0.010081
1050.216710	0.009935
1050.383165	0.009617
1050.549601	0.009250
1050.716019	0.010199
1050.882420	0.008629
1051.048801	0.007617
1051.215165	0.007126
1051.381510	0.005130
1051.547837	0.006312
1051.714146	0.006570
1051.880437	0.007520
1052.046709	0.006748
1052.212964	0.006547
1052.379200	0.006257
1052.545417	0.006175
1052.711617	0.007233
1052.877798	0.006860
1053.043961	0.006361
1053.210106	0.007187
1053.376233	0.006750
1053.542341	0.007786
1053.708432	0.006981
1053.874504	0.008658
1054.040557	0.008104
1054.206593	0.006187
1054.372610	0.007498
1054.538609	0.007081
1054.704590	0.005522
1054.870553	0.004996
1055.036497	0.005385
1055.202424	0.007334
1055.368331	0.006182
1055.534221	0.006392
1055.700093	0.006707
1055.865946	0.005308
1056.031781	0.006794
1056.197598	0.007918
1056.363397	0.006800
1056.529177	0.005732
1056.694939	0.004322
1056.860683	0.004897
1057.026409	0.003151
1057.192116	0.004438
1057.357806	0.004873
1057.523477	0.005006
1057.689130	0.004038
1057.854764	0.004686
1058.020381	0.005112
1058.185979	0.005048
1058.351559	0.004150
1058.517120	0.006507
1058.682664	0.006200
1058.848189	0.007331
1059.013696	0.007952
1059.179185	0.009385
1059.344656	0.010117
1059.510108	0.010582
1059.675542	0.010627
1059.840958	0.012714
1060.006356	0.010634
1060.171735	0.011406
1060.337096	0.011065
1060.502439	0.008855
1060.667764	0.007573
1060.833071	0.007323
1060.998359	0.006206
1061.163629	0.005243
1061.328881	0.003153
1061.494115	0.005028
1061.659330	0.004707
1061.824527	0.004716
1061.989706	0.003819
1062.154867	0.004355
1062.320010	0.004985
1062.485134	0.005277
1062.650240	0.005920
1062.815328	0.007468
1062.980398	0.004467
1063.145449	0.003958
1063.310482	0.004016
1063.475497	0.005120
1063.640494	0.005212
1063.805473	0.004633
1063.970433	0.004267
1064.135375	0.004632
1064.300299	0.004975
1064.465204	0.008159
1064.630092	0.008874
1064.794961	0.007591
1064.959812	0.008564
1065.124645	0.008593
1065.289459	0.009548
1065.454256	0.010702
1065.619034	0.010473
1065.783793	0.008562
1065.948535	0.006787
1066.113258	0.004278
1066.277964	0.005618
1066.442651	0.003680
1066.607319	0.003235
1066.771970	0.002596
1066.936602	0.003037
1067.101216	0.002455
1067.265812	0.002890
1067.430389	0.003469
1067.594949	0.004532
1067.759490	0.003698
1067.924013	0.005452
1068.088518	0.006587
1068.253004	0.004846
1068.417472	0.003509
1068.581922	0.004728
1068.746354	0.004293
1068.910768	0.006075
1069.075163	0.007014
1069.239540	0.006694
1069.403899	0.006063
1069.568240	0.005948
1069.732562	0.006452
1069.896866	0.005250
1070.061152	0.004214
1070.225420	0.004202
1070.389670	0.004612
1070.553901	0.004154
1070.718114	0.005895
1070.882309	0.005421
1071.046486	0.004714
1071.210644	0.005344
1071.374784	0.007679
1071.538906	0.009782
1071.703010	0.011879
1071.867096	0.010552
1072.031163	0.011420
1072.195212	0.010141
1072.359243	0.010587
1072.523256	0.011018
1072.687250	0.010322
1072.851226	0.010026
1073.015184	0.008681
1073.179124	0.007641
1073.343045	0.006886
1073.506949	0.007435
1073.670834	0.008214
1073.834701	0.009137
1073.998549	0.008541
1074.162380	0.009389
1074.326192	0.008755
1074.489986	0.010406
1074.653761	0.010636
1074.817519	0.010415
1074.981258	0.008703
1075.144979	0.007381
1075.308682	0.007386
1075.472367	0.008955
1075.636033	0.009528
1075.799681	0.011652
1075.963311	0.009513
1076.126923	0.008164
1076.290516	0.008015
1076.454092	0.009211
1076.617649	0.009480
1076.781187	0.007930
1076.944708	0.006327
1077.108210	0.006460
1077.271695	0.003457
1077.435160	0.002730
1077.598608	0.002551
1077.762038	0.001789
1077.925449	0.001740
1078.088842	0.004562
1078.252217	0.007092
1078.415573	0.006334
1078.578912	0.005269
1078.742232	0.005680
1078.905534	0.005294
1079.068817	0.006019
1079.232083	0.006380
1079.395330	0.006226
1079.558559	0.005436
1079.721770	0.004241
1079.884962	0.003265
1080.048136	0.004860
1080.211293	0.004910
1080.374430	0.005973
1080.537550	0.005623
1080.700651	0.005571
1080.863735	0.004306
1081.026800	0.002837
1081.189846	0.002968
1081.352875	0.004960
1081.515885	0.003536
1081.678877	0.002349
1081.841851	0.002761
1082.004807	0.002752
1082.167744	0.001889
1082.330663	0.002663
1082.493564	0.001630
1082.656447	-0.000409
1082.819312	0.000463
1082.982158	0.000218
1083.144986	0.001540
1083.307796	0.000965
1083.470587	0.001140
1083.633361	0.003605
1083.796116	0.003955
1083.958853	0.004347
1084.121571	0.005183
1084.284272	0.002908
1084.446954	0.002313
1084.609618	0.003103
1084.772264	0.003773
1084.934892	0.002572
1085.097501	0.000870
1085.260092	0.002498
1085.422665	0.003891
1085.585220	0.004138
1085.747756	0.007287
1085.910274	0.009627
1086.072774	0.010264
1086.235256	0.008491
1086.397720	0.010984
1086.560165	0.011254
1086.722592	0.008535
1086.885001	0.006607
1087.047392	0.007852
1087.209764	0.005273
1087.372119	0.002648
1087.534455	0.000299
1087.696772	0.003511
1087.859072	0.002661
1088.021353	0.001339
1088.183616	0.003629
1088.345861	0.003910
1088.508088	0.002312
1088.670296	0.002441
1088.832486	0.002141
1088.994658	0.002577
1089.156812	0.000901
1089.318948	0.001552
1089.481065	0.003577
1089.643164	0.002754
1089.805245	0.004065
1089.967308	0.006207
1090.129352	0.008089
1090.291378	0.009599
1090.453386	0.013316
1090.615376	0.012686
1090.777347	0.011245
1090.939301	0.010208
1091.101236	0.008283
1091.263153	0.006873
1091.425051	0.005764
1091.586932	0.006106
1091.748794	0.006602
1091.910638	0.003278
1092.072463	0.004310
1092.234271	0.006316
1092.396060	0.007315
1092.557831	0.007941
1092.719584	0.005806
1092.881319	0.006159
1093.043035	0.005357
1093.204733	0.003944
1093.366413	0.005628
1093.528075	0.001884
1093.689718	-0.000746
1093.851343	-0.000604
1094.012950	0.000119
1094.174539	0.001416
1094.336110	0.001234
1094.497662	0.002228
1094.659196	0.002939
1094.820712	0.001398
1094.982210	0.003400
1095.143689	0.003816
1095.305151	0.004588
1095.466594	0.003188
1095.628018	0.004251
1095.789425	0.005530
1095.950813	0.004787
1096.112183	0.005594
1096.273535	0.004668
1096.434869	0.005017
1096.596184	0.005769
1096.757482	0.004090
1096.918761	0.006586
1097.080021	0.008161
1097.241264	0.007049
1097.402488	0.006450
1097.563694	0.005033
1097.724882	0.005714
1097.886052	0.005755
1098.047203	0.003676
1098.208336	0.006171
1098.369451	0.005483
1098.530548	0.005019
1098.691627	0.003420
1098.852687	-0.000002
1099.013729	0.000961
1099.174753	0.001571
1099.335758	0.001621
1099.496746	0.003985
1099.657715	0.003967
1099.818666	0.004952
1099.979599	0.004224
1100.140513	0.004453
1100.301409	0.006956
1100.462287	0.007224
1100.623147	0.007269
1100.783989	0.009384
1100.944812	0.009593
1101.105617	0.007379
1101.266404	0.005421
1101.427173	0.008368
1101.587923	0.008973
1101.748656	0.008547
1101.909370	0.005441
1102.070066	0.006952
1102.230743	0.005582
1102.391403	0.003846
1102.552044	0.003792
1102.712667	0.004408
1102.873271	0.003424
1103.033858	0.003323
1103.194426	0.003759
1103.354976	0.007552
1103.515508	0.007678
1103.676021	0.008584
1103.836517	0.009390
1103.996994	0.011806
1104.157453	0.010978
1104.317893	0.009327
1104.478316	0.008621
1104.638720	0.009771
1104.799106	0.012653
1104.959474	0.009865
1105.119823	0.009308
1105.280155	0.009611
1105.440468	0.006817
1105.600763	0.008071
1105.761039	0.007052
1105.921298	0.010122
1106.081538	0.009157
1106.241760	0.003058
1106.401964	0.003556
1106.562149	0.004687
1106.722316	0.003167
1106.882465	0.005440
1107.042596	0.002576
1107.202709	0.003756
1107.362803	0.002060
1107.522879	0.000718
1107.682937	0.006569
1107.842977	0.008183
1108.002999	0.009224
1108.163002	0.009554
1108.322987	0.006119
1108.482954	0.008502
1108.642902	0.009749
1108.802833	0.008334
1108.962745	0.011435
1109.122639	0.006338
1109.282515	0.006030
1109.442372	0.003868
1109.602211	0.004169
1109.762032	0.005374
1109.921835	0.003072
1110.081620	0.000150
1110.241386	0.000968
1110.401134	-0.001421
1110.560864	0.002256
1110.720576	0.004838
1110.880269	0.005735
1111.039945	0.006526
1111.199602	0.007417
1111.359240	0.009240
1111.518861	0.012182
1111.678463	0.012944
1111.838047	0.013446
1111.997613	0.012104
1112.157161	0.009201
1112.316690	0.009951
1112.476202	0.010798
1112.635695	0.011048
1112.795169	0.007162
1112.954626	0.003419
1113.114064	0.002203
1113.273484	0.004339
1113.432886	0.003137
1113.592270	0.002256
1113.751635	-0.001561
1113.910983	-0.000763
1114.070312	-0.001173
1114.229622	0.002841
1114.388915	0.003252
1114.548189	0.007759
1114.707445	0.004483
1114.866683	0.003951
1115.025903	0.008846
1115.185104	0.012214
1115.344287	0.010032
1115.503452	0.012863
1115.662599	0.011451
1115.821727	0.014325
1115.980838	0.011317
1116.139930	0.011063
1116.299004	0.012607
1116.458059	0.008397
1116.617097	0.006643
1116.776116	0.003965
1116.935117	-0.000715
1117.094099	0.002723
1117.253064	-0.000054
1117.412010	0.000935
1117.570938	0.006263
1117.729848	0.004682
1117.888740	0.005578
1118.047613	0.006442
1118.206468	0.011765
1118.365305	0.014142
1118.524124	0.011120
1118.682924	0.011366
1118.841707	0.012665
1119.000471	0.006378
1119.159216	0.008616
1119.317944	0.008731
1119.476653	0.008918
1119.635344	0.010210
1119.794017	0.010382
1119.952672	0.010619
1120.111308	0.012882
1120.269927	0.012696
1120.428527	0.017687
1120.587108	0.017169
1120.745672	0.014223
1120.904217	0.014482
1121.062744	0.011400
1121.221253	0.011206
1121.379744	0.012630
1121.538216	0.014056
1121.696671	0.012712
1121.855107	0.012336
1122.013524	0.009122
1122.171924	0.011032
1122.330305	0.012257
1122.488668	0.013022
1122.647013	0.013308
1122.805340	0.010832
1122.963648	0.007553
1123.121938	0.006611
1123.280210	0.004907
1123.438464	0.009622
1123.596700	0.007240
1123.754917	0.005785
1123.913116	0.005140
1124.071297	0.003752
1124.229459	0.006206
1124.387604	0.006634
1124.545730	0.004415
1124.703838	0.002451
1124.861928	-0.002871
1125.019999	0.004991
1125.178052	0.002277
1125.336088	0.002862
1125.494104	0.005194
1125.652103	0.003964
1125.810083	0.001877
1125.968045	0.005525
1126.125989	0.008501
1126.283915	0.014819
1126.441823	0.009583
1126.599712	0.010580
1126.757583	0.008575
1126.915436	0.008097
1127.073270	0.006271
1127.231087	0.007905
1127.388885	0.007181
1127.546665	0.004526
1127.704426	-0.001093
1127.862170	-0.001801
1128.019895	0.000454
1128.177602	0.001253
1128.335291	0.003067
1128.492961	0.002317
1128.650614	0.005387
1128.808248	0.004601
1128.965864	0.004106
1129.123461	0.006332
1129.281041	0.003177
1129.438602	0.002146
1129.596145	0.004160
1129.753670	-0.002528
1129.911176	0.002134
1130.068665	0.003850
1130.226135	0.003185
1130.383587	0.008196
1130.541020	0.008890
1130.698436	0.009819
1130.855833	0.011989
1131.013212	0.014814
1131.170573	0.020602
1131.327915	0.014321
1131.485239	0.012376
1131.642545	0.013174
1131.799833	0.009529
1131.957103	0.006911
1132.114354	0.005347
1132.271588	0.002685
1132.428803	-0.004780
1132.585999	-0.003808
1132.743178	0.002951
1132.900338	0.005166
1133.057480	0.004254
1133.214604	0.001979
1133.371710	0.005964
1133.528797	0.007121
1133.685866	0.005777
1133.842917	0.007381
1133.999950	0.003969
1134.156964	0.000880
1134.313960	-0.004414
1134.470938	-0.004433
1134.627898	-0.002012
1134.784840	-0.001596
1134.941763	0.002089
1135.098668	0.003830
1135.255555	0.001952
1135.412424	0.006402
1135.569274	0.009282
1135.726107	0.014604
1135.882921	0.013064
1136.039716	0.010628
1136.196494	0.010969
1136.353253	0.010753
1136.509995	0.012336
1136.666717	0.016472
1136.823422	0.009296
1136.980109	0.005043
1137.136777	0.001324
1137.293427	0.005994
1137.450059	0.003013
1137.606672	-0.000228
1137.763267	-0.002574
1137.919844	-0.006107
1138.076403	-0.007002
1138.232944	-0.006266
1138.389466	-0.004073
1138.545971	-0.002932
1138.702457	-0.008410
1138.858924	-0.003059
1139.015374	0.000489
1139.171805	0.000909
1139.328218	0.001970
1139.484613	0.001205
1139.640990	0.004491
1139.797348	0.004214
1139.953688	0.003475
1140.110010	0.007183
1140.266314	0.005388
1140.422600	0.000729
1140.578867	0.006324
1140.735116	0.006113
1140.891347	0.007683
1141.047559	0.002113
1141.203754	0.000591
1141.359930	-0.001182
1141.516088	-0.004129
1141.672228	-0.001654
1141.828349	-0.000376
1141.984452	-0.006946
1142.140537	-0.002030
1142.296604	-0.005087
1142.452653	0.000622
1142.608683	0.002883
1142.764695	0.002757
1142.920689	0.008055
1143.076665	0.008830
1143.232622	0.006814
1143.388562	0.011140
1143.544483	0.007538
1143.700385	0.010200
1143.856270	0.009707
1144.012136	0.012466
1144.167985	0.013540
1144.323814	0.012885
1144.479626	0.014692
1144.635420	0.017821
1144.791195	0.015874
1144.946952	0.015438
1145.102691	0.020627
1145.258411	0.015675
1145.414113	0.012724
1145.569798	0.008616
1145.725463	0.005091
1145.881111	0.005738
1146.036741	0.006197
1146.192352	0.001524
1146.347945	-0.003469
1146.503519	-0.008156
1146.659076	-0.013528
1146.814614	-0.017336
1146.970134	-0.009837
1147.125636	-0.007602
1147.281120	-0.009863
1147.436585	-0.009503
1147.592032	-0.005077
1147.747461	0.006024
1147.902872	0.002934
1148.058265	0.007992
1148.213639	0.010232
1148.368995	0.002775
1148.524333	0.007402
1148.679653	0.012324
1148.834954	0.011025
1148.990237	0.016465
1149.145502	0.012493
1149.300749	0.012353
1149.455977	0.012846
1149.611188	0.018567
1149.766380	0.023016
1149.921553	0.020122
1150.076709	0.006634
1150.231846	0.005002
1150.386966	-0.002545
1150.542066	-0.007668
1150.697149	0.001867
1150.852214	0.005884
1151.007260	0.003573
1151.162288	0.003367
1151.317298	-0.000922
1151.472289	0.007841
1151.627263	0.010229
1151.782218	0.009547
1151.937155	0.014116
1152.092073	0.010936
1152.246974	0.012319
1152.401856	0.009072
1152.556720	0.011961
1152.711566	0.008852
1152.866393	0.011460
1153.021203	0.010842
1153.175994	0.017060
1153.330767	0.009610
1153.485521	0.007394
1153.640258	0.007215
1153.794976	0.010006
1153.949676	0.011653
1154.104358	0.016871
1154.259021	0.011097
1154.413667	0.010128
1154.568294	0.005252
1154.722903	0.009857
1154.877493	0.007691
1155.032066	0.005810
1155.186620	0.005458
1155.341156	0.007790
1155.495674	0.007405
1155.650173	0.008811
1155.804654	0.012248
1155.959118	0.017308
1156.113562	0.029688
1156.267989	0.032401
1156.422397	0.039496
1156.576788	0.039686
1156.731160	0.025198
1156.885513	0.017738
1157.039849	0.018689
1157.194166	0.014794
1157.348465	0.010148
1157.502746	-0.002443
1157.657009	-0.008488
1157.811253	-0.008799
1157.965479	-0.000936
1158.119687	0.003941
1158.273877	0.008512
1158.428048	0.000670
1158.582201	-0.001792
1158.736337	-0.001086
1158.890453	0.007417
1159.044552	0.015982
1159.198632	0.011782
1159.352694	-0.001798
1159.506738	0.006540
1159.660764	0.013340
1159.814771	0.023990
1159.968761	0.026980
1160.122732	0.027474
1160.276685	0.012024
1160.430619	0.007544
1160.584535	0.002873
1160.738434	0.002121
1160.892313	-0.003936
1161.046175	-0.006532
1161.200019	-0.016492
1161.353844	-0.017667
1161.507651	-0.016844
1161.661440	-0.009437
1161.815210	-0.004971
1161.968962	0.003615
1162.122697	0.013411
1162.276412	0.009720
1162.430110	0.013221
1162.583789	0.024559
1162.737451	0.022474
1162.891094	0.026716
1163.044718	0.035155
1163.198325	0.024870
1163.351913	0.017805
1163.505483	0.017297
1163.659035	0.012476
1163.812569	0.004498
1163.966084	0.005929
1164.119581	0.009367
1164.273060	0.011460
1164.426521	0.007874
1164.579964	0.012530
1164.733388	0.010883
1164.886794	0.006811
1165.040182	0.017832
1165.193551	0.015108
1165.346903	0.005154
1165.500236	0.003053
1165.653551	-0.013478
1165.806848	-0.018547
1165.960126	-0.020084
1166.113386	-0.010167
1166.266628	-0.009678
1166.419852	-0.017121
1166.573058	-0.007228
1166.726245	-0.005014
1166.879414	0.004395
1167.032565	0.006438
1167.185698	0.012885
1167.338812	0.015836
1167.491909	0.012892
1167.644987	0.016803
1167.798046	0.016865
1167.951088	0.008268
1168.104111	0.017622
1168.257117	0.006131
1168.410103	0.014062
1168.563072	0.002991
1168.716023	0.006745
1168.868955	0.006222
1169.021869	-0.007773
1169.174765	-0.001673
1169.327642	0.000252
1169.480501	-0.005974
1169.633343	-0.000140
1169.786165	0.003954
1169.938970	0.003000
1170.091757	0.003153
1170.244525	-0.002745
1170.397275	0.014201
1170.550007	0.012104
1170.702720	0.002756
1170.855415	0.008562
1171.008092	0.010713
1171.160751	0.009234
1171.313392	0.019035
1171.466014	0.071332
1171.618619	0.024275
1171.771205	0.024275
1171.923772	0.024275
