sample name	sample
index	1320
start time	 05-03-2021  10:51:51 AM
880	-0.015298
Peak Time (s)	91.536
Peak Height 	-0.0153
calc peak height	90,93
Baseline Time (s)	11.036
Baseline Value 	-0.00381
subtract baseline	10,4
Abs	-0.000853
Peak Time (s)	91.036
Peak Height 	-8.5317E-4
calc peak height	90,93
Baseline Time (s)	9.036
Baseline Value 	0.001743
subtract baseline	10,3
PK_550	0.005077
Peak Time (s)	92.537
Peak Height 	0.005077
calc peak height	90,93
Baseline Time (s)	11.036
Baseline Value 	1.8352E-6
subtract baseline	10,2
PK_880	-0.001527
Peak Time (s)	92.537
Peak Height 	-0.001527
calc peak height	90,93
Baseline Time (s)	8.535
Baseline Value 	0.001009
subtract baseline	10,1


Time (s)	A880-A510	A880-A775	A880-A975	A880	I510	I775	I975	I880	
0.035000	-0.003391	-0.000443	-0.003022	0.008359	6037.458680	42192.506100	3842.329734	21845.524308
0.536500	-0.002063	-0.000214	-0.002587	0.004902	6072.218761	42526.750213	3851.055703	21996.858807
1.036000	-0.004158	0.000422	-0.005676	0.004242	6061.747085	42644.820708	3845.598525	22025.850486
1.536500	-0.001079	-0.000782	-0.004425	0.001114	6107.266597	42820.916297	3855.455095	22164.039629
2.036500	-0.003073	-0.000337	-0.007138	0.006625	6052.318420	42359.013137	3837.029890	21921.283606
2.537000	-0.002389	0.000219	0.001932	0.001017	6098.320011	42921.746648	3870.162523	22168.341396
3.038000	0.002989	-0.000149	0.004242	-0.000791	6151.673481	43054.327312	3879.658981	22248.645062
3.535000	-0.000446	-0.000505	-0.000396	0.001011	6112.700341	42855.773585	3864.844191	22168.567003
4.035500	-0.001527	-0.000305	-0.004068	0.005109	6074.613935	42499.516814	3847.259706	21987.730959
4.535500	-0.001405	-0.000064	-0.001032	0.000683	6108.032478	42926.465456	3864.141473	22183.129065
5.036000	0.000358	0.000407	-0.002693	0.000601	6121.689864	42977.360408	3860.545104	22186.776462
5.536500	-0.000548	0.000446	-0.001038	0.001010	6111.956843	42943.284620	3863.383534	22168.645060
6.039000	0.000706	-0.000254	0.000546	0.001522	6117.444590	42831.911877	3865.827752	22145.927992
6.537000	-0.001505	-0.000653	0.001660	-0.000552	6116.433595	42985.902779	3873.144688	22238.027416
7.040000	-0.000113	0.000427	0.001195	0.000424	6119.509666	42995.416421	3869.829764	22194.628857
7.537000	-0.002584	-0.000619	-0.001101	-0.000476	6107.888601	42982.062004	3866.633545	22234.642380
8.035000	-0.001569	0.000857	0.000366	0.000346	6109.307908	43042.232761	3868.109075	22198.076850
8.535000	0.000000	0.000382	0.000421	0.000224	6121.831122	43009.752126	3868.513513	22203.495361
9.035500	0.000063	-0.000199	0.000000	-0.000156	6125.121034	42991.224631	3868.419973	22220.388222
9.535500	0.001828	0.000491	-0.002277	0.000087	6136.440955	43032.430744	3862.661365	22209.589970
10.035500	-0.002433	-0.000183	0.000106	-0.000797	6111.373379	43051.703447	3870.133070	22248.897799
10.536500	0.000834	0.000886	0.000220	0.000160	6128.504672	43062.151428	3868.199912	22206.358106
11.036000	-0.000678	0.000000	-0.001509	0.000000	6118.465221	42995.186641	3864.612855	22213.463242
11.536500	-0.002215	-0.000080	-0.000645	-0.000566	6111.274908	43039.906572	3867.881871	22238.615942
12.037000	0.000320	0.000267	-0.002467	-0.000462	6129.307659	43062.376961	3863.479931	22234.006143
12.534000	0.000654	-0.000424	-0.001415	-0.000856	6134.717538	43034.974811	3866.782462	22251.534668
13.035000	-0.000130	-0.000351	-0.000045	-0.001159	6131.139922	43069.689788	3870.617001	22265.027905
13.535000	-0.002039	-0.000169	-0.000979	-0.001021	6115.949985	43073.795335	3868.161147	22258.912063
14.038500	0.000814	0.000599	-0.000932	0.001996	6114.735574	42866.728277	3861.379077	22124.985078
14.539000	-0.000924	0.000276	0.001285	0.001693	6104.133163	42864.836455	3867.129646	22138.371617
15.039000	-0.003659	0.000197	0.000290	0.001608	6084.647112	42865.466983	3865.049895	22142.151428
15.536500	-0.001427	0.000251	-0.006729	-0.000809	6118.906241	43092.880848	3854.591601	22249.430707
16.037000	0.001379	0.000433	-0.003776	-0.000679	6138.812214	43097.762695	3860.994556	22243.675530
16.539500	0.000931	0.000600	0.000522	-0.000291	6132.578943	43077.271434	3869.926608	22226.385757
17.037000	0.000258	-0.000523	-0.008637	-0.001370	6135.607730	43073.328962	3851.554593	22274.460770
17.535000	-0.001709	0.000344	-0.000932	0.000365	6108.144536	42993.251477	3865.096699	22197.270569
18.035000	-0.002742	-0.000427	-0.003031	0.000142	6102.159641	42942.767709	3860.819336	22207.132294
18.535000	-0.001440	0.000565	0.003666	0.001195	6103.999859	42937.276227	3873.740491	22160.450767
19.036000	-0.002926	-0.000880	-0.004959	0.000250	6100.013536	42891.237542	3856.202139	22202.377387
19.536000	-0.002165	-0.000364	-0.002804	0.000224	6105.819325	42941.145255	3861.151046	22203.530105
20.036000	-0.001505	-0.000058	0.003731	0.000564	6108.175664	42937.913439	3875.344866	22188.426443
20.536500	-0.001923	0.000559	-0.000341	0.001421	6098.776150	42915.922662	3864.036590	22150.436564
21.037000	-0.001103	0.000167	-0.002318	0.000495	6111.657527	42965.010276	3861.639487	22191.489645
21.537500	-0.000783	0.001176	0.000757	0.001354	6107.676095	42978.789501	3866.695532	22153.377457
22.037500	-0.002283	0.000089	-0.000293	0.000663	6101.706664	42942.292676	3865.875761	22184.015901
22.535500	0.000996	0.000526	-0.002755	0.000749	6125.332156	42974.638617	3860.068162	22180.214461
23.035500	-0.001806	0.000382	-0.000373	0.001114	6101.897183	42927.787285	3864.662896	22164.018992
23.536000	-0.000825	0.000371	-0.000966	0.000770	6111.679266	42958.453186	3864.093843	22179.259856
24.036500	-0.001281	0.000165	-0.004782	0.000485	6110.417819	42965.687240	3856.069231	22191.916398
24.539000	-0.001274	-0.000484	-0.003652	0.000092	6113.371012	42942.202019	3859.522331	22209.376216
25.036000	-0.001082	0.000235	0.000894	0.001255	6106.194039	42901.310081	3867.235424	22157.767727
25.536500	-0.001763	0.000036	-0.003412	0.000802	6104.517314	42924.710268	3858.455214	22177.856801
26.039500	-0.000697	0.000981	0.001398	0.001354	6108.310796	42960.866057	3868.165055	22153.400018
26.536500	-0.001880	-0.000577	-0.003126	-0.000034	6109.819384	42945.205556	3861.004539	22214.967756
27.035000	0.000075	0.000577	0.000686	-0.000179	6125.381070	43064.816310	3870.046967	22221.408526
27.537500	-0.000089	0.000638	0.000579	-0.001125	6131.193381	43157.877018	3871.973670	22263.524055
28.035500	-0.001150	0.001308	0.000268	0.000385	6112.125276	43080.359018	3867.795475	22196.376362
28.535500	-0.000591	-0.000196	0.002018	-0.001304	6128.791488	43097.372769	3875.702723	22271.493283
29.036000	-0.002709	0.000026	0.001730	-0.001101	6111.579956	43099.108841	3874.568301	22262.432339
29.536500	-0.001620	0.000139	0.005003	-0.000844	6117.739460	43085.834954	3881.548416	22250.994268
30.036500	-0.002080	-0.000471	0.001579	-0.000552	6112.175525	43002.685193	3872.958659	22238.026752
30.539000	0.000065	0.000768	-0.000016	0.001706	6111.336767	42908.913114	3864.126222	22137.794098
31.037500	-0.003766	0.000398	-0.002846	0.001605	6083.877970	42884.158707	3857.918696	22142.263778
31.537500	-0.000581	0.000857	-0.003208	-0.000327	6121.605326	43104.343608	3861.484563	22227.980212
32.034500	-0.001064	0.000617	0.001080	0.000463	6112.182837	43009.393768	3869.476864	22192.907014
32.535000	0.000669	0.000986	0.002980	-0.000459	6131.872056	43128.444104	3875.971327	22233.854628
33.035500	-0.001793	0.000398	-0.003861	-0.000663	6115.117650	43093.040041	3860.763065	22242.944212
33.535500	-0.001894	0.000279	0.001306	0.000638	6104.758723	42962.149123	3869.593694	22185.125397
34.036000	-0.000506	0.000283	0.001620	0.001944	6105.363730	42842.544577	3867.322217	22127.280317
34.536000	-0.001649	0.000874	-0.000848	0.001887	6097.362822	42901.988474	3861.817993	22129.791601
35.037000	-0.001089	0.001030	0.001793	0.001814	6102.015862	42922.947407	3868.013057	22132.995817
35.536500	-0.001300	-0.000025	-0.003860	0.001284	6104.375067	42874.830112	3856.348129	22156.488218
36.037500	-0.003148	0.000015	0.000991	0.001288	6090.741447	42878.108035	3867.383067	22156.308245
36.537000	-0.002589	0.000594	-0.004035	0.001631	6092.332794	42899.855463	3855.168917	22141.132385
37.034500	-0.000482	-0.000173	0.000191	0.000574	6115.660599	42926.401772	3867.185470	22187.949183
37.538000	-0.001897	0.000611	-0.000830	0.001603	6097.626613	42903.924077	3862.504788	22142.371224
38.035500	0.001353	0.000183	-0.003366	0.001217	6124.502983	42900.045711	3857.619210	22159.446105
38.539000	-0.002422	0.000044	0.001008	0.000953	6098.539731	42911.563567	3868.188569	22171.154327
39.036500	-0.001066	0.000095	-0.003749	0.001170	6106.945541	42896.343072	3856.858276	22161.557436
39.536500	-0.000982	0.000248	0.003805	0.001530	6104.905269	42877.298501	3873.287511	22145.591479
40.039500	-0.000799	-0.000681	-0.003133	0.000661	6112.675538	42871.696166	3859.407601	22184.089421
40.537500	-0.001382	0.000655	-0.000655	0.001683	6100.824526	42900.613012	3862.720942	22138.799241
41.037500	-0.000036	0.000628	-0.000735	0.001654	6110.973467	42900.788923	3862.603888	22140.092048
41.538000	0.000478	0.001080	-0.001051	0.001796	6113.726110	42929.256370	3861.563075	22133.804894
42.035000	0.000471	-0.000170	-0.000642	0.001416	6116.490316	42849.348349	3863.361225	22150.651067
42.538500	-0.000023	-0.000213	-0.003157	0.000697	6118.161161	42911.460020	3859.272662	22182.520865
43.036000	-0.000527	0.000243	-0.001244	0.001439	6108.939024	42885.145396	3861.936562	22149.615755
43.536000	0.000544	0.000799	-0.001381	-0.001839	6141.231697	43238.898877	3869.113671	22295.366023
44.036500	0.002487	0.000656	0.002380	0.000305	6139.734127	43027.534560	3872.828299	22199.919163
44.536000	0.000053	0.000520	0.002683	-0.000742	6129.404647	43111.613258	3875.939843	22246.469001
45.037000	-0.001001	0.000673	-0.004818	0.002286	6099.186636	42846.863535	3851.921160	22112.117846
45.537000	-0.000574	0.000480	0.004512	0.000791	6113.383067	42966.505654	3876.624073	22178.337910
46.035000	0.000412	0.000664	-0.002667	0.000000	6126.553631	43056.371626	3861.971196	22213.462669
46.534500	-0.000678	0.001101	0.000003	-0.000272	6120.479653	43121.803791	3868.692106	22225.545487
47.038500	-0.000772	0.001269	-0.001488	0.003499	6091.953436	42790.255817	3856.703128	22058.587172
47.536000	-0.003277	0.000203	-0.001154	0.002214	6082.999587	42810.348234	3860.376581	22115.307779
48.037500	0.000192	0.000633	0.002677	-0.000141	6125.965325	43066.518195	3874.538538	22219.716706
48.536000	-0.000466	0.000245	-0.002873	-0.000558	6124.176146	43069.186135	3862.773461	22238.255484
49.036500	-0.002458	0.001244	-0.002844	0.002458	6087.214968	42883.549913	3855.991769	22104.539604
49.540000	-0.001723	0.000450	0.001800	-0.000363	6113.417555	43070.175094	3873.030182	22229.594341
50.037500	0.000771	-0.000190	-0.005881	0.000920	6122.385436	42893.021514	3852.603135	22172.613390
50.534500	0.017906	-0.003377	0.007760	0.062480	5809.083773	37366.476441	3750.286778	19627.327164
51.034500	0.022134	-0.017437	-0.006640	0.271761	4714.350830	23545.538138	3397.225115	13236.114614
51.535000	0.004227	-0.022885	-0.012987	-0.069008	6715.555345	47477.557990	4005.040981	25537.301867
52.035500	-0.009968	-0.041268	-0.020221	-0.191132	7791.953849	59480.710687	4347.815713	32883.808623
52.535000	-0.011615	-0.037949	-0.013990	-0.201607	7892.397477	61303.676237	4405.640362	33615.417500
53.036000	-0.003647	-0.060677	-0.011274	-0.248343	8562.538344	64618.090434	4590.465003	37103.763647
53.535500	0.005641	-0.035810	-0.005665	-0.202132	8101.034696	61662.459350	4437.189432	33652.552966
54.036500	0.007287	-0.022505	-0.001944	-0.138978	7414.240859	55300.287516	4237.157063	29492.363726
54.536500	0.000119	-0.021815	-0.007712	-0.147968	7433.217509	56479.305928	4247.313411	30048.288981
55.034500	-0.002598	-0.016929	-0.012780	-0.138693	7309.752902	55941.357825	4202.669706	29474.894613
55.537500	-0.004875	-0.013453	-0.013731	-0.133997	7239.518145	55792.795509	4185.494546	29189.230862
56.040500	-0.001204	-0.012007	-0.009371	-0.140652	7343.933718	56786.978335	4219.206389	29594.991251
56.534500	-0.003032	-0.011156	-0.011693	-0.143480	7354.180636	57244.705982	4220.777782	29769.325030
57.035500	-0.002159	-0.011776	-0.007833	-0.146928	7398.715290	57599.087941	4243.643039	29983.365634
57.535500	-0.002055	-0.016055	-0.014181	-0.152799	7461.032738	57799.666976	4242.140622	30351.815664
58.036000	0.001535	-0.006816	-0.005502	-0.102950	7000.212754	52906.914212	4118.326108	27376.386115
58.536000	-0.001936	-0.005965	-0.008946	-0.077880	6739.425903	50199.508068	4039.199779	26004.212049
59.039500	0.001018	-0.008191	-0.009873	-0.094806	6919.255671	51824.862469	4082.957818	26921.948391
59.540000	-0.004006	-0.006679	-0.011149	-0.067283	6629.067728	48985.863576	4005.334665	25447.586545
60.037000	0.000317	-0.007291	-0.004120	-0.057059	6578.742601	47852.507638	3997.037404	24923.311584
60.535000	0.000133	-0.005921	-0.006945	-0.038222	6421.113630	46083.952251	3942.355610	23989.051080
61.035000	0.000504	-0.006552	-0.008161	-0.023908	6309.870155	44626.234894	3904.799020	23305.724799
61.535500	-0.002543	-0.005461	-0.010123	-0.012375	6197.301298	43637.137181	3873.235818	22771.324728
62.036500	-0.001887	-0.004491	-0.006764	-0.012102	6200.208293	43702.390122	3880.366588	22758.839644
62.536000	-0.005386	-0.000438	-0.011196	-0.013546	6184.631785	44220.973382	3873.461370	22824.931534
63.049000	-0.006176	-0.000210	-0.009400	-0.019259	6222.072373	44788.826302	3890.906699	23088.590252
63.539000	-0.004039	0.000082	-0.011602	-0.024879	6281.942225	45361.798009	3898.948525	23351.382106
64.040000	-0.007042	0.000786	-0.006024	-0.029216	6292.344779	45856.457361	3922.635412	23556.495203
64.537000	-0.006101	0.001019	-0.009349	-0.033776	6335.580732	46332.185925	3925.624721	23774.397793
65.039500	-0.007068	0.002357	-0.011358	-0.035861	6344.439025	46675.134421	3925.808564	23874.805967
65.537000	-0.006273	0.001128	-0.010182	-0.042688	6405.422890	47241.839829	3945.385716	24206.924194
66.035000	-0.006026	0.001940	-0.014325	-0.046053	6434.696706	47669.500299	3943.466001	24372.532733
66.535500	-0.005752	0.002848	-0.014356	-0.048981	6460.848155	48065.912863	3950.631474	24517.714655
67.036000	-0.009212	0.001873	-0.012983	-0.051573	6453.736895	48234.031314	3960.511248	24647.031122
67.536500	-0.011150	0.001372	-0.012495	-0.050550	6429.595678	48075.568652	3959.173067	24595.899589
68.039000	-0.006261	0.002317	-0.012193	-0.057492	6527.062842	48901.723006	3977.440199	24945.251400
68.536500	-0.008329	0.002360	-0.008678	-0.059258	6524.544642	49093.451519	3990.949789	25035.058916
69.037000	-0.009200	0.002416	-0.015232	-0.059945	6523.011003	49172.326927	3975.952120	25070.065040
69.537000	-0.014594	0.002352	-0.016964	-0.054516	6433.837641	48591.927165	3957.916100	24794.797603
70.037500	-0.012295	0.001523	-0.013533	-0.060737	6503.842352	49161.524451	3982.292864	25110.494669
70.534500	-0.011664	0.001999	-0.013081	-0.059251	6496.756488	49054.327587	3979.656386	25034.659452
71.035000	-0.015062	0.002432	-0.013334	-0.055616	6438.981999	48715.884818	3969.795082	24850.276751
71.535000	-0.017681	0.001307	-0.011532	-0.052283	6390.815824	48249.066248	3965.937855	24682.606852
72.036000	-0.012262	0.002111	-0.013774	-0.056031	6465.280982	48725.884481	3969.732871	24871.270203
72.536000	-0.011395	0.002342	-0.013182	-0.054278	6458.017594	48565.896118	3966.804878	24782.826027
73.039500	-0.013504	0.001141	-0.016075	-0.051935	6421.730149	48195.504090	3953.697849	24665.151152
73.537000	-0.016864	0.002134	-0.017071	-0.045500	6343.193537	47632.583646	3935.366630	24345.214826
74.039500	-0.013310	0.002167	-0.012251	-0.049422	6402.973317	48040.951948	3956.965143	24539.636935
74.537000	-0.015666	0.001524	-0.010053	-0.047640	6369.754878	47790.087011	3958.003546	24451.089132
75.034500	-0.013183	0.002028	-0.013349	-0.043357	6355.411556	47402.036677	3939.237387	24239.745918
75.538000	-0.014440	0.001994	-0.019010	-0.037798	6301.599180	46833.686640	3912.047739	23968.478454
76.035500	-0.013963	0.001262	-0.015365	-0.041105	6331.367575	47094.413251	3928.810869	24129.417665
76.535500	-0.011999	0.002214	-0.010406	-0.038528	6326.531574	46929.762880	3934.616661	24003.926193
77.036500	-0.012934	0.002619	-0.011617	-0.034602	6288.394030	46574.952158	3922.137435	23814.127685
77.536500	-0.015033	0.002564	-0.017325	-0.029315	6231.260715	46042.126926	3895.911430	23561.210792
78.036000	-0.009909	0.003417	-0.005663	-0.032404	6294.854877	46434.644718	3931.246136	23708.600394
78.536500	-0.010354	0.003076	-0.008005	-0.031249	6282.369410	46285.274736	3922.761709	23653.386074
79.034500	-0.011211	0.003519	-0.008468	-0.029427	6261.568847	46148.013771	3917.252993	23566.527150
79.534500	-0.013583	0.003133	-0.009736	-0.022509	6190.431596	45428.320301	3897.757366	23240.151796
80.035000	-0.010509	0.003052	-0.008615	-0.028143	6257.069318	45974.308055	3913.817779	23505.555040
80.535500	-0.008156	0.003130	-0.009221	-0.027279	6268.593346	45896.647194	3910.301729	23464.632844
81.036000	-0.008359	0.003400	-0.009260	-0.026351	6259.834611	45831.694988	3907.997339	23420.785397
81.536000	-0.012129	0.003623	-0.012908	-0.020480	6186.076488	45278.102003	3885.560120	23145.395384
82.036000	-0.007067	0.003660	-0.009626	-0.025764	6265.292664	45799.437066	3905.729235	23393.079604
82.539000	-0.008185	0.003146	-0.010554	-0.026405	6261.598789	45811.944266	3905.044850	23423.319266
83.036500	-0.008079	0.003682	-0.007607	-0.025863	6258.232295	45811.353088	3910.776192	23397.751246
83.537000	-0.014384	0.002798	-0.014265	-0.020514	6169.309087	45201.180766	3882.480283	23146.975908
84.037000	-0.007719	0.003928	-0.004725	-0.025554	6258.617384	45805.087778	3916.939996	23383.156877
84.534500	-0.007533	0.003168	-0.006192	-0.025896	6262.705192	45763.978620	3914.239878	23399.300517
85.035500	-0.007860	0.003958	-0.003385	-0.024854	6252.122297	45739.165179	3918.480060	23350.188298
85.538000	-0.007126	0.003502	-0.005919	-0.024662	6256.311195	45675.386046	3911.938569	23341.166873
86.035500	-0.006772	0.003922	-0.003704	-0.023767	6252.127880	45628.689751	3915.100446	23299.094816
86.536000	-0.007766	0.002975	-0.008781	-0.023527	6242.622534	45512.364868	3902.424605	23287.855941
87.037000	-0.004673	0.002924	-0.003831	-0.023187	6263.876716	45474.198713	3913.407179	23271.925543
87.537000	-0.005193	0.002605	-0.007937	-0.022708	6256.147159	45396.136006	3902.482908	23249.457180
88.037000	-0.005431	0.003700	-0.008342	-0.021276	6243.265289	45363.214687	3898.138290	23182.513374
88.534500	-0.006283	0.002896	-0.004090	-0.021688	6239.881254	45325.039047	3909.205470	23201.760795
89.034500	-0.005390	0.002816	-0.005479	-0.021721	6247.007534	45320.434607	3905.974618	23203.303841
89.535000	-0.002264	0.003222	-0.004786	-0.021122	6266.542895	45301.652704	3906.199567	23175.357402
90.035500	-0.005037	0.003315	-0.004562	-0.021648	6249.168759	45361.979193	3907.983740	23199.891103
90.535500	-0.003102	0.003692	-0.003986	-0.021243	6260.981430	45359.213621	3908.390880	23180.960491
91.036000	-0.005128	0.003771	-0.000853	-0.019954	6235.435037	45241.347912	3912.796435	23120.924281
91.536000	-0.003493	0.003952	-0.006622	-0.015298	6212.312722	44808.174793	3888.136419	22905.411592
92.039000	-0.001886	0.004950	-0.003325	-0.020821	6267.133573	45440.842827	3908.960622	23161.275396
92.537000	-0.001527	0.005077	-0.004113	-0.020608	6268.270857	45432.448278	3906.577409	23151.360191
93.037500	-0.002161	0.005217	-0.004961	-0.018979	6250.765640	45287.193182	3900.700835	23075.615396
93.534500	-0.001115	0.005282	0.001913	-0.020680	6272.030445	45459.531969	3921.190248	23154.737942
94.038000	0.000573	0.004768	0.002753	-0.021073	6288.227622	45447.796179	3924.170071	23173.067066
94.535000	-0.001790	0.004984	0.001641	-0.021164	6270.544486	45477.740254	3921.701668	23177.314568
95.035500	-0.002485	0.005146	-0.001778	-0.019833	6254.859773	45363.514433	3910.296014	23115.297973
95.536000	-0.004395	0.005821	-0.000010	-0.015114	6204.041549	44970.784183	3903.272245	22896.941007
96.036500	-0.000371	0.005647	0.001706	-0.021192	6281.793703	45545.428405	3921.926618	23178.600303
