sample name	sample
index	608
start time	 03-19-2021  01:45:13 PM
880	0.000450
Peak Time (s)	92.537
Peak Height 	4.5003E-4
calc peak height	90,93
Baseline Time (s)	9.535
Baseline Value 	-0.001393
subtract baseline	10,4
Abs	-0.008097
Peak Time (s)	91.535
Peak Height 	-0.008097
calc peak height	90,93
Baseline Time (s)	9.035
Baseline Value 	1.3042E-4
subtract baseline	10,3
PK_550	0.000709
Peak Time (s)	92.036
Peak Height 	7.0874E-4
calc peak height	90,93
Baseline Time (s)	11.036
Baseline Value 	6.7639E-4
subtract baseline	10,2
PK_880	-0.007951
Peak Time (s)	91.535
Peak Height 	-0.007951
calc peak height	90,93
Baseline Time (s)	11.036
Baseline Value 	3.595E-4
subtract baseline	10,1


Time (s)	A880-A510	A880-A775	A880-A975	A880	I510	I775	I975	I880	
0.038000	0.002021	-0.001691	-0.001612	-0.002320	7350.295205	48664.717147	4091.055382	25643.148708
0.535500	-0.002236	-0.001297	-0.005846	0.002639	7256.965356	48186.761492	4065.997917	25385.012068
1.036000	-0.000507	-0.000524	-0.000645	0.003221	7268.471992	48206.757448	4078.522897	25354.926809
1.538500	0.002482	-0.000530	0.001588	-0.001939	7351.107628	48746.906587	4098.842340	25623.186993
2.039000	0.000245	-0.000009	-0.001048	-0.001948	7328.366400	48802.837744	4091.585291	25623.693155
2.537000	0.000687	0.000057	-0.000492	-0.001686	7330.199552	48782.096140	4092.392892	25609.960960
3.039500	0.001840	0.000032	0.002513	-0.001138	7336.369284	48721.686172	4099.187580	25581.342341
3.537000	-0.000296	-0.000635	0.002118	-0.000197	7305.082518	48552.618862	4095.489632	25532.284295
4.034500	-0.000183	-0.000290	0.001997	0.000257	7301.636724	48541.104504	4093.901627	25508.649345
4.538000	0.001122	0.000316	0.006249	0.000570	7311.692677	48571.885120	4104.825606	25492.375063
5.038000	-0.000106	-0.000112	0.000153	-0.000117	7306.200582	48599.058808	4089.847096	25528.101316
5.535000	0.000340	-0.000050	-0.004845	-0.000177	7311.331057	48611.910102	4076.339313	25531.249762
6.036000	-0.000698	-0.001012	0.001431	-0.000630	7305.399424	48558.476595	4094.785417	25554.835205
6.536500	0.001374	-0.000243	-0.000439	-0.000256	7322.635810	48599.953962	4088.602523	25535.337751
7.036500	-0.000840	-0.001027	0.005285	-0.000595	7303.615483	48553.208173	4105.387223	25553.045135
7.537000	0.001503	0.000083	-0.003349	0.000225	7319.058885	48583.663116	4079.315918	25510.285463
8.037500	0.001210	0.000191	0.002895	0.000171	7316.628780	48600.620709	4096.618717	25513.098601
8.534500	0.000603	0.000396	0.002665	0.000158	7310.597935	48623.637158	4096.021125	25513.799179
9.035000	-0.000904	-0.001011	0.000000	-0.000981	7306.866262	48595.414946	4091.806178	25573.150995
9.535000	-0.001839	-0.000387	0.001952	0.000000	7287.495185	48557.892521	4094.484813	25522.020906
10.035000	-0.001546	-0.000923	0.002428	-0.000866	7299.202913	48592.618961	4098.198236	25567.164711
10.535500	0.001649	0.000105	-0.000592	0.000186	7320.930971	48590.051804	4086.966819	25512.322038
11.035500	0.000000	0.000000	-0.005093	-0.000026	7306.352316	48601.311974	4075.251851	25523.370116
11.536000	0.000473	0.000386	-0.000309	0.000756	7303.217250	48559.674443	4086.180029	25482.675416
12.036500	-0.000607	-0.000659	-0.001166	0.001128	7288.544768	48411.147851	4082.814014	25463.352283
12.537000	-0.000072	0.000060	0.001422	0.000305	7302.276217	48572.922017	4092.183573	25506.170338
13.040000	0.000871	-0.000280	0.001094	-0.002261	7337.939831	48807.266364	4098.367653	25640.051183
13.537500	0.001108	0.000111	0.003886	-0.002371	7341.480243	48860.196292	4106.436522	25645.813188
14.035000	-0.001684	0.000215	-0.001226	0.003724	7251.630973	48231.314064	4075.571906	25328.935039
14.535000	-0.002759	-0.000178	-0.001419	0.001744	7260.690902	48397.039272	4080.438617	25431.380788
15.035500	0.001949	-0.000025	0.003474	-0.001131	7337.404144	48714.940170	4101.835849	25580.985586
15.559000	0.004346	0.000677	0.002241	-0.001827	7369.077630	48862.468226	4100.343123	25617.336881
16.036500	-0.001292	-0.000012	-0.003114	0.003618	7256.623746	48218.726754	4070.736902	25334.418889
16.538500	0.002001	-0.000381	-0.001921	-0.002453	7351.450770	48816.769570	4090.568594	25650.085183
17.036500	0.002870	0.000625	0.005672	-0.002003	7355.742091	48875.544522	4110.399769	25626.549766
17.537000	0.002134	0.000158	0.001509	-0.002624	7354.563403	48891.828611	4100.524040	25659.041628
18.037000	0.000322	0.000060	-0.000251	0.001579	7293.373555	48439.269482	4084.083909	25439.971994
18.537500	-0.000573	-0.000761	0.000875	0.000446	7295.770211	48471.891714	4090.284825	25498.784525
19.038500	-0.000297	-0.000116	-0.002435	0.000595	7297.061155	48523.883201	4080.800382	25491.038554
19.535500	-0.000260	-0.000506	-0.003237	0.000670	7296.682587	48475.145631	4078.411696	25487.168857
20.036000	-0.000096	-0.000097	0.000215	0.001358	7291.390399	48445.979669	4085.967629	25451.446460
20.536000	-0.000215	-0.000062	0.002027	0.000987	7293.928017	48488.406261	4091.969519	25470.670990
21.036500	-0.000698	-0.000258	-0.001306	0.000531	7293.660717	48515.727936	4084.065868	25494.401144
21.537000	-0.001335	-0.000660	0.000754	0.000267	7289.888184	48501.344294	4090.446962	25508.134247
22.037000	-0.000804	0.000081	0.002951	0.001234	7285.491820	48477.612299	4093.838814	25457.878361
22.534500	-0.001617	0.000067	0.001902	0.000835	7281.308950	48517.965555	4092.042024	25478.572961
23.037500	-0.000398	0.000303	0.006541	0.001268	7289.244096	48497.282948	4103.695005	25456.100382
23.538000	-0.000353	-0.000103	0.000454	0.000738	7295.044598	48510.293015	4088.325364	25483.618022
24.035500	0.001094	-0.000131	0.001822	0.001301	7303.993062	48448.331547	4090.541620	25454.397641
24.535500	-0.001520	-0.001126	0.000208	0.000338	7287.297600	48444.954142	4088.747085	25504.408519
25.036000	-0.001597	-0.000603	-0.000228	0.000946	7280.395832	48436.147823	4085.882128	25472.824100
25.536000	-0.000278	-0.000336	0.001515	0.001083	7292.315621	48449.702211	4090.294206	25465.680791
26.036500	-0.002096	-0.000021	0.001885	0.001336	7271.449493	48456.161523	4090.615932	25452.563807
26.537000	-0.000615	0.000288	0.003128	0.001179	7287.954881	48505.101608	4094.479700	25460.739961
27.034000	-0.001081	-0.000641	0.002468	0.000680	7288.283101	48459.980215	4094.033037	25486.625362
27.537500	0.000021	-0.000153	0.002298	0.001355	7292.592704	48440.403737	4091.701742	25451.571625
28.035000	0.001507	-0.000049	0.002194	-0.001661	7338.310147	48768.290694	4099.753551	25608.661149
28.537000	0.002682	-0.000104	0.003239	-0.001403	7347.685302	48735.339328	4101.939391	25595.214442
29.035500	0.000122	0.000232	0.004291	-0.001161	7319.111406	48745.243024	4104.194498	25582.559435
29.535500	0.001940	-0.000077	0.000830	-0.001561	7341.709992	48754.832382	4095.698951	25603.456355
30.035500	-0.002489	-0.000375	0.000987	0.003613	7244.691901	48181.369363	4081.907245	25334.674215
30.536500	0.001298	0.000055	0.003435	-0.001335	7332.855553	48744.941283	4102.295595	25591.647423
31.036500	0.000736	0.000061	-0.000039	-0.001309	7326.863790	48742.827498	4092.603709	25590.296563
31.553000	0.000371	0.000625	0.005605	-0.001189	7321.926947	48789.641933	4107.934964	25584.019789
32.037500	-0.000981	-0.000343	-0.000150	0.002847	7267.471421	48264.630783	4080.895127	25374.284357
32.537500	0.000136	-0.000190	0.006235	-0.001086	7318.487970	48692.888840	4109.408841	25578.637939
33.090500	0.002057	0.000558	0.003509	-0.001151	7338.716630	48778.543611	4101.990171	25582.045446
33.535000	0.001569	0.000381	0.002805	-0.001281	7335.058478	48773.564480	4100.393232	25588.799358
34.035500	-0.002546	-0.000797	0.001952	0.001288	7267.410896	48380.062307	4090.932613	25455.068767
34.536000	0.001720	0.000159	0.003531	-0.000546	7329.107971	48672.715600	4100.370011	25550.456757
35.036500	-0.000897	0.000201	0.002373	0.000644	7290.496847	48551.961528	4093.869025	25488.488555
35.536500	0.000272	-0.000699	0.001245	0.001714	7291.506113	48345.692999	4087.817920	25432.946572
36.037000	-0.001987	0.000190	-0.002661	0.002070	7265.176744	48401.386007	4076.167262	25414.489341
36.537000	-0.002400	-0.000230	-0.000439	0.001578	7265.965797	48408.959249	4083.571507	25439.988897
37.035000	-0.001717	0.000150	0.002334	0.001985	7268.729262	48406.095038	4090.064007	25418.877772
37.537500	0.001393	0.000403	0.002449	0.002636	7293.515555	48364.547614	4088.590508	25385.174597
38.035500	-0.002558	-0.000479	-0.004995	0.001649	7263.663709	48375.494726	4070.975072	25436.320656
38.535000	-0.000844	-0.000120	-0.001278	0.002125	7276.105598	48363.205075	4079.783616	25411.624251
39.036000	-0.001365	-0.000800	0.001940	0.001573	7276.415784	48349.829692	4090.116147	25440.259024
39.536000	-0.003411	-0.000809	0.000560	0.001816	7253.441743	48323.540831	4085.656662	25427.646575
40.035500	-0.000487	-0.000997	-0.005222	0.001700	7283.987382	48316.069067	4070.224053	25433.700727
40.536500	-0.002160	-0.000459	0.002114	0.001991	7264.229387	48341.819613	4089.444690	25418.600823
41.036500	0.000092	-0.000395	0.002295	0.001812	7288.691907	48367.203779	4090.434481	25427.852959
41.537000	-0.000555	0.000486	0.001270	0.002686	7273.378795	48368.021077	4085.218933	25382.606489
42.034500	0.000555	0.000435	-0.004051	0.002745	7283.953438	48356.478537	4070.563646	25379.529333
42.538000	-0.000204	-0.000005	-0.003241	0.002118	7282.628946	48376.019364	4074.459948	25412.020293
43.035000	-0.001227	-0.000206	-0.002159	0.002186	7271.648264	48347.969034	4077.218593	25408.489187
43.535500	-0.001481	-0.000275	0.002759	0.002534	7265.598989	48304.320075	4089.725240	25390.474533
44.036000	0.000016	-0.000466	0.002070	0.002257	7283.440184	48313.389775	4088.592539	25404.821397
44.536000	-0.000337	-0.000077	0.000707	0.002489	7277.555686	48329.792811	4084.216661	25392.814023
45.036500	0.000235	-0.000338	0.000079	-0.000177	7310.259388	48581.632975	4089.808709	25531.227926
45.536500	0.001612	0.000291	0.005439	-0.000914	7331.763774	48725.471593	4106.705126	25569.675507
46.037000	-0.002349	-0.000320	0.002975	0.003106	7251.160900	48239.961154	4088.745053	25360.864633
46.537000	0.002068	-0.000214	0.005971	-0.000740	7334.624919	48653.895591	4107.703783	25560.559878
47.040500	-0.001107	0.000423	0.001170	-0.000696	7301.925269	48716.267786	4094.246712	25558.276004
47.535000	0.001409	-0.000172	0.003637	-0.001009	7330.657816	48686.705214	4101.950958	25574.632589
48.035500	-0.003136	-0.000169	-0.000796	0.003093	7243.430800	48257.120896	4078.458655	25361.555288
48.560500	-0.002901	-0.000320	0.001247	0.004455	7232.188401	48099.530226	4080.318482	25291.254514
49.036000	-0.001498	0.000183	-0.000586	0.003730	7253.427810	48227.312595	4077.295384	25328.618894
49.536500	-0.001324	-0.000295	-0.000927	0.003154	7260.948418	48237.542844	4077.935357	25358.365538
50.064000	-0.003042	-0.000358	-0.000553	0.004446	7230.862920	48096.490964	4075.436675	25291.676034
50.537000	-0.002077	0.000275	-0.004508	0.004040	7244.542391	48204.619713	4065.830600	25312.641327
51.037000	0.001636	0.000868	0.005257	-0.000282	7325.564743	48719.571801	4104.435370	25536.705338
51.537500	-0.000049	-0.000167	-0.001464	-0.000798	7313.681219	48664.944126	4087.276667	25563.609240
52.035000	-0.003005	-0.000944	-0.003805	0.008851	7187.578745	47580.738461	4054.806695	25065.830439
52.535500	0.005795	-0.000195	0.004617	0.000155	7363.609498	48561.868264	4101.438848	25513.955841
53.035500	-0.024764	-0.016811	-0.005749	0.083142	6337.957427	39215.586893	3868.056109	21582.012690
53.536000	-0.033616	-0.024842	-0.003998	-0.058640	7567.103148	52292.314149	4249.227944	28791.108127
54.036000	-0.020800	-0.133214	-0.005958	-0.270279	10721.596638	65535.000000	5089.780637	45043.884126
54.536000	-0.026511	-0.034146	0.004131	-0.134520	8548.618303	60465.466810	4538.274454	33732.416339
55.036500	-0.033703	-0.032611	0.004048	-0.118433	8254.112900	58570.578142	4478.208968	32611.570424
55.537000	-0.027741	-0.032434	-0.010633	-0.137772	8574.956417	61126.488563	4495.279622	33964.074806
56.037000	-0.009955	-0.060278	-0.004407	-0.192671	9607.843418	64865.455578	4737.159561	38148.724050
56.537500	-0.011404	-0.047549	-0.012918	-0.174897	9317.648062	64150.498257	4628.965940	36735.635360
57.035000	-0.006785	-0.034424	-0.010119	-0.155649	9105.259309	63293.717352	4564.511958	35269.127024
57.535500	-0.003659	-0.026909	-0.008480	-0.141904	8955.504564	62434.445261	4518.609255	34260.955772
58.036000	-0.005854	-0.020628	-0.011012	-0.124357	8686.637158	60911.474286	4445.249281	33019.478210
58.535500	-0.009971	-0.015696	-0.013714	-0.100986	8332.069013	58502.321554	4354.906718	31441.917100
59.036000	-0.009424	-0.013302	-0.009922	-0.086980	8166.480637	57037.005522	4320.971355	30536.424563
59.536500	-0.010892	-0.011915	-0.014242	-0.072020	7971.185134	55373.009364	4259.042804	29600.915419
60.036500	-0.011960	-0.010322	-0.010195	-0.059209	7811.859082	54036.465265	4231.790567	28825.031464
60.537000	-0.009077	-0.005931	-0.010844	-0.038985	7619.815346	52207.846806	4169.052539	27645.856955
61.037500	-0.016882	-0.009594	-0.011361	-0.032547	7467.714934	51075.618824	4148.810471	27281.833925
61.535000	-0.014146	-0.007008	-0.012442	-0.034487	7517.100905	51579.689974	4151.293747	27390.982713
62.035500	-0.018093	-0.008410	-0.019296	-0.020973	7335.369899	49938.171126	4093.727097	26640.894738
62.535500	-0.019382	-0.007028	-0.016723	-0.001101	7124.691025	47979.872432	4046.907933	25579.398861
63.036000	-0.019750	-0.007718	-0.013399	-0.001536	7125.347712	47953.489180	4056.925056	25602.137741
63.536000	-0.013930	-0.006694	-0.011664	-0.009295	7259.371103	48872.740626	4082.609429	26011.214727
64.036500	-0.012627	-0.004930	-0.011623	-0.014885	7329.030597	49656.891328	4098.110859	26310.520946
64.536500	-0.014790	-0.005002	-0.017180	-0.016629	7324.768180	49836.977912	4087.592523	26404.673610
65.037000	-0.015279	-0.004991	-0.014038	-0.016185	7315.273506	49790.197699	4095.023208	26380.650591
65.557000	-0.012941	-0.005302	-0.015365	-0.019714	7375.252797	50138.547956	4101.126074	26572.177167
66.040000	-0.012715	-0.004751	-0.012465	-0.018556	7365.678378	50072.614242	4105.973334	26509.158042
66.540500	-0.017735	-0.004473	-0.017389	-0.011894	7247.302743	49385.220974	4074.090679	26149.909946
67.035500	-0.013564	-0.004549	-0.013209	-0.017440	7345.538455	49973.526373	4100.797670	26448.573940
67.535500	-0.012516	-0.004231	-0.013666	-0.017185	7353.651570	49980.399853	4098.821460	26434.776771
68.036000	-0.016113	-0.004773	-0.017297	-0.013326	7277.932080	49506.291271	4078.235582	26226.634435
68.536000	-0.014686	-0.003498	-0.016716	-0.010601	7264.895018	49351.193892	4072.409874	26080.822172
69.036500	-0.011088	-0.002970	-0.012785	-0.016025	7356.395716	49991.345116	4098.048941	26372.017868
69.537000	-0.011732	-0.003341	-0.012658	-0.017123	7361.062640	50070.181888	4101.447197	26431.436376
70.037000	-0.014396	-0.002960	-0.016609	-0.012583	7287.758581	49621.204566	4078.085392	26186.809821
70.540000	-0.016474	-0.003189	-0.015808	-0.011488	7255.859101	49479.087884	4077.284108	26128.167547
71.035000	-0.010552	-0.003075	-0.018490	-0.016928	7371.167064	50077.890996	4084.816906	26420.852749
71.535000	-0.011161	-0.002540	-0.016572	-0.016204	7357.486407	50057.371738	4088.093357	26381.691051
72.035500	-0.010693	-0.003639	-0.014789	-0.016796	7368.362640	50002.319054	4094.635898	26413.687391
72.535500	-0.016145	-0.003803	-0.019993	-0.011116	7255.422281	49373.552513	4064.942300	26108.272128
73.036000	-0.010586	-0.002889	-0.012945	-0.016195	7363.288639	50018.528582	4098.076517	26381.204587
73.536500	-0.011416	-0.003067	-0.016624	-0.016192	7354.746807	49998.860753	4087.918603	26381.023316
74.036500	-0.008780	-0.002476	-0.013585	-0.015538	7375.105511	49992.166112	4094.490441	26345.737601
74.537000	-0.013279	-0.002914	-0.018956	-0.010027	7273.261499	49352.199771	4064.801733	26050.193206
75.037000	-0.009889	-0.001811	-0.014601	-0.015416	7362.446324	50050.888220	4091.348997	26339.121907
75.537500	-0.009023	-0.001592	-0.017355	-0.014960	7366.660964	50025.224888	4082.538285	26314.549224
76.034500	-0.008373	-0.001249	-0.010405	-0.014459	7368.186697	50008.186088	4100.305253	26287.555076
76.535500	-0.013291	-0.002111	-0.022270	-0.008253	7255.338435	49248.670005	4051.175157	25955.851876
77.035500	-0.007723	-0.001237	-0.012466	-0.014042	7370.585230	49964.304748	4093.446926	26265.135204
77.535500	-0.010263	-0.001595	-0.012062	-0.014413	7348.335320	49965.647507	4095.587527	26285.079772
78.036000	-0.012279	-0.000836	-0.015198	-0.008891	7271.893379	49452.968855	4071.885457	25989.722416
78.536500	-0.012548	-0.001269	-0.012209	-0.007470	7254.936102	49255.009162	4076.147121	25914.363679
79.036500	-0.010294	-0.000782	-0.013481	-0.013125	7334.869145	49914.356990	4088.127768	26215.882146
79.537500	-0.009265	-0.000882	-0.013693	-0.013158	7345.713213	49907.058354	4087.636177	26217.621831
80.040000	-0.007069	-0.000159	-0.014846	-0.012012	7356.466765	49861.421386	4081.338416	26156.214873
80.537500	-0.008654	-0.000611	-0.012894	-0.012112	7341.270751	49823.366157	4086.958402	26161.562819
81.035000	-0.007645	-0.000282	-0.013524	-0.011745	7347.827746	49819.260024	4084.221997	26141.902874
81.535500	-0.009121	-0.000549	-0.012496	-0.011430	7329.548942	49756.533481	4086.177619	26125.056220
82.035500	-0.011644	-0.000094	-0.017110	-0.005850	7247.764514	49207.464002	4058.538898	25828.672365
82.536000	-0.011577	-0.000579	-0.012972	-0.011050	7300.752658	49712.366751	4083.832433	26104.774114
83.036500	-0.010294	-0.000334	-0.010820	-0.010271	7305.864061	49654.957629	4087.596946	26063.216163
83.537000	-0.008531	-0.000753	-0.012268	-0.009991	7320.912690	49579.827066	4082.860595	26048.294215
84.036500	-0.011829	-0.000340	-0.015962	-0.004797	7235.411265	49069.487657	4058.794729	25773.207294
84.537000	-0.009292	-0.000554	-0.016454	-0.009672	7309.941148	49566.992470	4070.601740	26031.292793
85.037500	-0.008199	-0.000418	-0.007607	-0.008567	7309.818862	49463.055951	4091.750285	25972.533389
85.535000	-0.008518	-0.000267	-0.016242	-0.008776	7308.706134	49501.613021	4068.750399	25983.616655
86.035500	-0.010451	-0.000182	-0.015377	-0.003875	7239.966230	48988.318800	4057.893588	25724.707216
86.535500	-0.009998	0.000240	-0.013381	-0.007792	7283.787525	49450.485011	4073.833264	25931.384775
87.036000	-0.009527	0.000226	-0.010504	-0.007434	7284.931034	49410.785831	4080.695051	25912.446221
87.536000	-0.010656	-0.000084	-0.017352	-0.007716	7276.407385	49407.707751	4062.898991	25927.391235
88.036500	-0.009292	0.000242	-0.012966	-0.007464	7287.604723	49415.631642	4074.069557	25914.015105
88.536500	-0.012347	-0.000191	-0.024311	-0.003635	7218.695002	48961.909858	4033.581825	25712.078498
89.037000	-0.009950	0.000258	-0.018125	-0.006894	7275.232600	49356.445871	4058.617118	25883.849529
89.540000	-0.009806	0.000144	-0.011143	-0.006639	7274.115376	49316.934192	4076.782516	25870.347120
90.035000	-0.013069	-0.000118	-0.016558	-0.002988	7205.123143	48901.253410	4052.368950	25678.164334
90.534500	-0.013782	-0.000748	-0.015672	-0.001164	7180.079777	48642.353583	4049.868529	25582.712577
91.035500	-0.010500	0.000291	-0.014871	-0.006050	7261.227972	49269.878660	4065.093695	25839.241161
91.535500	-0.007951	0.000575	-0.008097	-0.005744	7283.776161	49267.483184	4082.651052	25823.080405
92.036000	-0.008823	0.000709	-0.013694	-0.005282	7270.353861	49232.478825	4066.196340	25798.711425
92.536500	-0.012177	0.000341	-0.014225	0.000450	7179.984913	48587.174464	4049.425171	25498.600283
93.036500	-0.009127	0.000868	-0.011452	-0.005173	7266.201575	49237.869616	4071.962385	25792.966298
93.536500	-0.008996	-0.000070	-0.015546	-0.005726	7273.078095	49196.879369	4062.404405	25822.135423
94.037500	-0.007089	0.000336	-0.013307	-0.005088	7285.858431	49172.192875	4066.716781	25788.519088
94.537500	-0.013066	0.000245	-0.014540	-0.000729	7182.848231	48701.116633	4051.725654	25560.029735
95.037500	-0.008939	0.000576	-0.014091	-0.004734	7263.682287	49160.029256	4063.650165	25769.842024
95.535000	-0.010310	0.000009	-0.013572	-0.005282	7255.443032	49158.054431	4066.526845	25798.754379
96.035500	-0.011962	0.000677	-0.019606	-0.001135	7197.738407	48789.383423	4039.378372	25581.201746
96.546000	-0.010972	0.000399	-0.019524	-0.001151	7207.686996	48761.684201	4039.635253	25582.013321
97.036000	-0.009911	0.000507	-0.013598	-0.004160	7248.191453	49091.635155	4063.429726	25739.645889
97.536500	-0.007728	0.000984	-0.014623	-0.003918	7267.652651	49116.653841	4060.027803	25726.929057
98.036500	-0.010155	-0.000019	-0.015269	-0.001725	7221.495374	48778.223138	4052.436410	25612.032614
98.537000	-0.012334	0.000260	-0.016055	0.000392	7179.017298	48584.748793	4044.724883	25501.628168
99.040000	-0.008575	0.000531	-0.013260	-0.003712	7257.091990	49046.599712	4063.135440	25716.120340
