sample name	sample
index	1336
start time	 05-03-2021  12:00:36 PM


Wavelength (nm)	Absorbance
494.344910	-0.023116
494.563924	-0.023116
494.782919	-0.023116
495.001897	0.103122
495.220856	-0.003991
495.439797	-0.032220
495.658719	-0.042885
495.877624	-0.034388
496.096510	-0.057103
496.315378	-0.069250
496.534227	-0.059476
496.753059	-0.064741
496.971872	-0.042780
497.190667	-0.014205
497.409444	0.003402
497.628203	0.003773
497.846943	0.006729
498.065665	0.008618
498.284369	0.009198
498.503055	0.009509
498.721723	0.009568
498.940372	0.009692
499.159003	0.010586
499.377616	0.010368
499.596210	0.011865
499.814787	0.010515
500.033345	0.009541
500.251885	0.008891
500.470406	0.008163
500.688910	0.008829
500.907395	0.007566
501.125862	0.007086
501.344311	0.008107
501.562742	0.006791
501.781154	0.008201
501.999548	0.010620
502.217924	0.010783
502.436282	0.011131
502.654621	0.010574
502.872942	0.011353
503.091245	0.011525
503.309530	0.010762
503.527797	0.011767
503.746045	0.010860
503.964275	0.009696
504.182487	0.008917
504.400681	0.009540
504.618856	0.010181
504.837013	0.010718
505.055152	0.010792
505.273273	0.011061
505.491376	0.010446
505.709460	0.010927
505.927526	0.009994
506.145574	0.011261
506.363604	0.010855
506.581615	0.010109
506.799608	0.010671
507.017583	0.010060
507.235540	0.009675
507.453478	0.009634
507.671399	0.008627
507.889301	0.009311
508.107185	0.009557
508.325050	0.008657
508.542898	0.008718
508.760727	0.008517
508.978538	0.009882
509.196330	0.010109
509.414105	0.010093
509.631861	0.011354
509.849599	0.010908
510.067319	0.010250
510.285021	0.011201
510.502704	0.011823
510.720369	0.011079
510.938016	0.010527
511.155645	0.010356
511.373255	0.011586
511.590848	0.011298
511.808422	0.011272
512.025977	0.011056
512.243515	0.010639
512.461034	0.010568
512.678536	0.010244
512.896018	0.010355
513.113483	0.010541
513.330930	0.009954
513.548358	0.010026
513.765768	0.010406
513.983160	0.011430
514.200533	0.012267
514.417889	0.012875
514.635226	0.013997
514.852545	0.013436
515.069845	0.013354
515.287128	0.013925
515.504392	0.014090
515.721638	0.013900
515.938866	0.012743
516.156075	0.012076
516.373267	0.011966
516.590440	0.010992
516.807594	0.011722
517.024731	0.011734
517.241850	0.011260
517.458950	0.011399
517.676032	0.012133
517.893095	0.012963
518.110141	0.013078
518.327168	0.012394
518.544177	0.013235
518.761168	0.013622
518.978141	0.014473
519.195095	0.014132
519.412031	0.013859
519.628949	0.013042
519.845849	0.012857
520.062731	0.012407
520.279594	0.012472
520.496439	0.012575
520.713266	0.012252
520.930074	0.011874
521.146865	0.012270
521.363637	0.012196
521.580391	0.013095
521.797127	0.013503
522.013844	0.013960
522.230543	0.014474
522.447224	0.014582
522.663887	0.014922
522.880532	0.015057
523.097158	0.015579
523.313766	0.015875
523.530356	0.016150
523.746928	0.016009
523.963481	0.016598
524.180017	0.016730
524.396534	0.016207
524.613032	0.015991
524.829513	0.015442
525.045975	0.015690
525.262420	0.016086
525.478845	0.015873
525.695253	0.016017
525.911643	0.015341
526.128014	0.015107
526.344367	0.015508
526.560702	0.015397
526.777018	0.016290
526.993316	0.016022
527.209597	0.016468
527.425858	0.016806
527.642102	0.017078
527.858328	0.018623
528.074535	0.018965
528.290724	0.019558
528.506894	0.020404
528.723047	0.021086
528.939181	0.021730
529.155297	0.021277
529.371395	0.021168
529.587475	0.020860
529.803536	0.020412
530.019579	0.020701
530.235604	0.020885
530.451611	0.020769
530.667600	0.021171
530.883570	0.020890
531.099522	0.021484
531.315456	0.022098
531.531372	0.022316
531.747269	0.022795
531.963148	0.023367
532.179009	0.023422
532.394852	0.023966
532.610676	0.023928
532.826482	0.024190
533.042271	0.024146
533.258040	0.024028
533.473792	0.024471
533.689525	0.023943
533.905240	0.023557
534.120937	0.023666
534.336616	0.024252
534.552277	0.023869
534.767919	0.023987
534.983543	0.024009
535.199149	0.024240
535.414736	0.024322
535.630306	0.025087
535.845857	0.025565
536.061390	0.025895
536.276904	0.025194
536.492401	0.025809
536.707879	0.026176
536.923339	0.026501
537.138781	0.026572
537.354204	0.026539
537.569610	0.026719
537.784997	0.026664
538.000366	0.026281
538.215716	0.026728
538.431049	0.025963
538.646363	0.026114
538.861659	0.026266
539.076937	0.026120
539.292196	0.026612
539.507438	0.026863
539.722661	0.027082
539.937866	0.027913
540.153052	0.027854
540.368221	0.028378
540.583371	0.028190
540.798503	0.028659
541.013617	0.029071
541.228712	0.029311
541.443789	0.029244
541.658848	0.029789
541.873889	0.029758
542.088912	0.030205
542.303916	0.030239
542.518902	0.030586
542.733870	0.030404
542.948820	0.030762
543.163752	0.031013
543.378665	0.030841
543.593560	0.030353
543.808437	0.030659
544.023295	0.030558
544.238136	0.030963
544.452958	0.031158
544.667762	0.030901
544.882548	0.030662
545.097315	0.030593
545.312064	0.030803
545.526795	0.031155
545.741508	0.031039
545.956203	0.031153
546.170879	0.031366
546.385537	0.031505
546.600177	0.031702
546.814799	0.032166
547.029402	0.031878
547.243988	0.032031
547.458555	0.032267
547.673103	0.032341
547.887634	0.033073
548.102146	0.033246
548.316640	0.033480
548.531116	0.033842
548.745574	0.033703
548.960013	0.033802
549.174435	0.034301
549.388838	0.034377
549.603222	0.034346
549.817589	0.033978
550.031937	0.033902
550.246267	0.033875
550.460579	0.034293
550.674873	0.034021
550.889148	0.034532
551.103405	0.034006
551.317644	0.033985
551.531865	0.034366
551.746068	0.034641
551.960252	0.034744
552.174418	0.034943
552.388566	0.034953
552.602696	0.035522
552.816807	0.035562
553.030900	0.036267
553.244975	0.036368
553.459032	0.036564
553.673070	0.036509
553.887091	0.036729
554.101093	0.036847
554.315077	0.036928
554.529042	0.037082
554.742990	0.037105
554.956919	0.037004
555.170830	0.037255
555.384722	0.037253
555.598597	0.037127
555.812453	0.037201
556.026291	0.037402
556.240111	0.037502
556.453913	0.037631
556.667696	0.038141
556.881461	0.038322
557.095208	0.038241
557.308937	0.038267
557.522647	0.038529
557.736339	0.038113
557.950013	0.037652
558.163669	0.037559
558.377307	0.037815
558.590926	0.037356
558.804527	0.037145
559.018110	0.037111
559.231675	0.036973
559.445221	0.037101
559.658749	0.037535
559.872259	0.037759
560.085751	0.037654
560.299225	0.037609
560.512680	0.037726
560.726117	0.037779
560.939536	0.037669
561.152937	0.037973
561.366319	0.038097
561.579683	0.037949
561.793029	0.038131
562.006357	0.037958
562.219667	0.037865
562.432958	0.037919
562.646231	0.038111
562.859486	0.038299
563.072723	0.037850
563.285941	0.037458
563.499141	0.037574
563.712323	0.037584
563.925487	0.037796
564.138632	0.037957
564.351760	0.038169
564.564869	0.038303
564.777960	0.038618
564.991032	0.038984
565.204087	0.039648
565.417123	0.039847
565.630141	0.039942
565.843140	0.040309
566.056122	0.040341
566.269085	0.040579
566.482030	0.040681
566.694957	0.040886
566.907866	0.041017
567.120756	0.040884
567.333628	0.040954
567.546482	0.041294
567.759318	0.041116
567.972135	0.040804
568.184935	0.040735
568.397716	0.040524
568.610478	0.040645
568.823223	0.040498
569.035949	0.040349
569.248657	0.040329
569.461347	0.040163
569.674019	0.040669
569.886672	0.040983
570.099308	0.040828
570.311925	0.041101
570.524523	0.041161
570.737104	0.041366
570.949666	0.041256
571.162210	0.041066
571.374736	0.040969
571.587244	0.040556
571.799733	0.040536
572.012205	0.040691
572.224658	0.040208
572.437092	0.039826
572.649509	0.039656
572.861907	0.039600
573.074287	0.040066
573.286649	0.040219
573.498993	0.040307
573.711318	0.040188
573.923625	0.040071
574.135914	0.040860
574.348185	0.040969
574.560438	0.041058
574.772672	0.041194
574.984888	0.040842
575.197086	0.040849
575.409266	0.040791
575.621427	0.040963
575.833570	0.040911
576.045695	0.040494
576.257802	0.040265
576.469890	0.040463
576.681961	0.040258
576.894013	0.040372
577.106046	0.040486
577.318062	0.040556
577.530059	0.040643
577.742039	0.040732
577.954000	0.040741
578.165942	0.040880
578.377867	0.040757
578.589773	0.041053
578.801661	0.040928
579.013531	0.040470
579.225382	0.040461
579.437216	0.040499
579.649031	0.040762
579.860828	0.040897
580.072606	0.040994
580.284367	0.041107
580.496109	0.041054
580.707833	0.041204
580.919539	0.041643
581.131227	0.041591
581.342896	0.041582
581.554547	0.041277
581.766180	0.041232
581.977795	0.041539
582.189391	0.041611
582.400969	0.042164
582.612529	0.042374
582.824071	0.042523
583.035595	0.042983
583.247100	0.042715
583.458587	0.042965
583.670056	0.043071
583.881506	0.042833
584.092939	0.042870
584.304353	0.042590
584.515749	0.042409
584.727127	0.042057
584.938486	0.041755
585.149828	0.042336
585.361151	0.042447
585.572456	0.042320
585.783742	0.042400
585.995011	0.042429
586.206261	0.042599
586.417493	0.042864
586.628706	0.042968
586.839902	0.043264
587.051079	0.043298
587.262238	0.043522
587.473379	0.043483
587.684502	0.043722
587.895606	0.043688
588.106692	0.043696
588.317760	0.043953
588.528810	0.043827
588.739841	0.043713
588.950855	0.043351
589.161850	0.043254
589.372827	0.043774
589.583785	0.043865
589.794726	0.044073
590.005648	0.044135
590.216552	0.043845
590.427437	0.044188
590.638305	0.044372
590.849154	0.044481
591.059985	0.044790
591.270798	0.044870
591.481592	0.045093
591.692369	0.045484
591.903127	0.045466
592.113867	0.045712
592.324588	0.045891
592.535292	0.045996
592.745977	0.046345
592.956644	0.046339
593.167293	0.046210
593.377923	0.046138
593.588536	0.045886
593.799130	0.046068
594.009706	0.046248
594.220263	0.046401
594.430803	0.046387
594.641324	0.046437
594.851827	0.046513
595.062312	0.046408
595.272778	0.046098
595.483227	0.046551
595.693657	0.046566
595.904069	0.046602
596.114462	0.046437
596.324838	0.046451
596.535195	0.046589
596.745534	0.046582
596.955855	0.046590
597.166157	0.046932
597.376441	0.046520
597.586707	0.046660
597.796955	0.046581
598.007185	0.046674
598.217396	0.046859
598.427589	0.046664
598.637764	0.046645
598.847921	0.046932
599.058060	0.047455
599.268180	0.047462
599.478282	0.047581
599.688366	0.047530
599.898431	0.047756
600.108479	0.047843
600.318508	0.047995
600.528519	0.048155
600.738511	0.048295
600.948486	0.047918
601.158442	0.048313
601.368380	0.048271
601.578300	0.048403
601.788202	0.048522
601.998085	0.048671
602.207950	0.048984
602.417797	0.048884
602.627626	0.048810
602.837436	0.049021
603.047228	0.049153
603.257002	0.049453
603.466758	0.049736
603.676496	0.050007
603.886215	0.049947
604.095916	0.049821
604.305599	0.049950
604.515264	0.050046
604.724910	0.050102
604.934538	0.050208
605.144148	0.050105
605.353740	0.049945
605.563314	0.049764
605.772869	0.049989
605.982406	0.050302
606.191925	0.050485
606.401425	0.050622
606.610908	0.050658
606.820372	0.050512
607.029818	0.050402
607.239246	0.050687
607.448655	0.050470
607.658047	0.050568
607.867420	0.050407
608.076775	0.050574
608.286111	0.050302
608.495430	0.050102
608.704730	0.050097
608.914012	0.050355
609.123275	0.050435
609.332521	0.050830
609.541748	0.050824
609.750957	0.051037
609.960148	0.050810
610.169321	0.051366
610.378475	0.051564
610.587611	0.051414
610.796729	0.051479
611.005829	0.051543
611.214910	0.051527
611.423974	0.051462
611.633019	0.051322
611.842045	0.051631
612.051054	0.051384
612.260044	0.051609
612.469017	0.051967
612.677970	0.051959
612.886906	0.051915
613.095824	0.052173
613.304723	0.052487
613.513604	0.052509
613.722467	0.052698
613.931311	0.052832
614.140138	0.052773
614.348946	0.052984
614.557736	0.053011
614.766507	0.053183
614.975261	0.053041
615.183996	0.052892
615.392713	0.053199
615.601412	0.053213
615.810092	0.053352
616.018754	0.053434
616.227399	0.053356
616.436024	0.053523
616.644632	0.053666
616.853222	0.053655
617.061793	0.053862
617.270346	0.053879
617.478880	0.053851
617.687397	0.053921
617.895895	0.054136
618.104375	0.054171
618.312837	0.054140
618.521281	0.054084
618.729706	0.054398
618.938113	0.054391
619.146502	0.054750
619.354873	0.055094
619.563226	0.055020
619.771560	0.055274
619.979876	0.055320
620.188174	0.055674
620.396453	0.055940
620.604715	0.056028
620.812958	0.056210
621.021183	0.056363
621.229390	0.056192
621.437578	0.056571
621.645748	0.056384
621.853900	0.056583
622.062034	0.056772
622.270150	0.056803
622.478247	0.057019
622.686326	0.057092
622.894387	0.057058
623.102430	0.056992
623.310454	0.057098
623.518461	0.057231
623.726449	0.057300
623.934418	0.057148
624.142370	0.057085
624.350303	0.056909
624.558218	0.056863
624.766115	0.056784
624.973994	0.056902
625.181855	0.056778
625.389697	0.056852
625.597521	0.056955
625.805327	0.057046
626.013114	0.057247
626.220883	0.057377
626.428634	0.057500
626.636367	0.057458
626.844082	0.057550
627.051778	0.057849
627.259457	0.057822
627.467117	0.057902
627.674758	0.058062
627.882382	0.058196
628.089987	0.058395
628.297574	0.058522
628.505143	0.058653
628.712694	0.058857
628.920226	0.058944
629.127740	0.059212
629.335236	0.059386
629.542714	0.059585
629.750174	0.059453
629.957615	0.059560
630.165038	0.059744
630.372443	0.060049
630.579829	0.060151
630.787198	0.060126
630.994548	0.060252
631.201880	0.060141
631.409194	0.060063
631.616489	0.060315
631.823766	0.060328
632.031025	0.060309
632.238266	0.060264
632.445489	0.060453
632.652693	0.060521
632.859879	0.060456
633.067047	0.060552
633.274197	0.060493
633.481329	0.060510
633.688442	0.060617
633.895537	0.060589
634.102614	0.060692
634.309672	0.060494
634.516713	0.060716
634.723735	0.060936
634.930739	0.061014
635.137724	0.061076
635.344692	0.061246
635.551641	0.061343
635.758572	0.061641
635.965485	0.061456
636.172379	0.061512
636.379256	0.061588
636.586114	0.061541
636.792954	0.061479
636.999775	0.061649
637.206579	0.061531
637.413364	0.061495
637.620131	0.061467
637.826880	0.061803
638.033610	0.061930
638.240323	0.061885
638.447017	0.061868
638.653692	0.062273
638.860350	0.062394
639.066990	0.062433
639.273611	0.062483
639.480214	0.062557
639.686798	0.062606
639.893365	0.062872
640.099913	0.062881
640.306443	0.063095
640.512955	0.063197
640.719449	0.063289
640.925924	0.063597
641.132381	0.063684
641.338820	0.063767
641.545241	0.063776
641.751644	0.063875
641.958028	0.064270
642.164394	0.064663
642.370742	0.064577
642.577071	0.064612
642.783383	0.064845
642.989676	0.065229
643.195951	0.065323
643.402207	0.065543
643.608446	0.065515
643.814666	0.065493
644.020868	0.065320
644.227052	0.065449
644.433218	0.065687
644.639365	0.065867
644.845494	0.065919
645.051605	0.066181
645.257698	0.066290
645.463772	0.066451
645.669828	0.066447
645.875866	0.066556
646.081886	0.066867
646.287888	0.067090
646.493871	0.066831
646.699836	0.066932
646.905783	0.066915
647.111712	0.066999
647.317622	0.067229
647.523514	0.067444
647.729388	0.067540
647.935244	0.067490
648.141082	0.067550
648.346901	0.068000
648.552702	0.067969
648.758485	0.068154
648.964250	0.068424
649.169996	0.068358
649.375724	0.068463
649.581434	0.068517
649.787126	0.068758
649.992800	0.068868
650.198455	0.068912
650.404092	0.068996
650.609711	0.069040
650.815311	0.068976
651.020894	0.069195
651.226458	0.069164
651.432004	0.069195
651.637532	0.069155
651.843041	0.069300
652.048532	0.069249
652.254006	0.069399
652.459460	0.069442
652.664897	0.069579
652.870315	0.069666
653.075716	0.069811
653.281097	0.069966
653.486461	0.070126
653.691807	0.070246
653.897134	0.070398
654.102443	0.070458
654.307734	0.070758
654.513006	0.070950
654.718261	0.070999
654.923497	0.070993
655.128715	0.071200
655.333915	0.071425
655.539096	0.071475
655.744259	0.071500
655.949404	0.071600
656.154531	0.071516
656.359640	0.071443
656.564730	0.071571
656.769802	0.071813
656.974856	0.071909
657.179892	0.071958
657.384909	0.071792
657.589908	0.071651
657.794889	0.071487
657.999852	0.071304
658.204797	0.071404
658.409723	0.071361
658.614631	0.071257
658.819521	0.070898
659.024393	0.070797
659.229246	0.070939
659.434081	0.070946
659.638898	0.071224
659.843697	0.071667
660.048478	0.071704
660.253240	0.071668
660.457984	0.071925
660.662710	0.072295
660.867417	0.072291
661.072107	0.072521
661.276778	0.072891
661.481431	0.073020
661.686066	0.072905
661.890682	0.072879
662.095281	0.073081
662.299861	0.073043
662.504422	0.073006
662.708966	0.073005
662.913491	0.072925
663.117999	0.073161
663.322488	0.073101
663.526958	0.073186
663.731411	0.073089
663.935845	0.073208
664.140261	0.073258
664.344659	0.073424
664.549038	0.073622
664.753400	0.073560
664.957743	0.073522
665.162068	0.073932
665.366375	0.074125
665.570663	0.074446
665.774933	0.074443
665.979185	0.074708
666.183419	0.074859
666.387635	0.074996
666.591832	0.075286
666.796011	0.075483
667.000172	0.075395
667.204315	0.075565
667.408439	0.075739
667.612545	0.075989
667.816634	0.076017
668.020703	0.076157
668.224755	0.076324
668.428788	0.076450
668.632803	0.076475
668.836800	0.076570
669.040779	0.076735
669.244739	0.076882
669.448681	0.076965
669.652605	0.077185
669.856511	0.077391
670.060399	0.077510
670.264268	0.077492
670.468119	0.077693
670.671952	0.077630
670.875767	0.077650
671.079563	0.077905
671.283341	0.077941
671.487101	0.078045
671.690843	0.078244
671.894567	0.078320
672.098272	0.078494
672.301959	0.078663
672.505628	0.079097
672.709278	0.079225
672.912911	0.079327
673.116525	0.079583
673.320121	0.079673
673.523699	0.079902
673.727258	0.080026
673.930799	0.080233
674.134322	0.080240
674.337827	0.080377
674.541314	0.080726
674.744782	0.080960
674.948232	0.081116
675.151664	0.081329
675.355078	0.081242
675.558474	0.081306
675.761851	0.081305
675.965210	0.081361
676.168551	0.081446
676.371873	0.081259
676.575178	0.081142
676.778464	0.081176
676.981732	0.081080
677.184981	0.081079
677.388213	0.081238
677.591426	0.081208
677.794621	0.081268
677.997798	0.081116
678.200956	0.081086
678.404097	0.081128
678.607219	0.081082
678.810323	0.081207
679.013408	0.081155
679.216476	0.081157
679.419525	0.081365
679.622556	0.081570
679.825569	0.081582
680.028563	0.081941
680.231540	0.082058
680.434498	0.082435
680.637438	0.082506
680.840359	0.082882
681.043263	0.083071
681.246148	0.083272
681.449015	0.083414
681.651864	0.083695
681.854694	0.083652
682.057506	0.083731
682.260301	0.083644
682.463076	0.083703
682.665834	0.083564
682.868573	0.083609
683.071295	0.083939
683.273998	0.084044
683.476682	0.084089
683.679349	0.084291
683.881997	0.084551
684.084627	0.084795
684.287239	0.084892
684.489833	0.084954
684.692408	0.085038
684.894965	0.084897
685.097504	0.084682
685.300025	0.084663
685.502527	0.084654
685.705012	0.084481
685.907478	0.084372
686.109925	0.084533
686.312355	0.084705
686.514766	0.084745
686.717159	0.084657
686.919534	0.084963
687.121891	0.085133
687.324230	0.085244
687.526550	0.085308
687.728852	0.085490
687.931136	0.085542
688.133401	0.085553
688.335649	0.085838
688.537878	0.086013
688.740089	0.085964
688.942281	0.086133
689.144456	0.086128
689.346612	0.086206
689.548750	0.086172
689.750870	0.086231
689.952971	0.086294
690.155055	0.086350
690.357120	0.086400
690.559167	0.086557
690.761195	0.086688
690.963206	0.086867
691.165198	0.087086
691.367172	0.087340
691.569128	0.087592
691.771065	0.087862
691.972984	0.087809
692.174885	0.088155
692.376768	0.088136
692.578633	0.088059
692.780479	0.088115
692.982308	0.087937
693.184118	0.087724
693.385909	0.087754
693.587683	0.087600
693.789438	0.087553
693.991175	0.087284
694.192894	0.087370
694.394595	0.087550
694.596277	0.087456
694.797941	0.087769
694.999587	0.087943
695.201215	0.087784
695.402824	0.088061
695.604416	0.088366
695.805989	0.088607
696.007543	0.088735
696.209080	0.088871
696.410598	0.089025
696.612099	0.089167
696.813580	0.089165
697.015044	0.089337
697.216490	0.089227
697.417917	0.089433
697.619326	0.089481
697.820717	0.089551
698.022089	0.089544
698.223444	0.089677
698.424780	0.089695
698.626098	0.089915
698.827397	0.090125
699.028679	0.090436
699.229942	0.090493
699.431187	0.090573
699.632414	0.090725
699.833622	0.090910
700.034813	0.090993
700.235985	0.091187
700.437139	0.091338
700.638274	0.091323
700.839392	0.091369
701.040491	0.091329
701.241572	0.091439
701.442635	0.091433
701.643679	0.091132
701.844706	0.091225
702.045714	0.090890
702.246704	0.090750
702.447675	0.090741
702.648629	0.090609
702.849564	0.090529
703.050481	0.090230
703.251380	0.090347
703.452260	0.090651
703.653122	0.090613
703.853966	0.090968
704.054792	0.091059
704.255600	0.090812
704.456389	0.090904
704.657160	0.090646
704.857913	0.090664
705.058648	0.090375
705.259365	0.090269
705.460063	0.090047
705.660743	0.089742
705.861405	0.089611
706.062048	0.089784
706.262674	0.089648
706.463281	0.089732
706.663870	0.089941
706.864441	0.089839
707.064993	0.089707
707.265527	0.089867
707.466043	0.089964
707.666541	0.089932
707.867021	0.089784
708.067482	0.089990
708.267925	0.090050
708.468350	0.089806
708.668757	0.090092
708.869145	0.090168
709.069516	0.090110
709.269868	0.090052
709.470201	0.089964
709.670517	0.090126
709.870814	0.090001
710.071093	0.089981
710.271354	0.090116
710.471597	0.090117
710.671821	0.090157
710.872028	0.089971
711.072216	0.090002
711.272385	0.090154
711.472537	0.090152
711.672670	0.090122
711.872785	0.090198
712.072882	0.090170
712.272961	0.090008
712.473021	0.090032
712.673063	0.090231
712.873087	0.090137
713.073093	0.090212
713.273081	0.090155
713.473050	0.090202
713.673001	0.090062
713.872934	0.090219
714.072849	0.090284
714.272745	0.090241
714.472623	0.090096
714.672483	0.090100
714.872325	0.089995
715.072148	0.090039
715.271954	0.089803
715.471741	0.089898
715.671509	0.089815
715.871260	0.089666
716.070992	0.089450
716.270707	0.089532
716.470403	0.089515
716.670080	0.089687
716.869740	0.089490
717.069381	0.089663
717.269004	0.089717
717.468609	0.089702
717.668195	0.089566
717.867764	0.089594
718.067314	0.089498
718.266846	0.089540
718.466360	0.089294
718.665855	0.089262
718.865332	0.089015
719.064791	0.088842
719.264232	0.088636
719.463655	0.088574
719.663059	0.088305
719.862445	0.088124
720.061813	0.087833
720.261163	0.087452
720.460494	0.087261
720.659807	0.087222
720.859102	0.086907
721.058379	0.086830
721.257638	0.086704
721.456878	0.086595
721.656100	0.086572
721.855304	0.086393
722.054490	0.086437
722.253657	0.086372
722.452806	0.086262
722.651937	0.086286
722.851050	0.086035
723.050145	0.086033
723.249221	0.086158
723.448279	0.086053
723.647319	0.086242
723.846340	0.086236
724.045344	0.086058
724.244329	0.085894
724.443296	0.085707
724.642245	0.085860
724.841175	0.085733
725.040088	0.085465
725.238982	0.085587
725.437857	0.085439
725.636715	0.085454
725.835554	0.085480
726.034376	0.085499
726.233179	0.085473
726.431963	0.085311
726.630730	0.085405
726.829478	0.085531
727.028208	0.085306
727.226920	0.085254
727.425614	0.084810
727.624289	0.084931
727.822946	0.084815
728.021585	0.084839
728.220206	0.084862
728.418808	0.084770
728.617392	0.084727
728.815958	0.084560
729.014506	0.084479
729.213036	0.084709
729.411547	0.084456
729.610040	0.084295
729.808515	0.084128
730.006972	0.084006
730.205410	0.084027
730.403831	0.083881
730.602233	0.083777
730.800616	0.083711
730.998982	0.083759
731.197329	0.083840
731.395658	0.083773
731.593969	0.083730
731.792262	0.083666
731.990536	0.083463
732.188793	0.083462
732.387031	0.083442
732.585250	0.083135
732.783452	0.082799
732.981635	0.082597
733.179800	0.082601
733.377947	0.082525
733.576076	0.082197
733.774186	0.081923
733.972278	0.081821
734.170352	0.081594
734.368408	0.081590
734.566446	0.081657
734.764465	0.081689
734.962466	0.081565
735.160449	0.081376
735.358413	0.081549
735.556360	0.081784
735.754288	0.081467
735.952198	0.081716
736.150090	0.081613
736.347963	0.081454
736.545818	0.081336
736.743655	0.081247
736.941474	0.081269
737.139275	0.081023
737.337057	0.080913
737.534821	0.080826
737.732567	0.080581
737.930295	0.080697
738.128005	0.080664
738.325696	0.080651
738.523369	0.080851
738.721024	0.080680
738.918660	0.080574
739.116279	0.080458
739.313879	0.080697
739.511461	0.080707
739.709024	0.080407
739.906570	0.080601
740.104097	0.080527
740.301606	0.080420
740.499097	0.080611
740.696569	0.080981
740.894024	0.080858
741.091460	0.080663
741.288878	0.080589
741.486277	0.080620
741.683659	0.080484
741.881022	0.080421
742.078367	0.080264
742.275694	0.080086
742.473002	0.079842
742.670293	0.079930
742.867565	0.079819
743.064819	0.079807
743.262054	0.080009
743.459272	0.080079
743.656471	0.080062
743.853652	0.080306
744.050815	0.080304
744.247959	0.080257
744.445085	0.080126
744.642194	0.080187
744.839283	0.080298
745.036355	0.080287
745.233408	0.080130
745.430444	0.080039
745.627461	0.079821
745.824459	0.079736
746.021440	0.079825
746.218402	0.079743
746.415346	0.079767
746.612272	0.079478
746.809180	0.079477
747.006069	0.079570
747.202940	0.079402
747.399793	0.079293
747.596628	0.079418
747.793444	0.079080
747.990243	0.079068
748.187023	0.079020
748.383784	0.079138
748.580528	0.078886
748.777253	0.078672
748.973960	0.078854
749.170649	0.078959
749.367320	0.078886
749.563973	0.079075
749.760607	0.079083
749.957223	0.079126
750.153821	0.078939
750.350400	0.078949
750.546962	0.078776
750.743505	0.078752
750.940030	0.078710
751.136536	0.078676
751.333025	0.078672
751.529495	0.078646
751.725947	0.078645
751.922381	0.078773
752.118796	0.078614
752.315194	0.078508
752.511573	0.078388
752.707934	0.078132
752.904276	0.078058
753.100601	0.078074
753.296907	0.077903
753.493195	0.077778
753.689465	0.077592
753.885716	0.077569
754.081949	0.077626
754.278164	0.077597
754.474361	0.077585
754.670540	0.077326
754.866700	0.076927
755.062843	0.076717
755.258967	0.076590
755.455072	0.076549
755.651160	0.076465
755.847229	0.076415
756.043280	0.076368
756.239313	0.076238
756.435328	0.076191
756.631324	0.076370
756.827302	0.076446
757.023262	0.076377
757.219204	0.076271
757.415127	0.076221
757.611033	0.076337
757.806920	0.076128
758.002788	0.076051
758.198639	0.076247
758.394471	0.075866
758.590286	0.075926
758.786081	0.075767
758.981859	0.075797
759.177619	0.075829
759.373360	0.075624
759.569083	0.075636
759.764788	0.075647
759.960474	0.075517
760.156143	0.075689
760.351793	0.075716
760.547425	0.075798
760.743038	0.075946
760.938634	0.075950
761.134211	0.076093
761.329770	0.075894
761.525311	0.075792
761.720833	0.075666
761.916338	0.075680
762.111824	0.075504
762.307292	0.075550
762.502741	0.075235
762.698173	0.075159
762.893586	0.074849
763.088981	0.074997
763.284358	0.075210
763.479716	0.075175
763.675057	0.075082
763.870379	0.075265
764.065683	0.075282
764.260968	0.075304
764.456236	0.075413
764.651485	0.075417
764.846716	0.075146
765.041929	0.074968
765.237123	0.075011
765.432299	0.074991
765.627457	0.074758
765.822597	0.074760
766.017719	0.074798
766.212822	0.074630
766.407907	0.074538
766.602974	0.074750
766.798023	0.074624
766.993054	0.074693
767.188066	0.074683
767.383060	0.074798
767.578036	0.074713
767.772993	0.074505
767.967933	0.074394
768.162854	0.074279
768.357757	0.074191
768.552642	0.074370
768.747508	0.074404
768.942356	0.074431
769.137186	0.074314
769.331998	0.074297
769.526792	0.074485
769.721567	0.074324
769.916324	0.074592
770.111063	0.074695
770.305784	0.074660
770.500486	0.074570
770.695171	0.074412
770.889837	0.074320
771.084484	0.074281
771.279114	0.074437
771.473725	0.074729
771.668318	0.074670
771.862893	0.074657
772.057450	0.074652
772.251988	0.074657
772.446509	0.074936
772.641011	0.075016
772.835494	0.075061
773.029960	0.074792
773.224407	0.074602
773.418836	0.074567
773.613247	0.074556
773.807640	0.074638
774.002014	0.074511
774.196370	0.074295
774.390708	0.074259
774.585028	0.074101
774.779330	0.074090
774.973613	0.073914
775.167878	0.073809
775.362125	0.073928
775.556354	0.073853
775.750564	0.073807
775.944756	0.073795
776.138930	0.073666
776.333086	0.073478
776.527223	0.073363
776.721343	0.073475
776.915444	0.073467
777.109526	0.073214
777.303591	0.073146
777.497637	0.073277
777.691666	0.073196
777.885676	0.073363
778.079667	0.073368
778.273641	0.073442
778.467596	0.073608
778.661533	0.073524
778.855452	0.073538
779.049352	0.073553
779.243235	0.073336
779.437099	0.073278
779.630945	0.073273
779.824773	0.073365
780.018582	0.073514
780.212373	0.073483
780.406146	0.073675
780.599901	0.073787
780.793638	0.073963
780.987356	0.074165
781.181056	0.074188
781.374738	0.074065
781.568402	0.074319
781.762047	0.074226
781.955674	0.074099
782.149283	0.073976
782.342874	0.073985
782.536447	0.073852
782.730001	0.073878
782.923537	0.074040
783.117055	0.074151
783.310555	0.074157
783.504036	0.074072
783.697499	0.074012
783.890944	0.074251
784.084371	0.074308
784.277780	0.074126
784.471170	0.074054
784.664542	0.073878
784.857896	0.073812
785.051231	0.073737
785.244549	0.073611
785.437848	0.073632
785.631129	0.073501
785.824392	0.073368
786.017636	0.073480
786.210863	0.073475
786.404071	0.073618
786.597260	0.073561
786.790432	0.073537
786.983585	0.073797
787.176721	0.074137
787.369838	0.074292
787.562936	0.074499
787.756017	0.074287
787.949079	0.074455
788.142123	0.074582
788.335149	0.074720
788.528156	0.074792
788.721146	0.074890
788.914117	0.074988
789.107070	0.074957
789.300005	0.074846
789.492921	0.075214
789.685819	0.075362
789.878699	0.075297
790.071561	0.075450
790.264405	0.075744
790.457230	0.076089
790.650037	0.076056
790.842826	0.076080
791.035597	0.076168
791.228349	0.076176
791.421084	0.075995
791.613800	0.076151
791.806497	0.076036
791.999177	0.075929
792.191838	0.075628
792.384481	0.076004
792.577106	0.076007
792.769713	0.076170
792.962301	0.076210
793.154871	0.076461
793.347423	0.076625
793.539957	0.076880
793.732473	0.076892
793.924970	0.077042
794.117449	0.076646
794.309910	0.076739
794.502353	0.076775
794.694777	0.076841
794.887183	0.076872
795.079571	0.076871
795.271941	0.077081
795.464293	0.077141
795.656626	0.077239
795.848941	0.077414
796.041238	0.077456
796.233516	0.077500
796.425777	0.077666
796.618019	0.077703
796.810243	0.077865
797.002449	0.077792
797.194636	0.078037
797.386805	0.078032
797.578956	0.078086
797.771089	0.078489
797.963204	0.078713
798.155300	0.078996
798.347378	0.079131
798.539438	0.079238
798.731480	0.079221
798.923503	0.079161
799.115509	0.079223
799.307496	0.079564
799.499465	0.079625
799.691415	0.079528
799.883348	0.079357
800.075262	0.079406
800.267158	0.079146
800.459035	0.079073
800.650895	0.079020
800.842736	0.079051
801.034559	0.078754
801.226364	0.078602
801.418150	0.078782
801.609919	0.078900
801.801669	0.079008
801.993401	0.079359
802.185114	0.079380
802.376810	0.079701
802.568487	0.079964
802.760146	0.080110
802.951787	0.080212
803.143409	0.080464
803.335014	0.080511
803.526600	0.080395
803.718168	0.080432
803.909717	0.080873
804.101249	0.080779
804.292762	0.080946
804.484257	0.081284
804.675734	0.081376
804.867192	0.081116
805.058632	0.081387
805.250054	0.081810
805.441458	0.081895
805.632844	0.081854
805.824211	0.082196
806.015561	0.082129
806.206891	0.082019
806.398204	0.081985
806.589499	0.082111
806.780775	0.082029
806.972033	0.081778
807.163273	0.081787
807.354495	0.081989
807.545698	0.082008
807.736883	0.082248
807.928050	0.082375
808.119199	0.082623
808.310329	0.083057
808.501441	0.082940
808.692535	0.083296
808.883611	0.083641
809.074669	0.083857
809.265708	0.083865
809.456729	0.084054
809.647732	0.084315
809.838717	0.084565
810.029683	0.084735
810.220632	0.085397
810.411562	0.085638
810.602474	0.085682
810.793367	0.085738
810.984242	0.086025
811.175100	0.085971
811.365938	0.086303
811.556759	0.086459
811.747562	0.086520
811.938346	0.086311
812.129112	0.086394
812.319860	0.086503
812.510589	0.086682
812.701300	0.086596
812.891994	0.086860
813.082668	0.086866
813.273325	0.087126
813.463964	0.087109
813.654584	0.087316
813.845186	0.087253
814.035769	0.087277
814.226335	0.087237
814.416882	0.087403
814.607411	0.087321
814.797922	0.087352
814.988415	0.087139
815.178889	0.087033
815.369345	0.087031
815.559783	0.087181
815.750203	0.087399
815.940605	0.087561
816.130988	0.087698
816.321353	0.087839
816.511700	0.087761
816.702028	0.087954
816.892339	0.088251
817.082631	0.088327
817.272905	0.088455
817.463161	0.088528
817.653398	0.088645
817.843617	0.088760
818.033819	0.088930
818.224001	0.089097
818.414166	0.089130
818.604312	0.089093
818.794440	0.089379
818.984550	0.089444
819.174642	0.089410
819.364716	0.089700
819.554771	0.089871
819.744808	0.090010
819.934827	0.089972
820.124827	0.090244
820.314810	0.090644
820.504774	0.090783
820.694720	0.090902
820.884647	0.091301
821.074557	0.091521
821.264448	0.091642
821.454321	0.091847
821.644176	0.092178
821.834012	0.092295
822.023831	0.092371
822.213631	0.092482
822.403413	0.092683
822.593176	0.092766
822.782922	0.092716
822.972649	0.092876
823.162358	0.093082
823.352049	0.093477
823.541721	0.093654
823.731376	0.093788
823.921012	0.094139
824.110629	0.094283
824.300229	0.094458
824.489811	0.094451
824.679374	0.094727
824.868919	0.094841
825.058445	0.094931
825.247954	0.095012
825.437444	0.095246
825.626916	0.095372
825.816370	0.095505
826.005806	0.095415
826.195223	0.095727
826.384622	0.095907
826.574003	0.095943
826.763366	0.095961
826.952711	0.095799
827.142037	0.095933
827.331345	0.095738
827.520635	0.095925
827.709906	0.096117
827.899160	0.096168
828.088395	0.096040
828.277612	0.096291
828.466810	0.096276
828.655991	0.096628
828.845153	0.096734
829.034297	0.097028
829.223423	0.097102
829.412531	0.097415
829.601620	0.097459
829.790691	0.097565
829.979744	0.097497
830.168779	0.097769
830.357795	0.097848
830.546793	0.097752
830.735773	0.097891
830.924735	0.098002
831.113679	0.098083
831.302604	0.098239
831.491511	0.098440
831.680400	0.098711
831.869271	0.098770
832.058123	0.099045
832.246957	0.099139
832.435773	0.099286
832.624571	0.099277
832.813351	0.099386
833.002112	0.099612
833.190855	0.099803
833.379580	0.099735
833.568287	0.099801
833.756975	0.100002
833.945645	0.100233
834.134297	0.100142
834.322931	0.100574
834.511547	0.100777
834.700144	0.101024
834.888723	0.101105
835.077284	0.101278
835.265826	0.101545
835.454351	0.101562
835.642857	0.101777
835.831345	0.102101
836.019815	0.102079
836.208266	0.102130
836.396699	0.102402
836.585114	0.102658
836.773511	0.102942
836.961890	0.103112
837.150250	0.103600
837.338592	0.103960
837.526916	0.104373
837.715222	0.104637
837.903510	0.105038
838.091779	0.105176
838.280030	0.105410
838.468263	0.105700
838.656477	0.105994
838.844674	0.105868
839.032852	0.106025
839.221012	0.106053
839.409153	0.106353
839.597277	0.106458
839.785382	0.106845
839.973469	0.107103
840.161538	0.107114
840.349589	0.107314
840.537621	0.107717
840.725635	0.107789
840.913631	0.107785
841.101609	0.107959
841.289568	0.108133
841.477509	0.107973
841.665432	0.108205
841.853337	0.108601
842.041224	0.108621
842.229092	0.108609
842.416942	0.109131
842.604774	0.109410
842.792588	0.109685
842.980383	0.109897
843.168160	0.110371
843.355919	0.110471
843.543660	0.110787
843.731382	0.111009
843.919087	0.111416
844.106773	0.111286
844.294441	0.111697
844.482090	0.111898
844.669722	0.112073
844.857335	0.112250
845.044930	0.112540
845.232507	0.112701
845.420065	0.113103
845.607605	0.113316
845.795127	0.113305
845.982631	0.113542
846.170117	0.113744
846.357584	0.114192
846.545033	0.114136
846.732464	0.114126
846.919877	0.114058
847.107272	0.114237
847.294648	0.114424
847.482006	0.115066
847.669346	0.115351
847.856667	0.115619
848.043971	0.115745
848.231256	0.116151
848.418523	0.116545
848.605771	0.116739
848.793002	0.117080
848.980214	0.117316
849.167408	0.117561
849.354584	0.117669
849.541742	0.117924
849.728881	0.117856
849.916002	0.117713
850.103105	0.117883
850.290190	0.118140
850.477256	0.117908
850.664304	0.117901
850.851334	0.117593
851.038346	0.117573
851.225340	0.117490
851.412315	0.117588
851.599272	0.117728
851.786211	0.117412
851.973132	0.117504
852.160034	0.117824
852.346918	0.117929
852.533784	0.118035
852.720632	0.118290
852.907462	0.118610
853.094273	0.118675
853.281066	0.118910
853.467841	0.119186
853.654598	0.119338
853.841336	0.119379
854.028056	0.119561
854.214758	0.119807
854.401442	0.119890
854.588107	0.119800
854.774755	0.120023
854.961384	0.120285
855.147995	0.120807
855.334587	0.121084
855.521162	0.121399
855.707718	0.121868
855.894256	0.122022
856.080775	0.122231
856.267277	0.122363
856.453760	0.122692
856.640225	0.122985
856.826672	0.122921
857.013101	0.122930
857.199511	0.123035
857.385903	0.122948
857.572277	0.123314
857.758633	0.123264
857.944970	0.123566
858.131290	0.123724
858.317591	0.123670
858.503873	0.123875
858.690138	0.124372
858.876384	0.124778
859.062612	0.124888
859.248822	0.124927
859.435014	0.125527
859.621188	0.125549
859.807343	0.126270
859.993480	0.126538
860.179599	0.126787
860.365699	0.126735
860.551781	0.127044
860.737846	0.127424
860.923891	0.127933
861.109919	0.128041
861.295929	0.128304
861.481920	0.127842
861.667893	0.127972
861.853848	0.128332
862.039784	0.128725
862.225702	0.128629
862.411603	0.128630
862.597484	0.128834
862.783348	0.128860
862.969193	0.129257
863.155021	0.129510
863.340830	0.129789
863.526620	0.129595
863.712393	0.129549
863.898147	0.129354
864.083883	0.129263
864.269601	0.129279
864.455301	0.129369
864.640982	0.129478
864.826645	0.129615
865.012290	0.129465
865.197917	0.129752
865.383526	0.129916
865.569116	0.130277
865.754688	0.130395
865.940242	0.130452
866.125777	0.130565
866.311295	0.130205
866.496794	0.130093
866.682275	0.130116
866.867737	0.130055
867.053182	0.130305
867.238608	0.130375
867.424016	0.130739
867.609406	0.130673
867.794778	0.130573
867.980131	0.130951
868.165466	0.131423
868.350783	0.131865
868.536082	0.132103
868.721362	0.131938
868.906625	0.131735
869.091869	0.131483
869.277094	0.131476
869.462302	0.131923
869.647491	0.132017
869.832662	0.132023
870.017815	0.131978
870.202950	0.132039
870.388066	0.132343
870.573165	0.132678
870.758245	0.133005
870.943306	0.133416
871.128350	0.133544
871.313375	0.133891
871.498382	0.133834
871.683371	0.134130
871.868342	0.134233
872.053294	0.134338
872.238229	0.134431
872.423144	0.134925
872.608042	0.134593
872.792922	0.134735
872.977783	0.134826
873.162626	0.135129
873.347451	0.135047
873.532258	0.135396
873.717046	0.135278
873.901816	0.135568
874.086568	0.135423
874.271302	0.135703
874.456017	0.135577
874.640715	0.135688
874.825394	0.135830
875.010055	0.136192
875.194697	0.135846
875.379322	0.135969
875.563928	0.135874
875.748516	0.135847
875.933085	0.135928
876.117637	0.136049
876.302170	0.135737
876.486685	0.135717
876.671182	0.135475
876.855661	0.135748
877.040121	0.136164
877.224563	0.136426
877.408987	0.136635
877.593393	0.137162
877.777780	0.137123
877.962150	0.137377
878.146501	0.137413
878.330833	0.137497
878.515148	0.137780
878.699444	0.137311
878.883722	0.137184
879.067982	0.137020
879.252224	0.136667
879.436447	0.136938
879.620653	0.136939
879.804840	0.136518
879.989008	0.136425
880.173159	0.135905
880.357291	0.136122
880.541405	0.136027
880.725501	0.136231
880.909579	0.136267
881.093638	0.136062
881.277680	0.135939
881.461703	0.136312
881.645707	0.136413
881.829694	0.136851
882.013662	0.136745
882.197612	0.137004
882.381544	0.137117
882.565458	0.137311
882.749353	0.137205
882.933230	0.137153
883.117089	0.137159
883.300930	0.137261
883.484753	0.136834
883.668557	0.136945
883.852343	0.137044
884.036111	0.137178
884.219861	0.137019
884.403592	0.137310
884.587305	0.137400
884.771000	0.137564
884.954677	0.137452
885.138335	0.137816
885.321976	0.137544
885.505598	0.137264
885.689201	0.136867
885.872787	0.137058
886.056354	0.137066
886.239904	0.137054
886.423434	0.136903
886.606947	0.136864
886.790442	0.136551
886.973918	0.136806
887.157376	0.136963
887.340816	0.136721
887.524237	0.136631
887.707641	0.136313
887.891026	0.136308
888.074393	0.136199
888.257741	0.136502
888.441072	0.136825
888.624384	0.136739
888.807678	0.136787
888.990954	0.137019
889.174211	0.136705
889.357451	0.136587
889.540672	0.136598
889.723875	0.136340
889.907059	0.135834
890.090226	0.135396
890.273374	0.135093
890.456504	0.134909
890.639616	0.134834
890.822709	0.135280
891.005785	0.135390
891.188842	0.135407
891.371881	0.135590
891.554901	0.135895
891.737904	0.136510
891.920888	0.136773
892.103854	0.136985
892.286802	0.136815
892.469731	0.136309
892.652643	0.136424
892.835536	0.136478
893.018410	0.136373
893.201267	0.136424
893.384106	0.135866
893.566926	0.135954
893.749728	0.135744
893.932511	0.136215
894.115277	0.135949
894.298024	0.135774
894.480753	0.135557
894.663464	0.135591
894.846157	0.135375
895.028831	0.135069
895.211487	0.134597
895.394125	0.133982
895.576745	0.133726
895.759346	0.134133
895.941930	0.134281
896.124495	0.134449
896.307041	0.134350
896.489570	0.134115
896.672080	0.134372
896.854573	0.134216
897.037046	0.134538
897.219502	0.134659
897.401940	0.134424
897.584359	0.134125
897.766760	0.133321
897.949143	0.133339
898.131507	0.132987
898.313854	0.132717
898.496182	0.132572
898.678492	0.132235
898.860783	0.131472
899.043057	0.131327
899.225312	0.130971
899.407549	0.131293
899.589768	0.130588
899.771968	0.130817
899.954151	0.130975
900.136315	0.130884
900.318461	0.130672
900.500588	0.130890
900.682698	0.130705
900.864789	0.130622
901.046862	0.130462
901.228917	0.130606
901.410953	0.130229
901.592971	0.129520
901.774972	0.129503
901.956953	0.128987
902.138917	0.128252
902.320862	0.127500
902.502790	0.126776
902.684699	0.126315
902.866589	0.125837
903.048462	0.125607
903.230316	0.125658
903.412152	0.125528
903.593970	0.125904
903.775770	0.126032
903.957551	0.126503
904.139314	0.126568
904.321059	0.126428
904.502786	0.126758
904.684494	0.126413
904.866185	0.125772
905.047857	0.125544
905.229510	0.125090
905.411146	0.125257
905.592763	0.125204
905.774363	0.125411
905.955943	0.125825
906.137506	0.125127
906.319051	0.125245
906.500577	0.125615
906.682085	0.125123
906.863575	0.124483
907.045046	0.124024
907.226500	0.123680
907.407935	0.123122
907.589352	0.122348
907.770750	0.122084
907.952131	0.121884
908.133493	0.121630
908.314837	0.121842
908.496163	0.121970
908.677470	0.121535
908.858760	0.121101
909.040031	0.120991
909.221284	0.120065
909.402518	0.120433
909.583735	0.120271
909.764933	0.119957
909.946113	0.119435
910.127275	0.119185
910.308418	0.119163
910.489544	0.118854
910.670651	0.118304
910.851740	0.118420
911.032810	0.117580
911.213863	0.117101
911.394897	0.116801
911.575913	0.116544
911.756911	0.116335
911.937890	0.115527
912.118851	0.115299
912.299794	0.115412
912.480719	0.115421
912.661626	0.115410
912.842514	0.115100
913.023384	0.114753
913.204236	0.114712
913.385070	0.114365
913.565886	0.114185
913.746683	0.113753
913.927462	0.113203
914.108223	0.112907
914.288965	0.112705
914.469690	0.112560
914.650396	0.111937
914.831084	0.111711
915.011754	0.111707
915.192405	0.111481
915.373038	0.110963
915.553653	0.110622
915.734250	0.110340
915.914829	0.109779
916.095389	0.109538
916.275931	0.109495
916.456455	0.108534
916.636961	0.107889
916.817448	0.107293
916.997917	0.106762
917.178368	0.106171
917.358801	0.105472
917.539216	0.104618
917.719612	0.103696
917.899990	0.103142
918.080350	0.102926
918.260692	0.102676
918.441015	0.102865
918.621320	0.103196
918.801607	0.103000
918.981876	0.102798
919.162127	0.102863
919.342359	0.103182
919.522573	0.103411
919.702769	0.103375
919.882947	0.103124
920.063106	0.103160
920.243247	0.102520
920.423370	0.101939
920.603475	0.101333
920.783562	0.100975
920.963630	0.100209
921.143680	0.099682
921.323712	0.098910
921.503725	0.098454
921.683721	0.097656
921.863698	0.097427
922.043657	0.098118
922.223598	0.098018
922.403520	0.097768
922.583424	0.097199
922.763311	0.096374
922.943178	0.095568
923.123028	0.095491
923.302859	0.095307
923.482673	0.095157
923.662467	0.094198
923.842244	0.093879
924.022003	0.093469
924.201743	0.093317
924.381465	0.092585
924.561169	0.092747
924.740854	0.091688
924.920522	0.090517
925.100171	0.089413
925.279802	0.088727
925.459414	0.087925
925.639009	0.086988
925.818585	0.086102
925.998143	0.086379
926.177683	0.085708
926.357205	0.085821
926.536708	0.085079
926.716193	0.084690
926.895660	0.084128
927.075109	0.083632
927.254539	0.083180
927.433951	0.082480
927.613345	0.081351
927.792721	0.081037
927.972079	0.079512
928.151418	0.079723
928.330739	0.079090
928.510042	0.078511
928.689327	0.078082
928.868593	0.077584
929.047841	0.077178
929.227071	0.076482
929.406283	0.076034
929.585476	0.075807
929.764652	0.074624
929.943809	0.074407
930.122948	0.073816
930.302068	0.073707
930.481171	0.073205
930.660255	0.073370
930.839321	0.073241
931.018369	0.072502
931.197398	0.072278
931.376409	0.071772
931.555402	0.070530
931.734377	0.070579
931.913334	0.069270
932.092272	0.068904
932.271192	0.067744
932.450094	0.066705
932.628978	0.066326
932.807844	0.065491
932.986691	0.065065
933.165520	0.064918
933.344331	0.063773
933.523123	0.063518
933.701898	0.063349
933.880654	0.062433
934.059392	0.062227
934.238111	0.061269
934.416813	0.060538
934.595496	0.060139
934.774161	0.059268
934.952808	0.059152
935.131437	0.058756
935.310047	0.057175
935.488639	0.057033
935.667213	0.056743
935.845769	0.056060
936.024306	0.056143
936.202825	0.055189
936.381326	0.054596
936.559809	0.053744
936.738274	0.052716
936.916720	0.053101
937.095148	0.052492
937.273558	0.052016
937.451950	0.051732
937.630323	0.050893
937.808678	0.050646
937.987015	0.050162
938.165334	0.049698
938.343635	0.049573
938.521917	0.048826
938.700181	0.048405
938.878427	0.047776
939.056655	0.047205
939.234864	0.046733
939.413055	0.045661
939.591228	0.045461
939.769383	0.044621
939.947519	0.043807
940.125638	0.043443
940.303738	0.042840
940.481820	0.041613
940.659883	0.041110
940.837929	0.040412
941.015956	0.040239
941.193965	0.039912
941.371955	0.038158
941.549928	0.037860
941.727882	0.036605
941.905818	0.035282
942.083736	0.035284
942.261636	0.034308
942.439517	0.033738
942.617380	0.033012
942.795225	0.030957
942.973052	0.031779
943.150860	0.030338
943.328651	0.029959
943.506423	0.030717
943.684176	0.029698
943.861912	0.029213
944.039629	0.028749
944.217328	0.028793
944.395009	0.030138
944.572672	0.029535
944.750317	0.030123
944.927943	0.029799
945.105551	0.029291
945.283141	0.029271
945.460712	0.028580
945.638265	0.027150
945.815801	0.026182
945.993317	0.024436
946.170816	0.023229
946.348297	0.021799
946.525759	0.021590
946.703203	0.020904
946.880629	0.019803
947.058036	0.019517
947.235425	0.020108
947.412797	0.019612
947.590149	0.018806
947.767484	0.018258
947.944800	0.016417
948.122099	0.014589
948.299379	0.013186
948.476640	0.012852
948.653884	0.013138
948.831109	0.013049
949.008316	0.012685
949.185505	0.013073
949.362676	0.012206
949.539828	0.014292
949.716962	0.013277
949.894078	0.012418
950.071176	0.012265
950.248256	0.009221
950.425317	0.007698
950.602360	0.006674
950.779385	0.005919
950.956391	0.006489
951.133380	0.005487
951.310350	0.005851
951.487302	0.006397
951.664235	0.005641
951.841151	0.007369
952.018048	0.007382
952.194927	0.007329
952.371788	0.007262
952.548631	0.006930
952.725455	0.005351
952.902261	0.006451
953.079049	0.005172
953.255819	0.004449
953.432570	0.004896
953.609303	0.004288
953.786018	0.004489
953.962715	0.005288
954.139394	0.006439
954.316054	0.005382
954.492696	0.003880
954.669320	0.004329
954.845926	0.004926
955.022513	0.003068
955.199083	0.002684
955.375634	0.001926
955.552166	0.000433
955.728681	-0.001137
955.905177	0.001904
956.081655	0.001486
956.258115	0.003499
956.434557	0.002131
956.610980	0.001700
956.787385	0.002146
956.963772	0.001943
957.140141	0.001813
957.316492	0.001203
957.492824	-0.001241
957.669138	0.000071
957.845434	-0.001230
958.021712	-0.000914
958.197971	0.000903
958.374212	0.001369
958.550435	0.002110
958.726640	0.000427
958.902826	0.003039
959.078995	0.002889
959.255145	0.000469
959.431277	-0.000544
959.607390	-0.000224
959.783486	-0.000228
959.959563	-0.001591
960.135622	-0.002567
960.311662	-0.000922
960.487685	-0.003720
960.663689	-0.002775
960.839675	-0.000545
961.015643	-0.000935
961.191593	-0.002434
961.367524	-0.002409
961.543437	0.000212
961.719332	0.000097
961.895209	0.000954
962.071067	0.001716
962.246907	0.003283
962.422730	0.003001
962.598533	0.001782
962.774319	0.002646
962.950086	0.002688
963.125835	0.002496
963.301566	0.003250
963.477279	0.003457
963.652973	0.004892
963.828650	0.004797
964.004308	0.004104
964.179947	0.005543
964.355569	0.004826
964.531172	0.004661
964.706757	0.005128
964.882324	0.005088
965.057873	0.004308
965.233403	0.002764
965.408916	0.000938
965.584410	0.000719
965.759885	0.003662
965.935343	0.006338
966.110782	0.007306
966.286203	0.006332
966.461606	0.006339
966.636991	0.006162
966.812357	0.006623
966.987705	0.007774
967.163035	0.008715
967.338347	0.007285
967.513641	0.006266
967.688916	0.004465
967.864173	0.002861
968.039412	0.002366
968.214632	0.004646
968.389835	0.005815
968.565019	0.004923
968.740185	0.004746
968.915333	0.004266
969.090462	0.004611
969.265573	0.005020
969.440667	0.005885
969.615741	0.007326
969.790798	0.006193
969.965836	0.005854
970.140856	0.005628
970.315858	0.005834
970.490842	0.004484
970.665808	0.005654
970.840755	0.006279
971.015684	0.006839
971.190595	0.006033
971.365487	0.006920
971.540362	0.003624
971.715218	0.005388
971.890056	0.005403
972.064875	0.006278
972.239677	0.004670
972.414460	0.003525
972.589225	0.003793
972.763972	0.004599
972.938700	0.004382
973.113411	0.006979
973.288103	0.005034
973.462777	0.004393
973.637432	0.006046
973.812070	0.005412
973.986689	0.005596
974.161290	0.006546
974.335873	0.008477
974.510437	0.007435
974.684984	0.008571
974.859512	0.010251
975.034022	0.009752
975.208513	0.009534
975.382987	0.010182
975.557442	0.009826
975.731879	0.008802
975.906298	0.008666
976.080698	0.008550
976.255080	0.007346
976.429445	0.006592
976.603790	0.009380
976.778118	0.009181
976.952427	0.009790
977.126719	0.010078
977.300992	0.009752
977.475246	0.007804
977.649483	0.007062
977.823701	0.006915
977.997901	0.008228
978.172083	0.004995
978.346247	0.005225
978.520392	0.005743
978.694519	0.006907
978.868628	0.007205
979.042719	0.007411
979.216791	0.008026
979.390845	0.008034
979.564882	0.006757
979.738899	0.008053
979.912899	0.007242
980.086880	0.005941
980.260843	0.005447
980.434788	0.004761
980.608715	0.004013
980.782623	0.005374
980.956514	0.005368
981.130386	0.005253
981.304240	0.005762
981.478075	0.005894
981.651892	0.006186
981.825692	0.005975
981.999472	0.006685
982.173235	0.006471
982.346980	0.005182
982.520706	0.005206
982.694414	0.007504
982.868104	0.005926
983.041775	0.005923
983.215428	0.005731
983.389064	0.005426
983.562680	0.006424
983.736279	0.006355
983.909860	0.007081
984.083422	0.007057
984.256966	0.005582
984.430491	0.009070
984.603999	0.009199
984.777488	0.009646
984.950959	0.009432
985.124412	0.006111
985.297847	0.005540
985.471263	0.006115
985.644661	0.007155
985.818041	0.007398
985.991403	0.005265
986.164747	0.004688
986.338072	0.004142
986.511379	0.003893
986.684668	0.003834
986.857938	0.005211
987.031191	0.004061
987.204425	0.002577
987.377641	0.001759
987.550839	0.001956
987.724018	0.001834
987.897179	0.001772
988.070322	0.002359
988.243447	0.004498
988.416554	0.005891
988.589642	0.005298
988.762712	0.006984
988.935764	0.008478
989.108798	0.008837
989.281813	0.008189
989.454811	0.010614
989.627790	0.012713
989.800751	0.011054
989.973693	0.008950
990.146617	0.008840
990.319524	0.006431
990.492412	0.006718
990.665281	0.006230
990.838133	0.009383
991.010966	0.006979
991.183781	0.006237
991.356578	0.006533
991.529356	0.008312
991.702117	0.009104
991.874859	0.009470
992.047583	0.010085
992.220288	0.009722
992.392976	0.008432
992.565645	0.007645
992.738296	0.007131
992.910929	0.008677
993.083543	0.007238
993.256139	0.007218
993.428718	0.008534
993.601277	0.005900
993.773819	0.007150
993.946342	0.006861
994.118848	0.008854
994.291335	0.009156
994.463803	0.009945
994.636254	0.009585
994.808686	0.010238
994.981100	0.009448
995.153496	0.010120
995.325874	0.008553
995.498233	0.008584
995.670574	0.008652
995.842897	0.008523
996.015202	0.006335
996.187488	0.006561
996.359757	0.005790
996.532007	0.005737
996.704239	0.004072
996.876452	0.004802
997.048648	0.003970
997.220825	0.001701
997.392984	0.001397
997.565124	0.001657
997.737247	0.002797
997.909351	0.002944
998.081437	0.002749
998.253505	0.004951
998.425554	0.004818
998.597586	0.005093
998.769599	0.006543
998.941594	0.006580
999.113571	0.006493
999.285529	0.004875
999.457469	0.004118
999.629391	0.005138
999.801295	0.005399
999.973181	0.004933
1000.145048	0.003329
1000.316897	0.003853
1000.488728	0.004435
1000.660541	0.004289
1000.832335	0.004972
1001.004111	0.005102
1001.175869	0.004886
1001.347609	0.003819
1001.519331	0.004166
1001.691034	0.005974
1001.862719	0.006191
1002.034386	0.004555
1002.206035	0.004968
1002.377665	0.005161
1002.549277	0.006151
1002.720871	0.005857
1002.892447	0.005943
1003.064004	0.006520
1003.235544	0.006187
1003.407065	0.005513
1003.578568	0.006964
1003.750052	0.007367
1003.921519	0.006745
1004.092967	0.004850
1004.264397	0.004340
1004.435809	0.004811
1004.607202	0.003916
1004.778577	0.004725
1004.949934	0.005759
1005.121273	0.006933
1005.292594	0.007012
1005.463896	0.008447
1005.635180	0.009111
1005.806446	0.009203
1005.977694	0.008686
1006.148923	0.008723
1006.320135	0.007954
1006.491328	0.006197
1006.662503	0.004516
1006.833659	0.002996
1007.004798	0.000093
1007.175918	-0.000897
1007.347020	-0.001914
1007.518103	-0.001633
1007.689169	-0.001340
1007.860216	-0.001556
1008.031245	-0.001576
1008.202256	-0.001927
1008.373248	-0.000151
1008.544223	0.002154
1008.715179	0.003058
1008.886117	0.004807
1009.057036	0.004750
1009.227938	0.006717
1009.398821	0.006340
1009.569686	0.005611
1009.740533	0.006798
1009.911361	0.004672
1010.082172	0.004159
1010.252964	0.003700
1010.423738	0.003292
1010.594493	0.003078
1010.765231	0.001422
1010.935950	0.002924
1011.106651	0.004193
1011.277334	0.002997
1011.447998	0.004032
1011.618645	0.004062
1011.789273	0.005616
1011.959882	0.007393
1012.130474	0.006074
1012.301048	0.006158
1012.471603	0.004355
1012.642140	0.004713
1012.812658	0.005493
1012.983159	0.005399
1013.153641	0.003114
1013.324105	0.002367
1013.494551	0.000892
1013.664979	0.000608
1013.835388	-0.000425
1014.005779	-0.002155
1014.176152	-0.003986
1014.346507	-0.004101
1014.516843	-0.002949
1014.687162	-0.001815
1014.857462	-0.000991
1015.027744	-0.001169
1015.198007	0.001624
1015.368252	0.003592
1015.538480	0.005060
1015.708689	0.006234
1015.878879	0.006635
1016.049052	0.005199
1016.219206	0.008058
1016.389342	0.005594
1016.559460	0.005890
1016.729559	0.004929
1016.899641	0.003158
1017.069704	0.003879
1017.239749	0.003605
1017.409775	0.002652
1017.579784	0.003616
1017.749774	0.000988
1017.919746	0.001858
1018.089700	0.001328
1018.259635	0.000046
1018.429553	-0.000394
1018.599452	-0.001706
1018.769333	-0.000746
1018.939195	-0.001559
1019.109040	-0.002770
1019.278866	-0.001307
1019.448674	-0.000010
1019.618464	-0.000324
1019.788235	-0.000554
1019.957989	0.000357
1020.127724	0.001390
1020.297441	0.001563
1020.467139	0.003958
1020.636820	0.006248
1020.806482	0.005161
1020.976126	0.003958
1021.145752	0.005646
1021.315359	0.007044
1021.484948	0.007633
1021.654519	0.007824
1021.824072	0.006896
1021.993607	0.005695
1022.163123	0.005231
1022.332621	0.004503
1022.502101	0.005963
1022.671563	0.005666
1022.841007	0.005317
1023.010432	0.004487
1023.179839	0.004468
1023.349228	0.004002
1023.518598	0.004468
1023.687951	0.004384
1023.857285	0.004094
1024.026601	0.004075
1024.195899	0.001691
1024.365178	0.002804
1024.534439	0.003298
1024.703682	0.002784
1024.872907	0.002447
1025.042114	0.001211
1025.211302	-0.001034
1025.380472	0.000925
1025.549624	0.001050
1025.718758	0.002781
1025.887873	0.002406
1026.056970	0.001835
1026.226049	0.001900
1026.395110	0.004361
1026.564153	0.005234
1026.733177	0.007278
1026.902183	0.006610
1027.071171	0.003575
1027.240141	0.004235
1027.409092	0.002609
1027.578026	0.004192
1027.746940	0.004632
1027.915837	0.002134
1028.084716	0.000985
1028.253576	-0.000197
1028.422418	0.000111
1028.591242	0.002074
1028.760048	0.001601
1028.928835	0.002885
1029.097604	0.000773
1029.266355	0.000650
1029.435088	0.000782
1029.603803	0.000505
1029.772499	0.002031
1029.941177	0.001818
1030.109837	0.000288
1030.278478	-0.000160
1030.447102	-0.001270
1030.615707	-0.000459
1030.784294	0.001150
1030.952863	0.003242
1031.121413	0.004638
1031.289945	0.004972
1031.458460	0.003960
1031.626955	0.006626
1031.795433	0.006024
1031.963892	0.006778
1032.132334	0.005798
1032.300756	0.003862
1032.469161	0.002720
1032.637548	0.002406
1032.805916	0.000419
1032.974266	-0.000045
1033.142598	-0.000160
1033.310911	0.001394
1033.479207	0.001170
1033.647484	0.001125
1033.815743	0.001937
1033.983983	0.002303
1034.152206	0.002818
1034.320410	0.004303
1034.488596	0.006339
1034.656764	0.005684
1034.824914	0.005326
1034.993045	0.005722
1035.161158	0.006326
1035.329253	0.005903
1035.497330	0.005763
1035.665388	0.003514
1035.833428	0.003567
1036.001450	0.000636
1036.169454	-0.000603
1036.337440	-0.001503
1036.505407	-0.001735
1036.673356	-0.000877
1036.841287	-0.001711
1037.009200	-0.002359
1037.177094	0.000382
1037.344970	0.000055
1037.512828	0.001047
1037.680668	0.002918
1037.848489	0.001948
1038.016293	0.002552
1038.184078	0.002601
1038.351845	0.003146
1038.519593	0.000789
1038.687324	-0.000207
1038.855036	-0.000353
1039.022730	0.001581
1039.190406	-0.000307
1039.358063	0.000267
1039.525702	-0.001000
1039.693323	-0.001890
1039.860926	-0.000317
1040.028511	0.003275
1040.196077	0.002132
1040.363625	0.001443
1040.531155	0.001320
1040.698667	0.003828
1040.866161	0.004792
1041.033636	0.005119
1041.201093	0.006116
1041.368532	0.003622
1041.535952	0.002599
1041.703355	0.004510
1041.870739	0.005873
1042.038105	0.005042
1042.205452	0.003027
1042.372782	0.001031
1042.540093	0.001916
1042.707386	0.000770
1042.874661	0.000698
1043.041918	0.001072
1043.209156	-0.001005
1043.376376	-0.003247
1043.543578	-0.001879
1043.710762	-0.000109
1043.877927	0.002284
1044.045074	0.002935
1044.212203	0.002483
1044.379314	0.004885
1044.546407	0.005830
1044.713481	0.006535
1044.880537	0.009034
1045.047575	0.006888
1045.214595	0.006307
1045.381596	0.004928
1045.548579	0.002693
1045.715544	0.003409
1045.882491	0.002838
1046.049420	0.001227
1046.216330	0.001576
1046.383222	0.000713
1046.550096	0.004281
1046.716951	0.004029
1046.883789	0.004252
1047.050608	0.005808
1047.217409	0.005525
1047.384192	0.004317
1047.550956	0.004934
1047.717703	0.006134
1047.884431	0.007008
1048.051140	0.005451
1048.217832	0.004720
1048.384505	0.005545
1048.551161	0.007186
1048.717798	0.008787
1048.884416	0.008967
1049.051017	0.009134
1049.217599	0.008226
1049.384163	0.007781
1049.550709	0.006457
1049.717237	0.006447
1049.883746	0.005342
1050.050237	0.003585
1050.216710	0.002168
1050.383165	0.004487
1050.549601	0.002937
1050.716019	0.002717
1050.882420	0.001508
1051.048801	0.002404
1051.215165	0.003417
1051.381510	0.004514
1051.547837	0.004504
1051.714146	0.005535
1051.880437	0.004965
1052.046709	0.007822
1052.212964	0.005747
1052.379200	0.006069
1052.545417	0.005261
1052.711617	0.005217
1052.877798	0.004710
1053.043961	0.005350
1053.210106	0.004405
1053.376233	0.003505
1053.542341	0.001971
1053.708432	0.004014
1053.874504	0.003225
1054.040557	0.003972
1054.206593	0.003717
1054.372610	0.004040
1054.538609	0.005167
1054.704590	0.005500
1054.870553	0.005442
1055.036497	0.005031
1055.202424	0.003961
1055.368331	0.006436
1055.534221	0.006530
1055.700093	0.007335
1055.865946	0.006686
1056.031781	0.004461
1056.197598	0.003996
1056.363397	0.004252
1056.529177	0.003788
1056.694939	0.006130
1056.860683	0.005559
1057.026409	0.006124
1057.192116	0.004868
1057.357806	0.004316
1057.523477	0.005196
1057.689130	0.003930
1057.854764	0.002935
1058.020381	0.004099
1058.185979	0.001017
1058.351559	-0.000088
1058.517120	-0.000102
1058.682664	-0.001391
1058.848189	-0.000791
1059.013696	-0.001809
1059.179185	0.000317
1059.344656	-0.000620
1059.510108	-0.000896
1059.675542	0.000659
1059.840958	0.001496
1060.006356	0.001235
1060.171735	0.003187
1060.337096	0.003783
1060.502439	0.004272
1060.667764	0.003925
1060.833071	0.005976
1060.998359	0.005987
1061.163629	0.006403
1061.328881	0.004225
1061.494115	0.002991
1061.659330	0.001324
1061.824527	0.000214
1061.989706	0.000148
1062.154867	0.000068
1062.320010	-0.000520
1062.485134	-0.002237
1062.650240	-0.003069
1062.815328	-0.002362
1062.980398	-0.000417
1063.145449	0.001409
1063.310482	0.001940
1063.475497	0.000633
1063.640494	0.000264
1063.805473	-0.000066
1063.970433	0.000982
1064.135375	0.001373
1064.300299	0.001608
1064.465204	-0.000159
1064.630092	-0.002077
1064.794961	-0.001230
1064.959812	-0.000841
1065.124645	0.000260
1065.289459	0.000785
1065.454256	0.001056
1065.619034	0.001065
1065.783793	0.001077
1065.948535	0.002681
1066.113258	0.001481
1066.277964	0.000469
1066.442651	0.000734
1066.607319	0.001567
1066.771970	0.001091
1066.936602	0.000910
1067.101216	0.002075
1067.265812	0.002815
1067.430389	0.000485
1067.594949	0.002473
1067.759490	0.005683
1067.924013	0.007715
1068.088518	0.006735
1068.253004	0.008377
1068.417472	0.009964
1068.581922	0.010182
1068.746354	0.008270
1068.910768	0.008032
1069.075163	0.006596
1069.239540	0.005274
1069.403899	0.004358
1069.568240	0.005831
1069.732562	0.005324
1069.896866	0.004852
1070.061152	0.004036
1070.225420	0.006297
1070.389670	0.007953
1070.553901	0.011329
1070.718114	0.007564
1070.882309	0.007429
1071.046486	0.005969
1071.210644	0.005531
1071.374784	0.005367
1071.538906	0.004544
1071.703010	0.004134
1071.867096	0.002877
1072.031163	0.002113
1072.195212	0.004312
1072.359243	0.004165
1072.523256	0.003734
1072.687250	0.004574
1072.851226	0.003227
1073.015184	0.003433
1073.179124	0.003366
1073.343045	0.003633
1073.506949	0.004514
1073.670834	0.004497
1073.834701	0.005704
1073.998549	0.004410
1074.162380	0.003246
1074.326192	0.004534
1074.489986	0.003226
1074.653761	0.003557
1074.817519	0.003607
1074.981258	0.002785
1075.144979	0.002620
1075.308682	0.001445
1075.472367	0.004681
1075.636033	0.004729
1075.799681	0.005143
1075.963311	0.007514
1076.126923	0.006091
1076.290516	0.005680
1076.454092	0.005770
1076.617649	0.004801
1076.781187	0.005547
1076.944708	0.003119
1077.108210	0.003951
1077.271695	0.002895
1077.435160	0.001210
1077.598608	0.003089
1077.762038	0.004383
1077.925449	0.004941
1078.088842	0.008455
1078.252217	0.006597
1078.415573	0.007202
1078.578912	0.005348
1078.742232	0.005595
1078.905534	0.007408
1079.068817	0.005868
1079.232083	0.007060
1079.395330	0.004956
1079.558559	0.004934
1079.721770	0.005485
1079.884962	0.006182
1080.048136	0.005741
1080.211293	0.003195
1080.374430	0.004441
1080.537550	0.005160
1080.700651	0.001070
1080.863735	0.001608
1081.026800	-0.000305
1081.189846	-0.001282
1081.352875	-0.001971
1081.515885	-0.000847
1081.678877	0.001139
1081.841851	-0.001347
1082.004807	-0.001394
1082.167744	0.002376
1082.330663	0.003160
1082.493564	0.002011
1082.656447	0.003947
1082.819312	0.005333
1082.982158	0.005683
1083.144986	0.005338
1083.307796	0.007983
1083.470587	0.009026
1083.633361	0.008877
1083.796116	0.007088
1083.958853	0.007671
1084.121571	0.006150
1084.284272	0.004000
1084.446954	0.005564
1084.609618	0.006382
1084.772264	0.002137
1084.934892	0.001288
1085.097501	0.001509
1085.260092	0.001636
1085.422665	0.002207
1085.585220	0.005973
1085.747756	0.005517
1085.910274	0.003950
1086.072774	0.004057
1086.235256	0.006810
1086.397720	0.005527
1086.560165	0.005370
1086.722592	0.007890
1086.885001	0.007588
1087.047392	0.007517
1087.209764	0.008203
1087.372119	0.011265
1087.534455	0.011381
1087.696772	0.012033
1087.859072	0.012958
1088.021353	0.012610
1088.183616	0.011205
1088.345861	0.012144
1088.508088	0.008115
1088.670296	0.010559
1088.832486	0.006700
1088.994658	0.006721
1089.156812	0.005179
1089.318948	0.004490
1089.481065	0.006114
1089.643164	0.005887
1089.805245	0.006551
1089.967308	0.008745
1090.129352	0.006958
1090.291378	0.009341
1090.453386	0.009472
1090.615376	0.009654
1090.777347	0.008238
1090.939301	0.005203
1091.101236	0.006670
1091.263153	0.006819
1091.425051	0.005984
1091.586932	0.006173
1091.748794	0.004847
1091.910638	0.008273
1092.072463	0.009456
1092.234271	0.012678
1092.396060	0.013432
1092.557831	0.011532
1092.719584	0.009469
1092.881319	0.010149
1093.043035	0.010266
1093.204733	0.009213
1093.366413	0.006215
1093.528075	0.005699
1093.689718	0.005181
1093.851343	0.005513
1094.012950	0.006916
1094.174539	0.008473
1094.336110	0.009283
1094.497662	0.009993
1094.659196	0.010489
1094.820712	0.009704
1094.982210	0.010622
1095.143689	0.011066
1095.305151	0.011090
1095.466594	0.009981
1095.628018	0.012069
1095.789425	0.010493
1095.950813	0.011219
1096.112183	0.013298
1096.273535	0.015638
1096.434869	0.013498
1096.596184	0.009932
1096.757482	0.009920
1096.918761	0.009841
1097.080021	0.008049
1097.241264	0.007527
1097.402488	0.006985
1097.563694	0.004545
1097.724882	0.002004
1097.886052	0.002965
1098.047203	0.006831
1098.208336	0.006741
1098.369451	0.009845
1098.530548	0.008983
1098.691627	0.011296
1098.852687	0.009586
1099.013729	0.010248
1099.174753	0.009721
1099.335758	0.011652
1099.496746	0.008945
1099.657715	0.008953
1099.818666	0.008670
1099.979599	0.011399
1100.140513	0.010354
1100.301409	0.009639
1100.462287	0.011414
1100.623147	0.012951
1100.783989	0.009070
1100.944812	0.013270
1101.105617	0.012818
1101.266404	0.008102
1101.427173	0.005383
1101.587923	0.003976
1101.748656	0.004373
1101.909370	0.002151
1102.070066	0.000649
1102.230743	0.003493
1102.391403	0.000262
1102.552044	-0.000083
1102.712667	0.003111
1102.873271	0.005329
1103.033858	0.005074
1103.194426	0.003290
1103.354976	0.005566
1103.515508	0.007587
1103.676021	0.007846
1103.836517	0.007492
1103.996994	0.007550
1104.157453	0.005488
1104.317893	0.004063
1104.478316	0.006974
1104.638720	0.011364
1104.799106	0.010017
1104.959474	0.013294
1105.119823	0.014756
1105.280155	0.015694
1105.440468	0.014522
1105.600763	0.014209
1105.761039	0.012979
1105.921298	0.007445
1106.081538	0.004067
1106.241760	0.001486
1106.401964	-0.005399
1106.562149	-0.006447
1106.722316	-0.005425
1106.882465	-0.001446
1107.042596	0.001995
1107.202709	0.004602
1107.362803	0.010779
1107.522879	0.013902
1107.682937	0.015153
1107.842977	0.020177
1108.002999	0.018581
1108.163002	0.018519
1108.322987	0.019793
1108.482954	0.018836
1108.642902	0.016527
1108.802833	0.011976
1108.962745	0.015740
1109.122639	0.018340
1109.282515	0.017860
1109.442372	0.018697
1109.602211	0.016819
1109.762032	0.012996
1109.921835	0.013367
1110.081620	0.010294
1110.241386	0.015010
1110.401134	0.012846
1110.560864	0.013758
1110.720576	0.015590
1110.880269	0.014786
1111.039945	0.014813
1111.199602	0.014041
1111.359240	0.014169
1111.518861	0.017719
1111.678463	0.016483
1111.838047	0.014710
1111.997613	0.007327
1112.157161	0.004506
1112.316690	0.002617
1112.476202	0.005834
1112.635695	0.002891
1112.795169	-0.000962
1112.954626	-0.001481
1113.114064	-0.001949
1113.273484	-0.002268
1113.432886	0.004807
1113.592270	0.004315
1113.751635	0.005148
1113.910983	-0.000134
1114.070312	0.005619
1114.229622	0.008596
1114.388915	0.010591
1114.548189	0.012906
1114.707445	0.013015
1114.866683	0.011273
1115.025903	0.011131
1115.185104	0.010808
1115.344287	0.013811
1115.503452	0.013560
1115.662599	0.013090
1115.821727	0.009857
1115.980838	0.008510
1116.139930	0.011131
1116.299004	0.011412
1116.458059	0.010973
1116.617097	0.012322
1116.776116	0.011512
1116.935117	0.007166
1117.094099	0.007363
1117.253064	0.006725
1117.412010	0.007413
1117.570938	0.003637
1117.729848	0.002928
1117.888740	0.001404
1118.047613	0.001083
1118.206468	0.006943
1118.365305	0.009446
1118.524124	0.009425
1118.682924	0.008297
1118.841707	0.006504
1119.000471	0.005724
1119.159216	0.006001
1119.317944	0.003389
1119.476653	0.003595
1119.635344	-0.000419
1119.794017	-0.000321
1119.952672	0.001088
1120.111308	0.003229
1120.269927	0.002703
1120.428527	0.004907
1120.587108	0.005480
1120.745672	0.008201
1120.904217	0.009601
1121.062744	0.011424
1121.221253	0.011378
1121.379744	0.009604
1121.538216	0.010114
1121.696671	0.012243
1121.855107	0.009353
1122.013524	0.011579
1122.171924	0.011528
1122.330305	0.011030
1122.488668	0.006760
1122.647013	0.005569
1122.805340	0.000682
1122.963648	0.002700
1123.121938	0.002973
1123.280210	0.003486
1123.438464	0.004185
1123.596700	0.009251
1123.754917	0.006281
1123.913116	0.009276
1124.071297	0.010374
1124.229459	0.013423
1124.387604	0.010936
1124.545730	0.010148
1124.703838	0.011987
1124.861928	0.007348
1125.019999	0.001489
1125.178052	0.001756
1125.336088	0.002065
1125.494104	0.000124
1125.652103	0.004592
1125.810083	0.006858
1125.968045	0.004763
1126.125989	0.004794
1126.283915	0.005108
1126.441823	0.016669
1126.599712	0.019094
1126.757583	0.018898
1126.915436	0.023903
1127.073270	0.020486
1127.231087	0.017953
1127.388885	0.016204
1127.546665	0.013239
1127.704426	0.014802
1127.862170	0.011731
1128.019895	0.009107
1128.177602	0.011089
1128.335291	0.012377
1128.492961	0.011738
1128.650614	0.015724
1128.808248	0.021556
1128.965864	0.026156
1129.123461	0.028940
1129.281041	0.027375
1129.438602	0.028855
1129.596145	0.026742
1129.753670	0.018134
1129.911176	0.020378
1130.068665	0.018785
1130.226135	0.019248
1130.383587	0.016798
1130.541020	0.013874
1130.698436	0.008313
1130.855833	0.006822
1131.013212	0.009796
1131.170573	0.010171
1131.327915	0.009515
1131.485239	0.012764
1131.642545	0.010556
1131.799833	0.007261
1131.957103	0.006095
1132.114354	0.009132
1132.271588	0.014416
1132.428803	0.004683
1132.585999	0.005984
1132.743178	0.007712
1132.900338	0.001116
1133.057480	0.000651
1133.214604	0.004009
1133.371710	0.008513
1133.528797	0.006703
1133.685866	0.003146
1133.842917	0.012738
1133.999950	0.011953
1134.156964	0.008683
1134.313960	0.008978
1134.470938	0.010685
1134.627898	0.012252
1134.784840	0.006645
1134.941763	0.008837
1135.098668	0.011855
1135.255555	0.010282
1135.412424	0.009957
1135.569274	0.012203
1135.726107	0.013444
1135.882921	0.009096
1136.039716	0.001473
1136.196494	0.001783
1136.353253	-0.001158
1136.509995	0.001568
1136.666717	0.002369
1136.823422	0.008841
1136.980109	0.007985
1137.136777	0.009484
1137.293427	0.014387
1137.450059	0.018162
1137.606672	0.017787
1137.763267	0.014041
1137.919844	0.005792
1138.076403	0.000274
1138.232944	-0.000357
1138.389466	0.004073
1138.545971	0.001534
1138.702457	0.005338
1138.858924	0.011859
1139.015374	0.010475
1139.171805	0.017697
1139.328218	0.026861
1139.484613	0.028364
1139.640990	0.033648
1139.797348	0.030551
1139.953688	0.034555
1140.110010	0.029677
1140.266314	0.026004
1140.422600	0.025944
1140.578867	0.021603
1140.735116	0.016889
1140.891347	0.019052
1141.047559	0.012674
1141.203754	0.010043
1141.359930	0.003675
1141.516088	0.002091
1141.672228	0.001194
1141.828349	0.006988
1141.984452	0.008367
1142.140537	0.011747
1142.296604	0.014658
1142.452653	0.018505
1142.608683	0.021754
1142.764695	0.029646
1142.920689	0.030881
1143.076665	0.033848
1143.232622	0.031619
1143.388562	0.033065
1143.544483	0.029045
1143.700385	0.023518
1143.856270	0.017591
1144.012136	0.018737
1144.167985	0.016788
1144.323814	0.015440
1144.479626	0.017834
1144.635420	0.017531
1144.791195	0.016671
1144.946952	0.018468
1145.102691	0.020896
1145.258411	0.024733
1145.414113	0.016901
1145.569798	0.016480
1145.725463	0.015939
1145.881111	0.005743
1146.036741	0.003005
1146.192352	0.006172
1146.347945	0.011396
1146.503519	0.012143
1146.659076	0.009575
1146.814614	0.009904
1146.970134	0.008885
1147.125636	0.012248
1147.281120	0.017923
1147.436585	0.021074
1147.592032	0.024197
1147.747461	0.018867
1147.902872	0.020134
1148.058265	0.021049
1148.213639	0.028903
1148.368995	0.029420
1148.524333	0.027977
1148.679653	0.025795
1148.834954	0.029448
1148.990237	0.020939
1149.145502	0.021013
1149.300749	0.017514
1149.455977	0.017254
1149.611188	0.009490
1149.766380	0.009334
1149.921553	0.008476
1150.076709	0.012057
1150.231846	0.011119
1150.386966	0.016552
1150.542066	0.018411
1150.697149	0.021840
1150.852214	0.018134
1151.007260	0.028215
1151.162288	0.033123
1151.317298	0.036361
1151.472289	0.034745
1151.627263	0.028529
1151.782218	0.026823
1151.937155	0.021638
1152.092073	0.022686
1152.246974	0.024385
1152.401856	0.015604
1152.556720	0.019134
1152.711566	0.013872
1152.866393	0.013412
1153.021203	0.022728
1153.175994	0.025304
1153.330767	0.026984
1153.485521	0.027200
1153.640258	0.033680
1153.794976	0.037252
1153.949676	0.031220
1154.104358	0.026783
1154.259021	0.024668
1154.413667	0.016860
1154.568294	0.012090
1154.722903	0.016199
1154.877493	0.008698
1155.032066	0.005931
1155.186620	0.005033
1155.341156	0.000961
1155.495674	0.009312
1155.650173	0.014590
1155.804654	0.015352
1155.959118	0.019202
1156.113562	0.014085
1156.267989	0.020622
1156.422397	0.017266
1156.576788	0.019841
1156.731160	0.024837
1156.885513	0.027463
1157.039849	0.035642
1157.194166	0.038809
1157.348465	0.041306
1157.502746	0.040987
1157.657009	0.045480
1157.811253	0.051120
1157.965479	0.049078
1158.119687	0.049859
1158.273877	0.044657
1158.428048	0.027079
1158.582201	0.023498
1158.736337	0.023014
1158.890453	0.017323
1159.044552	0.014225
1159.198632	0.012060
1159.352694	0.011938
1159.506738	0.009640
1159.660764	0.009306
1159.814771	0.017217
1159.968761	0.018717
1160.122732	0.012123
1160.276685	0.016358
1160.430619	0.012038
1160.584535	0.006997
1160.738434	0.022104
1160.892313	0.023114
1161.046175	0.019692
1161.200019	0.023586
1161.353844	0.019730
1161.507651	0.017480
1161.661440	0.021544
1161.815210	0.021974
1161.968962	0.024432
1162.122697	0.010499
1162.276412	0.014475
1162.430110	0.016071
1162.583789	0.010512
1162.737451	0.008194
1162.891094	0.014467
1163.044718	0.015514
1163.198325	0.015034
1163.351913	0.017515
1163.505483	0.010084
1163.659035	-0.004843
1163.812569	0.001041
1163.966084	0.008428
1164.119581	0.006642
1164.273060	0.009467
1164.426521	0.014375
1164.579964	0.018774
1164.733388	0.012813
1164.886794	0.019629
1165.040182	0.031413
1165.193551	0.026827
1165.346903	0.022182
1165.500236	0.028424
1165.653551	0.031114
1165.806848	0.020703
1165.960126	0.021133
1166.113386	0.037566
1166.266628	0.036400
1166.419852	0.039391
1166.573058	0.037193
1166.726245	0.035775
1166.879414	0.033526
1167.032565	0.023014
1167.185698	0.017528
1167.338812	0.002654
1167.491909	-0.006694
1167.644987	-0.005404
1167.798046	-0.009764
1167.951088	-0.004929
1168.104111	0.001565
1168.257117	0.007746
1168.410103	0.012429
1168.563072	0.016125
1168.716023	0.019411
1168.868955	0.025454
1169.021869	0.030484
1169.174765	0.030482
1169.327642	0.021543
1169.480501	0.004139
1169.633343	-0.001571
1169.786165	0.004107
1169.938970	0.014755
1170.091757	0.037091
1170.244525	0.030766
1170.397275	0.017024
1170.550007	0.014830
1170.702720	0.005444
1170.855415	0.007118
1171.008092	0.014836
1171.160751	0.009888
1171.313392	0.006404
1171.466014	-0.049945
1171.618619	0.047339
1171.771205	0.047339
1171.923772	0.047339
