sample name	sample
index	681
start time	 03-22-2021  11:59:08 AM


Wavelength (nm)	Absorbance
494.344910	NaN
494.563924	NaN
494.782919	NaN
495.001897	-0.252303
495.220856	NaN
495.439797	NaN
495.658719	0.662659
495.877624	0.286042
496.096510	0.319870
496.315378	0.296153
496.534227	0.185095
496.753059	0.123680
496.971872	0.216110
497.190667	0.027360
497.409444	0.017880
497.628203	0.014287
497.846943	0.013188
498.065665	0.014526
498.284369	0.015322
498.503055	0.015880
498.721723	0.016205
498.940372	0.016770
499.159003	0.016843
499.377616	0.018190
499.596210	0.018418
499.814787	0.019244
500.033345	0.018814
500.251885	0.018169
500.470406	0.017370
500.688910	0.017531
500.907395	0.016729
501.125862	0.016150
501.344311	0.014597
501.562742	0.014810
501.781154	0.014233
501.999548	0.014321
502.217924	0.015459
502.436282	0.015723
502.654621	0.015157
502.872942	0.015097
503.091245	0.014992
503.309530	0.016674
503.527797	0.016532
503.746045	0.016916
503.964275	0.016554
504.182487	0.016484
504.400681	0.016511
504.618856	0.016419
504.837013	0.016858
505.055152	0.016595
505.273273	0.014929
505.491376	0.015363
505.709460	0.015353
505.927526	0.015548
506.145574	0.014359
506.363604	0.014074
506.581615	0.014613
506.799608	0.013750
507.017583	0.013933
507.235540	0.014530
507.453478	0.013781
507.671399	0.013852
507.889301	0.013247
508.107185	0.013941
508.325050	0.014038
508.542898	0.013922
508.760727	0.013255
508.978538	0.013491
509.196330	0.013778
509.414105	0.014518
509.631861	0.014224
509.849599	0.014933
510.067319	0.014574
510.285021	0.014776
510.502704	0.014735
510.720369	0.015755
510.938016	0.015754
511.155645	0.015036
511.373255	0.014730
511.590848	0.015384
511.808422	0.014967
512.025977	0.014869
512.243515	0.014558
512.461034	0.014662
512.678536	0.014186
512.896018	0.014307
513.113483	0.014477
513.330930	0.014482
513.548358	0.013855
513.765768	0.014256
513.983160	0.014321
514.200533	0.013962
514.417889	0.013782
514.635226	0.014460
514.852545	0.014196
515.069845	0.014369
515.287128	0.014336
515.504392	0.014732
515.721638	0.015014
515.938866	0.015167
516.156075	0.015519
516.373267	0.015407
516.590440	0.014972
516.807594	0.015437
517.024731	0.015010
517.241850	0.014916
517.458950	0.014344
517.676032	0.014106
517.893095	0.013752
518.110141	0.013571
518.327168	0.013379
518.544177	0.012958
518.761168	0.012709
518.978141	0.012822
519.195095	0.013067
519.412031	0.013074
519.628949	0.012900
519.845849	0.013223
520.062731	0.013867
520.279594	0.014099
520.496439	0.014575
520.713266	0.014370
520.930074	0.014585
521.146865	0.014597
521.363637	0.014631
521.580391	0.014278
521.797127	0.014407
522.013844	0.014074
522.230543	0.014014
522.447224	0.013809
522.663887	0.014145
522.880532	0.013983
523.097158	0.013863
523.313766	0.014084
523.530356	0.014576
523.746928	0.014940
523.963481	0.015232
524.180017	0.015486
524.396534	0.015341
524.613032	0.014757
524.829513	0.014536
525.045975	0.014671
525.262420	0.014541
525.478845	0.014575
525.695253	0.013773
525.911643	0.013575
526.128014	0.013729
526.344367	0.014239
526.560702	0.014473
526.777018	0.015097
526.993316	0.014981
527.209597	0.015147
527.425858	0.014990
527.642102	0.015207
527.858328	0.015313
528.074535	0.014522
528.290724	0.014482
528.506894	0.014564
528.723047	0.013983
528.939181	0.014211
529.155297	0.013735
529.371395	0.014176
529.587475	0.014183
529.803536	0.013792
530.019579	0.014564
530.235604	0.014381
530.451611	0.014254
530.667600	0.014501
530.883570	0.014803
531.099522	0.015281
531.315456	0.015134
531.531372	0.014860
531.747269	0.015109
531.963148	0.014760
532.179009	0.014917
532.394852	0.014901
532.610676	0.015213
532.826482	0.015142
533.042271	0.015115
533.258040	0.015005
533.473792	0.015110
533.689525	0.015125
533.905240	0.015395
534.120937	0.015206
534.336616	0.015547
534.552277	0.015167
534.767919	0.014823
534.983543	0.014950
535.199149	0.014965
535.414736	0.014874
535.630306	0.015040
535.845857	0.014766
536.061390	0.014809
536.276904	0.014672
536.492401	0.014544
536.707879	0.014147
536.923339	0.013782
537.138781	0.013481
537.354204	0.013750
537.569610	0.013712
537.784997	0.013825
538.000366	0.013589
538.215716	0.013865
538.431049	0.013952
538.646363	0.014346
538.861659	0.014546
539.076937	0.014677
539.292196	0.014600
539.507438	0.014736
539.722661	0.014675
539.937866	0.015039
540.153052	0.014747
540.368221	0.014947
540.583371	0.014886
540.798503	0.014703
541.013617	0.014701
541.228712	0.014717
541.443789	0.014541
541.658848	0.014883
541.873889	0.014680
542.088912	0.014809
542.303916	0.014480
542.518902	0.014650
542.733870	0.014816
542.948820	0.014937
543.163752	0.014764
543.378665	0.014601
543.593560	0.014317
543.808437	0.014528
544.023295	0.014473
544.238136	0.014810
544.452958	0.014945
544.667762	0.014570
544.882548	0.014354
545.097315	0.014947
545.312064	0.014973
545.526795	0.015118
545.741508	0.014912
545.956203	0.015203
546.170879	0.015278
546.385537	0.014690
546.600177	0.015180
546.814799	0.015474
547.029402	0.014733
547.243988	0.014603
547.458555	0.014509
547.673103	0.014412
547.887634	0.014029
548.102146	0.013772
548.316640	0.014013
548.531116	0.013736
548.745574	0.013489
548.960013	0.013845
549.174435	0.013896
549.388838	0.013963
549.603222	0.014018
549.817589	0.014067
550.031937	0.014123
550.246267	0.013986
550.460579	0.013827
550.674873	0.014000
550.889148	0.014138
551.103405	0.014181
551.317644	0.014038
551.531865	0.014391
551.746068	0.014648
551.960252	0.015039
552.174418	0.015298
552.388566	0.015528
552.602696	0.015215
552.816807	0.015037
553.030900	0.015368
553.244975	0.015305
553.459032	0.015038
553.673070	0.014959
553.887091	0.014576
554.101093	0.014532
554.315077	0.014643
554.529042	0.015298
554.742990	0.015386
554.956919	0.014783
555.170830	0.014772
555.384722	0.014817
555.598597	0.014681
555.812453	0.014665
556.026291	0.014653
556.240111	0.014615
556.453913	0.014264
556.667696	0.014312
556.881461	0.014812
557.095208	0.014747
557.308937	0.014996
557.522647	0.015127
557.736339	0.015492
557.950013	0.015559
558.163669	0.015570
558.377307	0.015484
558.590926	0.015310
558.804527	0.015170
559.018110	0.015305
559.231675	0.015061
559.445221	0.015229
559.658749	0.015009
559.872259	0.014875
560.085751	0.014974
560.299225	0.015071
560.512680	0.015197
560.726117	0.015696
560.939536	0.015915
561.152937	0.016139
561.366319	0.015757
561.579683	0.015433
561.793029	0.015529
562.006357	0.015110
562.219667	0.015035
562.432958	0.015182
562.646231	0.014915
562.859486	0.014757
563.072723	0.014716
563.285941	0.014888
563.499141	0.015190
563.712323	0.015143
563.925487	0.015509
564.138632	0.015599
564.351760	0.015529
564.564869	0.015332
564.777960	0.015463
564.991032	0.015450
565.204087	0.015469
565.417123	0.015767
565.630141	0.015740
565.843140	0.015532
566.056122	0.015263
566.269085	0.014693
566.482030	0.014652
566.694957	0.014363
566.907866	0.014129
567.120756	0.014105
567.333628	0.013831
567.546482	0.013949
567.759318	0.014129
567.972135	0.014211
568.184935	0.014895
568.397716	0.015071
568.610478	0.015320
568.823223	0.015303
569.035949	0.015226
569.248657	0.015315
569.461347	0.015263
569.674019	0.014986
569.886672	0.014921
570.099308	0.014701
570.311925	0.014610
570.524523	0.014474
570.737104	0.014431
570.949666	0.014347
571.162210	0.014327
571.374736	0.014367
571.587244	0.014617
571.799733	0.014932
572.012205	0.015071
572.224658	0.014950
572.437092	0.015141
572.649509	0.015242
572.861907	0.015681
573.074287	0.015498
573.286649	0.015568
573.498993	0.015772
573.711318	0.015516
573.923625	0.015542
574.135914	0.015639
574.348185	0.015672
574.560438	0.016029
574.772672	0.015686
574.984888	0.015689
575.197086	0.015634
575.409266	0.015646
575.621427	0.015672
575.833570	0.015475
576.045695	0.015285
576.257802	0.015259
576.469890	0.015159
576.681961	0.015058
576.894013	0.015176
577.106046	0.015037
577.318062	0.014729
577.530059	0.014789
577.742039	0.014816
577.954000	0.014910
578.165942	0.014825
578.377867	0.014640
578.589773	0.014666
578.801661	0.014446
579.013531	0.014501
579.225382	0.014820
579.437216	0.014753
579.649031	0.014812
579.860828	0.014999
580.072606	0.015191
580.284367	0.015130
580.496109	0.015411
580.707833	0.015500
580.919539	0.015483
581.131227	0.015567
581.342896	0.015622
581.554547	0.015730
581.766180	0.015698
581.977795	0.015547
582.189391	0.015921
582.400969	0.015666
582.612529	0.015969
582.824071	0.015931
583.035595	0.015728
583.247100	0.015801
583.458587	0.015746
583.670056	0.015528
583.881506	0.015481
584.092939	0.015185
584.304353	0.015487
584.515749	0.015284
584.727127	0.015448
584.938486	0.015370
585.149828	0.015615
585.361151	0.015533
585.572456	0.015746
585.783742	0.015831
585.995011	0.015905
586.206261	0.015661
586.417493	0.015670
586.628706	0.015664
586.839902	0.015601
587.051079	0.015229
587.262238	0.015185
587.473379	0.015127
587.684502	0.014997
587.895606	0.014971
588.106692	0.014981
588.317760	0.015108
588.528810	0.015000
588.739841	0.014905
588.950855	0.015030
589.161850	0.014893
589.372827	0.014920
589.583785	0.014973
589.794726	0.015012
590.005648	0.015204
590.216552	0.015176
590.427437	0.015448
590.638305	0.015641
590.849154	0.015786
591.059985	0.016211
591.270798	0.016303
591.481592	0.016406
591.692369	0.016484
591.903127	0.016268
592.113867	0.016003
592.324588	0.016030
592.535292	0.015960
592.745977	0.016042
592.956644	0.015913
593.167293	0.016099
593.377923	0.016029
593.588536	0.015929
593.799130	0.016222
594.009706	0.016513
594.220263	0.016195
594.430803	0.016487
594.641324	0.016529
594.851827	0.016398
595.062312	0.016276
595.272778	0.016261
595.483227	0.016633
595.693657	0.016420
595.904069	0.016261
596.114462	0.016584
596.324838	0.016431
596.535195	0.016128
596.745534	0.016272
596.955855	0.016237
597.166157	0.016346
597.376441	0.015959
597.586707	0.016212
597.796955	0.016605
598.007185	0.016596
598.217396	0.016394
598.427589	0.016412
598.637764	0.016386
598.847921	0.016092
599.058060	0.016075
599.268180	0.016082
599.478282	0.015996
599.688366	0.015794
599.898431	0.015653
600.108479	0.016038
600.318508	0.016177
600.528519	0.016073
600.738511	0.016514
600.948486	0.016650
601.158442	0.016689
601.368380	0.016559
601.578300	0.016704
601.788202	0.016667
601.998085	0.016683
602.207950	0.016703
602.417797	0.016747
602.627626	0.016656
602.837436	0.016488
603.047228	0.016458
603.257002	0.016549
603.466758	0.016474
603.676496	0.016737
603.886215	0.016691
604.095916	0.016667
604.305599	0.016757
604.515264	0.016708
604.724910	0.016801
604.934538	0.016847
605.144148	0.016895
605.353740	0.016856
605.563314	0.016703
605.772869	0.016730
605.982406	0.016824
606.191925	0.017005
606.401425	0.017186
606.610908	0.017130
606.820372	0.017317
607.029818	0.017250
607.239246	0.017011
607.448655	0.016813
607.658047	0.016608
607.867420	0.016435
608.076775	0.016146
608.286111	0.016065
608.495430	0.015984
608.704730	0.015843
608.914012	0.015829
609.123275	0.016065
609.332521	0.016168
609.541748	0.016256
609.750957	0.016568
609.960148	0.016860
610.169321	0.016926
610.378475	0.016838
610.587611	0.016797
610.796729	0.016910
611.005829	0.016958
611.214910	0.016935
611.423974	0.016935
611.633019	0.016750
611.842045	0.016570
612.051054	0.016580
612.260044	0.016730
612.469017	0.016832
612.677970	0.016681
612.886906	0.016729
613.095824	0.016970
613.304723	0.017022
613.513604	0.017025
613.722467	0.016849
613.931311	0.016636
614.140138	0.016513
614.348946	0.016423
614.557736	0.016539
614.766507	0.016405
614.975261	0.016255
615.183996	0.016024
615.392713	0.016029
615.601412	0.016097
615.810092	0.016163
616.018754	0.016269
616.227399	0.015926
616.436024	0.015835
616.644632	0.015898
616.853222	0.015873
617.061793	0.016225
617.270346	0.016155
617.478880	0.016426
617.687397	0.016468
617.895895	0.016743
618.104375	0.017308
618.312837	0.017357
618.521281	0.017292
618.729706	0.017590
618.938113	0.017565
619.146502	0.017587
619.354873	0.017672
619.563226	0.017556
619.771560	0.017502
619.979876	0.017294
620.188174	0.017324
620.396453	0.017511
620.604715	0.017249
620.812958	0.017091
621.021183	0.017131
621.229390	0.017063
621.437578	0.017054
621.645748	0.017001
621.853900	0.017170
622.062034	0.017321
622.270150	0.017110
622.478247	0.016972
622.686326	0.017070
622.894387	0.017069
623.102430	0.016888
623.310454	0.016932
623.518461	0.016822
623.726449	0.016727
623.934418	0.016584
624.142370	0.016656
624.350303	0.017003
624.558218	0.016989
624.766115	0.017196
624.973994	0.017186
625.181855	0.017309
625.389697	0.017298
625.597521	0.017307
625.805327	0.017457
626.013114	0.017525
626.220883	0.017286
626.428634	0.017132
626.636367	0.017220
626.844082	0.017566
627.051778	0.017675
627.259457	0.017797
627.467117	0.017888
627.674758	0.017783
627.882382	0.017849
628.089987	0.018029
628.297574	0.018235
628.505143	0.017821
628.712694	0.017619
628.920226	0.017380
629.127740	0.017269
629.335236	0.017164
629.542714	0.017173
629.750174	0.017135
629.957615	0.016985
630.165038	0.016794
630.372443	0.017006
630.579829	0.016842
630.787198	0.016715
630.994548	0.016697
631.201880	0.016761
631.409194	0.016671
631.616489	0.016412
631.823766	0.016501
632.031025	0.016773
632.238266	0.016808
632.445489	0.017035
632.652693	0.017333
632.859879	0.017535
633.067047	0.017732
633.274197	0.017890
633.481329	0.018170
633.688442	0.018084
633.895537	0.017943
634.102614	0.017838
634.309672	0.017787
634.516713	0.017779
634.723735	0.017759
634.930739	0.017549
635.137724	0.017340
635.344692	0.017300
635.551641	0.017340
635.758572	0.017396
635.965485	0.017580
636.172379	0.017489
636.379256	0.017342
636.586114	0.017240
636.792954	0.017249
636.999775	0.017449
637.206579	0.017433
637.413364	0.017421
637.620131	0.017387
637.826880	0.017208
638.033610	0.017309
638.240323	0.017285
638.447017	0.017337
638.653692	0.017130
638.860350	0.016972
639.066990	0.017188
639.273611	0.017231
639.480214	0.017231
639.686798	0.017302
639.893365	0.017372
640.099913	0.017492
640.306443	0.017512
640.512955	0.017772
640.719449	0.017778
640.925924	0.017681
641.132381	0.017718
641.338820	0.017627
641.545241	0.017806
641.751644	0.017662
641.958028	0.017814
642.164394	0.017770
642.370742	0.017776
642.577071	0.017793
642.783383	0.017687
642.989676	0.017601
643.195951	0.017748
643.402207	0.017584
643.608446	0.017574
643.814666	0.017641
644.020868	0.017737
644.227052	0.017839
644.433218	0.018022
644.639365	0.018141
644.845494	0.018376
645.051605	0.018438
645.257698	0.018281
645.463772	0.018481
645.669828	0.018287
645.875866	0.018172
646.081886	0.018296
646.287888	0.018185
646.493871	0.018145
646.699836	0.018187
646.905783	0.018258
647.111712	0.018589
647.317622	0.018637
647.523514	0.018785
647.729388	0.019048
647.935244	0.018966
648.141082	0.019046
648.346901	0.019031
648.552702	0.018936
648.758485	0.018773
648.964250	0.018706
649.169996	0.018669
649.375724	0.018566
649.581434	0.018182
649.787126	0.018004
649.992800	0.017942
650.198455	0.017826
650.404092	0.017721
650.609711	0.017686
650.815311	0.017473
651.020894	0.017209
651.226458	0.017231
651.432004	0.017455
651.637532	0.017435
651.843041	0.017334
652.048532	0.017417
652.254006	0.017385
652.459460	0.017405
652.664897	0.017447
652.870315	0.017533
653.075716	0.017470
653.281097	0.017290
653.486461	0.017291
653.691807	0.017400
653.897134	0.017496
654.102443	0.017505
654.307734	0.017620
654.513006	0.017740
654.718261	0.017727
654.923497	0.017711
655.128715	0.017677
655.333915	0.017731
655.539096	0.017926
655.744259	0.017882
655.949404	0.018017
656.154531	0.018078
656.359640	0.018023
656.564730	0.018180
656.769802	0.018442
656.974856	0.018772
657.179892	0.018711
657.384909	0.018494
657.589908	0.018458
657.794889	0.018444
657.999852	0.018391
658.204797	0.018477
658.409723	0.018446
658.614631	0.018274
658.819521	0.018142
659.024393	0.018393
659.229246	0.018642
659.434081	0.018718
659.638898	0.018558
659.843697	0.018480
660.048478	0.018493
660.253240	0.018423
660.457984	0.018286
660.662710	0.018345
660.867417	0.018188
661.072107	0.018057
661.276778	0.017923
661.481431	0.017970
661.686066	0.018025
661.890682	0.017982
662.095281	0.018005
662.299861	0.018069
662.504422	0.017951
662.708966	0.017851
662.913491	0.017684
663.117999	0.017663
663.322488	0.017673
663.526958	0.017668
663.731411	0.017559
663.935845	0.017728
664.140261	0.017871
664.344659	0.018026
664.549038	0.018199
664.753400	0.018291
664.957743	0.018430
665.162068	0.018545
665.366375	0.018454
665.570663	0.018567
665.774933	0.018562
665.979185	0.018449
666.183419	0.018379
666.387635	0.018252
666.591832	0.018365
666.796011	0.018165
667.000172	0.018245
667.204315	0.018189
667.408439	0.018282
667.612545	0.018184
667.816634	0.018270
668.020703	0.018329
668.224755	0.018260
668.428788	0.018260
668.632803	0.018589
668.836800	0.018537
669.040779	0.018722
669.244739	0.018547
669.448681	0.018516
669.652605	0.018623
669.856511	0.018597
670.060399	0.018791
670.264268	0.018816
670.468119	0.018855
670.671952	0.018864
670.875767	0.018928
671.079563	0.019142
671.283341	0.019288
671.487101	0.019334
671.690843	0.019470
671.894567	0.019598
672.098272	0.019635
672.301959	0.019745
672.505628	0.019814
672.709278	0.019780
672.912911	0.019737
673.116525	0.019662
673.320121	0.019557
673.523699	0.019531
673.727258	0.019365
673.930799	0.019463
674.134322	0.019225
674.337827	0.019198
674.541314	0.019265
674.744782	0.019172
674.948232	0.019266
675.151664	0.019099
675.355078	0.019047
675.558474	0.018994
675.761851	0.018913
675.965210	0.018759
676.168551	0.018769
676.371873	0.018813
676.575178	0.018761
676.778464	0.018737
676.981732	0.018954
677.184981	0.018938
677.388213	0.019140
677.591426	0.019133
677.794621	0.019370
677.997798	0.019406
678.200956	0.019325
678.404097	0.019596
678.607219	0.019486
678.810323	0.019496
679.013408	0.019518
679.216476	0.019325
679.419525	0.019264
679.622556	0.019179
679.825569	0.019117
680.028563	0.019129
680.231540	0.018912
680.434498	0.018965
680.637438	0.018905
680.840359	0.018811
681.043263	0.018911
681.246148	0.018782
681.449015	0.018714
681.651864	0.018746
681.854694	0.018687
682.057506	0.018904
682.260301	0.018999
682.463076	0.018985
682.665834	0.019005
682.868573	0.018903
683.071295	0.019169
683.273998	0.019207
683.476682	0.019245
683.679349	0.019406
683.881997	0.019325
684.084627	0.019227
684.287239	0.019215
684.489833	0.019227
684.692408	0.019318
684.894965	0.019075
685.097504	0.019021
685.300025	0.018952
685.502527	0.018844
685.705012	0.018839
685.907478	0.018770
686.109925	0.018786
686.312355	0.018910
686.514766	0.018929
686.717159	0.019036
686.919534	0.019222
687.121891	0.019188
687.324230	0.019183
687.526550	0.019153
687.728852	0.019109
687.931136	0.019040
688.133401	0.018877
688.335649	0.018826
688.537878	0.018909
688.740089	0.018774
688.942281	0.018764
689.144456	0.018716
689.346612	0.018722
689.548750	0.018766
689.750870	0.018779
689.952971	0.018904
690.155055	0.018840
690.357120	0.018742
690.559167	0.018750
690.761195	0.018745
690.963206	0.018654
691.165198	0.018558
691.367172	0.018700
691.569128	0.018807
691.771065	0.018825
691.972984	0.018905
692.174885	0.018866
692.376768	0.018992
692.578633	0.018991
692.780479	0.019139
692.982308	0.019184
693.184118	0.019137
693.385909	0.019103
693.587683	0.019039
693.789438	0.019021
693.991175	0.019239
694.192894	0.019188
694.394595	0.019147
694.596277	0.019196
694.797941	0.019262
694.999587	0.019308
695.201215	0.019395
695.402824	0.019452
695.604416	0.019606
695.805989	0.019410
696.007543	0.019521
696.209080	0.019702
696.410598	0.019712
696.612099	0.019846
696.813580	0.019867
697.015044	0.019846
697.216490	0.019879
697.417917	0.019961
697.619326	0.020054
697.820717	0.019906
698.022089	0.019818
698.223444	0.019974
698.424780	0.019747
698.626098	0.019758
698.827397	0.019677
699.028679	0.019634
699.229942	0.019455
699.431187	0.019505
699.632414	0.019628
699.833622	0.019611
700.034813	0.019364
700.235985	0.019449
700.437139	0.019510
700.638274	0.019550
700.839392	0.019400
701.040491	0.019516
701.241572	0.019587
701.442635	0.019485
701.643679	0.019532
701.844706	0.019504
702.045714	0.019444
702.246704	0.019163
702.447675	0.019084
702.648629	0.019115
702.849564	0.018912
703.050481	0.018796
703.251380	0.018844
703.452260	0.018829
703.653122	0.018901
703.853966	0.018718
704.054792	0.018836
704.255600	0.018859
704.456389	0.018882
704.657160	0.019018
704.857913	0.018913
705.058648	0.018924
705.259365	0.018914
705.460063	0.018979
705.660743	0.019329
705.861405	0.019363
706.062048	0.019532
706.262674	0.019666
706.463281	0.019595
706.663870	0.019622
706.864441	0.019612
707.064993	0.019757
707.265527	0.019713
707.466043	0.019737
707.666541	0.019850
707.867021	0.019842
708.067482	0.019730
708.267925	0.019877
708.468350	0.019967
708.668757	0.020092
708.869145	0.019935
709.069516	0.019931
709.269868	0.019590
709.470201	0.019510
709.670517	0.019328
709.870814	0.019452
710.071093	0.019341
710.271354	0.019194
710.471597	0.019022
710.671821	0.019085
710.872028	0.019038
711.072216	0.019394
711.272385	0.019299
711.472537	0.019527
711.672670	0.019482
711.872785	0.019537
712.072882	0.019615
712.272961	0.019588
712.473021	0.019520
712.673063	0.019436
712.873087	0.019319
713.073093	0.019417
713.273081	0.019209
713.473050	0.019144
713.673001	0.019016
713.872934	0.019008
714.072849	0.019012
714.272745	0.019051
714.472623	0.019066
714.672483	0.019059
714.872325	0.019105
715.072148	0.019170
715.271954	0.019141
715.471741	0.019236
715.671509	0.019194
715.871260	0.019114
716.070992	0.019006
716.270707	0.019017
716.470403	0.018964
716.670080	0.018896
716.869740	0.018939
717.069381	0.019011
717.269004	0.018966
717.468609	0.019136
717.668195	0.019160
717.867764	0.019306
718.067314	0.019433
718.266846	0.019544
718.466360	0.019486
718.665855	0.019499
718.865332	0.019687
719.064791	0.019841
719.264232	0.019805
719.463655	0.019988
719.663059	0.019987
719.862445	0.020117
720.061813	0.020235
720.261163	0.020532
720.460494	0.020526
720.659807	0.020316
720.859102	0.020275
721.058379	0.020219
721.257638	0.020149
721.456878	0.020079
721.656100	0.019933
721.855304	0.019659
722.054490	0.019388
722.253657	0.019323
722.452806	0.019242
722.651937	0.019187
722.851050	0.019236
723.050145	0.019124
723.249221	0.019189
723.448279	0.019132
723.647319	0.019065
723.846340	0.018981
724.045344	0.019029
724.244329	0.019238
724.443296	0.019201
724.642245	0.019192
724.841175	0.019304
725.040088	0.019269
725.238982	0.019335
725.437857	0.019329
725.636715	0.019392
725.835554	0.019265
726.034376	0.019098
726.233179	0.019064
726.431963	0.019024
726.630730	0.018887
726.829478	0.018857
727.028208	0.018846
727.226920	0.018915
727.425614	0.018855
727.624289	0.018828
727.822946	0.018836
728.021585	0.018687
728.220206	0.018673
728.418808	0.018739
728.617392	0.018755
728.815958	0.018739
729.014506	0.018826
729.213036	0.018835
729.411547	0.018813
729.610040	0.018768
729.808515	0.018742
730.006972	0.018778
730.205410	0.018742
730.403831	0.018665
730.602233	0.018608
730.800616	0.018384
730.998982	0.018430
731.197329	0.018540
731.395658	0.018512
731.593969	0.018692
731.792262	0.018623
731.990536	0.018708
732.188793	0.018643
732.387031	0.018654
732.585250	0.018698
732.783452	0.018704
732.981635	0.018495
733.179800	0.018583
733.377947	0.018661
733.576076	0.018596
733.774186	0.018580
733.972278	0.018639
734.170352	0.018635
734.368408	0.018653
734.566446	0.018535
734.764465	0.018660
734.962466	0.018684
735.160449	0.018519
735.358413	0.018592
735.556360	0.018492
735.754288	0.018599
735.952198	0.018539
736.150090	0.018540
736.347963	0.018605
736.545818	0.018721
736.743655	0.018580
736.941474	0.018599
737.139275	0.018639
737.337057	0.018683
737.534821	0.018561
737.732567	0.018494
737.930295	0.018638
738.128005	0.018719
738.325696	0.018539
738.523369	0.018493
738.721024	0.018471
738.918660	0.018432
739.116279	0.018347
739.313879	0.018357
739.511461	0.018415
739.709024	0.018357
739.906570	0.018213
740.104097	0.018274
740.301606	0.018302
740.499097	0.018324
740.696569	0.018254
740.894024	0.018295
741.091460	0.018271
741.288878	0.018378
741.486277	0.018384
741.683659	0.018337
741.881022	0.018332
742.078367	0.018390
742.275694	0.018439
742.473002	0.018606
742.670293	0.018600
742.867565	0.018701
743.064819	0.018580
743.262054	0.018541
743.459272	0.018558
743.656471	0.018504
743.853652	0.018420
744.050815	0.018395
744.247959	0.018293
744.445085	0.018232
744.642194	0.018185
744.839283	0.018255
745.036355	0.018176
745.233408	0.018321
745.430444	0.018393
745.627461	0.018424
745.824459	0.018542
746.021440	0.018591
746.218402	0.018699
746.415346	0.018728
746.612272	0.018839
746.809180	0.018899
747.006069	0.018928
747.202940	0.019048
747.399793	0.019231
747.596628	0.019160
747.793444	0.019065
747.990243	0.019069
748.187023	0.018914
748.383784	0.018686
748.580528	0.018565
748.777253	0.018592
748.973960	0.018473
749.170649	0.018422
749.367320	0.018420
749.563973	0.018449
749.760607	0.018564
749.957223	0.018793
750.153821	0.019034
750.350400	0.019253
750.546962	0.019316
750.743505	0.019365
750.940030	0.019462
751.136536	0.019402
751.333025	0.019317
751.529495	0.019334
751.725947	0.019243
751.922381	0.019187
752.118796	0.019267
752.315194	0.019074
752.511573	0.019164
752.707934	0.019148
752.904276	0.019380
753.100601	0.019477
753.296907	0.019264
753.493195	0.019181
753.689465	0.019272
753.885716	0.019090
754.081949	0.019099
754.278164	0.019003
754.474361	0.018896
754.670540	0.018576
754.866700	0.018756
755.062843	0.018805
755.258967	0.018853
755.455072	0.018746
755.651160	0.018745
755.847229	0.018681
756.043280	0.018634
756.239313	0.018734
756.435328	0.018846
756.631324	0.018712
756.827302	0.018772
757.023262	0.018970
757.219204	0.018968
757.415127	0.019062
757.611033	0.019223
757.806920	0.019299
758.002788	0.019289
758.198639	0.019398
758.394471	0.019279
758.590286	0.019431
758.786081	0.019334
758.981859	0.019150
759.177619	0.019186
759.373360	0.019190
759.569083	0.019050
759.764788	0.018858
759.960474	0.018677
760.156143	0.018786
760.351793	0.018586
760.547425	0.018548
760.743038	0.018639
760.938634	0.018525
761.134211	0.018248
761.329770	0.018282
761.525311	0.018466
761.720833	0.018461
761.916338	0.018483
762.111824	0.018446
762.307292	0.018550
762.502741	0.018548
762.698173	0.018619
762.893586	0.018772
763.088981	0.018798
763.284358	0.018693
763.479716	0.018728
763.675057	0.018729
763.870379	0.018708
764.065683	0.018509
764.260968	0.018430
764.456236	0.018364
764.651485	0.018528
764.846716	0.018687
765.041929	0.018704
765.237123	0.018770
765.432299	0.018688
765.627457	0.018848
765.822597	0.019091
766.017719	0.019274
766.212822	0.019374
766.407907	0.019251
766.602974	0.018927
766.798023	0.018932
766.993054	0.018996
767.188066	0.019018
767.383060	0.019032
767.578036	0.018936
767.772993	0.018894
767.967933	0.018977
768.162854	0.019121
768.357757	0.019372
768.552642	0.019481
768.747508	0.019406
768.942356	0.019244
769.137186	0.019133
769.331998	0.019202
769.526792	0.019192
769.721567	0.019214
769.916324	0.019293
770.111063	0.019399
770.305784	0.019290
770.500486	0.019231
770.695171	0.019438
770.889837	0.019555
771.084484	0.019462
771.279114	0.019475
771.473725	0.019359
771.668318	0.019374
771.862893	0.019134
772.057450	0.019106
772.251988	0.019218
772.446509	0.019167
772.641011	0.019089
772.835494	0.019052
773.029960	0.019007
773.224407	0.019007
773.418836	0.018794
773.613247	0.018911
773.807640	0.019076
774.002014	0.019011
774.196370	0.019150
774.390708	0.019156
774.585028	0.019121
774.779330	0.019166
774.973613	0.019206
775.167878	0.019224
775.362125	0.019349
775.556354	0.019289
775.750564	0.019434
775.944756	0.019318
776.138930	0.019520
776.333086	0.019739
776.527223	0.019754
776.721343	0.019750
776.915444	0.019704
777.109526	0.019617
777.303591	0.019810
777.497637	0.019695
777.691666	0.019626
777.885676	0.019463
778.079667	0.019207
778.273641	0.019189
778.467596	0.019231
778.661533	0.019461
778.855452	0.019534
779.049352	0.019470
779.243235	0.019592
779.437099	0.019959
779.630945	0.020010
779.824773	0.020153
780.018582	0.020334
780.212373	0.020379
780.406146	0.020337
780.599901	0.020392
780.793638	0.020228
780.987356	0.020102
781.181056	0.020011
781.374738	0.019878
781.568402	0.020022
781.762047	0.019965
781.955674	0.019983
782.149283	0.019926
782.342874	0.019987
782.536447	0.019984
782.730001	0.020194
782.923537	0.020071
783.117055	0.020232
783.310555	0.020303
783.504036	0.020349
783.697499	0.020436
783.890944	0.020525
784.084371	0.020466
784.277780	0.020628
784.471170	0.020655
784.664542	0.020648
784.857896	0.020768
785.051231	0.020598
785.244549	0.020531
785.437848	0.020370
785.631129	0.020271
785.824392	0.020138
786.017636	0.019979
786.210863	0.019709
786.404071	0.019872
786.597260	0.019677
786.790432	0.019530
786.983585	0.019365
787.176721	0.019227
787.369838	0.019243
787.562936	0.019153
787.756017	0.019214
787.949079	0.019418
788.142123	0.019223
788.335149	0.019281
788.528156	0.019330
788.721146	0.019198
788.914117	0.019213
789.107070	0.019090
789.300005	0.019119
789.492921	0.018974
789.685819	0.018669
789.878699	0.018532
790.071561	0.018523
790.264405	0.018602
790.457230	0.018783
790.650037	0.018885
790.842826	0.019029
791.035597	0.019231
791.228349	0.019485
791.421084	0.019631
791.613800	0.019913
791.806497	0.019936
791.999177	0.019833
792.191838	0.019943
792.384481	0.019968
792.577106	0.020116
792.769713	0.020076
792.962301	0.020005
793.154871	0.019998
793.347423	0.019865
793.539957	0.019921
793.732473	0.020085
793.924970	0.020156
794.117449	0.020288
794.309910	0.020357
794.502353	0.020298
794.694777	0.020427
794.887183	0.020554
795.079571	0.020696
795.271941	0.020870
795.464293	0.020848
795.656626	0.020759
795.848941	0.020820
796.041238	0.020710
796.233516	0.020855
796.425777	0.020842
796.618019	0.020804
796.810243	0.020674
797.002449	0.020635
797.194636	0.020692
797.386805	0.020597
797.578956	0.020428
797.771089	0.020540
797.963204	0.020429
798.155300	0.020236
798.347378	0.020496
798.539438	0.020714
798.731480	0.020580
798.923503	0.020608
799.115509	0.020830
799.307496	0.020861
799.499465	0.020669
799.691415	0.020893
799.883348	0.021043
800.075262	0.020898
800.267158	0.020729
800.459035	0.020631
800.650895	0.020480
800.842736	0.020520
801.034559	0.020570
801.226364	0.020630
801.418150	0.020309
801.609919	0.020329
801.801669	0.020127
801.993401	0.020334
802.185114	0.020454
802.376810	0.020379
802.568487	0.020349
802.760146	0.020222
802.951787	0.020228
803.143409	0.020332
803.335014	0.020213
803.526600	0.020325
803.718168	0.020256
803.909717	0.020064
804.101249	0.020274
804.292762	0.020063
804.484257	0.020047
804.675734	0.019975
804.867192	0.019911
805.058632	0.019926
805.250054	0.019998
805.441458	0.019663
805.632844	0.019755
805.824211	0.019675
806.015561	0.019769
806.206891	0.019745
806.398204	0.019688
806.589499	0.019821
806.780775	0.019699
806.972033	0.019704
807.163273	0.019712
807.354495	0.019600
807.545698	0.019717
807.736883	0.019664
807.928050	0.019730
808.119199	0.019753
808.310329	0.019894
808.501441	0.020022
808.692535	0.020004
808.883611	0.020314
809.074669	0.020534
809.265708	0.020514
809.456729	0.020581
809.647732	0.020548
809.838717	0.020457
810.029683	0.020192
810.220632	0.020107
810.411562	0.020042
810.602474	0.019700
810.793367	0.019634
810.984242	0.019381
811.175100	0.019304
811.365938	0.019237
811.556759	0.019230
811.747562	0.019444
811.938346	0.019418
812.129112	0.019310
812.319860	0.019425
812.510589	0.019238
812.701300	0.019366
812.891994	0.019282
813.082668	0.019351
813.273325	0.019678
813.463964	0.019668
813.654584	0.019669
813.845186	0.019755
814.035769	0.019855
814.226335	0.020001
814.416882	0.020103
814.607411	0.020107
814.797922	0.019976
814.988415	0.019844
815.178889	0.019666
815.369345	0.019830
815.559783	0.019819
815.750203	0.019754
815.940605	0.019751
816.130988	0.019646
816.321353	0.019748
816.511700	0.019846
816.702028	0.019751
816.892339	0.019653
817.082631	0.019558
817.272905	0.019647
817.463161	0.019709
817.653398	0.019533
817.843617	0.019457
818.033819	0.019556
818.224001	0.019431
818.414166	0.019485
818.604312	0.019622
818.794440	0.019779
818.984550	0.019793
819.174642	0.019704
819.364716	0.019850
819.554771	0.019971
819.744808	0.019975
819.934827	0.020191
820.124827	0.020284
820.314810	0.020213
820.504774	0.019965
820.694720	0.020007
820.884647	0.019985
821.074557	0.020149
821.264448	0.020303
821.454321	0.020349
821.644176	0.020269
821.834012	0.020229
822.023831	0.020116
822.213631	0.020221
822.403413	0.019969
822.593176	0.020124
822.782922	0.019948
822.972649	0.019553
823.162358	0.019488
823.352049	0.019483
823.541721	0.019321
823.731376	0.019536
823.921012	0.019500
824.110629	0.019668
824.300229	0.019594
824.489811	0.019678
824.679374	0.019764
824.868919	0.019729
825.058445	0.019658
825.247954	0.019795
825.437444	0.019674
825.626916	0.019660
825.816370	0.019573
826.005806	0.019659
826.195223	0.019631
826.384622	0.019725
826.574003	0.019830
826.763366	0.020128
826.952711	0.020280
827.142037	0.020305
827.331345	0.020505
827.520635	0.020628
827.709906	0.020523
827.899160	0.020671
828.088395	0.020905
828.277612	0.020891
828.466810	0.020755
828.655991	0.020600
828.845153	0.020718
829.034297	0.020565
829.223423	0.020655
829.412531	0.020861
829.601620	0.020800
829.790691	0.020521
829.979744	0.020494
830.168779	0.020593
830.357795	0.020680
830.546793	0.020858
830.735773	0.020839
830.924735	0.020480
831.113679	0.020280
831.302604	0.020379
831.491511	0.020525
831.680400	0.020563
831.869271	0.020710
832.058123	0.020790
832.246957	0.020653
832.435773	0.020963
832.624571	0.021218
832.813351	0.021512
833.002112	0.021364
833.190855	0.021396
833.379580	0.021188
833.568287	0.020904
833.756975	0.020577
833.945645	0.020569
834.134297	0.020322
834.322931	0.020405
834.511547	0.020221
834.700144	0.020223
834.888723	0.020159
835.077284	0.020100
835.265826	0.020027
835.454351	0.020128
835.642857	0.020102
835.831345	0.020210
836.019815	0.020061
836.208266	0.020020
836.396699	0.020102
836.585114	0.019961
836.773511	0.020070
836.961890	0.020335
837.150250	0.020431
837.338592	0.020470
837.526916	0.020425
837.715222	0.020481
837.903510	0.020567
838.091779	0.020343
838.280030	0.020352
838.468263	0.020336
838.656477	0.020148
838.844674	0.020103
839.032852	0.020259
839.221012	0.020350
839.409153	0.020346
839.597277	0.020458
839.785382	0.020716
839.973469	0.020907
840.161538	0.021052
840.349589	0.021501
840.537621	0.021463
840.725635	0.021262
840.913631	0.021204
841.101609	0.021342
841.289568	0.021376
841.477509	0.021474
841.665432	0.021423
841.853337	0.021590
842.041224	0.021431
842.229092	0.021555
842.416942	0.021618
842.604774	0.021547
842.792588	0.021319
842.980383	0.021280
843.168160	0.021079
843.355919	0.021221
843.543660	0.021117
843.731382	0.021011
843.919087	0.021089
844.106773	0.020977
844.294441	0.021056
844.482090	0.021072
844.669722	0.020965
844.857335	0.021017
845.044930	0.020877
845.232507	0.020928
845.420065	0.020800
845.607605	0.020960
845.795127	0.021063
845.982631	0.021244
846.170117	0.021541
846.357584	0.021543
846.545033	0.021615
846.732464	0.021851
846.919877	0.021621
847.107272	0.021951
847.294648	0.021784
847.482006	0.021829
847.669346	0.021841
847.856667	0.021656
848.043971	0.021660
848.231256	0.021485
848.418523	0.021518
848.605771	0.021860
848.793002	0.021641
848.980214	0.021634
849.167408	0.021798
849.354584	0.021800
849.541742	0.021969
849.728881	0.022012
849.916002	0.022207
850.103105	0.022192
850.290190	0.022006
850.477256	0.022197
850.664304	0.022527
850.851334	0.022420
851.038346	0.022490
851.225340	0.022631
851.412315	0.022674
851.599272	0.022867
851.786211	0.022879
851.973132	0.023256
852.160034	0.023175
852.346918	0.022895
852.533784	0.023038
852.720632	0.023088
852.907462	0.023033
853.094273	0.023195
853.281066	0.023304
853.467841	0.023465
853.654598	0.023669
853.841336	0.023986
854.028056	0.024322
854.214758	0.024366
854.401442	0.024281
854.588107	0.024598
854.774755	0.024809
854.961384	0.024776
855.147995	0.025073
855.334587	0.024911
855.521162	0.024924
855.707718	0.024834
855.894256	0.025117
856.080775	0.025200
856.267277	0.025063
856.453760	0.025109
856.640225	0.025052
856.826672	0.024565
857.013101	0.024648
857.199511	0.024495
857.385903	0.024469
857.572277	0.024104
857.758633	0.023998
857.944970	0.024034
858.131290	0.023974
858.317591	0.024073
858.503873	0.024270
858.690138	0.024163
858.876384	0.024050
859.062612	0.023825
859.248822	0.024104
859.435014	0.024175
859.621188	0.024131
859.807343	0.024002
859.993480	0.024113
860.179599	0.024106
860.365699	0.024019
860.551781	0.024218
860.737846	0.024292
860.923891	0.023911
861.109919	0.023882
861.295929	0.023945
861.481920	0.023890
861.667893	0.023764
861.853848	0.023686
862.039784	0.023954
862.225702	0.023960
862.411603	0.024417
862.597484	0.024401
862.783348	0.024477
862.969193	0.024096
863.155021	0.024191
863.340830	0.024302
863.526620	0.024428
863.712393	0.024191
863.898147	0.023993
864.083883	0.023944
864.269601	0.024374
864.455301	0.024669
864.640982	0.025270
864.826645	0.025276
865.012290	0.025423
865.197917	0.025382
865.383526	0.025560
865.569116	0.025716
865.754688	0.025394
865.940242	0.025396
866.125777	0.025334
866.311295	0.025300
866.496794	0.025373
866.682275	0.025097
866.867737	0.025174
867.053182	0.025385
867.238608	0.025504
867.424016	0.025772
867.609406	0.025824
867.794778	0.025719
867.980131	0.025493
868.165466	0.025648
868.350783	0.025798
868.536082	0.025618
868.721362	0.025291
868.906625	0.025137
869.091869	0.025058
869.277094	0.024831
869.462302	0.024833
869.647491	0.024897
869.832662	0.025015
870.017815	0.024944
870.202950	0.025227
870.388066	0.024979
870.573165	0.024887
870.758245	0.024982
870.943306	0.024927
871.128350	0.024857
871.313375	0.024816
871.498382	0.024672
871.683371	0.024720
871.868342	0.024553
872.053294	0.024986
872.238229	0.025427
872.423144	0.025317
872.608042	0.025503
872.792922	0.025526
872.977783	0.025581
873.162626	0.025533
873.347451	0.025507
873.532258	0.025703
873.717046	0.025734
873.901816	0.025533
874.086568	0.025658
874.271302	0.025850
874.456017	0.026112
874.640715	0.026232
874.825394	0.025941
875.010055	0.026229
875.194697	0.026117
875.379322	0.026131
875.563928	0.026349
875.748516	0.026177
875.933085	0.026154
876.117637	0.026364
876.302170	0.026245
876.486685	0.026703
876.671182	0.026667
876.855661	0.026904
877.040121	0.026776
877.224563	0.026551
877.408987	0.026489
877.593393	0.026240
877.777780	0.025869
877.962150	0.025728
878.146501	0.025662
878.330833	0.025633
878.515148	0.025442
878.699444	0.025385
878.883722	0.025631
879.067982	0.025867
879.252224	0.026200
879.436447	0.026074
879.620653	0.026070
879.804840	0.026081
879.989008	0.026004
880.173159	0.025863
880.357291	0.025880
880.541405	0.025498
880.725501	0.025540
880.909579	0.025391
881.093638	0.025494
881.277680	0.025519
881.461703	0.025351
881.645707	0.025284
881.829694	0.025274
882.013662	0.024991
882.197612	0.024834
882.381544	0.024513
882.565458	0.024322
882.749353	0.024281
882.933230	0.024323
883.117089	0.024471
883.300930	0.024504
883.484753	0.024763
883.668557	0.025181
883.852343	0.025404
884.036111	0.025400
884.219861	0.025568
884.403592	0.025548
884.587305	0.025799
884.771000	0.025796
884.954677	0.025639
885.138335	0.025490
885.321976	0.025278
885.505598	0.025290
885.689201	0.025304
885.872787	0.025204
886.056354	0.025198
886.239904	0.024900
886.423434	0.024845
886.606947	0.025048
886.790442	0.025427
886.973918	0.025542
887.157376	0.025922
887.340816	0.026215
887.524237	0.026384
887.707641	0.026659
887.891026	0.026887
888.074393	0.026751
888.257741	0.026497
888.441072	0.026170
888.624384	0.025881
888.807678	0.025413
888.990954	0.025080
889.174211	0.024801
889.357451	0.024161
889.540672	0.024196
889.723875	0.024131
889.907059	0.024413
890.090226	0.024372
890.273374	0.024567
890.456504	0.024792
890.639616	0.024867
890.822709	0.024643
891.005785	0.025087
891.188842	0.025086
891.371881	0.025084
891.554901	0.024949
891.737904	0.024972
891.920888	0.025124
892.103854	0.024957
892.286802	0.024913
892.469731	0.025210
892.652643	0.025084
892.835536	0.024977
893.018410	0.024803
893.201267	0.024922
893.384106	0.024729
893.566926	0.024717
893.749728	0.024610
893.932511	0.024772
894.115277	0.024801
894.298024	0.024938
894.480753	0.024719
894.663464	0.024925
894.846157	0.024657
895.028831	0.024689
895.211487	0.024281
895.394125	0.024266
895.576745	0.024112
895.759346	0.024429
895.941930	0.024294
896.124495	0.024298
896.307041	0.024444
896.489570	0.024575
896.672080	0.024768
896.854573	0.025097
897.037046	0.025312
897.219502	0.025510
897.401940	0.025091
897.584359	0.025158
897.766760	0.025465
897.949143	0.025163
898.131507	0.025049
898.313854	0.024943
898.496182	0.024911
898.678492	0.024778
898.860783	0.024260
899.043057	0.024230
899.225312	0.024179
899.407549	0.023911
899.589768	0.024114
899.771968	0.023978
899.954151	0.023935
900.136315	0.023901
900.318461	0.024031
900.500588	0.024239
900.682698	0.024110
900.864789	0.023943
901.046862	0.023877
901.228917	0.023609
901.410953	0.023700
901.592971	0.023730
901.774972	0.023753
901.956953	0.023400
902.138917	0.023477
902.320862	0.023512
902.502790	0.023356
902.684699	0.022863
902.866589	0.022874
903.048462	0.022501
903.230316	0.022527
903.412152	0.022207
903.593970	0.022481
903.775770	0.022341
903.957551	0.022076
904.139314	0.022217
904.321059	0.022264
904.502786	0.022509
904.684494	0.022529
904.866185	0.022547
905.047857	0.022866
905.229510	0.022638
905.411146	0.022826
905.592763	0.022999
905.774363	0.023167
905.955943	0.023763
906.137506	0.023642
906.319051	0.023683
906.500577	0.023695
906.682085	0.023745
906.863575	0.023521
907.045046	0.023270
907.226500	0.023225
907.407935	0.023026
907.589352	0.022749
907.770750	0.022552
907.952131	0.022705
908.133493	0.022494
908.314837	0.022097
908.496163	0.022088
908.677470	0.022308
908.858760	0.022384
909.040031	0.022509
909.221284	0.022406
909.402518	0.022979
909.583735	0.022819
909.764933	0.022536
909.946113	0.022692
910.127275	0.022743
910.308418	0.022504
910.489544	0.022318
910.670651	0.022214
910.851740	0.021905
911.032810	0.021192
911.213863	0.020861
911.394897	0.020775
911.575913	0.020383
911.756911	0.020154
911.937890	0.019973
912.118851	0.019981
912.299794	0.019754
912.480719	0.019939
912.661626	0.019915
912.842514	0.019700
913.023384	0.019608
913.204236	0.019722
913.385070	0.019714
913.565886	0.019640
913.746683	0.019217
913.927462	0.019292
914.108223	0.019173
914.288965	0.018869
914.469690	0.019075
914.650396	0.018996
914.831084	0.018531
915.011754	0.018405
915.192405	0.018299
915.373038	0.018344
915.553653	0.017679
915.734250	0.017494
915.914829	0.017849
916.095389	0.017862
916.275931	0.017732
916.456455	0.017877
916.636961	0.018019
916.817448	0.017992
916.997917	0.018082
917.178368	0.018507
917.358801	0.018724
917.539216	0.018470
917.719612	0.018473
917.899990	0.018523
918.080350	0.018558
918.260692	0.018171
918.441015	0.017880
918.621320	0.017698
918.801607	0.017455
918.981876	0.017175
919.162127	0.016627
919.342359	0.016393
919.522573	0.016335
919.702769	0.016012
919.882947	0.016070
920.063106	0.015930
920.243247	0.015662
920.423370	0.015366
920.603475	0.015143
920.783562	0.015100
920.963630	0.014992
921.143680	0.014988
921.323712	0.014762
921.503725	0.014941
921.683721	0.015067
921.863698	0.015279
922.043657	0.015608
922.223598	0.015816
922.403520	0.015484
922.583424	0.015580
922.763311	0.015322
922.943178	0.015525
923.123028	0.015510
923.302859	0.015385
923.482673	0.015001
923.662467	0.014461
923.842244	0.014077
924.022003	0.014539
924.201743	0.014209
924.381465	0.013892
924.561169	0.013577
924.740854	0.013359
924.920522	0.013039
925.100171	0.013232
925.279802	0.012796
925.459414	0.012546
925.639009	0.012302
925.818585	0.012551
925.998143	0.012206
926.177683	0.012336
926.357205	0.012319
926.536708	0.012052
926.716193	0.011886
926.895660	0.012476
927.075109	0.012625
927.254539	0.012392
927.433951	0.011863
927.613345	0.011972
927.792721	0.011599
927.972079	0.010968
928.151418	0.010909
928.330739	0.011072
928.510042	0.010574
928.689327	0.009956
928.868593	0.009817
929.047841	0.009757
929.227071	0.009521
929.406283	0.009369
929.585476	0.008980
929.764652	0.009484
929.943809	0.008544
930.122948	0.008383
930.302068	0.008412
930.481171	0.007963
930.660255	0.007881
930.839321	0.007840
931.018369	0.007876
931.197398	0.007988
931.376409	0.007202
931.555402	0.007211
931.734377	0.007093
931.913334	0.007253
932.092272	0.007407
932.271192	0.007050
932.450094	0.006866
932.628978	0.006558
932.807844	0.006773
932.986691	0.006622
933.165520	0.006527
933.344331	0.006163
933.523123	0.005870
933.701898	0.005956
933.880654	0.006000
934.059392	0.006021
934.238111	0.005991
934.416813	0.005697
934.595496	0.005897
934.774161	0.005618
934.952808	0.005758
935.131437	0.005398
935.310047	0.004922
935.488639	0.004342
935.667213	0.003971
935.845769	0.003384
936.024306	0.003037
936.202825	0.002837
936.381326	0.002997
936.559809	0.002794
936.738274	0.002932
936.916720	0.003125
937.095148	0.003632
937.273558	0.003906
937.451950	0.004534
937.630323	0.004585
937.808678	0.004043
937.987015	0.003541
938.165334	0.003115
938.343635	0.002982
938.521917	0.002856
938.700181	0.002845
938.878427	0.002060
939.056655	0.001229
939.234864	0.000687
939.413055	0.000928
939.591228	0.001358
939.769383	0.001626
939.947519	0.001611
940.125638	0.001997
940.303738	0.001475
940.481820	0.002006
940.659883	0.001657
940.837929	0.001459
941.015956	0.000797
941.193965	0.000228
941.371955	-0.000252
941.549928	-0.000744
941.727882	-0.001534
941.905818	-0.001851
942.083736	-0.002297
942.261636	-0.001792
942.439517	-0.002233
942.617380	-0.002068
942.795225	-0.001774
942.973052	-0.001668
943.150860	-0.001719
943.328651	-0.001289
943.506423	-0.001843
943.684176	-0.002004
943.861912	-0.002082
944.039629	-0.000932
944.217328	-0.000728
944.395009	-0.001352
944.572672	-0.001554
944.750317	-0.001314
944.927943	-0.002195
945.105551	-0.001687
945.283141	-0.001728
945.460712	-0.001601
945.638265	-0.001426
945.815801	-0.001821
945.993317	-0.002006
946.170816	-0.002363
946.348297	-0.003580
946.525759	-0.003012
946.703203	-0.003709
946.880629	-0.003310
947.058036	-0.003188
947.235425	-0.003645
947.412797	-0.003103
947.590149	-0.003053
947.767484	-0.003411
947.944800	-0.002563
948.122099	-0.003358
948.299379	-0.002329
948.476640	-0.002738
948.653884	-0.003598
948.831109	-0.003637
949.008316	-0.003989
949.185505	-0.004447
949.362676	-0.003468
949.539828	-0.003571
949.716962	-0.003032
949.894078	-0.003858
950.071176	-0.003866
950.248256	-0.004165
950.425317	-0.005985
950.602360	-0.005813
950.779385	-0.004915
950.956391	-0.005104
951.133380	-0.003349
951.310350	-0.004192
951.487302	-0.004495
951.664235	-0.004565
951.841151	-0.004294
952.018048	-0.002959
952.194927	-0.003501
952.371788	-0.003671
952.548631	-0.003772
952.725455	-0.006166
952.902261	-0.005977
953.079049	-0.003669
953.255819	-0.003075
953.432570	-0.002886
953.609303	-0.003060
953.786018	-0.002961
953.962715	-0.002932
954.139394	-0.002119
954.316054	-0.002756
954.492696	-0.002565
954.669320	-0.002757
954.845926	-0.002576
955.022513	-0.001344
955.199083	-0.002141
955.375634	-0.000996
955.552166	-0.000321
955.728681	0.000059
955.905177	0.002080
956.081655	0.003357
956.258115	0.001471
956.434557	0.001153
956.610980	0.001037
956.787385	0.002996
956.963772	0.001853
957.140141	0.001756
957.316492	0.000238
957.492824	0.000926
957.669138	-0.000361
957.845434	0.000757
958.021712	0.000657
958.197971	0.000380
958.374212	-0.000122
958.550435	0.000475
958.726640	0.001570
958.902826	0.002648
959.078995	0.002688
959.255145	0.003275
959.431277	0.003810
959.607390	0.005502
959.783486	0.005330
959.959563	0.004021
960.135622	0.003469
960.311662	0.002357
960.487685	0.002061
960.663689	-0.000347
960.839675	0.000792
961.015643	-0.000258
961.191593	-0.001419
961.367524	-0.001586
961.543437	0.001094
961.719332	0.002047
961.895209	0.001594
962.071067	0.002719
962.246907	0.005323
962.422730	0.005623
962.598533	0.005717
962.774319	0.005544
962.950086	0.005553
963.125835	0.004753
963.301566	0.005684
963.477279	0.007544
963.652973	0.008264
963.828650	0.008492
964.004308	0.008118
964.179947	0.009074
964.355569	0.008261
964.531172	0.009222
964.706757	0.009349
964.882324	0.009386
965.057873	0.008525
965.233403	0.008323
965.408916	0.008838
965.584410	0.008487
965.759885	0.008447
965.935343	0.009487
966.110782	0.009971
966.286203	0.010810
966.461606	0.010329
966.636991	0.010875
966.812357	0.010482
966.987705	0.008831
967.163035	0.009116
967.338347	0.009753
967.513641	0.008781
967.688916	0.008834
967.864173	0.008605
968.039412	0.009621
968.214632	0.009390
968.389835	0.009948
968.565019	0.009427
968.740185	0.009249
968.915333	0.009677
969.090462	0.010748
969.265573	0.010395
969.440667	0.010463
969.615741	0.010967
969.790798	0.010233
969.965836	0.010036
970.140856	0.011836
970.315858	0.012619
970.490842	0.012078
970.665808	0.012274
970.840755	0.013286
971.015684	0.014289
971.190595	0.013997
971.365487	0.014892
971.540362	0.014432
971.715218	0.014590
971.890056	0.013611
972.064875	0.012888
972.239677	0.013321
972.414460	0.013455
972.589225	0.011456
972.763972	0.011739
972.938700	0.011030
973.113411	0.013525
973.288103	0.012517
973.462777	0.013991
973.637432	0.014749
973.812070	0.015099
973.986689	0.013885
974.161290	0.013411
974.335873	0.012226
974.510437	0.012817
974.684984	0.010417
974.859512	0.011634
975.034022	0.010972
975.208513	0.011222
975.382987	0.010749
975.557442	0.010921
975.731879	0.011006
975.906298	0.011951
976.080698	0.013100
976.255080	0.013572
976.429445	0.013239
976.603790	0.013116
976.778118	0.013643
976.952427	0.012206
977.126719	0.011555
977.300992	0.012150
977.475246	0.012725
977.649483	0.008822
977.823701	0.009581
977.997901	0.008574
978.172083	0.009202
978.346247	0.007671
978.520392	0.009846
978.694519	0.011738
978.868628	0.013625
979.042719	0.012804
979.216791	0.015938
979.390845	0.014419
979.564882	0.016077
979.738899	0.014736
979.912899	0.014873
980.086880	0.014106
980.260843	0.013201
980.434788	0.011327
980.608715	0.011325
980.782623	0.010105
980.956514	0.012001
981.130386	0.010121
981.304240	0.010809
981.478075	0.010322
981.651892	0.009841
981.825692	0.008278
981.999472	0.009021
982.173235	0.007977
982.346980	0.008959
982.520706	0.008462
982.694414	0.010008
982.868104	0.010703
983.041775	0.012643
983.215428	0.012503
983.389064	0.013473
983.562680	0.013885
983.736279	0.016211
983.909860	0.017090
984.083422	0.016429
984.256966	0.014008
984.430491	0.013106
984.603999	0.013647
984.777488	0.014690
984.950959	0.013695
985.124412	0.012966
985.297847	0.011621
985.471263	0.010687
985.644661	0.010444
985.818041	0.012333
985.991403	0.012549
986.164747	0.010721
986.338072	0.010478
986.511379	0.010796
986.684668	0.012752
986.857938	0.014813
987.031191	0.014707
987.204425	0.015091
987.377641	0.014437
987.550839	0.014013
987.724018	0.014692
987.897179	0.014755
988.070322	0.016965
988.243447	0.015171
988.416554	0.012530
988.589642	0.013243
988.762712	0.013553
988.935764	0.013176
989.108798	0.011836
989.281813	0.012984
989.454811	0.013447
989.627790	0.012176
989.800751	0.012797
989.973693	0.013792
990.146617	0.013560
990.319524	0.013819
990.492412	0.013931
990.665281	0.015427
990.838133	0.013754
991.010966	0.013230
991.183781	0.013719
991.356578	0.013923
991.529356	0.014462
991.702117	0.014323
991.874859	0.013255
992.047583	0.013216
992.220288	0.013159
992.392976	0.013784
992.565645	0.013504
992.738296	0.013358
992.910929	0.013216
993.083543	0.012384
993.256139	0.012958
993.428718	0.013913
993.601277	0.013568
993.773819	0.013740
993.946342	0.013900
994.118848	0.016378
994.291335	0.016108
994.463803	0.015446
994.636254	0.016318
994.808686	0.016108
994.981100	0.015646
995.153496	0.018040
995.325874	0.018288
995.498233	0.017233
995.670574	0.014698
995.842897	0.014565
996.015202	0.016021
996.187488	0.014364
996.359757	0.013166
996.532007	0.011716
996.704239	0.010719
996.876452	0.011982
997.048648	0.011749
997.220825	0.013285
997.392984	0.012924
997.565124	0.012290
997.737247	0.011807
997.909351	0.011080
998.081437	0.012135
998.253505	0.011212
998.425554	0.010681
998.597586	0.013835
998.769599	0.013272
998.941594	0.014807
999.113571	0.013890
999.285529	0.016011
999.457469	0.018002
999.629391	0.017914
999.801295	0.017486
999.973181	0.016128
1000.145048	0.013476
1000.316897	0.011823
1000.488728	0.009581
1000.660541	0.008616
1000.832335	0.005967
1001.004111	0.006669
1001.175869	0.005980
1001.347609	0.006754
1001.519331	0.007461
1001.691034	0.007872
1001.862719	0.007564
1002.034386	0.007506
1002.206035	0.007745
1002.377665	0.009475
1002.549277	0.008065
1002.720871	0.010675
1002.892447	0.010175
1003.064004	0.009630
1003.235544	0.009193
1003.407065	0.010644
1003.578568	0.012078
1003.750052	0.012952
1003.921519	0.012322
1004.092967	0.012687
1004.264397	0.009723
1004.435809	0.011852
1004.607202	0.012302
1004.778577	0.012099
1004.949934	0.011296
1005.121273	0.011043
1005.292594	0.009984
1005.463896	0.009092
1005.635180	0.007568
1005.806446	0.009456
1005.977694	0.008087
1006.148923	0.007965
1006.320135	0.009322
1006.491328	0.009366
1006.662503	0.009596
1006.833659	0.011568
1007.004798	0.012406
1007.175918	0.013192
1007.347020	0.012774
1007.518103	0.012915
1007.689169	0.012312
1007.860216	0.010410
1008.031245	0.011139
1008.202256	0.011053
1008.373248	0.009225
1008.544223	0.009389
1008.715179	0.009525
1008.886117	0.008986
1009.057036	0.008768
1009.227938	0.009020
1009.398821	0.009429
1009.569686	0.007665
1009.740533	0.007238
1009.911361	0.008449
1010.082172	0.009671
1010.252964	0.009173
1010.423738	0.009401
1010.594493	0.009854
1010.765231	0.009635
1010.935950	0.009751
1011.106651	0.012020
1011.277334	0.011973
1011.447998	0.012549
1011.618645	0.012175
1011.789273	0.014056
1011.959882	0.014447
1012.130474	0.014548
1012.301048	0.015038
1012.471603	0.015911
1012.642140	0.015377
1012.812658	0.015494
1012.983159	0.013895
1013.153641	0.013365
1013.324105	0.011554
1013.494551	0.009954
1013.664979	0.008701
1013.835388	0.008652
1014.005779	0.009689
1014.176152	0.009980
1014.346507	0.010308
1014.516843	0.009523
1014.687162	0.008976
1014.857462	0.009255
1015.027744	0.010074
1015.198007	0.009252
1015.368252	0.008221
1015.538480	0.007277
1015.708689	0.007409
1015.878879	0.007675
1016.049052	0.009035
1016.219206	0.009572
1016.389342	0.010737
1016.559460	0.010540
1016.729559	0.011807
1016.899641	0.013549
1017.069704	0.012279
1017.239749	0.012061
1017.409775	0.011188
1017.579784	0.011283
1017.749774	0.010639
1017.919746	0.010189
1018.089700	0.009929
1018.259635	0.010905
1018.429553	0.011260
1018.599452	0.012366
1018.769333	0.012936
1018.939195	0.012796
1019.109040	0.012756
1019.278866	0.012698
1019.448674	0.012861
1019.618464	0.013618
1019.788235	0.012479
1019.957989	0.012112
1020.127724	0.012097
1020.297441	0.010693
1020.467139	0.013168
1020.636820	0.012428
1020.806482	0.014055
1020.976126	0.013299
1021.145752	0.012574
1021.315359	0.013999
1021.484948	0.012765
1021.654519	0.011978
1021.824072	0.012446
1021.993607	0.009875
1022.163123	0.011009
1022.332621	0.009819
1022.502101	0.010460
1022.671563	0.009587
1022.841007	0.008100
1023.010432	0.008621
1023.179839	0.008731
1023.349228	0.008664
1023.518598	0.009389
1023.687951	0.009603
1023.857285	0.009393
1024.026601	0.007225
1024.195899	0.007621
1024.365178	0.007655
1024.534439	0.007805
1024.703682	0.008676
1024.872907	0.009356
1025.042114	0.009081
1025.211302	0.009695
1025.380472	0.009759
1025.549624	0.011664
1025.718758	0.012542
1025.887873	0.013709
1026.056970	0.015266
1026.226049	0.015346
1026.395110	0.014941
1026.564153	0.014259
1026.733177	0.012654
1026.902183	0.012883
1027.071171	0.013199
1027.240141	0.014010
1027.409092	0.012994
1027.578026	0.009995
1027.746940	0.009805
1027.915837	0.010040
1028.084716	0.010796
1028.253576	0.010485
1028.422418	0.010928
1028.591242	0.010952
1028.760048	0.009228
1028.928835	0.010489
1029.097604	0.010760
1029.266355	0.010306
1029.435088	0.010349
1029.603803	0.010785
1029.772499	0.011928
1029.941177	0.011679
1030.109837	0.011599
1030.278478	0.012913
1030.447102	0.012265
1030.615707	0.012433
1030.784294	0.013526
1030.952863	0.013386
1031.121413	0.012227
1031.289945	0.010656
1031.458460	0.011983
1031.626955	0.012036
1031.795433	0.012942
1031.963892	0.011491
1032.132334	0.011149
1032.300756	0.009498
1032.469161	0.007859
1032.637548	0.008949
1032.805916	0.010304
1032.974266	0.007715
1033.142598	0.007562
1033.310911	0.007333
1033.479207	0.007816
1033.647484	0.009051
1033.815743	0.009667
1033.983983	0.010696
1034.152206	0.010937
1034.320410	0.010570
1034.488596	0.012074
1034.656764	0.011276
1034.824914	0.011172
1034.993045	0.011189
1035.161158	0.011559
1035.329253	0.012247
1035.497330	0.013108
1035.665388	0.013049
1035.833428	0.012517
1036.001450	0.011343
1036.169454	0.012496
1036.337440	0.011856
1036.505407	0.013164
1036.673356	0.014331
1036.841287	0.013683
1037.009200	0.012143
1037.177094	0.012164
1037.344970	0.012506
1037.512828	0.014350
1037.680668	0.013246
1037.848489	0.012582
1038.016293	0.011002
1038.184078	0.009770
1038.351845	0.010847
1038.519593	0.011414
1038.687324	0.010202
1038.855036	0.010414
1039.022730	0.010134
1039.190406	0.010189
1039.358063	0.011444
1039.525702	0.012034
1039.693323	0.012587
1039.860926	0.011631
1040.028511	0.012077
1040.196077	0.013915
1040.363625	0.014055
1040.531155	0.012437
1040.698667	0.012396
1040.866161	0.011465
1041.033636	0.011120
1041.201093	0.009430
1041.368532	0.008351
1041.535952	0.008463
1041.703355	0.007719
1041.870739	0.007332
1042.038105	0.008673
1042.205452	0.008897
1042.372782	0.010700
1042.540093	0.011050
1042.707386	0.011546
1042.874661	0.011483
1043.041918	0.010662
1043.209156	0.009407
1043.376376	0.009674
1043.543578	0.009452
1043.710762	0.009451
1043.877927	0.007811
1044.045074	0.008523
1044.212203	0.008842
1044.379314	0.010398
1044.546407	0.010403
1044.713481	0.009514
1044.880537	0.009083
1045.047575	0.009540
1045.214595	0.008320
1045.381596	0.008687
1045.548579	0.007274
1045.715544	0.007285
1045.882491	0.006911
1046.049420	0.007368
1046.216330	0.009140
1046.383222	0.009866
1046.550096	0.009872
1046.716951	0.011780
1046.883789	0.012049
1047.050608	0.014088
1047.217409	0.015411
1047.384192	0.013824
1047.550956	0.014401
1047.717703	0.014373
1047.884431	0.013621
1048.051140	0.014099
1048.217832	0.013053
1048.384505	0.012850
1048.551161	0.012080
1048.717798	0.009739
1048.884416	0.011688
1049.051017	0.010065
1049.217599	0.010126
1049.384163	0.010864
1049.550709	0.010860
1049.717237	0.011425
1049.883746	0.010381
1050.050237	0.009348
1050.216710	0.009600
1050.383165	0.008388
1050.549601	0.009383
1050.716019	0.008466
1050.882420	0.009643
1051.048801	0.009026
1051.215165	0.009271
1051.381510	0.010948
1051.547837	0.011401
1051.714146	0.011726
1051.880437	0.013613
1052.046709	0.015773
1052.212964	0.017253
1052.379200	0.016227
1052.545417	0.015280
1052.711617	0.015239
1052.877798	0.014456
1053.043961	0.014835
1053.210106	0.013567
1053.376233	0.012644
1053.542341	0.010333
1053.708432	0.010885
1053.874504	0.012163
1054.040557	0.013067
1054.206593	0.014451
1054.372610	0.014228
1054.538609	0.011763
1054.704590	0.013450
1054.870553	0.012515
1055.036497	0.011686
1055.202424	0.009291
1055.368331	0.005573
1055.534221	0.006140
1055.700093	0.005936
1055.865946	0.007697
1056.031781	0.009881
1056.197598	0.010270
1056.363397	0.009968
1056.529177	0.011487
1056.694939	0.013091
1056.860683	0.013911
1057.026409	0.014058
1057.192116	0.011510
1057.357806	0.009512
1057.523477	0.007839
1057.689130	0.005305
1057.854764	0.006139
1058.020381	0.004752
1058.185979	0.005544
1058.351559	0.006037
1058.517120	0.005528
1058.682664	0.006707
1058.848189	0.007087
1059.013696	0.010019
1059.179185	0.011991
1059.344656	0.011343
1059.510108	0.011593
1059.675542	0.011323
1059.840958	0.011812
1060.006356	0.011400
1060.171735	0.010231
1060.337096	0.009396
1060.502439	0.010293
1060.667764	0.010918
1060.833071	0.011543
1060.998359	0.012313
1061.163629	0.011418
1061.328881	0.011300
1061.494115	0.009717
1061.659330	0.010268
1061.824527	0.010281
1061.989706	0.009779
1062.154867	0.008591
1062.320010	0.008542
1062.485134	0.007591
1062.650240	0.008013
1062.815328	0.008191
1062.980398	0.009105
1063.145449	0.009273
1063.310482	0.009541
1063.475497	0.007465
1063.640494	0.005623
1063.805473	0.006160
1063.970433	0.007642
1064.135375	0.006900
1064.300299	0.007128
1064.465204	0.007664
1064.630092	0.006949
1064.794961	0.007096
1064.959812	0.007355
1065.124645	0.010138
1065.289459	0.008981
1065.454256	0.008033
1065.619034	0.007945
1065.783793	0.007462
1065.948535	0.006759
1066.113258	0.007172
1066.277964	0.008160
1066.442651	0.009389
1066.607319	0.009521
1066.771970	0.009468
1066.936602	0.007817
1067.101216	0.008668
1067.265812	0.009629
1067.430389	0.009232
1067.594949	0.009200
1067.759490	0.008987
1067.924013	0.008374
1068.088518	0.008573
1068.253004	0.010181
1068.417472	0.011395
1068.581922	0.010233
1068.746354	0.008950
1068.910768	0.010292
1069.075163	0.011936
1069.239540	0.009773
1069.403899	0.008175
1069.568240	0.009193
1069.732562	0.008539
1069.896866	0.011264
1070.061152	0.012569
1070.225420	0.012801
1070.389670	0.011274
1070.553901	0.011138
1070.718114	0.011233
1070.882309	0.013036
1071.046486	0.010659
1071.210644	0.009986
1071.374784	0.007285
1071.538906	0.006489
1071.703010	0.006287
1071.867096	0.007544
1072.031163	0.006645
1072.195212	0.008022
1072.359243	0.007910
1072.523256	0.007369
1072.687250	0.007843
1072.851226	0.008195
1073.015184	0.008927
1073.179124	0.008515
1073.343045	0.007259
1073.506949	0.006010
1073.670834	0.005337
1073.834701	0.004109
1073.998549	0.003936
1074.162380	0.002895
1074.326192	0.002540
1074.489986	0.002188
1074.653761	0.002211
1074.817519	0.001856
1074.981258	0.003741
1075.144979	0.003871
1075.308682	0.005930
1075.472367	0.006226
1075.636033	0.006404
1075.799681	0.006205
1075.963311	0.004858
1076.126923	0.005501
1076.290516	0.007115
1076.454092	0.004573
1076.617649	0.004770
1076.781187	0.004450
1076.944708	0.006460
1077.108210	0.007608
1077.271695	0.008927
1077.435160	0.010439
1077.598608	0.010876
1077.762038	0.011157
1077.925449	0.013384
1078.088842	0.013347
1078.252217	0.010485
1078.415573	0.009175
1078.578912	0.007083
1078.742232	0.005673
1078.905534	0.007310
1079.068817	0.006172
1079.232083	0.005023
1079.395330	0.005896
1079.558559	0.007403
1079.721770	0.009269
1079.884962	0.010491
1080.048136	0.013663
1080.211293	0.017014
1080.374430	0.015023
1080.537550	0.016217
1080.700651	0.016666
1080.863735	0.016437
1081.026800	0.016742
1081.189846	0.017004
1081.352875	0.016816
1081.515885	0.014910
1081.678877	0.014915
1081.841851	0.013681
1082.004807	0.014425
1082.167744	0.015488
1082.330663	0.014140
1082.493564	0.010728
1082.656447	0.011560
1082.819312	0.009273
1082.982158	0.009283
1083.144986	0.006396
1083.307796	0.008189
1083.470587	0.006891
1083.633361	0.004499
1083.796116	0.004144
1083.958853	0.005643
1084.121571	0.005834
1084.284272	0.006927
1084.446954	0.006106
1084.609618	0.007754
1084.772264	0.005361
1084.934892	0.006146
1085.097501	0.008377
1085.260092	0.009782
1085.422665	0.009478
1085.585220	0.008086
1085.747756	0.008880
1085.910274	0.011442
1086.072774	0.009194
1086.235256	0.010922
1086.397720	0.011578
1086.560165	0.012736
1086.722592	0.012902
1086.885001	0.014654
1087.047392	0.016920
1087.209764	0.017204
1087.372119	0.016537
1087.534455	0.017186
1087.696772	0.018482
1087.859072	0.016922
1088.021353	0.015447
1088.183616	0.014559
1088.345861	0.012761
1088.508088	0.010229
1088.670296	0.010277
1088.832486	0.010274
1088.994658	0.009534
1089.156812	0.006829
1089.318948	0.006515
1089.481065	0.004906
1089.643164	0.004246
1089.805245	0.004567
1089.967308	0.001855
1090.129352	0.001183
1090.291378	0.000442
1090.453386	0.002312
1090.615376	0.003036
1090.777347	0.003613
1090.939301	0.006151
1091.101236	0.007213
1091.263153	0.007635
1091.425051	0.010032
1091.586932	0.010100
1091.748794	0.009038
1091.910638	0.007929
1092.072463	0.010724
1092.234271	0.012431
1092.396060	0.010240
1092.557831	0.009579
1092.719584	0.009714
1092.881319	0.011135
1093.043035	0.009440
1093.204733	0.009082
1093.366413	0.008935
1093.528075	0.007557
1093.689718	0.006277
1093.851343	0.008085
1094.012950	0.006106
1094.174539	0.006633
1094.336110	0.005943
1094.497662	0.005712
1094.659196	0.008019
1094.820712	0.007448
1094.982210	0.004497
1095.143689	0.005463
1095.305151	0.004953
1095.466594	0.007807
1095.628018	0.005541
1095.789425	0.004270
1095.950813	0.007728
1096.112183	0.007416
1096.273535	0.007482
1096.434869	0.008358
1096.596184	0.007088
1096.757482	0.005690
1096.918761	0.006697
1097.080021	0.011750
1097.241264	0.012699
1097.402488	0.011421
1097.563694	0.011683
1097.724882	0.012571
1097.886052	0.011274
1098.047203	0.011545
1098.208336	0.012489
1098.369451	0.012308
1098.530548	0.009410
1098.691627	0.007915
1098.852687	0.009088
1099.013729	0.009314
1099.174753	0.008705
1099.335758	0.010250
1099.496746	0.010865
1099.657715	0.008204
1099.818666	0.006079
1099.979599	0.005322
1100.140513	0.008994
1100.301409	0.009392
1100.462287	0.010134
1100.623147	0.009036
1100.783989	0.008655
1100.944812	0.005623
1101.105617	0.010931
1101.266404	0.009873
1101.427173	0.013662
1101.587923	0.011927
1101.748656	0.008599
1101.909370	0.007552
1102.070066	0.007277
1102.230743	0.009761
1102.391403	0.012067
1102.552044	0.012194
1102.712667	0.013150
1102.873271	0.008354
1103.033858	0.007161
1103.194426	0.010450
1103.354976	0.012364
1103.515508	0.013246
1103.676021	0.012992
1103.836517	0.011657
1103.996994	0.008665
1104.157453	0.009432
1104.317893	0.011788
1104.478316	0.011149
1104.638720	0.009205
1104.799106	0.007883
1104.959474	0.009622
1105.119823	0.010460
1105.280155	0.009742
1105.440468	0.009191
1105.600763	0.009242
1105.761039	0.006619
1105.921298	0.006912
1106.081538	0.006712
1106.241760	0.007193
1106.401964	0.004982
1106.562149	0.004292
1106.722316	0.005601
1106.882465	0.008209
1107.042596	0.006976
1107.202709	0.007684
1107.362803	0.009727
1107.522879	0.009312
1107.682937	0.008319
1107.842977	0.009530
1108.002999	0.008362
1108.163002	0.008637
1108.322987	0.009761
1108.482954	0.008695
1108.642902	0.012680
1108.802833	0.011985
1108.962745	0.012744
1109.122639	0.014483
1109.282515	0.017125
1109.442372	0.016600
1109.602211	0.017194
1109.762032	0.017033
1109.921835	0.017766
1110.081620	0.011217
1110.241386	0.013570
1110.401134	0.011237
1110.560864	0.007588
1110.720576	0.006821
1110.880269	0.009713
1111.039945	0.011373
1111.199602	0.007522
1111.359240	0.007649
1111.518861	0.011781
1111.678463	0.009950
1111.838047	0.010585
1111.997613	0.011353
1112.157161	0.009986
1112.316690	0.006875
1112.476202	0.004947
1112.635695	0.006609
1112.795169	0.007359
1112.954626	0.009548
1113.114064	0.010089
1113.273484	0.013434
1113.432886	0.013445
1113.592270	0.012225
1113.751635	0.017028
1113.910983	0.015988
1114.070312	0.013942
1114.229622	0.015960
1114.388915	0.012522
1114.548189	0.012848
1114.707445	0.011468
1114.866683	0.010617
1115.025903	0.011350
1115.185104	0.008208
1115.344287	0.009375
1115.503452	0.010362
1115.662599	0.004515
1115.821727	0.003903
1115.980838	0.001674
1116.139930	-0.000356
1116.299004	0.005088
1116.458059	0.005475
1116.617097	0.004693
1116.776116	0.003580
1116.935117	0.005776
1117.094099	0.010244
1117.253064	0.011003
1117.412010	0.013367
1117.570938	0.016444
1117.729848	0.013781
1117.888740	0.014990
1118.047613	0.012377
1118.206468	0.016418
1118.365305	0.014497
1118.524124	0.015557
1118.682924	0.014480
1118.841707	0.016228
1119.000471	0.015792
1119.159216	0.017093
1119.317944	0.017569
1119.476653	0.020229
1119.635344	0.014663
1119.794017	0.014412
1119.952672	0.008717
1120.111308	0.012065
1120.269927	0.007917
1120.428527	0.006630
1120.587108	0.003961
1120.745672	0.002896
1120.904217	0.000298
1121.062744	-0.002408
1121.221253	0.000218
1121.379744	0.004538
1121.538216	0.005421
1121.696671	0.005960
1121.855107	0.005187
1122.013524	0.003529
1122.171924	0.002463
1122.330305	0.004437
1122.488668	0.010862
1122.647013	0.008707
1122.805340	0.012156
1122.963648	0.010336
1123.121938	0.009559
1123.280210	0.012257
1123.438464	0.010787
1123.596700	0.012348
1123.754917	0.008255
1123.913116	0.005312
1124.071297	0.002883
1124.229459	0.000744
1124.387604	0.001373
1124.545730	0.002187
1124.703838	0.001921
1124.861928	0.004317
1125.019999	0.004387
1125.178052	0.008330
1125.336088	0.008855
1125.494104	0.010016
1125.652103	0.008398
1125.810083	0.002047
1125.968045	0.004061
1126.125989	-0.000163
1126.283915	0.001709
1126.441823	-0.002132
1126.599712	0.001622
1126.757583	0.006414
1126.915436	0.011828
1127.073270	0.012030
1127.231087	0.013468
1127.388885	0.009445
1127.546665	0.011720
1127.704426	0.009232
1127.862170	0.014356
1128.019895	0.013096
1128.177602	0.010788
1128.335291	0.006204
1128.492961	0.005254
1128.650614	0.009005
1128.808248	0.011939
1128.965864	0.008631
1129.123461	0.004119
1129.281041	-0.000029
1129.438602	-0.000065
1129.596145	0.002040
1129.753670	0.001815
1129.911176	0.000840
1130.068665	-0.003331
1130.226135	-0.006185
1130.383587	-0.000753
1130.541020	0.003870
1130.698436	0.006623
1130.855833	0.005931
1131.013212	0.002980
1131.170573	-0.000021
1131.327915	0.001535
1131.485239	0.012186
1131.642545	0.010597
1131.799833	0.008154
1131.957103	0.007192
1132.114354	0.009484
1132.271588	0.013561
1132.428803	0.016516
1132.585999	0.017913
1132.743178	0.020012
1132.900338	0.016154
1133.057480	0.020218
1133.214604	0.023351
1133.371710	0.023736
1133.528797	0.020269
1133.685866	0.018129
1133.842917	0.014509
1133.999950	0.018461
1134.156964	0.020745
1134.313960	0.012906
1134.470938	0.013131
1134.627898	0.008139
1134.784840	0.008161
1134.941763	0.007735
1135.098668	0.003744
1135.255555	0.006929
1135.412424	0.007236
1135.569274	0.008121
1135.726107	0.015559
1135.882921	0.016248
1136.039716	0.019495
1136.196494	0.022493
1136.353253	0.019767
1136.509995	0.020577
1136.666717	0.018550
1136.823422	0.015099
1136.980109	0.009064
1137.136777	0.004668
1137.293427	0.003765
1137.450059	0.001121
1137.606672	0.006821
1137.763267	0.013689
1137.919844	0.016339
1138.076403	0.007882
1138.232944	0.006836
1138.389466	0.011260
1138.545971	0.018629
1138.702457	0.017695
1138.858924	0.023391
1139.015374	0.019753
1139.171805	0.015259
1139.328218	0.015885
1139.484613	0.021138
1139.640990	0.022537
1139.797348	0.020469
1139.953688	0.013584
1140.110010	0.010193
1140.266314	0.009397
1140.422600	0.012641
1140.578867	0.007462
1140.735116	0.000019
1140.891347	0.005039
1141.047559	0.003033
1141.203754	0.001200
1141.359930	-0.000989
1141.516088	0.002873
1141.672228	0.004331
1141.828349	-0.000994
1141.984452	0.005956
1142.140537	0.012246
1142.296604	0.010503
1142.452653	0.013112
1142.608683	0.017408
1142.764695	0.020493
1142.920689	0.016143
1143.076665	0.012696
1143.232622	0.008580
1143.388562	0.007599
1143.544483	0.004856
1143.700385	0.005730
1143.856270	0.004993
1144.012136	0.002878
1144.167985	0.001101
1144.323814	0.005361
1144.479626	0.004995
1144.635420	0.003456
1144.791195	0.010543
1144.946952	0.011751
1145.102691	0.013586
1145.258411	0.011402
1145.414113	0.006689
1145.569798	0.013536
1145.725463	0.013901
1145.881111	0.012701
1146.036741	0.023139
1146.192352	0.020460
1146.347945	0.023927
1146.503519	0.023076
1146.659076	0.024103
1146.814614	0.025836
1146.970134	0.022739
1147.125636	0.031769
1147.281120	0.040588
1147.436585	0.032605
1147.592032	0.026003
1147.747461	0.025532
1147.902872	0.023114
1148.058265	0.022902
1148.213639	0.034251
1148.368995	0.036929
1148.524333	0.031436
1148.679653	0.030233
1148.834954	0.029652
1148.990237	0.033539
1149.145502	0.031722
1149.300749	0.030710
1149.455977	0.028830
1149.611188	0.020789
1149.766380	0.009672
1149.921553	0.004948
1150.076709	-0.005432
1150.231846	-0.003634
1150.386966	-0.001716
1150.542066	-0.003991
1150.697149	-0.008306
1150.852214	-0.005701
1151.007260	-0.009116
1151.162288	0.001142
1151.317298	0.005143
1151.472289	0.005933
1151.627263	-0.001798
1151.782218	-0.006307
1151.937155	-0.006937
1152.092073	-0.005772
1152.246974	-0.001909
1152.401856	-0.007915
1152.556720	-0.009013
1152.711566	-0.014904
1152.866393	-0.011382
1153.021203	-0.002133
1153.175994	-0.010105
1153.330767	-0.010183
1153.485521	-0.006457
1153.640258	-0.007667
1153.794976	0.005761
1153.949676	0.001511
1154.104358	0.004167
1154.259021	0.013451
1154.413667	0.005308
1154.568294	0.017849
1154.722903	0.017944
1154.877493	0.021171
1155.032066	0.014394
1155.186620	0.004672
1155.341156	0.004271
1155.495674	0.009390
1155.650173	0.006356
1155.804654	0.017566
1155.959118	0.014392
1156.113562	0.016576
1156.267989	0.016618
1156.422397	0.021078
1156.576788	0.023774
1156.731160	0.023759
1156.885513	0.023433
1157.039849	0.012795
1157.194166	0.006585
1157.348465	0.010152
1157.502746	0.002357
1157.657009	0.017136
1157.811253	0.017833
1157.965479	0.017704
1158.119687	0.016587
1158.273877	0.018462
1158.428048	0.020225
1158.582201	0.025424
1158.736337	0.018229
1158.890453	0.029891
1159.044552	0.019985
1159.198632	0.014908
1159.352694	0.019733
1159.506738	0.016953
1159.660764	0.012110
1159.814771	0.012952
1159.968761	0.013932
1160.122732	0.013153
1160.276685	0.002075
1160.430619	-0.007188
1160.584535	-0.000390
1160.738434	0.005065
1160.892313	0.011031
1161.046175	0.015421
1161.200019	0.009193
1161.353844	0.008328
1161.507651	0.009358
1161.661440	0.019002
1161.815210	0.022828
1161.968962	0.016739
1162.122697	0.007400
1162.276412	0.008927
1162.430110	0.005057
1162.583789	0.030006
1162.737451	0.029281
1162.891094	0.037942
1163.044718	0.036825
1163.198325	0.034762
1163.351913	0.036622
1163.505483	0.038999
1163.659035	0.031513
1163.812569	0.030732
1163.966084	0.019991
1164.119581	0.016888
1164.273060	0.011745
1164.426521	0.008722
1164.579964	0.008263
1164.733388	0.006743
1164.886794	0.002267
1165.040182	0.005665
1165.193551	0.010897
1165.346903	0.002412
1165.500236	0.003863
1165.653551	-0.004681
1165.806848	-0.008639
1165.960126	-0.014131
1166.113386	-0.012389
1166.266628	-0.003752
1166.419852	-0.014015
1166.573058	-0.020928
1166.726245	-0.021250
1166.879414	-0.033478
1167.032565	-0.025237
1167.185698	-0.020576
1167.338812	-0.018949
1167.491909	-0.020065
1167.644987	-0.018419
1167.798046	-0.012247
1167.951088	-0.005064
1168.104111	-0.000000
1168.257117	0.014712
1168.410103	0.014071
1168.563072	0.014334
1168.716023	0.021208
1168.868955	0.021389
1169.021869	0.019441
1169.174765	0.029646
1169.327642	0.033058
1169.480501	0.025808
1169.633343	0.027317
1169.786165	0.030682
1169.938970	0.033539
1170.091757	0.034324
1170.244525	0.046805
1170.397275	0.037230
1170.550007	0.046789
1170.702720	0.041458
1170.855415	0.045861
1171.008092	0.043304
1171.160751	0.040858
1171.313392	0.041563
1171.466014	0.003962
1171.618619	0.020272
1171.771205	0.020272
1171.923772	0.020272
