sample name	sample
index	561
start time	 03-16-2021  02:15:50 PM
880	0.015802
Peak Time (s)	182.036
Peak Height 	0.0158
calc peak height	180,183
Baseline Time (s)	8.537
Baseline Value 	-0.002237
subtract baseline	10,4
Abs	0.011575
Peak Time (s)	182.536
Peak Height 	0.01158
calc peak height	180,183
Baseline Time (s)	10.539
Baseline Value 	0.005519
subtract baseline	10,3
PK_550	0.005798
Peak Time (s)	180.036
Peak Height 	0.005798
calc peak height	180,183
Baseline Time (s)	11.036
Baseline Value 	6.9503E-4
subtract baseline	10,2
PK_880	0.006808
Peak Time (s)	180.537
Peak Height 	0.006808
calc peak height	180,183
Baseline Time (s)	11.036
Baseline Value 	0.002397
subtract baseline	10,1


Time (s)	A880-A510	A880-A775	A880-A975	A880	I510	I775	I975	I880	
0.035000	-0.005048	-0.000369	-0.008265	0.006090	5488.576185	33634.877130	3528.667377	18186.095341
0.535500	-0.004965	-0.000025	-0.002776	0.004635	5498.431985	33763.129168	3542.269526	18238.048798
1.038500	-0.005118	-0.000746	-0.000935	0.002724	5509.744643	33848.336134	3549.710591	18306.593284
1.538500	-0.004312	-0.001503	-0.003820	0.003063	5512.757027	33769.908184	3543.312973	18294.419624
2.036500	-0.001953	-0.000109	-0.001892	-0.000238	5549.524623	34107.236547	3553.713653	18413.398617
2.536500	-0.000442	-0.000104	-0.002478	-0.000926	5563.934055	34157.301677	3553.916586	18438.304683
3.036500	-0.001514	-0.000002	0.002443	-0.001045	5557.682452	34173.357066	3564.063914	18442.628110
3.537000	-0.003329	-0.000581	-0.002782	0.004102	5512.395901	33761.514532	3543.312525	18257.155472
4.035000	0.000574	0.000016	-0.004737	0.000987	5558.046889	34027.821341	3545.606845	18369.126938
4.538000	-0.000086	-0.000676	-0.006163	-0.000018	5560.312563	34050.414008	3544.772425	18405.430436
5.035000	-0.002676	-0.000328	-0.003300	0.000185	5542.039984	34060.899581	3550.056570	18398.094613
5.536000	-0.001337	0.000437	0.000823	0.000458	5549.003561	34096.428852	3557.763967	18388.235629
6.036000	-0.000454	-0.000489	-0.004087	-0.000228	5559.278988	34079.114568	3549.313814	18413.054404
6.536000	-0.001389	0.000301	-0.006050	0.000248	5550.033481	34101.807633	3544.471442	18395.839197
7.036000	-0.004578	-0.001387	0.000633	-0.001391	5539.917347	34098.219088	3561.104815	18455.171797
7.537000	-0.000012	-0.000880	-0.005465	-0.000579	5564.484415	34076.186141	3547.271710	18425.761331
8.037000	-0.001436	0.000897	-0.003634	0.001068	5544.375669	34085.613174	3547.636400	18366.232161
8.537500	-0.001584	-0.000230	-0.005484	0.000000	5550.378401	34081.299892	3546.083564	18404.791074
9.034500	-0.001225	-0.000641	0.001943	-0.000138	5553.626710	34061.607307	3561.218495	18409.767160
9.535500	0.000034	0.000215	0.001109	0.000025	5560.820136	34111.652350	3559.211404	18403.902039
10.035000	-0.001092	-0.000629	-0.001862	-0.000607	5557.579436	34096.336164	3554.513284	18426.773638
10.538500	0.002008	0.000344	0.000000	0.000314	5571.899784	34100.068265	3556.399414	18393.444540
11.036000	0.000000	0.000000	0.002370	0.000306	5558.749280	34075.802496	3561.184911	18393.718693
11.536000	0.001082	0.000263	-0.002281	-0.000233	5569.406930	34133.797212	3552.926932	18413.232001
12.036500	0.001179	-0.000208	-0.001103	0.000086	5567.943452	34076.701056	3554.645073	18401.696046
12.537000	-0.001408	-0.000301	-0.004539	-0.000395	5554.116595	34104.747650	3548.746034	18419.092487
13.037000	0.000864	0.001293	-0.004587	-0.000392	5569.017937	34219.839383	3548.642804	18418.971171
13.538000	-0.002588	0.001321	0.004851	-0.000675	5548.228590	34242.379004	3568.199815	18429.216993
14.035000	-0.002346	0.000603	0.000256	0.003482	5522.760657	33890.695801	3550.574464	18279.368692
14.535000	-0.001991	-0.000113	-0.001482	0.001730	5536.438547	33965.106809	3550.601885	18342.362728
15.035500	-0.001734	0.001317	0.004286	-0.000013	5549.482873	34194.113081	3565.707209	18405.249531
15.539500	-0.001255	0.000791	-0.002975	0.006432	5510.748030	33693.121219	3538.338676	18173.909079
16.083000	-0.000723	-0.000143	0.001124	0.002750	5538.051684	33889.636785	3553.768651	18305.651731
16.536500	-0.001351	0.000647	-0.000403	-0.000211	5553.283223	34159.917321	3556.644349	18412.411247
17.039500	0.000572	0.000114	0.000293	-0.002823	5583.134376	34310.716195	3563.310708	18507.210948
17.537000	0.000415	0.000140	-0.001604	0.001382	5554.414874	34008.337442	3551.051698	18354.879639
18.034500	-0.000456	-0.000360	0.000604	0.002030	5544.490297	33925.808651	3554.170834	18331.559244
18.534500	0.001082	0.001322	-0.002465	0.002602	5550.803116	34005.651449	3546.912131	18310.982348
19.035000	0.001806	0.000502	-0.002938	0.001853	5560.453921	34000.491060	3547.459770	18337.933658
19.535500	-0.003426	-0.000007	0.005462	0.001797	5526.677611	33967.904406	3564.423045	18339.936068
20.038500	0.000354	0.000269	0.002231	0.003128	5542.603536	33892.101786	3555.229153	18292.068341
20.536000	-0.002985	0.000630	0.002171	0.002341	5526.013413	33974.589983	3556.689053	18320.373130
21.036000	0.001893	0.000856	0.003477	0.002369	5557.633983	33988.813644	3559.258587	18319.355110
21.536500	-0.002750	-0.000272	-0.003820	0.002069	5529.305103	33929.298391	3545.281299	18330.153034
22.036500	-0.000436	0.000206	0.001472	0.002895	5538.978241	33904.272638	3554.175412	18300.441797
22.537000	0.001044	-0.000008	0.001985	0.001885	5555.239452	33961.457949	3557.229703	18336.758890
23.037500	-0.002097	0.000281	0.001072	0.002118	5533.229320	33965.515778	3554.931699	18328.391482
23.535000	-0.002861	-0.000336	0.001374	0.001346	5533.276357	33976.631495	3557.086502	18356.186254
24.035000	0.000993	0.000587	-0.000692	0.004374	5538.651305	33825.605056	3546.912579	18247.396984
24.536000	-0.002311	-0.000281	-0.000906	0.002247	5530.992847	33915.862840	3550.719386	18323.727181
25.035500	-0.002728	0.000760	0.002933	0.002972	5523.586520	33938.597525	3556.951339	18297.678380
25.536500	0.000346	0.000979	0.005623	0.003321	5541.294064	33929.190212	3561.665605	18285.130125
26.036000	-0.000102	0.000620	0.002423	0.003405	5537.827370	33897.406555	3555.059047	18282.130246
26.536500	-0.000545	0.000309	-0.001204	0.002322	5541.997344	33952.862367	3549.976182	18321.036015
27.036500	-0.000079	0.000874	0.002090	0.000516	5556.857480	34123.816757	3560.197822	18386.153809
27.537500	-0.001532	0.001354	0.000027	0.006734	5507.011565	33711.689071	3543.659486	18163.122796
28.037500	-0.000829	-0.000326	0.003463	0.006441	5513.435948	33612.972852	3551.068534	18173.573802
28.535000	0.002512	0.001821	0.002294	0.001655	5566.388716	34109.931366	3558.313189	18345.048539
29.035000	0.000465	0.000607	0.001255	0.000710	5559.151810	34090.500148	3558.125060	18379.132267
29.538500	-0.001790	0.000289	-0.002498	0.006220	5508.661857	33672.488124	3539.693089	18181.460880
30.035500	-0.004210	0.000155	0.002017	0.006395	5491.982799	33650.398744	3548.279834	18175.199900
30.539000	-0.001236	0.000496	0.001898	0.005008	5520.062116	33773.682180	3550.804595	18224.703830
31.035500	0.000326	0.001276	-0.000321	0.003724	5538.541717	33921.614114	3548.942736	18270.681497
31.537000	-0.002444	0.000049	0.002679	0.005125	5511.503683	33733.449298	3552.130382	18220.532729
32.037000	-0.002640	0.000158	-0.004271	0.006903	5498.803734	33614.511517	3534.871375	18157.128781
32.537500	0.001404	0.001681	0.005453	0.001726	5558.643842	34094.608148	3564.548224	18342.479927
33.037500	0.003776	0.001926	0.006276	0.000676	5581.176270	34188.323940	3568.350074	18380.350293
33.535500	-0.002948	0.000435	0.001731	0.005544	5505.559204	33731.123476	3549.405322	18205.574716
34.038000	-0.001666	0.000381	-0.002739	0.004077	5523.305731	33832.068781	3543.445278	18258.034158
34.536000	0.000518	0.001042	-0.001304	0.003841	5539.028637	33896.407249	3546.755624	18266.495326
35.036000	0.001259	0.000680	-0.000835	0.004144	5541.886323	33848.742667	3547.086817	18255.644039
35.536500	0.000096	0.000801	-0.000357	0.003669	5537.396083	33891.456885	3548.979470	18272.646996
36.037000	0.000259	0.000852	0.007325	0.004513	5532.968048	33834.591956	3562.696125	18242.410611
36.537000	-0.000451	0.001061	0.000846	0.004096	5531.066317	33879.509441	3550.525629	18257.363208
37.037000	-0.000330	0.000530	-0.003568	0.003884	5533.235002	33856.603533	3542.189293	18264.969908
37.535000	-0.000795	0.001155	-0.001448	0.004936	5523.387848	33826.013256	3544.299838	18227.302856
38.034500	0.000943	0.001038	-0.000113	0.004701	5536.199954	33834.522613	3547.413569	18235.709727
38.535500	0.001678	0.000781	0.001296	0.004028	5545.374165	33864.262176	3551.557801	18259.775676
39.035500	0.000743	0.001403	0.003473	0.005209	5531.594049	33824.247558	3553.550914	18217.550715
39.535500	0.000824	0.001128	-0.000523	0.004449	5537.060946	33858.972972	3547.099056	18244.724202
40.036000	-0.000513	0.000098	-0.002375	0.004469	5528.242871	33783.843746	3543.390590	18244.010389
40.536500	-0.000232	0.000415	0.002483	0.004364	5530.748769	33813.974333	3553.260672	18247.768479
41.036500	0.000050	0.001449	-0.000126	0.004958	5528.720947	33845.522387	3546.877635	18226.511582
41.537000	0.000801	0.000786	0.002991	0.004813	5534.543980	33808.436195	3553.378036	18231.696793
42.037000	0.000184	0.001281	0.005025	0.004657	5531.546666	33855.030866	3557.770284	18237.275128
42.534500	-0.003365	-0.000259	-0.004469	0.004066	5512.392887	33787.107129	3540.052823	18258.430139
43.035500	-0.000649	0.001294	0.000766	0.004543	5526.884731	33864.173571	3549.476174	18241.363293
43.540500	-0.000672	0.000762	0.001686	0.003573	5533.030006	33895.575102	3553.248055	18276.122783
44.049500	-0.000023	0.000908	-0.001202	0.008902	5502.775383	33525.853135	3536.969837	18086.146592
44.544000	0.003748	0.001916	0.003910	0.003018	5565.557666	34018.441512	3558.823871	18296.039466
45.036500	0.000086	0.001269	0.002107	0.002174	5547.083598	34032.622107	3556.893863	18326.350753
45.536500	-0.000467	0.001206	0.003264	0.006389	5516.106722	33725.795233	3550.774763	18175.428693
46.036500	-0.002184	0.001305	-0.002546	0.008445	5491.837785	33586.440094	3535.228853	18102.336677
46.537000	0.001665	0.000872	0.002785	0.002342	5556.319767	33991.943342	3557.920543	18320.330206
47.034500	0.000639	0.001444	0.003342	0.006173	5524.664168	33758.237672	3551.362080	18183.131558
47.535000	-0.000749	0.000145	0.002394	0.004175	5528.618771	33808.149487	3553.458803	18254.511897
48.035500	-0.000373	0.000114	-0.000351	0.007738	5508.011444	33552.082285	3540.931500	18127.417904
48.535500	0.004154	0.000746	0.005951	0.002261	5573.212270	33988.656997	3564.472259	18323.226671
49.036000	0.004920	0.002055	0.001366	0.002646	5575.728297	34055.259343	3554.461454	18309.389069
49.536000	0.000099	0.001177	0.001608	0.005043	5528.487937	33819.931657	3550.155894	18223.458759
50.036000	-0.000152	0.001189	-0.000301	0.008623	5503.736328	33565.573299	3539.287515	18096.026061
50.537000	0.001675	0.003132	0.005980	0.002381	5556.123813	34152.147203	3564.288485	18318.907032
51.037000	0.003407	-0.006794	0.017494	0.217476	4451.338474	21446.433404	3235.115386	12217.712487
51.537000	-0.006471	-0.012918	-0.002264	-0.067942	5994.227471	38334.773497	3699.454017	21064.506137
52.034500	-0.017080	-0.028005	-0.016658	-0.281334	7948.664564	58939.490741	4289.286227	32718.121424
52.535000	0.004987	-0.016110	0.008145	-0.238841	7707.974353	55115.591877	4225.239161	29920.020977
53.038000	-0.014409	-0.015276	-0.012659	-0.200433	7085.106505	50773.915789	4028.885202	27616.019834
53.535500	-0.016053	-0.012404	-0.022404	-0.235638	7436.612610	55176.274436	4110.041981	29719.974393
54.036000	-0.012588	-0.008986	-0.021495	-0.251072	7646.845821	57502.992109	4164.704324	30697.554638
54.536000	0.000634	-0.004240	-0.012916	-0.239748	7668.473037	56679.716468	4155.378178	29976.924108
55.036500	-0.000650	-0.000328	-0.014866	-0.201735	7239.495763	52605.612108	4026.086742	27690.801265
55.537000	-0.003347	0.000455	-0.014172	-0.161745	6815.456963	48300.285318	3910.039735	25492.285756
56.037000	-0.001730	-0.000864	-0.011461	-0.115008	6410.343329	43526.943208	3791.912995	23166.749829
56.537500	-0.002156	-0.000715	-0.006346	-0.110401	6367.698054	43110.231956	3793.206851	22950.751371
57.037500	0.001129	-0.002545	-0.008194	-0.069677	6065.588345	39341.393357	3689.699404	21138.040189
57.535500	-0.001747	-0.003115	-0.005233	-0.036710	5799.753382	36620.586745	3622.602935	19790.105685
58.035500	-0.002243	-0.001751	-0.011366	-0.011863	5624.612327	34836.817893	3558.028439	18839.722628
58.535500	-0.003287	-0.002430	-0.003732	0.003829	5514.422487	33649.044871	3541.973363	18266.909294
59.038500	-0.000717	-0.002009	-0.000694	0.012042	5478.221062	33099.321885	3531.817997	17975.268767
59.536500	-0.004607	-0.003361	-0.001124	0.015157	5433.934834	32788.571233	3524.931937	17866.110981
60.037000	-0.006628	-0.003272	-0.003586	0.017012	5409.724050	32666.566688	3516.620252	17801.446084
60.537000	-0.009093	-0.003179	-0.003506	0.020494	5373.006159	32433.890847	3510.128647	17680.842498
61.037000	-0.008867	-0.003403	-0.004148	0.022665	5361.110185	32270.501569	3504.799866	17606.133289
61.535000	-0.010832	-0.001695	-0.008616	0.012257	5413.153244	33106.235411	3516.094164	17967.707220
62.035000	-0.008160	-0.001524	-0.010050	0.008745	5451.923661	33364.953230	3520.083267	18091.709797
62.538000	-0.007671	-0.000527	-0.005072	0.008251	5458.134254	33470.300276	3530.675226	18109.219939
63.071000	-0.007868	-0.000594	-0.005930	0.004146	5482.973563	33757.451265	3537.022269	18255.564660
63.541500	-0.005674	0.000202	-0.003874	0.004913	5492.104838	33759.496568	3539.555517	18228.109046
64.036000	-0.009124	-0.000199	-0.004043	0.007387	5454.406436	33554.706919	3534.368819	18139.886476
64.536000	-0.005150	-0.000710	-0.004981	0.000482	5524.023192	34011.874333	3546.123534	18387.352581
65.036000	-0.005352	0.000523	-0.005917	0.000965	5519.595898	34066.037558	3543.314625	18369.940980
65.537000	-0.007756	0.000131	-0.008946	0.000766	5505.360236	34052.108331	3537.737760	18377.109859
66.037500	-0.009448	-0.000077	-0.006851	0.005317	5465.463207	33710.718458	3532.927320	18213.660899
66.537500	-0.002546	0.001024	-0.000771	0.000198	5542.804579	34157.614662	3555.085126	18397.638233
67.038000	-0.003043	0.000861	-0.005011	-0.000263	5542.568407	34179.192954	3547.543687	18414.304372
67.535500	-0.004692	0.001090	0.001826	0.001386	5521.139418	34076.521300	3557.913038	18354.744788
68.035500	-0.008183	-0.000414	-0.003657	0.004092	5481.310672	33774.153881	3541.601597	18257.501671
68.536000	-0.004210	0.001666	-0.007507	0.000106	5532.567543	34210.731578	3541.869822	18400.945084
69.036000	-0.002966	0.001560	-0.008471	0.000224	5539.898177	34194.578813	3539.738844	18396.697881
69.536500	-0.002423	0.002099	-0.003441	0.001842	5532.899025	34116.456670	3546.482665	18338.316196
70.037000	-0.004483	0.002345	-0.006625	0.006660	5488.539968	33787.762890	3530.748557	18165.758343
70.540000	-0.002049	0.002161	-0.002016	0.000898	5541.476184	34189.254269	3551.195278	18372.348002
71.038000	-0.003497	0.001409	-0.003122	0.000558	5534.269022	34159.503353	3549.669484	18384.641985
71.534500	-0.001384	0.001673	-0.002267	0.001182	5543.961182	34133.394212	3550.128093	18362.099171
72.038000	-0.005385	0.002069	-0.006122	0.006562	5483.402082	33775.059747	3531.920091	18169.252629
72.536000	-0.000345	0.003293	-0.002969	0.001822	5546.574345	34204.386067	3547.459168	18339.050645
73.036000	-0.000181	0.001922	-0.004724	0.001096	5552.386015	34157.570643	3545.415480	18365.188035
73.536500	-0.001067	0.002972	-0.002275	0.002737	5535.894165	34114.908703	3547.020388	18306.115275
74.036500	-0.002559	0.002289	-0.002664	0.006147	5504.181202	33820.515786	3539.509539	18184.067038
74.536500	-0.001199	0.002237	0.001092	0.002057	5539.464865	34110.895131	3555.093681	18330.569170
75.037000	0.002102	0.003487	-0.002562	0.002903	5555.510111	34140.148344	3546.122037	18300.167010
75.537500	-0.000225	0.002924	-0.001759	0.003525	5536.244916	34054.501006	3546.479583	18277.818367
76.035000	-0.001320	0.002004	-0.002251	0.008713	5495.654094	33617.060254	3535.281819	18092.827320
76.538000	0.001263	0.002569	-0.001623	0.003077	5548.875396	34061.273046	3547.639482	18293.907864
77.035500	-0.003509	0.002685	0.000135	0.003002	5518.338848	34075.055127	3551.290557	18296.603719
77.535500	0.000501	0.002559	0.003903	0.004187	5536.663603	33980.548699	3556.458699	18254.081142
78.036000	-0.003570	0.002003	-0.001384	0.009401	5476.872755	33568.134909	3535.632172	18068.460686
78.536500	-0.000513	0.002693	0.002243	0.004224	5529.833576	33987.517450	3553.059926	18252.767553
79.036500	0.001959	0.003697	-0.000988	0.005274	5539.083579	33984.281148	3544.541847	18215.223948
79.536500	0.001716	0.003075	0.002856	0.005836	5533.842973	33899.157440	3551.064247	18195.142032
80.037000	0.001362	0.002662	-0.006477	0.004675	5539.094746	33952.834974	3534.914203	18236.618887
80.537500	0.002740	0.003283	0.002876	0.005220	5544.524389	33958.323655	3552.334142	18217.132264
81.035000	0.000883	0.003757	0.002018	0.005700	5529.316813	33957.881818	3549.665577	18200.007272
81.535000	0.001307	0.003939	-0.000540	0.006003	5530.099987	33949.232458	3543.984964	18189.196296
82.035500	0.000929	0.003852	-0.004879	0.006044	5527.385140	33940.052161	3535.363723	18187.742259
82.536000	0.001957	0.004173	0.001103	0.006751	5529.463112	33912.293704	3545.757862	18162.530573
83.036000	0.003163	0.003863	-0.000060	0.006954	5535.984928	33875.452363	3543.055197	18155.314530
83.536000	0.002121	0.004137	0.002936	0.007521	5525.528469	33854.456991	3547.868184	18135.126849
84.036500	-0.000218	0.003844	0.004734	0.007201	5512.473620	33856.401054	3552.089207	18146.530505
84.537000	0.002000	0.003497	0.002001	0.006985	5528.223108	33847.015385	3547.075542	18154.205004
85.037000	-0.000710	0.004370	0.001588	0.007888	5504.875983	33844.809955	3544.466037	18122.092221
85.534500	0.002370	0.004266	0.000653	0.008020	5523.909354	33827.920936	3542.356387	18117.404006
86.038000	-0.000838	0.004111	0.002649	0.007900	5503.973884	33825.421620	3546.546080	18121.679935
86.535500	0.001164	0.004506	0.004832	0.008393	5513.698209	33818.471143	3549.906535	18104.183479
87.035500	0.000254	0.003719	0.003466	0.008020	5510.232799	33788.789277	3547.930618	18117.419946
87.536000	0.003268	0.003628	-0.000606	0.008022	5529.722605	33782.199813	3539.869496	18117.352628
88.036000	-0.001175	0.003661	-0.004315	0.014476	5459.850605	33326.434356	3520.089945	17889.894950
88.536500	0.001335	0.004062	0.002134	0.008533	5513.896534	33776.659606	3544.269714	18099.208952
89.036500	0.001784	0.003631	0.005182	0.009139	5512.889392	33702.605693	3549.118764	18077.742876
89.537500	0.001963	0.004768	0.004676	0.009777	5509.923897	33738.231772	3546.842622	18055.162552
90.035000	0.003222	0.005283	0.004565	0.009347	5520.828836	33805.703583	3547.475090	18070.355765
90.535000	0.003410	0.005007	0.004143	0.009334	5522.135690	33786.960516	3546.665165	18070.825174
91.038000	0.001509	0.003866	0.006628	0.009722	5507.351644	33677.815121	3550.836750	18057.110484
91.535500	0.002673	0.005228	0.009352	0.010378	5510.625447	33728.154766	3554.972049	18033.927072
92.036000	-0.001570	0.004994	0.002801	0.015253	5452.437459	33365.627155	3532.372538	17862.730909
92.536000	0.005133	0.004922	0.005293	0.010266	5527.261224	33714.328610	3547.096645	18037.878736
93.036500	0.000331	0.004633	0.004846	0.011656	5487.380105	33594.749205	3543.457224	17988.859826
93.537000	0.001301	0.005160	0.000936	0.010275	5502.457884	33730.653514	3538.472254	18037.574079
94.037000	-0.000259	0.005047	0.004377	0.013952	5468.984054	33461.316196	3538.005830	17908.233606
94.537000	0.004234	0.004938	0.004998	0.010301	5521.215260	33712.997002	3546.443899	18036.652980
95.037500	0.001348	0.004296	0.004945	0.012525	5488.329834	33509.187286	3541.936698	17958.313789
95.537500	0.003212	0.004409	-0.000686	0.009877	5517.345293	33705.460474	3536.068696	18051.631300
96.035500	0.002441	0.005080	0.002462	0.013286	5490.453508	33510.850720	3535.558170	17931.598070
96.536000	0.002976	0.005401	0.003070	0.010954	5508.867939	33699.417419	3541.335627	18013.604661
97.036000	0.003166	0.005868	0.001081	0.011315	5507.767959	33706.948308	3536.714453	18000.879022
97.536500	0.002109	0.004049	-0.001913	0.010525	5506.050620	33633.663645	3532.401164	18028.743938
98.036500	0.000582	0.004768	-0.004411	0.016177	5460.205209	33284.649369	3516.639858	17830.519853
98.537000	0.004435	0.005521	0.004192	0.011110	5517.276764	33696.825304	3543.243550	18008.108903
99.037000	0.003309	0.004770	0.006126	0.010656	5512.936972	33675.678412	3547.977285	18024.120458
99.534500	0.003387	0.004783	0.003883	0.010846	5512.216548	33663.066913	3543.155639	18017.412747
100.040500	0.003375	0.004520	0.002281	0.015994	5479.116097	33279.997523	3529.914739	17836.879740
100.535500	0.004290	0.004975	0.010615	0.010896	5517.722823	33673.118762	3556.464930	18015.626320
101.035500	0.003233	0.006226	0.001619	0.011950	5504.111832	33687.228568	3536.524224	17978.532694
101.535500	0.002826	0.005066	-0.000184	0.011366	5505.250351	33646.166835	3534.134780	17999.082094
102.036000	0.003889	0.005291	0.002620	0.015621	5484.781862	33360.684352	3531.301755	17849.916925
102.536500	0.003368	0.005170	0.003079	0.010867	5511.955325	33689.102904	3541.525719	18016.664824
103.036000	0.002252	0.004757	0.009552	0.015512	5475.031055	33330.669012	3545.138992	17853.691199
103.537000	0.004868	0.004311	0.005195	0.011339	5518.601800	33594.408590	3544.777004	18000.043381
104.037000	0.000801	0.005158	0.004270	0.015786	5464.070136	33339.637198	3534.200520	17844.141745
104.537500	0.003178	0.005216	-0.000401	0.011648	5505.699425	33636.802973	3533.160464	17989.154975
105.037500	0.002177	0.004951	0.003349	0.015151	5476.853041	33369.763244	3533.640935	17866.296369
105.535000	0.004083	0.005100	0.002543	0.011726	5511.028423	33622.979473	3538.777145	17986.403411
106.035500	0.001223	0.004804	-0.000766	0.017394	5456.559755	33201.706299	3521.305891	17788.186873
106.536000	0.007532	0.005415	0.010000	0.012069	5531.136576	33621.001206	3552.883588	17974.345079
107.036500	0.002381	0.006338	0.007562	0.016145	5471.826176	33397.552775	3539.957475	17831.630579
107.536000	0.001707	0.004934	0.009262	0.011345	5498.186474	33638.284674	3552.856614	17999.818529
108.036500	0.004670	0.005186	0.006006	0.011595	5515.658143	33638.417005	3545.874176	17990.994078
108.537500	0.004296	0.005362	0.009582	0.011769	5512.126723	33638.604561	3552.647897	17984.900133
109.034500	0.002444	0.005375	-0.001687	0.016885	5467.519389	33277.461201	3520.509255	17805.853379
109.537000	0.002102	0.004922	0.009606	0.011541	5499.464276	33623.460257	3553.150676	17992.908558
110.035500	0.004478	0.005946	0.004700	0.012659	5507.558665	33616.795060	3541.189655	17953.600430
110.535500	0.005023	0.005878	0.003741	0.012548	5511.788819	33619.851057	3539.516975	17957.483112
111.036000	-0.000492	0.003926	-0.000064	0.016373	5452.174508	33211.659526	3524.630439	17823.684631
111.536500	0.004548	0.005627	0.006653	0.012415	5509.583917	33611.440835	3545.532017	17962.161552
112.036000	0.005787	0.004963	0.002333	0.011997	5520.281391	33593.923302	3537.832350	17976.853415
112.536500	0.006111	0.005466	0.007103	0.012308	5520.368498	33607.619048	3546.636539	17965.930265
113.039500	0.000395	0.004725	0.003120	0.016843	5454.813215	33234.827332	3529.896922	17807.339480
113.537500	0.006310	0.005460	0.005742	0.012492	5520.462522	33594.104724	3543.575259	17959.446778
114.037500	0.001588	0.005618	0.006572	0.016147	5466.774162	33346.640171	3538.007035	17831.568523
114.538000	0.004524	0.004983	0.007125	0.012171	5511.001446	33583.052709	3546.952239	17970.737963
115.035500	0.001049	0.005793	-0.000873	0.017554	5454.454362	33259.872715	3520.790855	17782.633176
115.535500	0.004133	0.005521	0.002331	0.012824	5504.278289	33574.882814	3536.205579	17947.799947
116.036000	0.004529	0.005624	0.003609	0.012896	5506.358138	33577.063616	3538.573162	17945.258135
116.536500	0.003534	0.005266	0.007032	0.012313	5503.713551	33593.094744	3546.485746	17965.761030
117.036500	0.001709	0.004912	0.004188	0.016920	5462.638477	33242.570076	3531.827601	17804.664559
117.537000	0.005853	0.004810	0.008059	0.012007	5520.643555	33582.375983	3549.134618	17976.502825
118.037000	0.000618	0.004183	0.001129	0.016747	5456.827845	33203.487873	3526.215878	17810.672084
118.537500	0.005288	0.005067	0.001518	0.012536	5513.571723	33563.079421	3535.175370	17957.906260
119.040000	-0.000697	0.004658	0.008211	0.018749	5435.929009	33096.536482	3536.118202	17741.173680
119.535500	0.006200	0.006460	0.005582	0.013293	5514.574072	33608.297148	3541.678009	17931.338956
120.035500	0.001484	0.005749	0.013529	0.012784	5487.543252	33593.926360	3558.528069	17949.211274
120.535500	0.003900	0.004583	0.001875	0.012258	5506.419059	33548.467134	3536.420459	17967.683063
121.036000	0.001412	0.005539	0.004984	0.018869	5448.439229	33149.757714	3529.580396	17737.000264
121.536000	0.002624	0.004228	0.003598	0.011809	5501.103500	33555.174482	3540.692572	17983.486041
122.037000	-0.001950	0.004961	0.004486	0.018092	5432.187455	33163.743465	3530.123748	17763.943028
122.537000	0.003088	0.004905	0.002889	0.012642	5498.725026	33544.061695	3537.656167	17954.178996
123.036500	-0.000402	0.004504	0.005886	0.018527	5439.173563	33101.287042	3532.003939	17748.864333
123.535000	0.003782	0.005837	0.003848	0.012665	5503.044807	33608.642743	3539.498798	17953.386432
124.034500	0.005345	0.006155	0.004413	0.012819	5512.111999	33620.234886	3540.305641	17947.959527
124.535500	0.002768	0.005462	0.010241	0.012751	5495.977917	33575.871591	3552.003861	17950.375692
125.035500	0.001415	0.005798	0.006404	0.019101	5446.989189	33151.664955	3531.893875	17728.965155
125.536000	0.004052	0.005206	0.010637	0.013055	5502.273887	33536.112297	3552.186430	17939.699657
126.036000	0.004841	0.005614	0.010154	0.016167	5487.376004	33344.961302	3545.034711	17830.883588
126.536500	0.006725	0.006208	0.002760	0.013711	5515.266285	33560.685923	3535.307451	17916.684669
127.037000	0.004032	0.005282	0.000112	0.012568	5505.272141	33576.064842	3532.365256	17956.786415
127.537000	0.005760	0.005422	0.006381	0.013074	5513.150763	33550.104182	3543.690591	17939.038544
128.037000	0.004993	0.004732	0.008367	0.012709	5510.557807	33527.006378	3548.351220	17951.834243
128.537500	0.005846	0.006064	0.004940	0.013071	5513.724099	33595.926124	3540.848770	17939.125239
129.038000	0.005600	0.004990	0.003080	0.012818	5513.769060	33537.607785	3537.686291	17948.004437
129.535500	0.005899	0.006042	0.006088	0.013451	5511.614110	33567.376279	3542.364494	17925.814229
130.036000	0.004891	0.005725	0.008495	0.013371	5505.632229	33550.552354	3547.290421	17928.605860
130.536000	0.002779	0.004986	0.011500	0.012572	5497.193216	33554.754874	3554.879627	17956.647563
131.036500	0.001273	0.005273	0.004184	0.019414	5444.130713	33093.084260	3526.969239	17718.167323
131.537000	0.004970	0.005315	0.007440	0.012938	5508.928465	33552.117349	3546.054558	17943.778290
132.037000	0.003776	0.005543	0.006871	0.017653	5471.103528	33235.353380	3535.637732	17779.172221
132.537000	0.003479	0.006081	0.008551	0.013386	5496.460143	33574.733143	3547.369983	17928.064802
133.040500	0.003446	0.006486	0.001136	0.019858	5455.032441	33146.832217	3520.221355	17702.789325
133.537000	0.002128	0.005345	0.006199	0.012945	5490.634788	33553.794992	3543.584727	17943.561107
134.035500	0.003998	0.005939	0.006898	0.016290	5481.197971	33359.116060	3538.365718	17826.568883
134.535500	0.004861	0.006009	0.006923	0.013588	5504.044736	33555.312508	3543.744384	17920.999191
135.038500	-0.000578	0.004218	0.001695	0.018570	5437.793239	33078.252483	3523.781954	17747.359429
135.535500	0.005566	0.006880	0.004027	0.013785	5507.315575	33603.208115	3537.649178	17914.106365
136.036500	0.001180	0.004846	0.006306	0.017636	5454.755062	33187.610702	3534.564987	17779.760448
136.537000	0.006244	0.005699	0.006324	0.013158	5515.732849	33563.782881	3543.409818	17936.061166
137.040000	0.000911	0.005184	0.008618	0.018569	5447.172742	33145.920748	3537.268186	17747.396159
137.537500	0.004579	0.005507	0.008966	0.012937	5506.421826	33565.869493	3549.090069	17943.834901
138.037500	0.002334	0.005457	0.004013	0.017226	5464.659085	33259.321362	3530.889503	17794.021343
138.535000	0.002992	0.004996	0.002171	0.012696	5497.767095	33546.659321	3536.143300	17952.297153
139.035000	0.004791	0.005578	0.005289	0.018967	5469.204514	33145.624006	3529.983094	17733.625608
139.535500	0.007729	0.006749	0.007705	0.014014	5519.800449	33577.551376	3544.448376	17906.076884
140.036000	0.003698	0.004708	0.005383	0.017709	5470.252121	33172.793189	3532.617404	17777.220921
140.536000	0.004564	0.005421	0.008572	0.012884	5506.663285	33563.473284	3548.411691	17945.692679
141.036500	0.001797	0.004631	0.003727	0.016968	5462.886606	33219.342797	3530.832473	17802.966660
141.536500	0.004863	0.004815	0.004046	0.013061	5507.453919	33507.955417	3539.108854	17939.489333
142.037000	-0.001227	0.005482	0.004278	0.017590	5439.873483	33235.465441	3530.695435	17781.349847
142.540000	0.007743	0.005944	0.007786	0.013499	5523.219316	33556.914143	3545.628415	17924.102911
143.034500	0.000826	0.005030	0.006208	0.018216	5448.856681	33159.863762	3533.239200	17759.629529
143.535000	0.005838	0.005651	0.007449	0.013542	5510.631722	33533.076240	3544.876259	17922.595150
144.035500	-0.001696	0.004661	-0.000578	0.017237	5439.145548	33202.594971	3521.968036	17793.627226
144.535500	0.005330	0.005469	0.007049	0.012632	5513.229273	33584.855286	3545.886414	17954.546703
145.036000	0.002928	0.004803	0.008220	0.017062	5469.473197	33224.925741	3539.449049	17799.717680
145.536500	0.004740	0.005962	0.003171	0.013172	5505.940637	33581.463013	3537.169689	17935.584387
146.039000	0.005425	0.005376	0.004495	0.015966	5492.398077	33342.306528	3534.289704	17837.883348
146.536500	0.003839	0.005497	0.005041	0.013120	5500.480459	33552.155673	3540.951330	17937.405588
147.040000	0.003332	0.005370	0.003777	0.016635	5474.759753	33294.804508	3531.581772	17814.583858
147.537500	0.001700	0.006265	0.005065	0.013693	5483.108596	33565.981829	3539.868601	17917.297620
148.035000	0.003255	0.005980	0.007725	0.018346	5463.401491	33217.371506	3535.955687	17755.148149
148.535000	0.006096	0.006178	0.010124	0.013439	5512.961578	33577.865276	3550.395269	17926.216587
149.035500	0.003136	0.005245	0.000632	0.018203	5463.545418	33175.835362	3522.439642	17760.075414
149.536000	0.004410	0.005354	0.010116	0.012723	5506.706814	33570.150969	3551.808140	17951.333520
150.036500	0.004751	0.005704	0.010100	0.013144	5506.196474	33565.122124	3550.937726	17936.574820
150.536500	0.003630	0.005773	0.005249	0.013218	5498.514695	33564.838748	3541.169669	17933.983737
151.039500	0.004013	0.006230	0.006484	0.018476	5467.378872	33225.773013	3533.271131	17750.611052
151.537000	0.004820	0.005642	0.003555	0.013442	5504.722768	33539.635802	3537.394483	17926.120872
152.043000	0.003566	0.005776	0.005236	0.016404	5477.720258	33339.589260	3534.883029	17822.610512
152.535000	0.003505	0.005205	0.010842	0.013240	5497.566744	33522.949720	3552.226177	17933.198872
153.036500	0.003053	0.005595	0.005422	0.015317	5481.380733	33403.502317	3537.378784	17860.504280
153.535500	0.006115	0.005984	0.002495	0.013215	5514.530939	33579.997683	3535.759898	17934.079032
154.036000	0.003595	0.005870	0.004209	0.013354	5497.410712	33562.013447	3538.852886	17929.199502
154.536500	0.005747	0.005930	0.010808	0.013024	5513.387874	33589.707304	3552.590420	17940.776090
155.036500	0.001403	0.005848	0.004152	0.016586	5462.816298	33331.930251	3532.409134	17816.288317
155.536500	0.004482	0.006577	0.014173	0.013579	5501.666855	33596.247879	3558.224986	17921.325447
156.037000	0.004968	0.007252	0.008564	0.014117	5501.329346	33606.003497	3545.946749	17902.457044
156.537500	0.004900	0.005707	0.009390	0.013203	5506.773614	33561.204005	3549.404048	17934.508672
157.037500	0.007406	0.006254	0.002958	0.016351	5502.641388	33377.077994	3530.537429	17824.460171
157.535500	0.006473	0.006453	0.006297	0.013520	5514.878379	33591.633643	3542.641515	17923.386210
158.035000	0.005144	0.005238	0.004352	0.012671	5511.775676	33565.622610	3540.478898	17953.178757
158.535000	0.006068	0.005155	0.005738	0.012753	5517.211940	33553.877445	3543.052339	17950.282353
159.036000	0.002254	0.004738	0.005940	0.016140	5471.049277	33285.100526	3536.779813	17831.804296
159.536500	0.008226	0.005792	0.003195	0.013443	5526.718768	33550.121888	3536.684398	17926.069554
160.039000	0.005630	0.005817	0.010862	0.013397	5510.226573	33555.159669	3551.952771	17927.678865
160.536500	0.003202	0.005514	0.004775	0.012945	5497.518620	33565.819248	3540.773339	17943.564658
161.037000	0.003728	0.004925	0.007186	0.014821	5488.862902	33391.270088	3541.827975	17877.837252
161.540000	0.003048	0.005700	0.010940	0.013144	5495.248549	33564.805697	3552.613555	17936.552801
162.035000	0.004857	0.006037	0.008578	0.012642	5510.110908	33624.527403	3548.904711	17954.200504
162.535000	0.004075	0.006142	0.008972	0.013758	5497.899510	33552.631843	3547.468256	17915.029931
163.035000	0.005360	0.005832	0.010253	0.013655	5506.826234	33537.961071	3550.222838	17918.646647
163.536000	0.005099	0.006105	0.007883	0.013341	5507.166115	33579.654248	3546.135704	17929.658593
164.036000	0.003564	0.005861	0.005618	0.016576	5476.612916	33333.539137	3535.294076	17816.638846
164.536500	0.005985	0.005371	0.004831	0.012836	5516.140369	33563.309568	3541.096786	17947.363540
165.037000	0.004792	0.005498	0.013980	0.013331	5505.258553	33537.286744	3558.334827	17930.018356
165.537000	0.004298	0.005660	0.009650	0.012982	5504.325178	33573.532933	3550.362511	17942.264481
166.040000	0.004930	0.005430	0.006348	0.016093	5488.421042	33337.196018	3537.673226	17833.458669
166.537000	0.003139	0.005440	0.008392	0.013236	5495.243065	33539.874610	3547.353682	17933.334776
167.035000	0.003040	0.005029	0.004099	0.012204	5501.232061	33583.887530	3540.898810	17969.565059
167.535500	0.006968	0.006290	0.008348	0.013855	5515.911312	33556.316556	3546.038257	17911.648568
168.035500	0.002313	0.005387	0.005655	0.017340	5463.804862	33246.390251	3533.869929	17790.041014
168.535500	0.005022	0.005352	0.003514	0.012786	5510.249548	33565.544369	3538.603664	17949.138297
169.039000	0.005275	0.004911	0.006385	0.012611	5513.003625	33546.646027	3544.611941	17955.268398
169.536500	0.004425	0.005241	0.004867	0.012782	5506.426569	33557.983377	3541.274398	17949.266349
170.037000	0.005044	0.005456	0.001711	0.016685	5485.357767	33297.331767	3527.464806	17812.838521
170.537000	0.007069	0.005153	0.009210	0.012488	5525.411322	33572.628349	3550.470631	17959.606656
171.037500	0.003944	0.005832	0.007565	0.013023	5501.779309	33582.806596	3546.134120	17940.795887
171.537500	0.005813	0.006478	0.005511	0.013743	5509.174025	33577.509408	3540.649521	17915.550687
172.035000	0.001401	0.004766	0.004862	0.016267	5464.828259	33278.148420	3534.419909	17827.394175
172.535500	0.004448	0.004939	0.007417	0.012430	5508.841605	33561.458908	3547.017083	17961.625184
173.035500	0.004018	0.005870	0.003496	0.014066	5495.560069	33511.512669	3536.054787	17904.266781
173.536000	0.004270	0.006301	0.009722	0.013345	5501.810288	33593.269354	3549.783009	17929.526179
174.038500	0.002194	0.006019	0.013634	0.016933	5465.634951	33319.529198	3550.429834	17804.215635
174.536500	0.006315	0.006142	0.009080	0.013467	5514.191058	33573.269076	3548.260228	17925.219624
175.037000	0.003130	0.006117	0.010281	0.013995	5490.327023	33534.093215	3549.600750	17906.743833
175.539500	0.003925	0.005374	0.006672	0.013048	5501.499756	33548.524135	3544.315916	17939.941625
176.034500	0.005038	0.005402	0.001856	0.012690	5510.965081	33575.905978	3535.536377	17952.488888
176.535000	0.004768	0.006656	0.006928	0.013686	5502.817825	33594.279701	3543.559337	17917.559171
177.035500	0.003801	0.006168	0.008762	0.014106	5493.910963	33529.827248	3546.361480	17902.863672
177.535500	0.004709	0.006345	0.011740	0.013401	5504.263961	33592.354296	3553.699675	17927.537607
178.036000	0.006226	0.006405	0.009841	0.016138	5496.428868	33402.764030	3544.470995	17831.866078
178.536000	0.005378	0.005695	0.006206	0.013260	5509.488213	33556.290957	3542.974430	17932.503320
179.036000	0.003037	0.005251	0.006240	0.013889	5490.404149	33480.230761	3541.799728	17910.454851
179.536500	0.004565	0.005722	0.009990	0.012844	5506.926582	33587.711678	3551.315723	17947.103823
180.036000	0.004138	0.005798	0.011324	0.015273	5488.592391	33420.949079	3549.133344	17862.035297
180.537000	0.006808	0.005775	0.010007	0.012947	5520.744101	33584.143769	3551.144567	17943.476130
181.037500	0.004954	0.005170	0.006723	0.013391	5505.910103	33509.750633	3543.737551	17927.894154
181.534500	0.002537	0.005099	0.011002	0.012508	5496.051832	33567.325814	3554.009144	17958.902047
182.035500	0.002183	0.005023	0.005642	0.015802	5472.746853	33329.002337	3536.859754	17843.604927
182.535500	0.006162	0.005221	0.011575	0.013051	5515.895748	33537.443923	3554.070305	17939.832705
183.069000	0.004101	0.006103	0.008175	0.013686	5498.525565	33554.940343	3546.029013	17917.548463
183.536500	0.005541	0.004164	0.007994	0.012084	5518.132617	33531.053001	3548.852347	17973.806397
184.036000	0.001736	0.005333	0.015645	0.013098	5487.142598	33542.137187	3562.161327	17938.195686
184.537000	0.002280	0.004329	-0.000258	0.012084	5497.118708	33542.753360	3532.586143	17973.784408
185.040000	0.003407	0.005254	0.010206	0.013681	5494.110969	33495.150320	3550.078208	17917.743688
185.537500	0.003262	0.005153	0.004107	0.012930	5497.999463	33541.269463	3539.486472	17944.091877
