sample name	sample
index	467
start time	 03-11-2021  12:08:38 PM
880	0.221208
Peak Time (s)	92.537
Peak Height 	0.2212
calc peak height	90,93
Baseline Time (s)	9.036
Baseline Value 	-0.00499
subtract baseline	10,4
Abs	0.134315
Peak Time (s)	92.037
Peak Height 	0.1343
calc peak height	90,93
Baseline Time (s)	9.036
Baseline Value 	0.004873
subtract baseline	10,3
PK_550	0.066994
Peak Time (s)	91.039
Peak Height 	0.06699
calc peak height	90,93
Baseline Time (s)	10.537
Baseline Value 	5.8463E-4
subtract baseline	10,2
PK_880	0.128959
Peak Time (s)	91.537
Peak Height 	0.129
calc peak height	90,93
Baseline Time (s)	11.037
Baseline Value 	0.00321
subtract baseline	10,1


Time (s)	A880-A510	A880-A775	A880-A975	A880	I510	I775	I975	I880	
0.038500	-0.000479	-0.000351	-0.002257	0.001580	7113.559449	45989.349142	3960.793674	24383.668401
0.537000	-0.001803	0.000285	-0.007685	0.004736	7069.676937	45739.947723	3938.146241	24227.625049
1.037000	-0.003857	-0.000897	-0.009344	0.004939	7047.750355	45603.574166	3933.294402	24217.659276
1.538500	-0.000365	-0.000236	-0.001767	0.001114	7119.280898	46047.122042	3963.343826	24406.834508
2.035000	0.000116	0.000181	-0.002295	0.001205	7123.115439	46079.408804	3961.689703	24402.269899
2.535000	-0.001762	-0.000350	-0.002974	0.000433	7112.222011	46103.514098	3961.940042	24440.687792
3.035000	-0.001457	0.000390	-0.003090	0.002700	7092.951282	45951.769221	3955.601038	24328.161368
3.538000	0.001357	0.000430	-0.002319	0.000283	7144.522935	46196.107610	3964.089819	24448.153623
4.035000	0.001340	0.000607	0.000576	0.000845	7138.782463	46157.753660	3970.341136	24420.204449
4.536000	-0.000277	0.000629	0.000062	0.000421	7126.982786	46202.194958	3970.098922	24441.289676
5.036000	0.000195	-0.000075	-0.003952	0.000208	7133.746408	46153.276973	3959.933485	24451.869331
5.536500	0.001093	0.000234	0.000196	0.000280	7141.929387	46176.829450	3970.836945	24448.289917
6.037000	0.001485	0.001010	-0.000742	0.000640	7142.239820	46218.307659	3967.353877	24430.367579
6.537500	0.000296	-0.000454	-0.002469	-0.000184	7138.619169	46154.466856	3964.936254	24471.364921
7.034500	-0.000533	0.000140	0.000675	0.000200	7126.628874	46175.454062	3972.340344	24452.254726
7.535000	0.000253	-0.000311	-0.002530	0.000002	7136.356014	46150.222899	3964.275090	24462.102704
8.038000	0.000091	-0.000807	0.000772	-0.000359	7138.332748	46136.788647	3974.106115	24480.093925
8.535500	0.000065	0.000195	0.000442	-0.000112	7135.631983	46212.050150	3972.553726	24467.815523
9.036000	-0.000026	-0.000015	0.000000	0.000000	7133.622541	46179.890794	3971.062721	24462.220858
9.536000	-0.000465	-0.000351	0.001421	-0.000525	7134.474936	46198.785235	3976.305622	24488.395336
10.036500	0.000211	-0.000211	-0.001778	0.000095	7135.023123	46150.927128	3966.040483	24457.503284
10.537000	0.000772	0.000000	-0.002297	-0.000008	7141.593903	46182.197628	3964.925289	24462.605802
11.037000	0.000000	0.000349	0.000591	0.000411	7129.809296	46175.239955	3971.545447	24441.741487
11.537000	-0.000115	0.000152	-0.002187	0.000348	7129.308590	46161.926023	3964.269462	24444.918750
12.035000	0.001039	0.000022	-0.005276	-0.000117	7145.333629	46195.313805	3957.276798	24468.059690
12.535500	-0.000053	0.000374	-0.005141	0.000817	7125.284816	46137.271720	3955.155872	24421.576787
13.035000	0.002113	0.000897	0.000555	-0.000233	7157.148722	46294.290163	3973.182666	24473.837215
13.536000	0.000357	-0.000527	-0.008427	0.000276	7134.682303	46101.452975	3947.901904	24448.494437
14.036000	-0.001566	-0.000060	0.000993	0.001123	7107.357058	46063.643859	3970.714176	24406.358789
14.536000	-0.002083	-0.000192	-0.006117	0.004108	7073.075744	45754.910696	3943.898531	24258.600574
15.036500	0.000569	0.000166	0.001711	0.001642	7123.268506	46034.489816	3971.248303	24380.583868
15.537500	-0.000168	0.000874	0.002956	0.001783	7114.629438	46090.904687	3974.219864	24373.624022
16.037500	-0.001508	0.000574	-0.003236	0.002086	7098.477716	46030.919564	3956.845163	24358.585005
16.534500	0.000915	0.000119	-0.001304	0.001317	7129.900257	46062.098950	3964.036921	24396.719991
17.035500	-0.001637	-0.000316	-0.002135	0.001285	7105.075029	46022.122693	3961.906992	24398.332372
17.535000	0.001343	0.000037	-0.001530	-0.001437	7161.456150	46328.564952	3970.812897	24533.887112
18.035500	-0.001645	0.000326	0.003468	-0.000408	7121.656852	46254.685448	3981.528762	24482.557589
18.536000	-0.000935	0.000327	0.000175	0.002958	7095.536135	45919.945134	3963.605733	24315.397526
19.036000	-0.002031	0.000203	-0.001422	0.003084	7083.582550	45895.193125	3959.011980	24309.184945
19.536500	-0.001032	0.000434	-0.000128	0.002980	7094.379335	45928.352830	3962.737505	24314.334627
20.036500	-0.001795	0.000106	-0.003880	0.002947	7087.227906	45899.163356	3952.856371	24315.967224
20.537000	0.000938	0.000610	0.000950	0.003390	7109.692348	45905.175649	3964.523330	24294.059861
21.037000	-0.001926	-0.000705	0.001266	0.002239	7092.879591	45888.964455	3968.450291	24351.016149
21.534500	0.000256	0.001138	-0.002049	0.004027	7096.732066	45894.329136	3954.842874	24262.580452
22.038000	-0.003017	-0.000268	-0.005544	0.003036	7074.420148	45853.351577	3948.226022	24311.554002
22.535500	-0.000729	-0.000547	-0.002475	0.002871	7098.420897	45842.065625	3956.780990	24319.738160
23.035500	-0.000307	0.001045	-0.004163	0.003587	7095.527637	45928.775019	3950.413961	24284.306246
23.536500	-0.001064	0.000160	-0.001270	0.003065	7093.231280	45892.861242	3959.469385	24310.133898
24.036500	-0.000008	0.000702	-0.000252	0.003362	7100.669920	45917.051314	3961.388049	24295.436292
24.537000	-0.000608	0.000381	-0.003977	0.003111	7097.246211	45910.132990	3952.164550	24307.858778
25.037000	-0.002510	0.000830	-0.002324	0.003625	7073.620818	45903.714054	3955.178491	24282.434300
25.537000	-0.001666	0.000494	-0.002633	0.003250	7085.522375	45907.542579	3955.356550	24300.982648
26.034000	-0.003007	0.000375	-0.000744	0.002928	7075.564942	45927.663707	3961.234175	24316.880983
26.538000	-0.001495	-0.000492	0.000316	0.002583	7093.726353	45875.946313	3964.984263	24333.979624
27.034500	-0.002150	0.000215	-0.005628	0.003369	7079.634222	45868.143217	3947.126389	24295.088077
27.535500	-0.001128	0.000705	0.001642	0.003547	7087.884050	45899.079310	3965.954672	24286.315363
28.036000	0.000158	0.000181	0.002775	0.000028	7135.159885	46196.614761	3978.467929	24460.804062
28.536500	-0.001073	0.000356	-0.000664	0.003923	7084.743748	45827.298906	3958.797101	24267.718737
29.042500	-0.000548	0.000425	0.003087	0.002300	7105.806670	45995.007435	3973.180858	24348.003241
29.536500	0.000792	0.000761	-0.001538	0.002603	7115.996669	45998.157713	3959.984266	24332.971709
30.037000	0.000574	0.000331	0.000238	0.002283	7117.011766	45987.306293	3965.579240	24348.838370
30.537500	-0.001875	0.000394	0.001999	0.004127	7074.912602	45810.879738	3965.356477	24257.650062
31.038000	-0.001785	0.000342	0.001540	0.002234	7094.299540	45993.164483	3969.198160	24351.231012
31.535000	-0.002770	-0.000120	0.001415	0.003267	7074.568868	45845.102360	3966.095481	24300.122704
32.035500	-0.002879	0.000336	-0.002972	0.003981	7066.545577	45819.497257	3952.521046	24264.845796
32.535500	-0.002535	0.000613	-0.004104	0.004756	7062.354950	45770.374906	3947.487465	24226.654406
33.047000	-0.000148	0.000048	-0.002184	0.001891	7113.757527	45998.153649	3960.160759	24368.263717
33.536500	-0.001856	0.000521	0.004813	0.002481	7091.184732	45986.412567	3977.347107	24339.000650
34.036500	-0.000769	0.000825	0.000706	0.003362	7093.203908	45929.228794	3963.944879	24295.414449
34.537000	-0.001968	0.000237	-0.001999	0.004759	7067.851146	45732.933341	3953.036082	24226.501027
35.037000	0.001441	-0.000415	-0.001290	-0.000676	7154.871140	46207.507527	3969.413400	24495.937093
35.535000	-0.001177	0.000726	-0.002785	0.004422	7078.852729	45814.533579	3951.848986	24243.111822
36.035000	-0.001670	0.000885	-0.003148	0.004607	7072.229328	45811.940568	3950.400878	24233.986532
36.535000	-0.002033	0.000081	-0.002234	0.004586	7068.894850	45734.604703	3952.873275	24235.016856
37.035500	-0.001415	0.000306	-0.001563	0.004331	7077.417808	45782.085757	3955.325824	24247.618651
37.535500	-0.003338	-0.000511	-0.004862	0.003799	7063.858103	45753.908846	3948.012795	24273.853138
38.036000	0.000501	0.000346	-0.002145	0.004518	7094.322219	45767.508022	3953.289125	24238.382845
38.536500	-0.002023	0.000831	0.000239	0.006091	7054.369259	45660.309235	3955.439125	24161.019681
39.036500	-0.001239	0.000668	0.001292	0.004655	7075.971178	45785.775670	3962.058009	24231.626374
39.537000	-0.003868	-0.000061	0.001933	0.004308	7053.761635	45748.096615	3964.695984	24248.741322
40.037500	0.000118	0.000921	-0.000904	0.005091	7084.968359	45767.673184	3955.057375	24210.164299
40.538000	-0.001237	0.001073	-0.007672	0.005381	7068.911353	45754.105393	3936.497454	24195.883310
41.035500	-0.003553	0.000044	-0.001979	0.004168	7058.178553	45772.191728	3954.655795	24255.627136
41.535500	0.000148	0.000403	-0.001102	0.004967	7086.477589	45728.856816	3954.862636	24216.285227
42.036000	-0.001844	-0.000032	-0.000644	0.004136	7075.139091	45767.931071	3958.285525	24257.246735
42.536000	-0.001648	0.000240	-0.001300	0.004855	7070.032332	45723.834985	3954.634829	24221.803875
43.036000	-0.001101	-0.000323	-0.004487	0.004510	7078.735779	45702.354764	3947.128558	24238.799493
43.536500	0.000045	0.000010	-0.003449	0.004481	7090.217611	45737.972989	3949.939429	24240.214998
44.036500	-0.002287	0.000297	-0.004386	0.004509	7067.173262	45763.529386	3947.395509	24238.816761
44.537000	-0.001695	0.000239	-0.000768	0.005108	7067.109575	45698.681349	3955.372336	24209.307754
45.040500	-0.001304	0.000346	0.002624	0.004173	7080.045646	45801.614865	3966.908040	24255.421836
45.535000	-0.001570	-0.000790	0.000994	0.001653	7102.122874	45938.668388	3969.294626	24380.081226
46.035500	-0.000234	0.000488	-0.001514	0.003849	7093.677636	45847.743950	3956.734564	24271.397838
46.568000	-0.004809	-0.000110	-0.006325	0.007415	7014.645309	45437.711189	3934.706895	24096.074284
47.036000	-0.000873	-0.000029	0.000235	0.002854	7097.175606	45895.016756	3964.044736	24320.575634
47.536000	0.000190	-0.000578	-0.004305	0.002653	7109.580043	45860.523155	3952.506776	24330.485515
48.036500	0.001475	0.000477	-0.004529	0.003449	7114.391141	45886.109967	3949.811840	24291.123512
48.537000	-0.002553	0.000770	-0.002672	0.006310	7047.097027	45632.616696	3947.165155	24150.243326
49.037000	-0.000428	0.000090	-0.001041	0.004731	7083.150720	45721.296282	3955.650476	24227.907145
49.540000	-0.001931	0.000973	0.000323	0.005652	7059.520486	45717.502511	3956.826899	24182.584994
50.035000	0.000084	0.000487	-0.002928	0.003274	7102.438545	45904.412002	3954.509357	24299.766608
50.535000	-0.002613	0.000073	0.001231	0.006198	7047.599017	45575.129571	3957.786945	24155.756383
51.035500	-0.000633	0.000282	-0.001924	0.002690	7101.135644	45942.051250	3958.727007	24328.675832
51.535500	0.001638	0.001187	-0.002501	0.001255	7137.667068	46174.638962	3961.010654	24399.816280
52.035500	0.000109	-0.000246	0.002350	0.001309	7122.023759	46026.724203	3973.863591	24397.128971
52.536000	-0.002529	-0.000184	-0.000612	0.006888	7041.725538	45482.106838	3951.074298	24121.896302
53.036500	0.002438	0.000138	0.001824	-0.002813	7186.127421	46476.587359	3983.592951	24602.747024
53.536500	-0.015309	-0.004934	0.019448	0.302165	4906.140211	24234.104865	3412.492128	13619.893006
54.037500	-0.020062	-0.002489	-0.018076	0.107734	6038.789250	36477.065853	3677.452048	19710.679475
54.534500	-0.037425	-0.042788	-0.033781	-0.182262	8834.362204	62577.348058	4446.910306	35740.579442
55.035000	-0.040052	-0.163620	-0.022313	-0.324097	11100.212716	65535.000000	5142.542786	48450.068713
55.535000	-0.087742	-0.301777	-0.081092	-0.462254	13013.654678	65535.000000	5611.589813	65535.000000
56.035500	-0.014909	-0.166101	-0.009791	-0.326578	11642.807789	65535.000000	5224.753443	48711.390736
56.536000	-0.024414	-0.114063	-0.009488	-0.274540	10479.463256	65535.000000	4952.854360	43530.840882
57.036000	-0.028551	-0.082788	-0.009972	-0.242677	9871.586871	65450.258089	4798.592458	40651.934120
57.536500	-0.016338	-0.092028	-0.010880	-0.252505	10237.766447	65535.000000	4839.988407	41517.456265
58.037000	-0.005209	-0.093557	-0.006581	-0.254034	10456.611204	65535.000000	4867.504067	41653.921968
58.537000	0.002519	-0.059208	0.000749	-0.216062	9944.108004	65014.578146	4726.903890	38403.880449
59.034000	0.011509	-0.026079	0.007950	-0.165058	9288.858103	62509.361333	4542.381350	34462.470171
59.535000	0.015904	-0.010564	0.016985	-0.130115	8850.712597	59900.967545	4441.692726	32017.389049
60.034500	0.026804	0.002890	0.028051	-0.078913	8317.855238	55154.814394	4297.094600	28771.855353
60.538000	0.035921	0.011781	0.035351	-0.031419	7854.386765	50709.385645	4165.077414	26084.873164
61.036000	0.043345	0.018822	0.046911	0.007547	7502.980760	47320.190472	4081.820384	24089.641030
61.536000	0.057392	0.028787	0.057996	0.042132	7287.503633	44871.270846	4014.494543	22462.563747
62.036000	0.066028	0.035182	0.063205	0.084496	6955.025019	41534.237358	3915.210063	20638.285028
62.536500	0.073149	0.041614	0.069773	0.110264	6781.996225	39851.317791	3867.137909	19612.633833
63.036500	0.076134	0.044693	0.076384	0.127557	6654.185749	38661.171558	3841.300798	18957.686488
63.537000	0.083328	0.048062	0.088404	0.133977	6660.982179	38410.664723	3854.766958	18721.062071
64.037500	0.090227	0.052701	0.089659	0.141556	6655.005485	38171.074897	3839.573052	18446.235050
64.534500	0.098922	0.057640	0.092008	0.152988	6631.027909	37647.452099	3818.129532	18040.623953
65.035000	0.101220	0.060497	0.098711	0.161624	6576.073457	37187.990668	3813.624585	17741.224188
65.552500	0.107686	0.062318	0.100933	0.165924	6594.766947	36992.707923	3808.803473	17594.357145
66.035500	0.109920	0.063426	0.102655	0.169292	6584.970684	36815.774640	3805.003344	17480.348105
66.536000	0.110186	0.064588	0.103381	0.178200	6511.150257	36216.003406	3786.314045	17182.992857
67.036500	0.113940	0.065669	0.108230	0.175595	6565.324451	36500.018050	3803.324502	17269.292645
67.536500	0.115979	0.065788	0.107783	0.177106	6569.858319	36392.471617	3798.828352	17219.161322
68.039500	0.116472	0.067045	0.114711	0.180464	6545.322279	36230.783254	3807.042745	17108.382793
68.537500	0.112046	0.067540	0.106742	0.186713	6455.304921	35791.901818	3774.724013	16904.450457
69.037500	0.116440	0.068247	0.111501	0.184526	6510.536308	36011.891399	3790.380143	16975.482489
69.534500	0.117269	0.068824	0.112296	0.186990	6496.731537	35868.263444	3786.594887	16895.471359
70.035500	0.119017	0.069848	0.110836	0.189949	6486.550876	35721.677729	3776.644777	16799.992588
70.536000	0.116311	0.070497	0.105315	0.196815	6407.014780	35254.983837	3749.285780	16580.943500
71.035500	0.120866	0.071078	0.111200	0.196713	6445.490673	35305.967394	3762.411813	16584.180114
71.536000	0.121524	0.070810	0.112898	0.198842	6433.294741	35127.519689	3761.462147	16516.932254
72.037000	0.121265	0.071910	0.113873	0.200141	6420.417663	35112.740390	3760.747775	16476.076987
72.539500	0.119787	0.071654	0.116175	0.206585	6355.656275	34619.395433	3751.660867	16275.125550
73.036500	0.123863	0.072584	0.116547	0.202465	6422.680521	34990.587766	3761.519313	16403.267487
73.537500	0.122709	0.071654	0.114202	0.203279	6406.471979	34861.913813	3754.576243	16377.858681
74.035000	0.122291	0.070894	0.112189	0.204088	6396.401202	34746.550350	3748.415968	16352.629520
74.535500	0.121525	0.072015	0.114552	0.211492	6330.091206	34289.021923	3737.515435	16124.132979
75.035500	0.126835	0.074686	0.114432	0.208317	6398.986747	34714.514812	3744.106363	16221.640236
75.535500	0.124542	0.073698	0.120384	0.208810	6376.215725	34606.160292	3756.001801	16206.456257
76.035500	0.125827	0.072918	0.117885	0.209204	6383.480349	34520.528408	3749.679097	16194.315928
76.536500	0.124932	0.075134	0.119523	0.211021	6361.408358	34549.666429	3749.288861	16138.547917
77.036500	0.125680	0.073293	0.118460	0.210655	6370.455984	34442.259029	3747.772535	16149.752621
77.537000	0.128567	0.073648	0.114244	0.211663	6385.774334	34394.873776	3736.484760	16118.899192
78.037000	0.129732	0.073918	0.122023	0.212678	6387.007075	34340.868810	3751.128101	16087.894607
78.537000	0.124443	0.073087	0.112033	0.215966	6317.601886	34043.937887	3722.597104	15987.910450
79.035000	0.125681	0.072581	0.117105	0.212056	6359.092189	34289.169837	3741.800613	16106.879515
79.535000	0.126334	0.071836	0.119235	0.211927	6365.437568	34244.630595	3746.694298	16110.825039
80.035500	0.127516	0.073669	0.124428	0.215029	6349.878649	34153.136584	3751.245912	16016.333845
80.536000	0.127976	0.072983	0.120036	0.218006	6329.580471	33890.535637	3735.300745	15926.267573
81.036000	0.129242	0.072478	0.120804	0.214286	6369.900139	34120.928614	3744.979101	16038.898258
81.536000	0.126795	0.072622	0.120000	0.215212	6342.574548	34064.682549	3741.235846	16010.764025
82.037000	0.125928	0.071448	0.123086	0.214192	6343.811785	34053.696472	3750.144317	16041.761813
82.537000	0.125640	0.071818	0.118133	0.220149	6293.752426	33655.271417	3726.662979	15861.823526
83.037500	0.128770	0.072568	0.119860	0.216699	6346.514328	33954.301276	3737.730538	15965.736274
83.535000	0.126652	0.071464	0.120545	0.216782	6328.779115	33869.450470	3739.026649	15963.223340
84.035000	0.129849	0.071075	0.123669	0.216466	6357.133934	33864.255566	3746.465528	15972.786450
84.535500	0.125743	0.072204	0.131007	0.222684	6274.464404	33503.437660	3748.901620	15786.022870
85.036000	0.127731	0.070116	0.126172	0.216406	6340.493958	33800.169858	3752.046301	15974.588190
85.536000	0.128388	0.070148	0.120232	0.216760	6342.934686	33777.283964	3738.400722	15963.891762
86.036000	0.129235	0.070775	0.124936	0.218182	6338.300272	33720.845253	3745.490230	15920.967095
86.539500	0.127548	0.069430	0.120167	0.219356	6315.314027	33542.507851	3732.690949	15885.634149
87.036500	0.127440	0.068408	0.120607	0.216837	6334.673790	33648.343499	3739.041745	15961.563552
87.537000	0.128659	0.069721	0.124211	0.218139	6334.010136	33649.139226	3744.013873	15922.272473
88.037500	0.127896	0.068486	0.126314	0.217172	6335.654449	33630.169528	3750.684295	15951.449060
88.534500	0.127169	0.069024	0.126661	0.221885	6292.113943	33336.043800	3741.212333	15809.869619
89.035500	0.127259	0.067345	0.116036	0.217106	6331.052151	33554.148498	3728.674804	15953.434379
89.535500	0.126908	0.067699	0.120817	0.218250	6319.055038	33498.446187	3736.454636	15918.926426
90.036000	0.128421	0.066786	0.123366	0.217719	6335.470650	33471.499388	3743.094331	15934.933139
90.536000	0.125608	0.066216	0.122130	0.220262	6292.602494	33253.031314	3734.955213	15858.438496
91.039000	0.127477	0.066994	0.131084	0.218066	6325.090725	33461.723518	3759.174953	15924.462465
91.536500	0.128959	0.065944	0.125534	0.218318	6334.983137	33370.177908	3746.492725	15916.873393
92.036500	0.127952	0.065878	0.134315	0.218795	6323.048328	33332.054618	3764.693292	15902.499125
92.537000	0.125931	0.065949	0.130560	0.221208	6287.656757	33168.407488	3751.142681	15830.116171
93.037500	0.126077	0.065030	0.127361	0.218672	6309.019391	33281.301225	3749.696225	15906.201000
93.535000	0.127005	0.066998	0.127360	0.220264	6303.719395	33307.597447	3746.232539	15858.370964
94.035500	0.128370	0.065574	0.126698	0.220041	6316.415935	33223.672430	3745.280842	15865.072085
94.535500	0.127441	0.064361	0.126916	0.221339	6298.623407	33048.767823	3742.942557	15826.190528
95.036000	0.126769	0.064559	0.130294	0.219363	6309.035103	33200.173476	3754.593594	15885.445155
95.536500	0.127085	0.064624	0.133721	0.220269	6304.324896	33141.502162	3760.130489	15858.245226
96.061000	0.130246	0.064274	0.129902	0.220233	6329.926528	33119.610025	3751.834347	15859.309148
96.561500	0.126214	0.062771	0.129775	0.219784	6301.244328	33046.316591	3752.538649	15872.795465
97.037000	0.123960	0.063043	0.130079	0.219330	6286.918595	33096.823521	3754.195612	15886.435466
97.534500	0.126623	0.063111	0.126906	0.219648	6305.586244	33079.328949	3746.583941	15876.855600
98.035000	0.126315	0.062274	0.126349	0.219706	6302.661956	33017.215082	3745.249358	15875.117061
98.535000	0.125190	0.061107	0.131593	0.219686	6293.863052	32937.824594	3756.733369	15875.739398
99.035500	0.125083	0.062207	0.130341	0.220734	6284.681973	32941.376939	3751.698737	15844.297352
