sample name	sample
index	921
start time	 04-12-2021  11:44:45 AM
880	0.446763
Peak Time (s)	122.537
Peak Height 	0.4468
calc peak height	120,123
Baseline Time (s)	10.538
Baseline Value 	-0.005651
subtract baseline	10,4
Abs	0.368231
Peak Time (s)	121.536
Peak Height 	0.3682
calc peak height	120,123
Baseline Time (s)	9.037
Baseline Value 	0.004175
subtract baseline	10,3
PK_550	0.211990
Peak Time (s)	122.537
Peak Height 	0.212
calc peak height	120,123
Baseline Time (s)	10.538
Baseline Value 	3.8282E-5
subtract baseline	10,2
PK_880	0.363656
Peak Time (s)	121.035
Peak Height 	0.3637
calc peak height	120,123
Baseline Time (s)	9.535
Baseline Value 	0.001191
subtract baseline	10,1


Time (s)	A880-A510	A880-A775	A880-A975	A880	I510	I775	I975	I880	
0.037500	-0.000890	-0.000356	-0.002237	0.001628	7150.634365	43487.873438	3924.352795	23335.472314
0.541000	-0.000321	-0.001436	-0.009236	0.006373	7109.297278	42946.633368	3894.541920	23112.619380
1.035000	0.000045	-0.000657	-0.003768	0.004353	7132.869952	43205.799506	3913.455791	23207.185385
1.535500	0.001619	0.000455	-0.000650	0.000869	7183.251256	43634.930745	3930.402093	23371.301019
2.035500	0.000399	0.000208	0.001840	0.000725	7172.484117	43625.359094	3937.236614	23378.146437
2.536500	-0.002319	-0.000086	-0.001622	0.006958	7083.938786	43017.330587	3912.284772	23085.312577
3.036500	0.002895	0.000288	-0.004006	-0.000831	7213.172521	43779.164178	3926.127053	23451.897788
3.536500	0.001078	0.000707	0.001474	0.001373	7172.795291	43611.278823	3934.599154	23347.482727
4.034000	0.001663	0.000014	-0.003458	0.000503	7187.352257	43627.861120	3924.103127	23388.614889
4.537500	-0.002398	-0.000684	-0.001837	0.001351	7138.407799	43483.143149	3926.093245	23348.533895
5.035000	0.000655	-0.000847	-0.008741	-0.000113	7183.434907	43604.986340	3912.164414	23417.814122
5.535000	0.001971	0.000119	0.001018	0.000581	7189.667537	43630.532978	3935.476023	23384.965354
6.035500	0.001614	0.001001	0.001900	0.001033	7181.558473	43670.831155	3936.591820	23363.562716
6.536000	-0.000708	-0.000525	-0.004242	0.000073	7167.939824	43617.691149	3923.193878	23408.992015
7.038500	0.001518	-0.000199	-0.001548	0.000189	7189.055712	43637.413966	3929.838755	23403.488253
7.539500	0.001356	0.000209	-0.002358	0.000603	7183.276504	43636.859683	3926.678376	23383.881910
8.036500	-0.000316	-0.000087	-0.002591	0.000037	7172.217904	43662.241067	3927.539701	23410.722794
8.539500	-0.000259	-0.000365	-0.003512	-0.000626	7179.413800	43698.456347	3926.873046	23442.161350
9.037500	0.000037	0.000107	0.000000	0.000055	7175.562511	43678.779711	3934.196593	23409.864531
9.535000	0.000000	0.000522	0.001209	0.000274	7173.005178	43697.151840	3936.768382	23399.491557
10.035000	-0.001185	-0.000276	-0.001584	0.002362	7140.405778	43426.788667	3924.143321	23300.826801
10.538000	0.001418	0.000000	0.002356	0.000000	7189.945459	43673.859595	3940.471064	23412.460852
11.036000	0.000767	-0.000156	-0.005726	-0.000289	7186.325154	43686.424639	3920.315099	23426.176206
11.535000	-0.000114	0.000273	0.000379	-0.000079	7175.396449	43706.904528	3935.526890	23416.202612
12.036500	-0.000284	0.000158	0.000112	0.002716	7145.846736	43434.288959	3927.601602	23284.157257
12.539000	0.001818	0.000174	-0.001283	0.000555	7188.387907	43638.036895	3929.578414	23386.167677
13.036500	0.001917	-0.000085	0.001953	-0.001933	7214.414550	43847.844585	3944.468944	23504.260278
13.537000	0.001992	0.001023	0.001180	-0.000365	7199.378422	43804.486675	3938.357058	23429.759317
14.051000	-0.000209	0.000640	0.000892	0.003368	7140.112934	43418.326698	3927.930161	23253.471229
14.534500	0.001172	0.000368	-0.006403	0.002544	7162.040998	43469.940418	3911.352613	23292.263717
15.035000	0.000719	0.001195	-0.001000	0.001088	7172.049619	43683.838164	3928.930849	23360.940106
15.541000	0.003555	0.000589	0.000960	-0.000641	7217.914003	43789.607362	3938.503788	23442.881540
16.039000	-0.000184	-0.000175	-0.003713	0.002855	7145.451913	43390.123603	3917.419037	23277.602206
16.535500	0.000509	0.000106	-0.002208	0.001041	7170.422154	43586.118870	3925.936359	23363.183400
17.038000	0.001386	0.000076	-0.001093	-0.001338	7203.069283	43806.893558	3934.975344	23475.964431
17.536500	0.002528	0.000628	-0.001900	-0.003004	7231.435811	44016.588528	3937.210087	23555.341700
18.037000	-0.000538	0.000828	-0.001840	0.001171	7158.679050	43641.573895	3926.549978	23357.017173
18.537500	0.000381	0.000033	-0.003946	0.000909	7170.459111	43591.586879	3921.805949	23369.418816
19.035000	-0.000905	-0.000616	-0.002466	0.000612	7160.604398	43558.683066	3926.377393	23383.495346
19.534500	0.001562	0.001005	0.000517	0.001563	7175.727979	43621.423873	3931.625630	23338.497489
20.035500	0.001007	0.000089	-0.003337	0.002050	7165.321966	43490.030857	3920.441689	23315.522331
20.536000	0.000967	0.000596	0.002620	0.001684	7168.569288	43571.687163	3936.770189	23332.783586
21.036000	-0.000526	0.000546	0.003685	0.001519	7155.340866	43582.605711	3939.974963	23340.615198
21.538500	-0.000081	0.000493	0.002510	0.001666	7158.303348	43563.787259	3936.532312	23333.653367
22.036500	0.000143	-0.000008	-0.001933	0.002577	7151.470999	43431.742310	3922.694094	23290.702112
22.536500	0.003227	0.001774	0.001815	0.002424	7183.789166	43612.834571	3932.759002	23297.914938
23.037500	0.000885	0.000667	-0.000269	0.001626	7168.340823	43583.853821	3929.431684	23335.541229
23.537000	0.001663	0.001294	-0.003659	0.001716	7175.214329	43634.204305	3920.473931	23331.303168
24.035000	0.000011	-0.000079	-0.001482	0.002082	7155.082954	43471.354057	3925.124936	23314.030571
24.535000	0.000523	-0.000040	-0.001028	0.001323	7167.755530	43546.014804	3928.253900	23349.868601
25.035500	-0.000094	0.000358	0.001870	0.001437	7160.451627	43572.609875	3935.464301	23344.465702
25.536000	0.001471	0.000490	-0.002123	0.001307	7177.387708	43597.185295	3925.470245	23350.619893
26.036000	-0.000337	0.000504	-0.002982	0.002596	7146.511181	43477.833675	3919.952732	23289.805889
26.536000	0.000942	0.000376	-0.002870	0.001350	7171.661960	43582.460562	3923.436558	23348.567913
27.036500	0.002268	0.000979	0.000857	0.001889	7179.531639	43588.434695	3931.662898	23323.112365
27.537000	-0.000631	-0.000387	-0.004067	0.001216	7157.314487	43523.498200	3920.708193	23354.922751
28.037500	0.000089	-0.000240	-0.002361	0.002327	7153.414085	43433.391003	3922.235708	23302.474857
28.538000	-0.000039	0.000067	-0.002581	-0.001086	7186.230932	43782.349669	3930.465129	23464.016793
29.054000	0.000277	-0.000756	0.001522	-0.001481	7193.359336	43742.086135	3942.162678	23482.782111
29.536000	0.003496	0.001336	0.001628	0.000021	7210.644587	43797.602757	3938.519349	23411.487925
30.035500	-0.001023	0.000191	-0.000439	0.002933	7136.361597	43417.079393	3925.621864	23273.939984
30.536000	0.002297	0.000281	0.001633	0.000141	7197.362557	43687.030210	3938.218969	23405.784034
31.039000	0.002540	0.000478	0.003389	-0.000403	7205.284362	43756.709263	3944.226488	23431.582900
31.536500	-0.001201	0.000693	-0.003930	0.002572	7138.163771	43497.666502	3917.587560	23290.911231
32.036500	0.000497	0.000122	0.002895	0.003811	7142.714833	43328.685252	3931.963794	23232.618287
32.576500	0.002025	0.000567	0.001523	0.000368	7192.347303	43692.500836	3937.339242	23395.015714
33.034500	0.001377	0.001098	0.004386	-0.000204	7191.591353	43796.453597	3946.316378	23422.154183
33.534500	0.002761	0.000092	-0.002270	-0.000665	7210.143684	43745.081487	3930.181361	23444.010046
34.035000	0.000419	0.000343	-0.004049	0.003682	7143.226161	43361.304517	3914.448440	23238.704136
34.535500	0.002484	0.000676	-0.001693	0.000533	7195.302324	43687.295513	3928.575694	23387.214185
35.036000	0.000488	0.000121	-0.001719	0.002295	7157.714004	43470.162435	3923.968567	23304.000787
35.535500	-0.000285	0.000516	-0.003023	0.002050	7152.453338	43529.961173	3921.247345	23315.541578
36.035500	0.001069	0.000123	-0.001008	0.003171	7154.769705	43388.513490	3923.544144	23262.734257
36.536000	0.001331	0.000415	0.001798	0.002388	7165.182684	43488.901674	3932.808750	23299.616145
37.033500	0.000319	0.000891	0.002477	0.002495	7154.033370	43523.393499	3934.291251	23294.557550
37.537000	-0.000212	0.000517	-0.001245	0.002268	7151.014563	43509.688158	3925.256415	23305.265617
38.034500	-0.000344	0.000481	-0.003052	0.003301	7139.436631	43409.747852	3917.967502	23256.596213
38.536000	0.000389	0.000454	0.001053	0.002484	7154.832799	43483.550195	3930.627937	23295.049696
39.035000	0.000669	0.000813	-0.002903	0.002361	7158.848125	43528.707167	3920.757855	23300.866265
39.535500	-0.000939	-0.000258	-0.001839	0.002058	7145.871588	43456.827170	3924.268500	23315.154716
40.036000	0.000422	-0.000148	-0.000745	0.003105	7148.985012	43369.340635	3924.387585	23265.807716
40.541000	0.000451	-0.000282	0.003050	0.002081	7159.471808	43452.482266	3936.856809	23314.079391
41.036500	-0.000063	0.000769	-0.001595	0.002634	7148.853141	43499.010396	3923.415144	23288.027100
41.536000	0.001382	-0.000188	-0.001230	0.002067	7168.894593	43462.456038	3925.811198	23314.717553
42.037000	0.001777	0.000949	-0.001414	0.003628	7157.266561	43422.893217	3921.325186	23241.219750
42.536000	-0.000367	0.000825	-0.001297	0.002240	7149.746693	43541.118071	3925.193757	23306.562633
43.034000	0.000712	0.000179	-0.000997	0.002127	7161.617716	43491.287922	3926.260787	23311.915184
43.535500	0.002847	0.000121	-0.000759	0.002299	7181.223879	43469.699778	3926.429465	23303.785918
44.035500	0.000683	0.000334	0.000751	0.003480	7147.853855	43379.352108	3927.276881	23248.183445
44.536500	-0.000021	0.000055	-0.001138	0.001674	7158.828658	43522.052938	3927.063275	23333.299049
45.036500	0.003958	0.001170	0.001341	-0.002224	7238.018598	43994.046874	3943.629567	23518.130729
45.537000	0.002321	0.000683	0.000540	-0.000065	7199.672847	43744.257269	3935.911945	23415.552810
46.050000	0.001161	0.000395	-0.002396	0.004162	7145.827960	43321.434883	3917.442862	23216.135903
46.536000	0.001453	0.000325	-0.003196	0.000599	7184.292836	43648.196978	3924.532817	23384.108778
47.037000	0.001732	0.000357	0.002640	-0.000245	7195.570265	43730.510637	3941.853054	23424.098357
47.537000	0.001931	-0.000100	0.002250	-0.000406	7199.175600	43702.590734	3941.252741	23431.709387
48.035000	-0.001706	-0.000639	-0.005147	0.002628	7132.610656	43368.050940	3914.337928	23288.296143
48.535500	0.000093	-0.000233	-0.000927	0.002677	7149.974219	43401.429439	3925.024408	23286.000417
49.035000	0.000579	0.000560	-0.001570	0.002907	7152.512134	43453.931227	3922.777495	23275.130424
49.535500	0.001230	0.000269	0.000573	0.000045	7187.608242	43694.928136	3935.709304	23410.326393
50.039000	0.000910	0.000653	-0.000899	0.003929	7145.658243	43367.218665	3921.877180	23227.110852
50.537000	-0.000073	0.000900	-0.006650	0.001216	7162.865625	43644.165900	3914.103889	23354.900037
51.036500	0.003165	0.000487	0.003545	-0.001111	7218.724400	43824.283429	3946.488206	23465.176552
51.536000	0.002750	0.000231	-0.003820	-0.000524	7208.612911	43744.859726	3925.814726	23437.298729
52.037500	-0.009963	-0.002415	0.000104	0.010683	6974.078252	42461.566597	3907.212425	22912.359408
52.534000	-0.056190	-0.006091	-0.008558	0.370235	4459.158053	20023.168211	3278.280325	11605.268168
53.037500	-0.102578	-0.017869	-0.049013	0.034502	5999.971895	39038.187383	3737.125491	21840.555263
53.535500	-0.097045	-0.047321	-0.046351	-0.209174	8455.339840	62102.693855	4447.111742	36147.472905
54.035500	-0.074753	-0.073700	-0.022209	-0.254433	9401.698213	64734.562682	4731.300424	39806.906927
54.539000	-0.040779	-0.120072	0.003082	-0.306388	10839.095223	65535.000000	5105.883120	44505.950848
55.036500	-0.031073	-0.081576	0.012083	-0.267666	10321.609724	65502.324356	4953.827334	40950.926624
55.536500	-0.013200	-0.041533	0.015797	-0.213409	9719.710427	63485.583342	4717.974005	36473.931219
56.037000	-0.001220	-0.017152	0.016851	-0.165381	9171.088463	60273.202581	4522.067157	32951.624708
56.537000	0.017255	-0.003329	0.023799	-0.129361	8920.101185	57412.915693	4411.020991	30554.167896
57.035000	0.033807	0.008595	0.032835	-0.084021	8529.616060	53373.534935	4282.390546	27805.756730
57.535000	0.050701	0.019318	0.042577	-0.062042	8463.290499	52081.313536	4241.398673	26573.187183
58.035000	0.064793	0.026817	0.052378	-0.030993	8247.663863	49483.799075	4172.912176	24934.999949
58.535500	0.079445	0.033025	0.067858	-0.014144	8220.334565	48355.428310	4168.613381	24093.827621
59.036000	0.099021	0.047328	0.088124	0.036350	7850.056608	44718.493375	4077.066216	21759.841479
59.536000	0.114199	0.056680	0.104069	0.074877	7587.396385	41999.402345	4012.715998	20152.866328
60.036500	0.125097	0.064860	0.118897	0.117386	7253.556815	39025.307541	3938.267202	18537.644032
60.536000	0.138102	0.071713	0.134226	0.152512	7033.981158	36746.380665	3887.857900	17317.202152
61.037000	0.151609	0.079752	0.151410	0.180716	6894.157808	35209.306568	3860.778092	16406.263821
61.537500	0.170477	0.089534	0.161723	0.207459	6821.158155	33970.629914	3821.657304	15595.478340
62.037000	0.180806	0.097337	0.175949	0.231255	6699.357575	32846.096262	3799.544513	14914.850320
62.535000	0.197682	0.106505	0.199749	0.245841	6719.799581	32474.380243	3820.825518	14515.706197
63.035500	0.210557	0.113833	0.208509	0.265358	6660.804950	31655.083476	3796.025606	14002.198777
63.535500	0.221892	0.121459	0.224410	0.276543	6662.118276	31420.115211	3806.822685	13718.131796
64.038500	0.224447	0.125559	0.234965	0.307276	6421.501240	29721.755421	3761.434036	12974.257905
64.536500	0.229365	0.129874	0.243027	0.300948	6515.664411	30387.964772	3793.588153	13123.151929
65.036500	0.236114	0.136778	0.262410	0.330350	6328.444966	28998.630054	3771.087897	12449.342016
65.536500	0.239546	0.139846	0.271441	0.346947	6224.041497	28197.172520	3754.438068	12088.667225
66.036500	0.240202	0.145574	0.272587	0.355822	6160.452573	28014.298885	3737.727835	11901.393450
66.537000	0.245642	0.150562	0.284911	0.349923	6248.499077	28652.596867	3777.609334	12025.434047
67.034500	0.245740	0.152778	0.289477	0.363713	6142.466364	27974.531351	3757.213684	11738.049202
67.535000	0.252532	0.154286	0.293610	0.373221	6121.833839	27516.334511	3745.526448	11545.150648
68.057000	0.261759	0.159383	0.302969	0.376917	6163.996641	27595.923028	3757.843382	11471.295006
68.535500	0.262446	0.158283	0.295439	0.382371	6127.627079	27225.603400	3729.839212	11363.455055
69.047500	0.267439	0.159994	0.303469	0.384089	6152.568466	27225.187766	3743.349405	11329.763490
69.544500	0.273876	0.163150	0.309160	0.388807	6165.742686	27137.721226	3745.448986	11237.920927
70.042500	0.275561	0.164528	0.306191	0.389100	6176.446336	27198.446504	3738.426335	11232.253224
70.537000	0.279796	0.167830	0.306093	0.389223	6208.255201	27377.212540	3737.951425	11229.870687
71.037500	0.287353	0.171375	0.310498	0.387900	6278.007879	27653.458220	3750.312839	11255.499953
71.537500	0.288246	0.172179	0.310688	0.384749	6310.239137	27880.155441	3757.594832	11316.839227
72.034500	0.291015	0.175024	0.312980	0.385763	6324.332107	27985.904370	3760.397354	11297.063229
72.535000	0.298621	0.178078	0.311315	0.377929	6450.718187	28623.538022	3774.035049	11451.175130
73.035500	0.300963	0.177853	0.310172	0.371411	6525.302567	28999.489355	3786.077527	11581.541474
73.538500	0.303655	0.181126	0.314781	0.368594	6572.450928	29368.471022	3802.963116	11638.487529
74.036500	0.303753	0.181673	0.314717	0.367952	6578.835241	29441.181463	3804.289437	11651.525677
74.536000	0.309465	0.183583	0.319317	0.362203	6679.024020	29913.896510	3828.339225	11769.070995
75.037000	0.315063	0.185723	0.321372	0.361129	6738.583587	30114.838408	3835.724449	11791.212322
75.537000	0.317889	0.187022	0.323971	0.359549	6778.429034	30296.095777	3845.671856	11823.877084
76.037500	0.314791	0.187501	0.317779	0.362033	6728.022926	30169.716280	3825.126929	11772.571596
76.535000	0.319758	0.187745	0.319321	0.354373	6842.959288	30671.122898	3846.926878	11931.693006
77.079000	0.324638	0.188952	0.327695	0.352427	6906.499447	30873.695251	3871.934905	11972.573271
77.535000	0.325645	0.191111	0.321885	0.351835	6921.529251	31051.708060	3859.216235	11985.044394
78.035500	0.321589	0.189983	0.323155	0.353109	6871.645638	30896.204953	3859.207818	11958.226254
78.536000	0.326770	0.191517	0.328118	0.347724	6971.137263	31346.329128	3884.578435	12072.120746
79.036000	0.329382	0.192708	0.334631	0.346813	7004.852060	31484.495556	3903.156689	12091.525548
79.536500	0.331232	0.193977	0.333971	0.346194	7028.644700	31609.212040	3903.053992	12104.737169
80.037000	0.327668	0.192077	0.330641	0.347879	6978.223424	31372.910831	3890.469143	12068.819608
80.537000	0.332865	0.194996	0.336894	0.343172	7073.861684	31877.856811	3918.159092	12169.493153
81.037500	0.334951	0.195332	0.332074	0.341658	7109.173954	32001.706779	3909.734621	12202.117818
81.535000	0.336297	0.194483	0.338732	0.338848	7150.300068	32133.521251	3934.036711	12262.944217
82.035000	0.334378	0.195562	0.334802	0.342442	7095.827546	31964.563494	3914.678726	12185.204174
82.535000	0.337771	0.196289	0.335274	0.336157	7191.915028	32438.139510	3932.047351	12321.574430
83.035500	0.338652	0.197212	0.340300	0.334983	7212.595874	32581.296789	3948.223990	12347.276612
83.536000	0.340290	0.197604	0.337249	0.333251	7246.720316	32727.010805	3944.765641	12385.310828
84.036500	0.336819	0.197246	0.331790	0.338141	7162.541160	32368.369454	3917.972839	12278.327209
84.537000	0.341284	0.198755	0.337551	0.330449	7285.471760	33000.002769	3952.923160	12447.147724
85.037000	0.343114	0.200047	0.339506	0.329505	7314.008600	33155.542552	3960.600278	12468.082878
85.537500	0.343502	0.198761	0.340653	0.327936	7334.262162	33175.330902	3967.837050	12502.972315
86.035000	0.337665	0.198881	0.336972	0.333863	7213.941612	32772.772450	3942.438632	12371.856635
86.534500	0.343537	0.200021	0.343647	0.327440	7339.759396	33298.083805	3977.202184	12514.015666
87.035500	0.346014	0.200149	0.339356	0.326759	7372.669526	33354.831618	3967.516013	12529.228133
87.538000	0.347072	0.201231	0.345555	0.327996	7370.791511	33343.941672	3980.850092	12501.621997
88.036000	0.343344	0.200412	0.343856	0.333653	7273.766009	32892.899088	3961.136659	12376.473890
88.536500	0.348629	0.201201	0.340708	0.327587	7391.390685	33370.526415	3968.917007	12510.748188
89.036500	0.348410	0.200491	0.342116	0.326930	7395.992242	33366.874716	3974.454660	12525.409004
89.537000	0.347521	0.201602	0.348484	0.327810	7377.434724	33383.022244	3989.301071	12505.772340
90.040000	0.345199	0.200984	0.347278	0.334948	7279.483851	32842.892552	3966.802330	12348.037442
90.537500	0.350725	0.202394	0.348534	0.329903	7389.082075	33291.798847	3983.752385	12459.261795
91.034500	0.350438	0.201540	0.346468	0.330478	7380.032521	33191.783871	3976.615762	12446.506614
91.535500	0.350704	0.201795	0.344672	0.331580	7371.288609	33132.747570	3968.837445	12422.140918
92.035000	0.352755	0.203300	0.349279	0.333100	7376.846813	33131.719682	3977.126443	12388.638949
92.535500	0.353321	0.203151	0.347015	0.334680	7366.242573	33011.431068	3966.815395	12353.919466
93.036000	0.352129	0.202711	0.352266	0.335739	7342.808193	32907.649219	3978.064473	12330.730790
93.536000	0.352920	0.203365	0.354211	0.337402	7333.762840	32837.853307	3978.825271	12294.412643
94.037000	0.349488	0.202845	0.346587	0.343467	7236.386785	32386.930933	3942.466587	12163.166353
94.537000	0.352045	0.203371	0.353861	0.339726	7300.722025	32678.352796	3971.634476	12243.912926
95.037000	0.353964	0.204080	0.353122	0.342267	7294.317701	32552.840328	3962.870412	12188.974660
95.537500	0.354706	0.204971	0.354569	0.344396	7280.098393	32468.411658	3961.059042	12143.226115
96.034500	0.350997	0.205272	0.351421	0.353519	7150.590441	31873.141756	3928.905906	11949.620186
96.535000	0.353218	0.204558	0.355378	0.348479	7223.408667	32163.509308	3952.391444	12056.074685
97.038500	0.355132	0.205729	0.352594	0.350590	7221.409502	32100.152164	3939.552348	12011.328639
97.536000	0.356132	0.204976	0.354791	0.352616	7211.052206	31913.704029	3939.998855	11968.592278
98.036000	0.352637	0.204925	0.349309	0.359249	7110.109306	31470.129932	3908.830709	11830.091955
98.536500	0.352760	0.203579	0.355422	0.355437	7149.051862	31632.942057	3934.298998	11909.425459
99.037000	0.353547	0.205706	0.353962	0.358273	7128.730511	31586.108304	3923.205893	11850.340096
99.537000	0.355304	0.206661	0.352027	0.361728	7111.967805	31421.198305	3909.436875	11778.858147
100.037500	0.357340	0.207721	0.356643	0.364108	7108.572555	31334.560269	3915.127041	11729.941420
100.535000	0.357346	0.206805	0.351796	0.366093	7089.130971	31145.054690	3897.831523	11689.369151
101.035500	0.355758	0.205873	0.356725	0.367069	7064.079453	31021.114340	3907.806576	11669.484957
101.535500	0.357868	0.207318	0.356962	0.370066	7055.438014	30920.647950	3900.833140	11608.693149
102.036000	0.356212	0.207219	0.355286	0.376923	6973.445034	30474.862784	3879.551016	11471.160217
102.535500	0.357799	0.207888	0.358202	0.374006	7016.628366	30703.810077	3894.052585	11529.399590
103.036000	0.357780	0.208283	0.356863	0.375696	7000.198475	30620.931900	3886.500405	11495.623437
103.536000	0.359342	0.207573	0.356968	0.376707	7005.483055	30511.190053	3884.248534	11475.469598
104.036500	0.354581	0.206792	0.357431	0.381933	6910.605585	30131.444857	3872.498776	11372.059199
104.537000	0.358681	0.207335	0.359558	0.380066	6967.029050	30283.137731	3882.341437	11408.851597
105.037500	0.359789	0.208185	0.360990	0.382535	6954.090804	30181.122478	3879.778066	11360.217960
105.535000	0.360629	0.209569	0.356159	0.385918	6930.022119	30055.678877	3859.678752	11294.026858
106.035000	0.357284	0.207743	0.355759	0.390609	6854.897013	29650.824815	3847.413648	11203.102208
106.538500	0.358799	0.208596	0.359602	0.388661	6887.101491	29824.091037	3861.377872	11240.737074
107.035500	0.361342	0.208776	0.361509	0.391045	6888.583152	29687.624701	3860.219781	11194.699697
107.536000	0.361493	0.209866	0.364461	0.393605	6866.140400	29596.953645	3861.171186	11145.529027
108.036500	0.358929	0.208914	0.358394	0.401138	6773.437100	29079.844614	3828.672363	11002.543291
108.537000	0.360737	0.210096	0.363394	0.398465	6814.310687	29313.536717	3846.883447	11052.994518
109.037000	0.360442	0.209279	0.363469	0.398995	6806.756035	29231.712191	3845.795451	11042.975296
109.537500	0.361802	0.210493	0.363984	0.402763	6784.779107	29077.079390	3838.042972	10972.014852
110.038000	0.358836	0.209169	0.361646	0.411050	6683.669749	28503.417683	3813.124353	10818.129520
110.535000	0.361521	0.209694	0.363314	0.406161	6751.436554	28825.036015	3828.431112	10908.568614
111.035500	0.360440	0.208986	0.358887	0.407098	6733.261605	28726.884754	3815.890657	10891.145038
111.536000	0.361677	0.210068	0.362350	0.410009	6718.254134	28618.181453	3817.175201	10837.299182
112.036000	0.359470	0.209512	0.359977	0.417627	6631.322927	28138.108643	3794.203407	10698.068137
112.536500	0.362875	0.210347	0.363821	0.414343	6690.295175	28378.915232	3810.537915	10757.787118
113.036500	0.362537	0.210464	0.365071	0.416798	6665.563676	28241.965896	3807.759354	10713.106436
113.537000	0.362674	0.210220	0.365132	0.418479	6651.958466	28129.736305	3804.031954	10682.648086
114.037000	0.362714	0.210429	0.365540	0.423507	6608.326998	27850.950349	3793.480344	10592.249754
114.534500	0.364340	0.211770	0.364267	0.423057	6626.424079	27954.196263	3791.614491	10600.299780
115.035000	0.367491	0.210896	0.361970	0.424200	6644.008053	27837.955553	3783.846537	10579.882495
115.535000	0.364956	0.212218	0.366262	0.426446	6602.274512	27784.897653	3788.459982	10539.910032
116.038500	0.357519	0.209608	0.361735	0.434141	6473.166966	27200.579844	3761.224562	10404.496221
116.536000	0.366032	0.212528	0.371225	0.430029	6580.568342	27597.762299	3791.583162	10476.552681
117.036000	0.363408	0.211230	0.363972	0.431144	6548.439359	27460.814483	3772.795589	10456.955572
117.536500	0.362492	0.210084	0.369555	0.431774	6535.227935	27360.385045	3783.870584	10445.893752
118.037000	0.358730	0.209895	0.362034	0.440376	6431.291920	26869.609644	3748.272388	10296.532037
118.537000	0.362452	0.211301	0.371525	0.435467	6503.543579	27221.224694	3780.005008	10381.415656
119.034000	0.364987	0.211920	0.365293	0.437213	6510.213671	27158.043863	3762.293262	10351.109815
119.538000	0.361781	0.211672	0.367299	0.438568	6471.784271	27068.567030	3763.726033	10327.673909
120.035500	0.359736	0.210781	0.363375	0.445195	6399.827925	26653.217361	3740.764465	10214.134850
120.538500	0.363588	0.211151	0.364363	0.440909	6467.310829	26909.584437	3752.171617	10287.367009
121.035500	0.363656	0.211267	0.367322	0.442604	6453.719701	26822.332681	3754.925303	10258.318268
121.536000	0.360023	0.211669	0.368231	0.443890	6412.934901	26773.662971	3754.105308	10236.363109
122.036500	0.357914	0.209734	0.366674	0.446531	6373.976732	26523.094154	3744.992184	10191.451197
122.536500	0.363233	0.211990	0.363102	0.446763	6415.710816	26633.597487	3736.814146	10187.532474
123.037000	0.362601	0.211763	0.368146	0.447908	6401.072821	26558.624909	3745.197888	10168.147133
123.537000	0.360794	0.210697	0.369428	0.448979	6377.495948	26442.318244	3745.654845	10150.075746
124.037500	0.360305	0.211222	0.367644	0.453381	6337.792748	26232.831907	3732.379001	10076.254635
124.535000	0.360554	0.210802	0.371768	0.451445	6355.480381	26314.560118	3745.384899	10108.641425
125.035000	0.360423	0.210254	0.364149	0.451722	6352.171250	26270.037429	3728.478412	10104.001037
125.535500	0.359593	0.210442	0.369037	0.452885	6336.052286	26217.579899	3736.414889	10084.538930
126.035500	0.358627	0.209963	0.369335	0.457261	6293.216245	25957.941620	3727.727616	10011.803431
126.535500	0.362203	0.210805	0.368989	0.456349	6329.167960	26051.438764	3728.929809	10026.908207
127.036500	0.359720	0.210871	0.376234	0.457221	6302.257646	26008.425314	3742.557658	10012.471853
127.536500	0.361212	0.210916	0.370498	0.459154	6298.738579	25908.087374	3726.182440	9980.574986
128.037000	0.358936	0.209816	0.371038	0.461576	6261.430454	25721.939827	3722.207694	9940.802079
128.536500	0.362455	0.211874	0.372096	0.462507	6281.930317	25781.328974	3722.473664	9925.570151
129.037500	0.359591	0.209184	0.360893	0.460742	6273.210467	25732.587669	3702.796139	9954.471981
129.534500	0.358997	0.209277	0.369994	0.462233	6256.736602	25659.146963	3718.630483	9930.062453
130.038500	0.357569	0.210980	0.365476	0.466126	6215.029248	25544.496975	3701.145855	9866.700467
130.535000	0.358115	0.211253	0.372743	0.466219	6218.557604	25553.841921	3716.036454	9865.185428
131.035500	0.360535	0.210391	0.368751	0.466189	6237.713409	25510.469198	3707.781556	9865.674687
131.536000	0.359398	0.209413	0.368142	0.467236	6220.638095	25405.146633	3704.355517	9848.738062
132.036000	0.359301	0.209695	0.371711	0.468893	6206.972063	25333.894418	3708.313204	9821.999843
