sample name	sample
index	767
start time	 03-31-2021  01:03:10 PM
880	-0.005860
Peak Time (s)	92.535
Peak Height 	-0.00586
calc peak height	90,93
Baseline Time (s)	10.034
Baseline Value 	0.006291
subtract baseline	10,4
Abs	0.034390
Peak Time (s)	92.035
Peak Height 	0.03439
calc peak height	90,93
Baseline Time (s)	11.036
Baseline Value 	0.003719
subtract baseline	10,3
PK_550	0.024393
Peak Time (s)	92.035
Peak Height 	0.02439
calc peak height	90,93
Baseline Time (s)	10.535
Baseline Value 	4.7357E-4
subtract baseline	10,2
PK_880	0.036889
Peak Time (s)	92.035
Peak Height 	0.03689
calc peak height	90,93
Baseline Time (s)	11.536
Baseline Value 	-0.001035
subtract baseline	10,1


Time (s)	A880-A510	A880-A775	A880-A975	A880	I510	I775	I975	I880	
0.040000	0.001203	0.000006	-0.001568	-0.006745	6708.300801	40356.918322	4037.487508	22071.306526
0.538000	-0.000642	-0.000244	-0.008900	-0.000348	6639.681157	39790.814603	4006.122815	21793.195507
1.035500	-0.002138	-0.000422	-0.001285	0.001930	6608.686050	39583.740771	4018.196088	21695.122255
1.535500	-0.003040	-0.000776	-0.001181	0.002271	6598.539727	39525.339759	4017.655885	21680.479578
2.036000	0.000009	0.000038	0.001216	0.001489	6629.912612	39659.601875	4024.916774	21714.087336
2.536500	-0.000261	-0.000774	-0.004615	0.000717	6634.039058	39656.185688	4013.390537	21747.279507
3.036500	0.000866	-0.000159	0.000454	-0.001288	6659.922664	39877.492338	4029.545539	21833.779240
3.536500	-0.001834	-0.000688	-0.001911	0.001754	6612.612045	39576.238867	4017.173315	21702.683442
4.039500	0.000363	0.000255	-0.004004	0.000819	6638.338779	39734.390999	4014.543894	21742.895193
4.536500	0.001253	0.000467	0.002040	0.000332	6649.704205	39793.352701	4029.466872	21763.844966
5.037000	0.000740	-0.001175	-0.002606	-0.000461	6652.028033	39721.682911	4020.634746	21798.048870
5.535500	-0.001645	-0.000190	0.002258	0.000053	6628.120815	39761.429700	4030.612879	21775.898967
6.035500	-0.000104	-0.000899	-0.000166	-0.000612	6646.298036	39757.758372	4026.567213	21804.583973
6.535500	0.000447	-0.000762	0.003581	-0.000376	6648.899391	39749.377575	4034.659217	21794.393591
7.036000	0.000111	-0.000297	-0.003274	-0.000418	6646.468495	39792.219893	4019.013759	21796.209469
7.536000	0.001680	0.000388	0.002384	0.000278	6653.687465	39791.248127	4030.382972	21766.174473
8.036500	0.002485	-0.000510	-0.002030	-0.000697	6668.458913	39797.820488	4022.491423	21808.254832
8.537000	-0.000065	-0.000742	0.000631	-0.000631	6646.774729	39772.553986	4028.441018	21805.395822
9.037000	0.002673	0.000506	-0.004237	0.000467	6660.354296	39785.240503	4014.812343	21758.026082
9.537500	0.000753	-0.000159	0.000801	0.000206	6646.617363	39751.115203	4026.907632	21769.286885
10.034500	-0.001209	0.000122	-0.002829	0.000000	6632.137178	39792.299288	4019.076349	21778.169451
10.535000	-0.000060	0.000000	-0.002500	0.000008	6641.538569	39781.287905	4019.806780	21777.822443
11.035500	0.001723	-0.000557	0.000000	-0.000462	6660.176129	39773.915422	4026.601847	21798.085416
11.536000	0.000000	0.000468	0.000975	-0.000076	6642.726348	39827.963655	4027.955658	21781.432477
12.036500	0.000192	-0.000055	-0.001719	-0.000317	6646.305299	39804.081020	4022.333039	21791.847747
12.539000	-0.000379	-0.000461	-0.000723	-0.000455	6642.734106	39781.503697	4024.928944	21797.807804
13.036500	0.000878	0.000072	-0.001212	0.000074	6648.741679	39781.727087	4022.596530	21774.962982
13.536500	-0.001306	0.000356	-0.000744	0.000512	6627.132053	39768.761991	4022.666245	21756.100376
14.037000	-0.002766	-0.000568	-0.001339	0.001631	6605.996402	39596.612757	4018.753797	21707.969180
14.537000	-0.001232	0.000036	-0.005363	0.002534	6611.155138	39571.485507	4007.596227	21669.220547
15.035000	0.001159	-0.000328	0.001310	0.000486	6647.658844	39713.277871	4027.433788	21757.222176
15.535000	0.001076	-0.000739	-0.006247	-0.000231	6652.903847	39739.030394	4011.840627	21788.119132
16.038500	-0.001349	-0.001189	-0.010598	-0.000704	6636.784191	39740.996429	4003.108494	21808.540479
16.537000	0.000506	0.000725	-0.006173	0.000872	6639.079708	39769.488797	4009.514978	21740.584458
17.036000	0.001219	-0.000064	0.002069	-0.003218	6678.903019	40049.462622	4037.740103	21917.444626
17.536000	-0.001126	-0.000084	0.001222	0.001221	6622.788309	39671.926957	4025.545782	21725.607466
18.037000	-0.001126	-0.000198	-0.002436	0.001441	6620.982677	39643.718863	4016.691105	21716.136940
18.537000	-0.000125	0.000548	-0.004167	0.001646	6627.515956	39689.290241	4012.298633	21707.309900
19.037000	-0.002151	-0.000407	-0.006085	0.000948	6616.616798	39667.650407	4009.544791	21737.336654
19.535000	-0.000531	-0.000266	-0.002209	0.001205	6627.801834	39657.881825	4017.743641	21726.274354
20.035000	0.000987	0.000194	-0.006808	0.001019	6641.833241	39712.266059	4007.752958	21734.269603
20.535000	0.002880	0.000187	0.003919	0.001679	6652.034950	39656.192665	4030.694541	21705.929260
21.036000	0.002177	0.000356	-0.000674	0.001635	6646.574328	39674.062166	4020.260811	21707.799616
21.536000	-0.002840	-0.000861	0.000131	0.000285	6616.399005	39685.232522	4025.187701	21765.869603
22.039000	-0.001337	-0.000098	0.002019	0.001298	6620.417938	39664.179544	4027.198098	21722.277841
22.536500	0.000763	0.000467	-0.000942	0.001684	6634.513132	39679.284536	4019.540139	21705.704859
23.036500	0.000555	-0.000473	0.000365	0.001688	6632.767087	39599.873046	4022.512526	21705.529850
23.537000	-0.000077	-0.000032	0.000455	0.003646	6611.504110	39472.445336	4018.251086	21621.589288
24.037500	-0.000702	-0.000449	-0.001213	0.000646	6630.990408	39689.538351	4021.289299	21750.327694
24.534500	-0.001603	-0.001392	-0.002561	0.000216	6627.128199	39646.376401	4019.195726	21768.875018
25.034500	-0.001400	-0.001145	-0.003061	0.000093	6629.802777	39677.454731	4018.335537	21774.150444
25.535000	-0.000252	-0.000649	-0.001119	0.000934	6632.328093	39648.450415	4020.844220	21737.927592
26.036000	-0.000447	0.000330	-0.004304	0.001733	6624.157219	39663.589868	4011.793065	21703.590701
26.536000	0.000289	0.000972	-0.000749	0.001947	6628.440685	39699.616420	4019.377848	21694.389279
27.036500	0.002326	-0.000796	-0.002989	-0.001847	6676.704343	39870.885552	4022.927568	21857.980910
27.537000	0.000079	0.000253	-0.000696	-0.000426	6646.276197	39839.374468	4024.924434	21796.550612
28.037000	0.000776	-0.000109	-0.002221	-0.000358	6651.469668	39802.992303	4021.278471	21793.615316
28.537000	0.001109	-0.000205	-0.003420	0.000059	6650.773058	39759.621722	4017.595259	21775.618826
29.037500	-0.001373	-0.000475	-0.001454	-0.000434	6634.365104	39778.533869	4023.207206	21796.911008
29.535000	-0.004471	-0.000603	-0.002065	0.004961	6565.100087	39314.833223	4009.558700	21565.460941
30.035000	0.002658	-0.000201	-0.000677	-0.000160	6665.427506	39778.449018	4024.357257	21785.058549
30.535500	-0.001701	-0.000283	-0.002154	0.001865	6612.799896	39600.932117	4016.369242	21697.933828
31.036000	-0.001305	-0.000759	-0.005446	0.000641	6626.079060	39663.823713	4011.680366	21750.545541
31.536500	-0.003325	-0.000342	-0.000167	0.006025	6565.762753	39247.930399	4011.442799	21520.165804
32.039500	-0.000796	-0.000215	-0.003243	-0.000195	6637.144429	39780.302186	4018.577838	21786.583304
32.537000	0.000320	-0.000251	-0.003941	-0.000027	6644.966577	39763.062756	4016.607567	21779.349396
33.039500	0.000158	-0.000112	0.000627	-0.001689	6657.377881	39915.412544	4030.866972	21851.136966
33.537500	-0.002459	-0.000454	-0.003471	0.004446	6585.570058	39370.296434	4007.551454	21587.430567
34.035000	-0.001970	-0.000257	-0.004146	0.001467	6613.843897	39636.592164	4012.752509	21715.005218
34.535500	0.000256	0.000088	-0.003449	0.001456	6632.216924	39666.577456	4014.357796	21715.497365
35.035500	0.000979	-0.000086	-0.002458	0.001620	6636.817048	39638.105303	4016.234527	21708.433624
35.536000	0.000274	-0.000531	-0.003574	0.002851	6620.899325	39497.359687	4010.917469	21655.652409
36.036000	-0.002144	-0.000115	-0.004060	0.001413	6612.868821	39653.078915	4013.069861	21717.332405
36.536000	-0.001262	-0.000403	-0.002686	0.000874	6624.521804	39674.264865	4017.412379	21740.533988
37.036500	-0.001862	-0.000933	-0.000321	0.000981	6618.709740	39620.533369	4022.561517	21735.899313
37.540000	0.000175	0.000233	-0.000863	0.002723	6621.139104	39572.188783	4017.352355	21661.125161
38.034500	-0.000591	-0.000279	-0.001239	0.001298	6626.550663	39648.937497	4019.742693	21722.284492
38.537500	-0.002322	-0.001341	-0.006977	0.000687	6617.355652	39611.000336	4008.120438	21748.574207
39.035000	-0.000240	-0.000422	-0.003403	0.001362	6628.908336	39631.519135	4014.675149	21719.542339
39.535500	-0.001208	-0.000190	-0.002556	0.003454	6603.833695	39475.399435	4011.855275	21629.821876
40.035500	-0.001476	-0.000086	0.000945	0.001712	6615.889901	39630.378069	4023.784986	21704.507079
40.539000	0.001673	-0.000667	0.001161	0.000966	6647.942596	39644.287574	4025.990724	21736.579375
41.036000	0.000297	-0.000171	0.003677	0.001799	6629.725157	39615.897435	4029.859518	21700.759362
41.536500	0.001796	-0.000232	-0.001105	0.001485	6644.670620	39637.186785	4019.621801	21714.254195
42.036500	-0.001635	0.000283	-0.002096	0.001891	6613.116456	39646.351297	4016.440542	21696.786587
42.537000	0.001682	0.000230	-0.001838	0.001924	6640.105971	39639.091260	4016.952720	21695.398845
43.037500	-0.000167	-0.000484	0.001846	0.001333	6629.746699	39628.821643	4026.719503	21720.790083
43.537500	0.001779	-0.000200	0.005862	-0.003540	6686.270314	40065.252964	4047.338966	21931.452151
44.035000	0.002831	0.000471	0.003043	0.000596	6660.591852	39771.370256	4031.169228	21752.473677
44.538500	-0.000430	-0.000291	-0.004779	-0.000460	6642.353216	39796.211364	4015.688094	21798.016258
45.038500	0.001424	-0.000882	-0.006467	-0.000382	6657.035234	39739.751248	4011.684497	21794.631289
45.536500	-0.003761	-0.000404	-0.001328	0.006864	6555.479619	39172.984848	4006.932516	21484.516317
46.036500	-0.000227	-0.000622	0.003759	-0.000664	6645.705530	39785.473708	4035.736540	21806.818575
46.536500	0.001569	0.000361	0.001034	0.000525	6650.724144	39768.068950	4026.710414	21755.539949
47.039500	-0.001897	-0.000856	-0.002273	0.001435	6614.712398	39588.939301	4017.075334	21716.412842
47.537500	-0.003335	-0.001193	-0.006772	0.005256	6571.900568	39241.033316	3998.337801	21552.886428
48.034500	0.002772	-0.000492	-0.005955	-0.000030	6665.297513	39742.924763	4012.046572	21779.451458
48.535000	0.000753	-0.000403	-0.003288	0.000045	6647.947290	39744.154234	4017.928844	21776.231838
49.035000	0.001612	0.000125	-0.000484	-0.001045	6664.094318	39880.902244	4026.828741	21823.276107
49.535500	-0.001984	-0.000348	-0.006890	0.002380	6606.270767	39552.154283	4004.508662	21675.822341
50.036000	0.000338	-0.001543	0.001228	-0.006659	6700.315605	40216.820703	4043.795563	22067.541784
50.536000	-0.028974	-0.000845	0.019460	0.283349	4804.064919	22159.147630	3572.018053	12803.535512
51.036500	-0.048766	-0.009588	-0.000403	0.160194	5273.247085	27907.918257	3717.667579	16001.167676
51.536500	-0.040296	-0.049550	-0.018296	-0.265289	9074.877064	63391.606880	4788.465494	37546.569469
52.037000	-0.033444	-0.118650	-0.018969	-0.349556	10479.493592	65535.000000	5161.805270	44933.410797
52.537500	-0.012471	-0.072058	-0.009386	-0.300761	10018.942539	65218.843084	4977.715744	40482.358190
53.035000	-0.009022	-0.034980	-0.009451	-0.245465	9235.628253	62666.517949	4744.559812	36007.398642
53.534500	-0.009556	-0.014214	-0.015013	-0.184043	8414.312247	57342.000578	4499.434372	31660.951174
54.035500	-0.005513	-0.011532	-0.007079	-0.166853	8254.600216	55559.421152	4468.439327	30550.624638
54.535500	-0.002120	-0.005029	-0.004117	-0.125473	7819.371390	51510.236912	4346.622075	28051.374078
55.035500	0.000373	0.000046	-0.006547	-0.078343	7354.315471	47040.995875	4204.584841	25480.334420
55.539000	0.003692	0.002350	-0.003119	-0.060907	7216.899351	45535.760898	4167.288575	24597.638701
56.036500	0.004708	0.002619	-0.006013	-0.059494	7213.103003	45424.140193	4156.061290	24527.656332
56.540000	0.008642	0.005446	0.002511	-0.051950	7178.705036	44966.702623	4158.607757	24157.804513
57.037000	0.008945	0.005209	0.005045	-0.042853	7096.108383	44076.276378	4141.674383	23720.314842
57.535000	0.008508	0.004926	0.007114	-0.040282	7068.235149	43807.764286	4140.390356	23598.301768
58.034500	0.008686	0.006489	0.006074	-0.032640	6999.898665	43241.735366	4118.403862	23239.890489
58.534500	0.009294	0.007685	0.006502	-0.022848	6917.421037	42454.703607	4095.177908	22789.781990
59.041000	0.010666	0.009678	0.009343	-0.021503	6917.658444	42513.462886	4098.854821	22728.737415
59.538500	0.017216	0.012075	0.011848	-0.025427	7011.875767	43091.553178	4114.800280	22907.339551
60.036000	0.016492	0.011766	0.009846	-0.034952	7092.823314	43949.608890	4133.763743	23347.675211
60.536500	0.007391	0.010084	0.010467	0.005959	6653.938608	40132.237472	4035.936324	21522.977950
61.037000	0.010737	0.012422	0.020441	-0.010091	6818.175169	41734.392226	4098.082232	22218.388912
61.570000	0.015462	0.015631	0.009150	-0.006663	6829.422311	41714.936452	4062.476600	22067.713004
62.037500	0.015325	0.011411	0.012192	-0.063592	7356.302087	46699.519704	4215.424059	24731.279351
62.535000	0.018811	0.013008	0.012747	-0.068791	7443.125237	47387.375409	4231.241052	24992.376369
63.075500	0.019869	0.012994	0.012799	-0.072468	7491.192546	47762.659428	4241.600935	25178.927432
63.550000	0.019771	0.012544	0.016615	-0.074120	7507.089765	47886.491469	4256.960593	25263.287109
64.036000	0.021325	0.013140	0.014766	-0.074449	7526.417067	47981.918358	4252.669166	25280.087532
65.091000	0.021533	0.013166	0.019688	-0.073328	7517.041912	47868.986406	4263.423106	25222.824814
65.630000	0.021274	0.014549	0.019305	-0.072149	7502.284398	47889.960849	4258.990888	25162.674567
65.772000	0.020803	0.013844	0.018515	-0.072309	7499.117316	47833.811501	4257.210399	25170.851446
66.039500	0.022820	0.014619	0.018286	-0.071547	7511.964600	47835.122070	4254.411560	25132.053123
66.537000	0.020251	0.013545	0.016975	-0.072682	7497.286980	47841.433028	4253.916957	25189.854943
67.037500	0.021674	0.013340	0.018809	-0.071948	7504.329908	47744.837699	4257.022114	25152.479160
67.537500	0.020085	0.014175	0.012775	-0.064386	7411.627053	47058.390727	4219.191430	24770.977356
68.035000	0.019715	0.013834	0.018412	-0.069407	7458.497145	47534.739235	4248.745510	25023.505943
68.538000	0.022761	0.015095	0.019076	-0.066193	7456.792899	47335.333256	4241.608664	24861.530756
69.035500	0.023809	0.015388	0.020335	-0.063855	7443.751489	47127.420776	4238.601040	24744.423112
69.535000	0.023035	0.015242	0.021319	-0.062257	7419.858797	46950.914827	4236.891988	24664.730594
70.035500	0.022872	0.015536	0.019040	-0.059749	7393.117806	46727.941063	4223.657698	24540.279787
70.536000	0.022795	0.016102	0.019261	-0.056539	7360.433720	46463.018560	4215.468471	24382.030327
71.033500	0.023225	0.015616	0.022939	-0.054198	7341.539977	46181.585923	4219.123969	24267.362495
71.537500	0.022670	0.016232	0.018287	-0.048859	7283.805608	45715.466126	4192.072255	24008.146894
72.034500	0.023612	0.016830	0.021996	-0.048629	7290.734847	45751.550449	4201.420175	23997.021483
72.535500	0.023181	0.017092	0.020003	-0.046257	7263.510889	45544.823402	4189.703107	23882.961278
73.035000	0.024386	0.017937	0.022729	-0.043523	7248.728325	45360.547243	4189.682588	23752.229726
73.535500	0.025673	0.018669	0.026640	-0.041173	7238.479134	45203.330641	4193.858683	23640.511898
74.036000	0.025277	0.018029	0.022387	-0.039273	7216.437530	44957.661689	4177.478507	23550.607698
74.536500	0.025768	0.017699	0.025555	-0.037576	7204.900063	44762.746256	4181.373604	23470.658142
75.036500	0.025481	0.017861	0.024584	-0.035934	7186.529211	44620.987804	4174.465237	23393.619127
75.537000	0.022520	0.018447	0.024108	-0.031153	7113.575852	44221.610283	4160.687576	23170.875089
76.037000	0.026374	0.018824	0.026720	-0.031261	7150.745979	44267.539690	4167.794075	23175.868437
76.535000	0.027508	0.019720	0.022316	-0.030063	7150.145419	44238.964247	4153.208503	23120.452375
77.035000	0.026990	0.019330	0.025185	-0.028768	7133.097329	44079.690806	4157.287530	23060.703195
77.535000	0.028238	0.020361	0.025841	-0.026491	7123.449489	43962.143557	4153.086113	22956.045862
78.035500	0.025260	0.019179	0.021531	-0.025902	7090.197552	43795.867655	4140.482622	22929.075329
78.536000	0.027712	0.020170	0.026276	-0.024160	7096.791752	43725.517900	4148.191533	22849.505302
79.036500	0.026622	0.020080	0.029697	-0.023181	7077.606450	43625.664882	4154.500483	22804.944791
79.539500	0.027914	0.019937	0.024739	-0.021327	7072.399935	43439.659994	4136.991669	22720.780095
80.039000	0.027508	0.020943	0.029970	-0.020916	7064.863219	43494.958261	4149.352550	22702.173784
80.537000	0.030373	0.021617	0.028997	-0.019534	7078.560527	43429.125494	4143.295885	22639.714703
81.037000	0.030227	0.021363	0.033441	-0.018914	7071.478468	43348.001755	4153.144416	22611.768471
81.537500	0.031812	0.022067	0.030373	-0.017917	7076.921204	43320.841397	4142.678978	22566.946714
82.035000	0.030821	0.021494	0.029170	-0.017163	7060.797596	43198.100452	4137.672887	22533.080736
82.535500	0.029953	0.022411	0.023912	-0.016571	7047.365711	43228.110079	4122.848784	22506.544936
83.035500	0.031504	0.022140	0.030468	-0.015771	7054.272715	43129.299469	4137.434872	22470.752144
83.536000	0.031180	0.022025	0.033061	-0.015301	7046.972518	43075.405430	4142.864405	22449.747144
84.036000	0.031065	0.022662	0.027229	-0.014760	7040.951802	43084.277283	4126.645987	22425.599885
84.536000	0.031286	0.022009	0.030992	-0.014322	7038.965187	42983.833471	4135.075708	22406.051480
85.036500	0.029785	0.021154	0.031204	-0.014782	7029.432073	42947.616871	4136.791060	22426.584879
85.537000	0.033865	0.022627	0.028968	-0.012783	7048.507194	42899.322640	4126.044469	22337.575549
86.037500	0.032602	0.022961	0.031844	-0.012350	7032.945705	42890.218296	4132.228636	22318.350507
86.537500	0.031972	0.021841	0.029819	-0.012617	7029.637908	42812.148924	4127.776209	22330.224657
87.035500	0.032266	0.021824	0.032897	-0.012015	7026.812239	42755.542909	4134.054432	22303.507854
87.535500	0.033116	0.022778	0.032696	-0.010754	7023.057147	42727.531984	4130.341904	22247.670691
88.035000	0.032563	0.023001	0.029842	-0.010257	7013.486681	42702.560411	4121.881302	22225.726995
88.535500	0.035260	0.023162	0.030471	-0.009738	7033.373879	42669.940835	4122.158994	22202.836837
89.036000	0.034482	0.023800	0.029199	-0.008913	7018.732425	42652.818812	4116.894903	22166.485542
89.539500	0.032277	0.023223	0.026897	-0.007851	6989.041602	42503.811144	4108.505445	22119.794392
90.036500	0.034583	0.023883	0.031665	-0.007905	7010.464662	42568.663410	4120.552278	22122.178250
90.537000	0.036582	0.023853	0.031881	-0.007486	7024.869943	42527.846876	4120.040255	22103.766470
91.037000	0.034489	0.023552	0.029750	-0.007078	7002.096353	42463.610214	4113.685309	22085.903751
91.535000	0.035009	0.024030	0.034166	-0.006102	6997.945301	42418.346785	4122.304830	22043.133340
92.035500	0.036889	0.024393	0.034390	-0.006219	7016.116198	42461.905637	4123.164416	22048.287383
92.535500	0.035322	0.024280	0.031506	-0.005860	6998.595319	42419.111548	4115.027106	22032.557443
93.038000	0.035794	0.024366	0.030872	-0.005235	6997.212426	42370.364513	4111.888295	22005.288301
93.536000	0.033499	0.024662	0.026964	0.001222	6918.622206	41817.020791	4086.360946	21725.551483
94.036500	0.035271	0.024238	0.028670	-0.005327	6993.302982	42367.065203	4106.641934	22009.299189
94.536000	0.037675	0.024670	0.033153	-0.004307	7005.862808	42313.904433	4115.263399	21964.815687
95.040000	0.035942	0.024845	0.033701	-0.004251	6989.627141	42324.614660	4116.493168	21962.360448
95.537000	0.037060	0.025744	0.032716	-0.003250	6990.698070	42315.463752	4111.536153	21918.855557
