sample name	sample
index	404
start time	 03-08-2021  10:35:39 AM
880	0.068561
Peak Time (s)	92.536
Peak Height 	0.06856
calc peak height	90,93
Baseline Time (s)	9.535
Baseline Value 	-0.005618
subtract baseline	10,4
Abs	0.046484
Peak Time (s)	92.037
Peak Height 	0.04648
calc peak height	90,93
Baseline Time (s)	10.039
Baseline Value 	0.005436
subtract baseline	10,3
PK_550	0.021412
Peak Time (s)	90.035
Peak Height 	0.02141
calc peak height	90,93
Baseline Time (s)	8.535
Baseline Value 	5.5671E-4
subtract baseline	10,2
PK_880	0.039573
Peak Time (s)	91.035
Peak Height 	0.03957
calc peak height	90,93
Baseline Time (s)	9.535
Baseline Value 	0.002709
subtract baseline	10,1


Time (s)	A880-A510	A880-A775	A880-A975	A880	I510	I775	I975	I880	
0.035000	-0.000478	-0.000700	-0.003861	0.001594	6971.021845	47132.893014	3944.259694	24787.416962
0.536000	-0.002812	-0.000699	-0.003124	0.004859	6917.563382	46801.202600	3937.427135	24622.654443
1.036500	-0.004086	-0.000477	-0.004122	0.007200	6883.412458	46587.098364	3928.460672	24505.274389
1.538000	0.000437	-0.000127	0.001486	0.001616	6979.609281	47189.125803	3958.784191	24786.284789
2.036500	0.001240	0.000467	0.003354	0.001731	6986.240439	47238.041938	3963.603702	24780.465869
2.534000	0.000591	-0.001098	-0.004796	-0.000042	6997.105951	47259.402022	3946.161901	24870.444850
3.037000	-0.002182	-0.000406	-0.008194	0.005463	6917.807708	46769.701184	3922.233832	24592.323635
3.535000	-0.000266	-0.000286	-0.003935	0.000845	6980.274023	47251.726589	3946.090086	24825.379912
4.035000	0.000813	0.000433	-0.002461	0.000932	6989.831297	47316.350246	3949.862036	24820.951536
4.535500	-0.000309	0.000237	-0.003338	0.000938	6978.958078	47295.673608	3947.458993	24820.652537
5.035500	-0.000119	-0.000319	0.000002	0.000268	6987.258105	47307.464184	3958.412046	24854.704378
5.539000	0.001009	0.001055	-0.000440	0.001209	6989.058253	47351.822279	3954.623485	24806.948075
6.036000	0.000156	-0.000220	-0.003025	0.000140	6991.137509	47330.642042	3950.484210	24861.180738
6.536500	-0.000085	0.000323	-0.000670	0.000279	6987.472538	47372.088574	3956.540341	24854.145662
7.037000	-0.000637	-0.000720	-0.001417	-0.000227	6987.027911	47316.974897	3955.877749	24879.823266
7.537000	-0.001605	-0.000197	-0.001889	-0.000140	6976.864642	47361.645133	3954.349700	24875.410288
8.037000	0.002218	-0.000200	0.003099	0.000323	7009.321351	47313.847341	3966.784892	24851.874330
8.535000	0.001646	0.000000	0.000443	0.000272	7004.275809	47339.666460	3959.610710	24854.491135
9.034000	-0.000153	-0.000043	-0.000052	0.000063	6988.897082	47356.610319	3958.825572	24865.074342
9.535000	0.000000	-0.000222	-0.002603	0.000000	6990.984491	47344.749065	3952.017286	24868.299798
10.038500	-0.000787	-0.000406	0.000000	-0.000083	6984.186974	47334.411057	3959.369011	24872.511028
10.535500	0.000313	0.000007	0.004508	-0.000134	6995.306594	47382.055241	3971.953258	24875.133187
11.036500	0.001409	0.001303	-0.001252	0.000582	6998.971614	47441.546415	3954.116195	24838.726628
11.539000	-0.001017	0.000127	0.001407	-0.000480	6985.800408	47429.844592	3964.331517	24892.705477
12.037000	0.001802	0.000532	-0.000185	0.000290	7005.607861	47392.359136	3957.836452	24853.545642
12.537500	-0.001528	0.000009	-0.001429	-0.000447	6980.561926	47414.345280	3956.451157	24891.056215
13.037000	-0.002739	-0.000223	-0.002373	0.004830	6918.531591	46852.324714	3939.529126	24624.095726
13.535000	-0.000155	-0.000197	0.000858	-0.000191	6991.330350	47366.867541	3962.022841	24877.994305
14.035500	-0.000289	0.000185	-0.000834	-0.000107	6989.220609	47397.436357	3957.145233	24873.722104
14.536000	-0.003845	-0.000049	-0.003700	0.003204	6923.470064	47035.085958	3940.338914	24705.997636
15.035500	-0.001692	0.000561	-0.004084	0.004465	6931.956905	46968.957693	3935.904509	24642.487655
15.565000	0.000440	0.000934	-0.003008	0.000255	6992.771495	47437.264115	3950.219359	24855.356281
16.036000	0.000366	-0.000303	-0.000478	-0.000932	7003.533496	47432.045480	3960.388032	24915.733999
16.536500	0.001480	0.000154	-0.002444	-0.000281	7008.023934	47412.204231	3953.220080	24882.606839
17.037000	-0.002816	0.000070	-0.000712	0.005701	6909.547751	46793.744258	3941.665372	24580.373597
17.534500	0.002100	-0.000118	0.001075	-0.002984	7040.356331	47662.356406	3970.335216	25020.495716
18.037000	-0.001304	0.000005	-0.002310	-0.000050	6978.901555	47373.199025	3952.955850	24870.859841
18.535500	0.000142	0.000762	0.002853	0.001887	6974.168027	47252.241137	3961.795189	24772.573705
19.035000	-0.003502	0.000522	0.000046	0.003717	6921.852333	47041.066152	3949.107556	24680.150705
19.538500	0.000689	0.000462	0.001141	0.001565	6982.540043	47254.604350	3957.979964	24788.905414
20.036000	-0.002243	-0.000082	0.001605	0.001579	6954.234780	47197.517404	3959.212435	24788.156766
20.536500	0.000082	-0.000022	0.000673	0.001146	6980.720972	47247.885191	3957.842993	24810.117158
21.036500	-0.001488	0.000663	-0.007030	0.002778	6949.995782	47151.178643	3932.519180	24727.519720
21.537000	-0.001898	-0.000168	-0.002119	0.000999	6963.103301	47248.043744	3950.612160	24817.575588
22.037000	-0.001250	-0.000093	0.000788	0.001075	6968.595742	47247.925512	3958.356446	24813.741420
22.537500	-0.001397	-0.000521	-0.004507	0.000799	6969.839056	47232.358890	3944.664218	24827.724733
23.034500	-0.000190	-0.000063	0.000597	0.002981	6960.471856	47056.441574	3952.613691	24717.269390
23.535000	-0.001066	-0.000498	-0.002776	0.001204	6969.118681	47193.294650	3948.265992	24807.179877
24.035500	-0.002962	-0.000194	-0.000013	0.001373	6949.328669	47207.041703	3955.343106	24798.596820
24.535500	-0.000747	0.000113	-0.001362	0.001426	6970.054823	47233.077034	3951.511717	24795.905625
25.036000	-0.000353	-0.000397	-0.000199	0.001304	6975.015975	47193.484715	3955.022449	24802.115470
25.536500	0.000154	0.000484	0.000980	0.001653	6976.534692	47247.764707	3957.294528	24784.413501
26.036500	-0.000001	0.000424	-0.004783	0.001721	6974.393528	47234.787288	3941.420592	24781.001427
26.537000	-0.000387	0.000620	0.001279	0.001755	6970.354782	47251.292167	3957.837433	24779.271007
27.037000	-0.002349	-0.000039	-0.004668	0.002630	6943.183048	47094.643105	3939.276910	24735.018315
27.535000	0.001236	0.000478	0.003928	0.001173	6991.595475	47296.345720	3966.729292	24808.766175
28.035500	0.001434	0.000825	0.005282	-0.001808	7022.404462	47638.347445	3978.765986	24960.412696
28.535000	-0.000409	0.000808	0.000391	-0.000020	6987.230041	47452.538370	3960.270755	24869.332826
29.055000	-0.003407	0.000644	-0.002249	0.005763	6903.370311	46845.740267	3937.349828	24577.288796
29.536000	0.000623	0.000914	0.001436	0.000046	6996.557813	47456.681143	3962.964331	24865.971619
30.036000	-0.000066	0.000419	0.000178	0.000134	6989.059587	47396.762250	3959.264196	24861.501847
30.536500	0.001967	0.000698	0.004073	-0.000180	7011.770182	47457.681822	3970.873387	24877.455471
31.055000	-0.003666	0.000893	-0.005114	0.006307	6895.791598	46815.842976	3928.198834	24550.013758
31.537000	-0.000800	0.000389	0.000919	0.003188	6952.650745	47081.408165	3952.928273	24706.825395
32.037500	-0.000250	0.001075	0.001519	0.002246	6966.955678	47247.641073	3957.148538	24754.431236
32.551500	0.001996	0.000816	0.002275	0.000245	7007.923388	47426.122690	3964.726487	24855.844798
33.035000	-0.003770	0.000824	0.000834	0.006532	6892.682423	46785.957111	3943.602369	24538.723146
33.535500	0.001546	0.001065	-0.000203	0.000358	7002.471560	47440.035729	3957.603550	24850.102674
34.035500	0.001412	0.000200	0.001389	-0.000447	7008.971638	47433.967992	3964.192224	24891.045324
34.536500	0.000199	0.000442	0.001902	0.001116	6982.136474	47298.489296	3961.300585	24811.630723
35.036500	-0.001113	0.000590	-0.001666	0.002896	6952.453606	47131.678668	3946.682653	24721.561533
35.536500	-0.001746	-0.000050	0.000707	0.001907	6955.862344	47167.297369	3955.853564	24771.572534
36.037000	-0.001053	0.000343	-0.000166	0.002161	6960.060432	47181.438761	3952.770870	24758.695738
36.537000	-0.001447	-0.000107	-0.003636	0.001948	6958.330000	47157.305543	3943.912062	24769.500819
37.034500	0.000483	-0.000159	-0.001030	0.002460	6971.940892	47099.830960	3949.600197	24743.620680
37.538000	-0.002053	-0.000161	-0.003974	0.001877	6953.211334	47159.066188	3943.188911	24773.107759
38.038000	0.000104	-0.000199	0.000681	0.002320	6969.644140	47109.938436	3954.650906	24750.693180
38.538500	-0.001532	0.000735	0.002125	0.002813	6949.236177	47154.924916	3957.253198	24725.749446
39.035500	-0.002050	0.000767	0.002201	0.003275	6939.883354	47111.136156	3956.198338	24702.448092
39.536000	-0.001187	0.000263	-0.000300	0.002543	6955.126356	47134.339576	3951.362129	24739.410297
40.036500	-0.000040	0.001095	0.001057	0.003332	6958.547792	47138.694057	3952.913469	24699.564321
40.536500	-0.001684	0.000279	-0.000067	0.002400	6951.732292	47150.517481	3952.387158	24746.609071
41.037000	-0.001298	-0.000214	-0.001193	0.002437	6955.073538	47096.441617	3949.218826	24744.754058
41.537500	-0.001412	-0.000571	0.000144	0.001668	6961.351376	47138.506848	3954.967519	24783.690125
42.037500	-0.001635	0.000408	-0.002129	0.002233	6953.805470	47180.829747	3947.226607	24755.085789
42.535000	0.000830	0.000258	0.003286	0.002512	6974.778469	47136.933192	3961.269188	24740.968352
43.038000	-0.002180	0.000132	-0.002238	0.002717	6943.966074	47103.158047	3945.616673	24730.600068
43.535500	0.000006	0.000486	0.000997	0.002794	6964.144881	47131.380936	3954.218445	24726.697260
44.035500	-0.001384	0.000407	-0.001864	0.002607	6952.627721	47142.477793	3946.931563	24736.168024
44.536000	0.003295	0.000801	0.002707	-0.001676	7039.261884	47622.212825	3971.234394	24953.662152
45.036500	-0.002827	0.000193	-0.001488	0.004693	6918.996178	46908.432789	3942.293554	24631.023386
45.537000	0.001663	0.000343	0.005205	-0.000377	7010.733049	47441.453891	3974.563520	24887.490487
46.037000	0.000172	0.000200	0.004724	-0.000048	6993.112216	47392.969943	3972.312475	24870.733804
46.537000	0.001396	0.001088	0.000044	0.001731	6987.748632	47301.658380	3954.518446	24780.481542
47.035000	-0.003433	-0.000254	-0.001071	0.005607	6904.596134	46770.554187	3940.949658	24585.100856
47.535000	-0.001032	0.000370	0.000930	-0.000285	6983.780985	47434.749894	3962.482500	24882.813223
48.047500	0.001213	0.000461	0.001642	-0.000084	7003.525541	47423.410238	3963.887936	24872.554043
48.536000	-0.001785	0.000102	-0.000793	0.003138	6943.715425	47057.243508	3948.398005	24709.342270
49.036500	-0.002596	-0.000592	-0.002995	0.004720	6920.941389	46826.088496	3938.151646	24629.668944
49.549000	0.000682	0.000883	0.003557	0.000531	6992.435271	47403.604017	3967.477919	24841.307368
50.037000	0.000759	0.000055	0.000647	-0.000490	7003.069156	47423.475204	3962.268378	24893.239195
50.537000	-0.000173	0.000799	-0.001032	0.001958	6970.459577	47248.837292	3950.961531	24768.984095
51.037000	-0.003986	0.000065	-0.003089	0.005142	6903.756487	46849.846730	3936.758914	24608.417072
51.535000	-0.000116	0.000223	0.000950	0.004179	6949.716723	46963.618940	3950.310730	24656.863428
52.035000	-0.000727	-0.001438	0.002941	0.002184	6962.974889	46997.674934	3961.221402	24757.553065
52.538000	-0.020501	-0.012126	-0.005463	0.220837	5203.175524	28877.507956	3474.965924	16068.036848
53.036000	-0.038206	-0.024916	-0.009343	-0.026694	6881.282904	47550.150510	4007.735607	26267.870705
53.536000	-0.024727	-0.028515	0.001275	-0.123616	8063.300918	58270.388870	4356.370370	32138.112081
54.036500	-0.029764	-0.024093	-0.003873	-0.103784	7770.237995	56337.704435	4267.528436	30828.076194
54.536500	-0.030707	-0.019457	-0.013043	-0.093869	7647.446133	55691.219603	4203.010211	30195.213054
55.037000	-0.017608	-0.019683	-0.007853	-0.116992	8069.304687	58552.960724	4299.751597	31693.865671
55.537000	-0.002431	-0.019541	0.002188	-0.130480	8429.006073	60329.491364	4385.087242	32605.615424
56.034500	0.001933	-0.016809	-0.001768	-0.129586	8474.168561	60573.269739	4367.117409	32544.270979
56.535000	0.005859	-0.012790	0.002605	-0.118889	8386.359119	59692.292188	4343.986200	31820.404736
57.035500	0.008515	-0.010277	0.006412	-0.104307	8234.981059	58133.872508	4305.340254	30861.867690
57.535500	0.005456	-0.006228	-0.000239	-0.074742	7841.466158	54978.187759	4182.251300	29014.424934
58.036000	0.009869	-0.002838	0.007297	-0.058172	7702.232053	53419.409355	4153.117287	28032.725837
58.536000	0.008784	-0.000155	0.008165	-0.052337	7624.715479	53053.601350	4137.356205	27695.893495
59.036500	0.014654	0.002299	0.009425	-0.026648	7409.364936	50437.128232	4062.395454	26265.387520
59.536000	0.009524	0.001959	0.013851	-0.008791	7171.620259	48483.762985	4022.947777	25319.769926
60.037000	0.015140	0.004547	0.016124	0.000604	7133.721655	47773.666013	4002.517872	24837.611724
60.534500	0.013033	0.005769	0.016978	0.017542	6947.671806	46176.397117	3957.593325	23994.278130
61.035000	0.016850	0.006874	0.021011	0.025669	6906.681072	45481.129378	3946.421553	23601.180575
61.535000	0.018440	0.007690	0.020828	0.024303	6934.751200	45696.033919	3949.641820	23666.768076
62.035000	0.020509	0.008674	0.023479	0.019875	6997.111484	46233.589495	3969.076062	23880.705801
62.535500	0.019581	0.010071	0.021952	0.020937	6977.908099	46266.993172	3961.930214	23829.173927
63.035000	0.025200	0.013284	0.031288	0.011141	7128.949984	47587.782433	4015.750975	24309.121080
63.536000	0.025685	0.014695	0.025835	0.014185	7103.508880	47419.928242	3991.557160	24158.853153
64.036500	0.025590	0.014766	0.024824	0.021354	7032.086443	46697.021340	3968.706190	23808.992049
64.537000	0.020596	0.014689	0.026153	0.027591	6923.987470	46063.909199	3955.200353	23509.302398
65.050500	0.022776	0.015247	0.025459	0.029725	6924.415545	45907.218279	3947.488670	23407.732119
65.543000	0.026855	0.016088	0.030376	0.026201	6997.305857	46342.446442	3970.658128	23575.733085
66.038000	0.027988	0.015842	0.032721	0.026367	7006.662632	46301.195377	3976.713743	23567.776131
66.535500	0.028053	0.017162	0.029149	0.026895	7002.182521	46380.520037	3965.343325	23542.521698
67.036000	0.025353	0.018097	0.028367	0.032999	6917.803162	45865.276717	3946.495418	23252.913866
67.536000	0.031906	0.018368	0.029434	0.026853	7040.062103	46505.811422	3966.247548	23544.530151
68.036000	0.031059	0.018453	0.029100	0.025809	7041.978855	46619.536482	3968.210313	23594.478133
68.536500	0.034520	0.018465	0.031779	0.025076	7083.172559	46694.692405	3977.686184	23629.642020
69.036500	0.030374	0.019493	0.032568	0.030631	6988.497566	46239.824684	3964.468711	23364.764436
69.537000	0.034051	0.018398	0.028129	0.023938	7089.784200	46803.095503	3970.704485	23684.333988
70.038500	0.036735	0.020125	0.034559	0.025294	7102.934754	46840.633090	3984.850675	23619.198330
70.534500	0.036723	0.020154	0.035197	0.024695	7108.751513	46904.313473	3988.323897	23647.924097
71.035000	0.032163	0.019905	0.029790	0.030439	7007.669083	46300.278103	3957.362523	23373.896767
71.538000	0.034613	0.019906	0.037142	0.024843	7086.390532	46864.051239	3993.386639	23640.796162
72.035500	0.034433	0.020227	0.039382	0.025088	7082.201386	46871.840400	3999.033307	23629.065019
72.536000	0.032274	0.020515	0.033369	0.031795	6995.614062	46225.646268	3963.472223	23309.719357
73.036000	0.033934	0.020556	0.034968	0.032846	7001.504538	46124.816540	3964.982990	23260.121423
73.536500	0.037113	0.021463	0.036321	0.028061	7079.309955	46696.043385	3982.034709	23486.914497
74.037000	0.037872	0.020186	0.040248	0.028029	7087.109968	46570.441726	3993.161845	23488.410648
74.536500	0.035358	0.020637	0.035884	0.034435	6999.904100	45974.748134	3963.124212	23185.337885
75.038000	0.034495	0.020785	0.033217	0.035658	6979.766302	45868.066734	3952.459438	23127.990580
75.534500	0.037866	0.020753	0.039361	0.030870	7059.079318	46341.923397	3982.679571	23353.440164
76.038000	0.040533	0.021182	0.040411	0.032341	7070.837047	46237.711229	3981.501340	23283.935896
76.535500	0.034332	0.020990	0.036993	0.039305	6943.241943	45528.351647	3952.812493	22957.921840
77.035000	0.036301	0.021410	0.038033	0.040735	6948.388328	45429.114527	3951.745532	22891.622238
77.536000	0.035954	0.020470	0.036665	0.035671	6993.720434	45835.654599	3961.873477	23127.403735
78.036500	0.037902	0.020912	0.045717	0.036797	7001.661361	45767.932573	3983.880558	23074.711712
78.536500	0.034844	0.021456	0.035962	0.044159	6901.994631	45099.141819	3936.851180	22733.774929
79.037500	0.037784	0.020959	0.045762	0.039575	6973.732146	45498.856404	3976.249798	22945.414827
79.537000	0.036956	0.020750	0.041803	0.041648	6945.929714	45275.170812	3959.568708	22849.430162
80.033500	0.036484	0.020738	0.040966	0.042369	6934.536125	45203.554416	3955.294271	22816.129010
80.535000	0.033676	0.021460	0.033510	0.050509	6831.558881	44485.977551	3913.377726	22444.303812
81.035500	0.037166	0.020246	0.043556	0.044760	6918.293887	44923.232084	3955.840860	22706.201313
81.535500	0.035462	0.020221	0.036866	0.046267	6887.936444	44775.043855	3933.611686	22637.209499
82.036000	0.036236	0.020346	0.038532	0.047040	6887.944152	44712.482034	3936.013145	22601.901337
82.536500	0.036333	0.020757	0.038990	0.048503	6875.107095	44611.171431	3933.310635	22535.301774
83.036500	0.034494	0.020350	0.034813	0.054901	6798.498549	43961.594639	3905.252672	22246.550274
83.536500	0.037593	0.020390	0.039379	0.051032	6863.204550	44333.458755	3927.578088	22420.635324
84.039500	0.037256	0.020302	0.040409	0.051384	6856.757883	44291.422894	3929.391111	22404.739006
84.537000	0.036910	0.021193	0.035300	0.053410	6834.645526	44183.215354	3910.449440	22313.440960
85.035000	0.034522	0.020107	0.040289	0.059869	6753.241494	43471.031935	3906.584622	22025.245204
85.538000	0.037974	0.020304	0.043408	0.054694	6832.610836	43976.828758	3928.559462	22255.824436
86.035500	0.036713	0.020476	0.040693	0.055601	6812.508513	43907.212620	3918.910576	22215.198589
86.538000	0.036243	0.020003	0.037894	0.056190	6802.740314	43806.949315	3909.960844	22188.886167
87.036500	0.035893	0.020507	0.042183	0.063231	6735.147971	43194.760878	3902.739789	21876.912935
87.536500	0.037652	0.020232	0.043409	0.058153	6797.634543	43643.621725	3919.346790	22101.400392
88.037000	0.036252	0.021216	0.044463	0.059370	6773.600691	43621.785546	3918.914174	22047.355515
88.536500	0.035075	0.021295	0.038620	0.060247	6754.830667	43546.830564	3901.225941	22008.491646
89.037000	0.035511	0.020653	0.037530	0.065753	6708.911391	42974.539007	3884.129896	21766.411958
89.534500	0.038530	0.019855	0.040738	0.060409	6784.957916	43396.927998	3906.346074	22001.339646
90.035000	0.038575	0.021412	0.041259	0.062067	6770.173622	43387.512591	3903.366611	21928.119425
90.535000	0.034329	0.020479	0.038321	0.067780	6680.115009	42771.633143	3880.953887	21678.044823
91.035000	0.039573	0.020431	0.043497	0.062102	6778.993031	43292.773984	3909.147770	21926.606645
91.535500	0.038864	0.020717	0.044144	0.062488	6768.971910	43283.465970	3909.834031	21909.615091
92.036500	0.039521	0.020580	0.046484	0.063126	6769.145877	43211.345280	3914.321850	21881.542317
92.536000	0.035400	0.020517	0.045183	0.068561	6682.700108	42703.323564	3896.660660	21644.094831
93.037500	0.035846	0.020473	0.036112	0.068620	6686.174115	42693.919621	3873.160163	21641.547184
93.537000	0.040176	0.021101	0.042779	0.065247	6755.757125	43062.795067	3899.031461	21788.508766
94.037500	0.040666	0.020436	0.040211	0.064675	6765.448544	43054.250225	3893.842284	21813.568187
94.535000	0.036716	0.020595	0.042335	0.070103	6680.682564	42569.081040	3885.299107	21577.272913
95.104500	0.042311	0.021003	0.045795	0.066193	6766.614386	42966.238063	3904.440561	21747.191490
95.535500	0.040846	0.020980	0.041091	0.065993	6755.070990	42982.614584	3892.705676	21755.927536
96.057500	0.040729	0.021141	0.042567	0.066776	6746.869237	42925.090141	3894.501950	21721.736332
96.535500	0.036046	0.019866	0.039589	0.072153	6656.441739	42315.647610	3873.017186	21488.806657
97.036500	0.036637	0.020982	0.039367	0.072015	6662.927142	42429.878997	3872.803443	21494.758595
97.536500	0.040839	0.021365	0.042518	0.067762	6738.911412	42854.858326	3891.818736	21678.820058
98.059000	0.038921	0.021456	0.045962	0.068493	6714.949795	42795.837058	3898.868274	21647.053199
98.537000	0.037091	0.020077	0.041475	0.071077	6675.326687	42432.847524	3880.585667	21535.172277
