sample name	sample
index	1109
start time	 04-22-2021  01:03:13 PM


Wavelength (nm)	Absorbance
494.344910	0.519001
494.563924	0.519001
494.782919	0.519001
495.001897	-0.219335
495.220856	0.271587
495.439797	0.230769
495.658719	0.073699
495.877624	0.174621
496.096510	0.416191
496.315378	0.243408
496.534227	0.486520
496.753059	0.422921
496.971872	0.275399
497.190667	0.013442
497.409444	0.006721
497.628203	0.005924
497.846943	0.004208
498.065665	0.000798
498.284369	0.000937
498.503055	-0.001168
498.721723	-0.000799
498.940372	-0.000741
499.159003	0.000131
499.377616	-0.000829
499.596210	-0.001431
499.814787	-0.002109
500.033345	-0.001828
500.251885	-0.001567
500.470406	-0.001332
500.688910	-0.001484
500.907395	-0.001926
501.125862	-0.002340
501.344311	-0.001558
501.562742	-0.001665
501.781154	-0.002212
501.999548	-0.002136
502.217924	-0.002705
502.436282	-0.002938
502.654621	-0.002382
502.872942	-0.003240
503.091245	-0.002951
503.309530	-0.003555
503.527797	-0.003735
503.746045	-0.003404
503.964275	-0.002741
504.182487	-0.002202
504.400681	-0.001906
504.618856	-0.002443
504.837013	-0.001798
505.055152	-0.002795
505.273273	-0.002023
505.491376	-0.001046
505.709460	-0.001686
505.927526	-0.001411
506.145574	-0.001570
506.363604	-0.001778
506.581615	-0.001904
506.799608	-0.001610
507.017583	-0.000790
507.235540	-0.001144
507.453478	-0.001346
507.671399	-0.000301
507.889301	-0.000743
508.107185	-0.001217
508.325050	-0.000947
508.542898	-0.001361
508.760727	-0.001613
508.978538	-0.001725
509.196330	-0.001241
509.414105	-0.001323
509.631861	-0.001407
509.849599	-0.001833
510.067319	-0.002193
510.285021	-0.002807
510.502704	-0.002838
510.720369	-0.002028
510.938016	-0.002039
511.155645	-0.002487
511.373255	-0.002932
511.590848	-0.002543
511.808422	-0.002599
512.025977	-0.001932
512.243515	-0.001683
512.461034	-0.001814
512.678536	-0.001735
512.896018	-0.001731
513.113483	-0.002002
513.330930	-0.002059
513.548358	-0.002511
513.765768	-0.002042
513.983160	-0.001671
514.200533	-0.002171
514.417889	-0.001953
514.635226	-0.002897
514.852545	-0.002216
515.069845	-0.001857
515.287128	-0.002395
515.504392	-0.002035
515.721638	-0.002162
515.938866	-0.002853
516.156075	-0.002862
516.373267	-0.002970
516.590440	-0.002757
516.807594	-0.003811
517.024731	-0.004144
517.241850	-0.002981
517.458950	-0.003385
517.676032	-0.003312
517.893095	-0.002950
518.110141	-0.001896
518.327168	-0.001808
518.544177	-0.001736
518.761168	-0.001326
518.978141	-0.002069
519.195095	-0.003042
519.412031	-0.002389
519.628949	-0.002497
519.845849	-0.002611
520.062731	-0.002717
520.279594	-0.002136
520.496439	-0.002317
520.713266	-0.002364
520.930074	-0.001146
521.146865	-0.000979
521.363637	-0.001499
521.580391	-0.001703
521.797127	-0.001387
522.013844	-0.001727
522.230543	-0.001463
522.447224	-0.000405
522.663887	0.000021
522.880532	-0.000821
523.097158	0.000281
523.313766	0.000179
523.530356	0.000604
523.746928	0.000751
523.963481	0.001247
524.180017	0.000991
524.396534	0.000686
524.613032	0.000292
524.829513	0.001147
525.045975	0.000790
525.262420	0.000615
525.478845	0.000335
525.695253	-0.000009
525.911643	-0.000065
526.128014	-0.000159
526.344367	-0.000322
526.560702	0.000102
526.777018	-0.000154
526.993316	0.000296
527.209597	0.000440
527.425858	0.000370
527.642102	0.001164
527.858328	0.000579
528.074535	0.000709
528.290724	0.001017
528.506894	0.001241
528.723047	0.001298
528.939181	0.000851
529.155297	0.000985
529.371395	0.001858
529.587475	0.001356
529.803536	0.002118
530.019579	0.002300
530.235604	0.002162
530.451611	0.001764
530.667600	0.002381
530.883570	0.002368
531.099522	0.002606
531.315456	0.002203
531.531372	0.001792
531.747269	0.001791
531.963148	0.001681
532.179009	0.001429
532.394852	0.001497
532.610676	0.001065
532.826482	0.001117
533.042271	0.001417
533.258040	0.001087
533.473792	0.001292
533.689525	0.001058
533.905240	0.000776
534.120937	0.000954
534.336616	0.000626
534.552277	0.000743
534.767919	0.001258
534.983543	0.000829
535.199149	0.001489
535.414736	0.001352
535.630306	0.001759
535.845857	0.001765
536.061390	0.001847
536.276904	0.002394
536.492401	0.002563
536.707879	0.002226
536.923339	0.002695
537.138781	0.002875
537.354204	0.003571
537.569610	0.003543
537.784997	0.004386
538.000366	0.004803
538.215716	0.004443
538.431049	0.004990
538.646363	0.005067
538.861659	0.005189
539.076937	0.005320
539.292196	0.005251
539.507438	0.005264
539.722661	0.004861
539.937866	0.004457
540.153052	0.004657
540.368221	0.003900
540.583371	0.004130
540.798503	0.003951
541.013617	0.003938
541.228712	0.003807
541.443789	0.003918
541.658848	0.004511
541.873889	0.004924
542.088912	0.005192
542.303916	0.005292
542.518902	0.005493
542.733870	0.005569
542.948820	0.005338
543.163752	0.005810
543.378665	0.005831
543.593560	0.005212
543.808437	0.005270
544.023295	0.004712
544.238136	0.004614
544.452958	0.004619
544.667762	0.004800
544.882548	0.004969
545.097315	0.004394
545.312064	0.004310
545.526795	0.004183
545.741508	0.004087
545.956203	0.004891
546.170879	0.005129
546.385537	0.005422
546.600177	0.005239
546.814799	0.005361
547.029402	0.005618
547.243988	0.005576
547.458555	0.006124
547.673103	0.005920
547.887634	0.005764
548.102146	0.005509
548.316640	0.005313
548.531116	0.005397
548.745574	0.005382
548.960013	0.005688
549.174435	0.006029
549.388838	0.005910
549.603222	0.006177
549.817589	0.005852
550.031937	0.006212
550.246267	0.005953
550.460579	0.005966
550.674873	0.005789
550.889148	0.006104
551.103405	0.005773
551.317644	0.005967
551.531865	0.006025
551.746068	0.006332
551.960252	0.006517
552.174418	0.006723
552.388566	0.006761
552.602696	0.007056
552.816807	0.006492
553.030900	0.006614
553.244975	0.006647
553.459032	0.006656
553.673070	0.006545
553.887091	0.006498
554.101093	0.006452
554.315077	0.006112
554.529042	0.005843
554.742990	0.005812
554.956919	0.006107
555.170830	0.006140
555.384722	0.005707
555.598597	0.005643
555.812453	0.005317
556.026291	0.005397
556.240111	0.005430
556.453913	0.005540
556.667696	0.005861
556.881461	0.005215
557.095208	0.005181
557.308937	0.005558
557.522647	0.005463
557.736339	0.005537
557.950013	0.005666
558.163669	0.005742
558.377307	0.005563
558.590926	0.005216
558.804527	0.005326
559.018110	0.004819
559.231675	0.004534
559.445221	0.004883
559.658749	0.004813
559.872259	0.004220
560.085751	0.004051
560.299225	0.004100
560.512680	0.003950
560.726117	0.003949
560.939536	0.004019
561.152937	0.004169
561.366319	0.004234
561.579683	0.004423
561.793029	0.004581
562.006357	0.004877
562.219667	0.004550
562.432958	0.004796
562.646231	0.005016
562.859486	0.004915
563.072723	0.004845
563.285941	0.004461
563.499141	0.004258
563.712323	0.004180
563.925487	0.004005
564.138632	0.004252
564.351760	0.004010
564.564869	0.003777
564.777960	0.003985
564.991032	0.003842
565.204087	0.003647
565.417123	0.003809
565.630141	0.003826
565.843140	0.003773
566.056122	0.003793
566.269085	0.003930
566.482030	0.004181
566.694957	0.003987
566.907866	0.003883
567.120756	0.004150
567.333628	0.004116
567.546482	0.003978
567.759318	0.003879
567.972135	0.003653
568.184935	0.003734
568.397716	0.003750
568.610478	0.003786
568.823223	0.003816
569.035949	0.003578
569.248657	0.003393
569.461347	0.003391
569.674019	0.003620
569.886672	0.003757
570.099308	0.003678
570.311925	0.003643
570.524523	0.003608
570.737104	0.003783
570.949666	0.003835
571.162210	0.003875
571.374736	0.003698
571.587244	0.003461
571.799733	0.003363
572.012205	0.003389
572.224658	0.003234
572.437092	0.003095
572.649509	0.002885
572.861907	0.002878
573.074287	0.002827
573.286649	0.002973
573.498993	0.003143
573.711318	0.003077
573.923625	0.003052
574.135914	0.002854
574.348185	0.003275
574.560438	0.003494
574.772672	0.003471
574.984888	0.003687
575.197086	0.003451
575.409266	0.003371
575.621427	0.003684
575.833570	0.003967
576.045695	0.004256
576.257802	0.003715
576.469890	0.003486
576.681961	0.003446
576.894013	0.003109
577.106046	0.003334
577.318062	0.003290
577.530059	0.002642
577.742039	0.002102
577.954000	0.002007
578.165942	0.002235
578.377867	0.002039
578.589773	0.002444
578.801661	0.002458
579.013531	0.002299
579.225382	0.002751
579.437216	0.003050
579.649031	0.002928
579.860828	0.002880
580.072606	0.003071
580.284367	0.003245
580.496109	0.002848
580.707833	0.002730
580.919539	0.003031
581.131227	0.002818
581.342896	0.002899
581.554547	0.003159
581.766180	0.002993
581.977795	0.002811
582.189391	0.003123
582.400969	0.003202
582.612529	0.003495
582.824071	0.003181
583.035595	0.003059
583.247100	0.002946
583.458587	0.002823
583.670056	0.002946
583.881506	0.002909
584.092939	0.002502
584.304353	0.002834
584.515749	0.002961
584.727127	0.003154
584.938486	0.002810
585.149828	0.002559
585.361151	0.002674
585.572456	0.002520
585.783742	0.002801
585.995011	0.003053
586.206261	0.002568
586.417493	0.002201
586.628706	0.002165
586.839902	0.002677
587.051079	0.002897
587.262238	0.002867
587.473379	0.002926
587.684502	0.002672
587.895606	0.002627
588.106692	0.002543
588.317760	0.002484
588.528810	0.002747
588.739841	0.002244
588.950855	0.002289
589.161850	0.002567
589.372827	0.002619
589.583785	0.002710
589.794726	0.002655
590.005648	0.002776
590.216552	0.002945
590.427437	0.002588
590.638305	0.003059
590.849154	0.002880
591.059985	0.002919
591.270798	0.003139
591.481592	0.002993
591.692369	0.003453
591.903127	0.003506
592.113867	0.003745
592.324588	0.003755
592.535292	0.003378
592.745977	0.003639
592.956644	0.003439
593.167293	0.002936
593.377923	0.003082
593.588536	0.002407
593.799130	0.002409
594.009706	0.002278
594.220263	0.002375
594.430803	0.002507
594.641324	0.002523
594.851827	0.002483
595.062312	0.002871
595.272778	0.002959
595.483227	0.003408
595.693657	0.003571
595.904069	0.003479
596.114462	0.003697
596.324838	0.003550
596.535195	0.003544
596.745534	0.003532
596.955855	0.003555
597.166157	0.003467
597.376441	0.003568
597.586707	0.003567
597.796955	0.003721
598.007185	0.003602
598.217396	0.003802
598.427589	0.003894
598.637764	0.003680
598.847921	0.003504
599.058060	0.003435
599.268180	0.003167
599.478282	0.003074
599.688366	0.003025
599.898431	0.002852
600.108479	0.002839
600.318508	0.002586
600.528519	0.002692
600.738511	0.002838
600.948486	0.002588
601.158442	0.002652
601.368380	0.002594
601.578300	0.002399
601.788202	0.002383
601.998085	0.002238
602.207950	0.002041
602.417797	0.002249
602.627626	0.002104
602.837436	0.002418
603.047228	0.002263
603.257002	0.002095
603.466758	0.002013
603.676496	0.002291
603.886215	0.002247
604.095916	0.002631
604.305599	0.002679
604.515264	0.002698
604.724910	0.002550
604.934538	0.002493
605.144148	0.002781
605.353740	0.003117
605.563314	0.003162
605.772869	0.003329
605.982406	0.003405
606.191925	0.003406
606.401425	0.003484
606.610908	0.003734
606.820372	0.003968
607.029818	0.004083
607.239246	0.004184
607.448655	0.004018
607.658047	0.003916
607.867420	0.003973
608.076775	0.003726
608.286111	0.003827
608.495430	0.003748
608.704730	0.003577
608.914012	0.003559
609.123275	0.003404
609.332521	0.003531
609.541748	0.003956
609.750957	0.003873
609.960148	0.004177
610.169321	0.003874
610.378475	0.003998
610.587611	0.004011
610.796729	0.004001
611.005829	0.003965
611.214910	0.004319
611.423974	0.004068
611.633019	0.004140
611.842045	0.004000
612.051054	0.004396
612.260044	0.004314
612.469017	0.004496
612.677970	0.004299
612.886906	0.004394
613.095824	0.003955
613.304723	0.004233
613.513604	0.004212
613.722467	0.004264
613.931311	0.003989
614.140138	0.004053
614.348946	0.004100
614.557736	0.004154
614.766507	0.004061
614.975261	0.003808
615.183996	0.003273
615.392713	0.003117
615.601412	0.002910
615.810092	0.002961
616.018754	0.002819
616.227399	0.002781
616.436024	0.002723
616.644632	0.002617
616.853222	0.002919
617.061793	0.003446
617.270346	0.003510
617.478880	0.003784
617.687397	0.003788
617.895895	0.003974
618.104375	0.004041
618.312837	0.004105
618.521281	0.004134
618.729706	0.004185
618.938113	0.003905
619.146502	0.004099
619.354873	0.004189
619.563226	0.004171
619.771560	0.004036
619.979876	0.003846
620.188174	0.003818
620.396453	0.003817
620.604715	0.003786
620.812958	0.003744
621.021183	0.003759
621.229390	0.003572
621.437578	0.003738
621.645748	0.003788
621.853900	0.003943
622.062034	0.004022
622.270150	0.004202
622.478247	0.004368
622.686326	0.004437
622.894387	0.004404
623.102430	0.004398
623.310454	0.004459
623.518461	0.004505
623.726449	0.004554
623.934418	0.004394
624.142370	0.004327
624.350303	0.004163
624.558218	0.004387
624.766115	0.004266
624.973994	0.004264
625.181855	0.004322
625.389697	0.003989
625.597521	0.003944
625.805327	0.004248
626.013114	0.004359
626.220883	0.004652
626.428634	0.004590
626.636367	0.004721
626.844082	0.004812
627.051778	0.004450
627.259457	0.004871
627.467117	0.004910
627.674758	0.004791
627.882382	0.005015
628.089987	0.005022
628.297574	0.005093
628.505143	0.005061
628.712694	0.005086
628.920226	0.005401
629.127740	0.005403
629.335236	0.005171
629.542714	0.005295
629.750174	0.005071
629.957615	0.004964
630.165038	0.004815
630.372443	0.005057
630.579829	0.005037
630.787198	0.005053
630.994548	0.005108
631.201880	0.005551
631.409194	0.005496
631.616489	0.005577
631.823766	0.005512
632.031025	0.005753
632.238266	0.005484
632.445489	0.005603
632.652693	0.005561
632.859879	0.005447
633.067047	0.005040
633.274197	0.005169
633.481329	0.005008
633.688442	0.004959
633.895537	0.004634
634.102614	0.004699
634.309672	0.004426
634.516713	0.004501
634.723735	0.004543
634.930739	0.004777
635.137724	0.004604
635.344692	0.004861
635.551641	0.004850
635.758572	0.004876
635.965485	0.004894
636.172379	0.005024
636.379256	0.004994
636.586114	0.005107
636.792954	0.005259
636.999775	0.005290
637.206579	0.005006
637.413364	0.005013
637.620131	0.005270
637.826880	0.005240
638.033610	0.005420
638.240323	0.005517
638.447017	0.005426
638.653692	0.005268
638.860350	0.005375
639.066990	0.005734
639.273611	0.006110
639.480214	0.006136
639.686798	0.006377
639.893365	0.006404
640.099913	0.006538
640.306443	0.006555
640.512955	0.006493
640.719449	0.006488
640.925924	0.006372
641.132381	0.006255
641.338820	0.006172
641.545241	0.006119
641.751644	0.006056
641.958028	0.005858
642.164394	0.006114
642.370742	0.006438
642.577071	0.006598
642.783383	0.006584
642.989676	0.006585
643.195951	0.006584
643.402207	0.006547
643.608446	0.006516
643.814666	0.006646
644.020868	0.006605
644.227052	0.006365
644.433218	0.006240
644.639365	0.006486
644.845494	0.006516
645.051605	0.006613
645.257698	0.006730
645.463772	0.006910
645.669828	0.007015
645.875866	0.006993
646.081886	0.007126
646.287888	0.007306
646.493871	0.007244
646.699836	0.007314
646.905783	0.007396
647.111712	0.007485
647.317622	0.007591
647.523514	0.007685
647.729388	0.007803
647.935244	0.007883
648.141082	0.007937
648.346901	0.007863
648.552702	0.007966
648.758485	0.008013
648.964250	0.008031
649.169996	0.007815
649.375724	0.007732
649.581434	0.007686
649.787126	0.007878
649.992800	0.007889
650.198455	0.008167
650.404092	0.008096
650.609711	0.008083
650.815311	0.007911
651.020894	0.008056
651.226458	0.008241
651.432004	0.008259
651.637532	0.008096
651.843041	0.008099
652.048532	0.007978
652.254006	0.008087
652.459460	0.008042
652.664897	0.008161
652.870315	0.008283
653.075716	0.008287
653.281097	0.008308
653.486461	0.008477
653.691807	0.008680
653.897134	0.008709
654.102443	0.008757
654.307734	0.009073
654.513006	0.009417
654.718261	0.009615
654.923497	0.009747
655.128715	0.009783
655.333915	0.009855
655.539096	0.009858
655.744259	0.009994
655.949404	0.009974
656.154531	0.009979
656.359640	0.009802
656.564730	0.009709
656.769802	0.009613
656.974856	0.009680
657.179892	0.009691
657.384909	0.009591
657.589908	0.009546
657.794889	0.009594
657.999852	0.009653
658.204797	0.009707
658.409723	0.009753
658.614631	0.009742
658.819521	0.009776
659.024393	0.009840
659.229246	0.010020
659.434081	0.009982
659.638898	0.010090
659.843697	0.009924
660.048478	0.009731
660.253240	0.009824
660.457984	0.009814
660.662710	0.009905
660.867417	0.009991
661.072107	0.009786
661.276778	0.009979
661.481431	0.009919
661.686066	0.010091
661.890682	0.010449
662.095281	0.010591
662.299861	0.010685
662.504422	0.010747
662.708966	0.010624
662.913491	0.010789
663.117999	0.010663
663.322488	0.010677
663.526958	0.010770
663.731411	0.010745
663.935845	0.010719
664.140261	0.010772
664.344659	0.010714
664.549038	0.010468
664.753400	0.010436
664.957743	0.010528
665.162068	0.010531
665.366375	0.010366
665.570663	0.010283
665.774933	0.010153
665.979185	0.010214
666.183419	0.010274
666.387635	0.010794
666.591832	0.010895
666.796011	0.010993
667.000172	0.011165
667.204315	0.011224
667.408439	0.011392
667.612545	0.011506
667.816634	0.011574
668.020703	0.011598
668.224755	0.011465
668.428788	0.011433
668.632803	0.011465
668.836800	0.011590
669.040779	0.011819
669.244739	0.011668
669.448681	0.011768
669.652605	0.011690
669.856511	0.011827
670.060399	0.011957
670.264268	0.012253
670.468119	0.012346
670.671952	0.012325
670.875767	0.012257
671.079563	0.012586
671.283341	0.012611
671.487101	0.012709
671.690843	0.012820
671.894567	0.012867
672.098272	0.012843
672.301959	0.013120
672.505628	0.013096
672.709278	0.013296
672.912911	0.013227
673.116525	0.013291
673.320121	0.013361
673.523699	0.013363
673.727258	0.013509
673.930799	0.013588
674.134322	0.013551
674.337827	0.013734
674.541314	0.013799
674.744782	0.013864
674.948232	0.013922
675.151664	0.013998
675.355078	0.014105
675.558474	0.014151
675.761851	0.014339
675.965210	0.014294
676.168551	0.014202
676.371873	0.014204
676.575178	0.014232
676.778464	0.014182
676.981732	0.014424
677.184981	0.014479
677.388213	0.014308
677.591426	0.014077
677.794621	0.014068
677.997798	0.014324
678.200956	0.014118
678.404097	0.014123
678.607219	0.014164
678.810323	0.013932
679.013408	0.013855
679.216476	0.013899
679.419525	0.013937
679.622556	0.013845
679.825569	0.013718
680.028563	0.013750
680.231540	0.013667
680.434498	0.013851
680.637438	0.013995
680.840359	0.013879
681.043263	0.013844
681.246148	0.014120
681.449015	0.014344
681.651864	0.014393
681.854694	0.014465
682.057506	0.014626
682.260301	0.014535
682.463076	0.014462
682.665834	0.014697
682.868573	0.014850
683.071295	0.014838
683.273998	0.014827
683.476682	0.014795
683.679349	0.015009
683.881997	0.015095
684.084627	0.015230
684.287239	0.015138
684.489833	0.015107
684.692408	0.014948
684.894965	0.014878
685.097504	0.014724
685.300025	0.014753
685.502527	0.014687
685.705012	0.014609
685.907478	0.014423
686.109925	0.014609
686.312355	0.014518
686.514766	0.014751
686.717159	0.014706
686.919534	0.014887
687.121891	0.014952
687.324230	0.014798
687.526550	0.014802
687.728852	0.015047
687.931136	0.015150
688.133401	0.015265
688.335649	0.015187
688.537878	0.015228
688.740089	0.015285
688.942281	0.015297
689.144456	0.015561
689.346612	0.015586
689.548750	0.015479
689.750870	0.015468
689.952971	0.015586
690.155055	0.015640
690.357120	0.015584
690.559167	0.015473
690.761195	0.015351
690.963206	0.015189
691.165198	0.015065
691.367172	0.014901
691.569128	0.014728
691.771065	0.014479
691.972984	0.014291
692.174885	0.014327
692.376768	0.014379
692.578633	0.014415
692.780479	0.014396
692.982308	0.014514
693.184118	0.014644
693.385909	0.014588
693.587683	0.014686
693.789438	0.014826
693.991175	0.014863
694.192894	0.014657
694.394595	0.014522
694.596277	0.014584
694.797941	0.014592
694.999587	0.014495
695.201215	0.014594
695.402824	0.014574
695.604416	0.014510
695.805989	0.014432
696.007543	0.014555
696.209080	0.014670
696.410598	0.014692
696.612099	0.014848
696.813580	0.014931
697.015044	0.015039
697.216490	0.015093
697.417917	0.015179
697.619326	0.015205
697.820717	0.015291
698.022089	0.015395
698.223444	0.015262
698.424780	0.014990
698.626098	0.014941
698.827397	0.014715
699.028679	0.014701
699.229942	0.014695
699.431187	0.014527
699.632414	0.014366
699.833622	0.014295
700.034813	0.014274
700.235985	0.014402
700.437139	0.014373
700.638274	0.014437
700.839392	0.014415
701.040491	0.014399
701.241572	0.014417
701.442635	0.014454
701.643679	0.014357
701.844706	0.014301
702.045714	0.014124
702.246704	0.014216
702.447675	0.014381
702.648629	0.014373
702.849564	0.014256
703.050481	0.014437
703.251380	0.014398
703.452260	0.014481
703.653122	0.014774
703.853966	0.014965
704.054792	0.014887
704.255600	0.014809
704.456389	0.014973
704.657160	0.015042
704.857913	0.014901
705.058648	0.015142
705.259365	0.015178
705.460063	0.015148
705.660743	0.015157
705.861405	0.015312
706.062048	0.015515
706.262674	0.015381
706.463281	0.015565
706.663870	0.015620
706.864441	0.015535
707.064993	0.015299
707.265527	0.015212
707.466043	0.015149
707.666541	0.015043
707.867021	0.014825
708.067482	0.014802
708.267925	0.014522
708.468350	0.014488
708.668757	0.014354
708.869145	0.014537
709.069516	0.014609
709.269868	0.014530
709.470201	0.014570
709.670517	0.014478
709.870814	0.014317
710.071093	0.014302
710.271354	0.014436
710.471597	0.014435
710.671821	0.014496
710.872028	0.014289
711.072216	0.014435
711.272385	0.014174
711.472537	0.014175
711.672670	0.014171
711.872785	0.014312
712.072882	0.014232
712.272961	0.014161
712.473021	0.014135
712.673063	0.014194
712.873087	0.014158
713.073093	0.014439
713.273081	0.014301
713.473050	0.014552
713.673001	0.014575
713.872934	0.014753
714.072849	0.014916
714.272745	0.014916
714.472623	0.015001
714.672483	0.015048
714.872325	0.014998
715.072148	0.015192
715.271954	0.015128
715.471741	0.015189
715.671509	0.015116
715.871260	0.014985
716.070992	0.015014
716.270707	0.015034
716.470403	0.014871
716.670080	0.014834
716.869740	0.014823
717.069381	0.014750
717.269004	0.014711
717.468609	0.014530
717.668195	0.014461
717.867764	0.014335
718.067314	0.014324
718.266846	0.014314
718.466360	0.014260
718.665855	0.014177
718.865332	0.014167
719.064791	0.013923
719.264232	0.013793
719.463655	0.013788
719.663059	0.013697
719.862445	0.013583
720.061813	0.013598
720.261163	0.013529
720.460494	0.013476
720.659807	0.013387
720.859102	0.013470
721.058379	0.013484
721.257638	0.013494
721.456878	0.013473
721.656100	0.013320
721.855304	0.013340
722.054490	0.013178
722.253657	0.013132
722.452806	0.013127
722.651937	0.013095
722.851050	0.013073
723.050145	0.012986
723.249221	0.012937
723.448279	0.012955
723.647319	0.012788
723.846340	0.012921
724.045344	0.012848
724.244329	0.012874
724.443296	0.012845
724.642245	0.012891
724.841175	0.012909
725.040088	0.013018
725.238982	0.013178
725.437857	0.013318
725.636715	0.013316
725.835554	0.013426
726.034376	0.013310
726.233179	0.013468
726.431963	0.013336
726.630730	0.013363
726.829478	0.013409
727.028208	0.013250
727.226920	0.013051
727.425614	0.013091
727.624289	0.013087
727.822946	0.012978
728.021585	0.012868
728.220206	0.012881
728.418808	0.012837
728.617392	0.012629
728.815958	0.012491
729.014506	0.012482
729.213036	0.012409
729.411547	0.012143
729.610040	0.012105
729.808515	0.011937
730.006972	0.011722
730.205410	0.011590
730.403831	0.011559
730.602233	0.011506
730.800616	0.011460
730.998982	0.011223
731.197329	0.011271
731.395658	0.011310
731.593969	0.011285
731.792262	0.011372
731.990536	0.011262
732.188793	0.011265
732.387031	0.011234
732.585250	0.011252
732.783452	0.011308
732.981635	0.011378
733.179800	0.011506
733.377947	0.011594
733.576076	0.011623
733.774186	0.011800
733.972278	0.011819
734.170352	0.011991
734.368408	0.011985
734.566446	0.011980
734.764465	0.012148
734.962466	0.012069
735.160449	0.012049
735.358413	0.012020
735.556360	0.012283
735.754288	0.012198
735.952198	0.012335
736.150090	0.012482
736.347963	0.012713
736.545818	0.012621
736.743655	0.012617
736.941474	0.012375
737.139275	0.012419
737.337057	0.012325
737.534821	0.012256
737.732567	0.012079
737.930295	0.011937
738.128005	0.011910
738.325696	0.011897
738.523369	0.012004
738.721024	0.012197
738.918660	0.012088
739.116279	0.011945
739.313879	0.012042
739.511461	0.011911
739.709024	0.011873
739.906570	0.011725
740.104097	0.011648
740.301606	0.011414
740.499097	0.011372
740.696569	0.011608
740.894024	0.011442
741.091460	0.011387
741.288878	0.011535
741.486277	0.011631
741.683659	0.011464
741.881022	0.011349
742.078367	0.011543
742.275694	0.011447
742.473002	0.011401
742.670293	0.011565
742.867565	0.011740
743.064819	0.011605
743.262054	0.011500
743.459272	0.011616
743.656471	0.011580
743.853652	0.011413
744.050815	0.011430
744.247959	0.011521
744.445085	0.011452
744.642194	0.011407
744.839283	0.011604
745.036355	0.011474
745.233408	0.011571
745.430444	0.011696
745.627461	0.011877
745.824459	0.011993
746.021440	0.011989
746.218402	0.011993
746.415346	0.011936
746.612272	0.011816
746.809180	0.012099
747.006069	0.012199
747.202940	0.012327
747.399793	0.012448
747.596628	0.012599
747.793444	0.012440
747.990243	0.012533
748.187023	0.012750
748.383784	0.012921
748.580528	0.012813
748.777253	0.012706
748.973960	0.012814
749.170649	0.012513
749.367320	0.012401
749.563973	0.012504
749.760607	0.012437
749.957223	0.012238
750.153821	0.012069
750.350400	0.012063
750.546962	0.012059
750.743505	0.011832
750.940030	0.011969
751.136536	0.011936
751.333025	0.011576
751.529495	0.011653
751.725947	0.011752
751.922381	0.011842
752.118796	0.011810
752.315194	0.011629
752.511573	0.011840
752.707934	0.011927
752.904276	0.012146
753.100601	0.012576
753.296907	0.012575
753.493195	0.012546
753.689465	0.012599
753.885716	0.012800
754.081949	0.012836
754.278164	0.012779
754.474361	0.012657
754.670540	0.012406
754.866700	0.012234
755.062843	0.012220
755.258967	0.012095
755.455072	0.011904
755.651160	0.011679
755.847229	0.011826
756.043280	0.011763
756.239313	0.011959
756.435328	0.011998
756.631324	0.012158
756.827302	0.012207
757.023262	0.012326
757.219204	0.012525
757.415127	0.012844
757.611033	0.012848
757.806920	0.012828
758.002788	0.012830
758.198639	0.013029
758.394471	0.012869
758.590286	0.012913
758.786081	0.012841
758.981859	0.012800
759.177619	0.012825
759.373360	0.012726
759.569083	0.012675
759.764788	0.012327
759.960474	0.011984
760.156143	0.012142
760.351793	0.011879
760.547425	0.011928
760.743038	0.011745
760.938634	0.011461
761.134211	0.011532
761.329770	0.011537
761.525311	0.011609
761.720833	0.011706
761.916338	0.011516
762.111824	0.011467
762.307292	0.011250
762.502741	0.011384
762.698173	0.011333
762.893586	0.011184
763.088981	0.011125
763.284358	0.011067
763.479716	0.010981
763.675057	0.010893
763.870379	0.010894
764.065683	0.010968
764.260968	0.010902
764.456236	0.011048
764.651485	0.011122
764.846716	0.011278
765.041929	0.011266
765.237123	0.011368
765.432299	0.011578
765.627457	0.012035
765.822597	0.012275
766.017719	0.012375
766.212822	0.012307
766.407907	0.012373
766.602974	0.012397
766.798023	0.012507
766.993054	0.012608
767.188066	0.012510
767.383060	0.012300
767.578036	0.012090
767.772993	0.011988
767.967933	0.011976
768.162854	0.011970
768.357757	0.011866
768.552642	0.011913
768.747508	0.011637
768.942356	0.011545
769.137186	0.011435
769.331998	0.011488
769.526792	0.011651
769.721567	0.011603
769.916324	0.011470
770.111063	0.011422
770.305784	0.011353
770.500486	0.011575
770.695171	0.011590
770.889837	0.011564
771.084484	0.011443
771.279114	0.011046
771.473725	0.010933
771.668318	0.010980
771.862893	0.010897
772.057450	0.010875
772.251988	0.010711
772.446509	0.010850
772.641011	0.010821
772.835494	0.010679
773.029960	0.010735
773.224407	0.010792
773.418836	0.010768
773.613247	0.010680
773.807640	0.010577
774.002014	0.010847
774.196370	0.010662
774.390708	0.010383
774.585028	0.010465
774.779330	0.010491
774.973613	0.010484
775.167878	0.010424
775.362125	0.010516
775.556354	0.010464
775.750564	0.010131
775.944756	0.010203
776.138930	0.010423
776.333086	0.010511
776.527223	0.010520
776.721343	0.010377
776.915444	0.010267
777.109526	0.010231
777.303591	0.010334
777.497637	0.010255
777.691666	0.010111
777.885676	0.009974
778.079667	0.009890
778.273641	0.009978
778.467596	0.010169
778.661533	0.010444
778.855452	0.010609
779.049352	0.010497
779.243235	0.010586
779.437099	0.010712
779.630945	0.010912
779.824773	0.010946
780.018582	0.010681
780.212373	0.010603
780.406146	0.010594
780.599901	0.010498
780.793638	0.010410
780.987356	0.010524
781.181056	0.010646
781.374738	0.010791
781.568402	0.010750
781.762047	0.010894
781.955674	0.011004
782.149283	0.010991
782.342874	0.011104
782.536447	0.011185
782.730001	0.011163
782.923537	0.011033
783.117055	0.010903
783.310555	0.010982
783.504036	0.011101
783.697499	0.011062
783.890944	0.010992
784.084371	0.010900
784.277780	0.011095
784.471170	0.011103
784.664542	0.011226
784.857896	0.011396
785.051231	0.011435
785.244549	0.011338
785.437848	0.011412
785.631129	0.011572
785.824392	0.011529
786.017636	0.011542
786.210863	0.011627
786.404071	0.011533
786.597260	0.011445
786.790432	0.011453
786.983585	0.011387
787.176721	0.011147
787.369838	0.011021
787.562936	0.011103
787.756017	0.010856
787.949079	0.010711
788.142123	0.010637
788.335149	0.010465
788.528156	0.010442
788.721146	0.010541
788.914117	0.010744
789.107070	0.010636
789.300005	0.010558
789.492921	0.010611
789.685819	0.010527
789.878699	0.010611
790.071561	0.010514
790.264405	0.010420
790.457230	0.010487
790.650037	0.010375
790.842826	0.010570
791.035597	0.010564
791.228349	0.010591
791.421084	0.010654
791.613800	0.010745
791.806497	0.010876
791.999177	0.010889
792.191838	0.010824
792.384481	0.010907
792.577106	0.010848
792.769713	0.010757
792.962301	0.010849
793.154871	0.010879
793.347423	0.010623
793.539957	0.010585
793.732473	0.010493
793.924970	0.010603
794.117449	0.010353
794.309910	0.010183
794.502353	0.010251
794.694777	0.010114
794.887183	0.010209
795.079571	0.010281
795.271941	0.010269
795.464293	0.010370
795.656626	0.010211
795.848941	0.010350
796.041238	0.010484
796.233516	0.010591
796.425777	0.010758
796.618019	0.010864
796.810243	0.011136
797.002449	0.011437
797.194636	0.011699
797.386805	0.011901
797.578956	0.012037
797.771089	0.012096
797.963204	0.011930
798.155300	0.011912
798.347378	0.011663
798.539438	0.011614
798.731480	0.011447
798.923503	0.011437
799.115509	0.011223
799.307496	0.011184
799.499465	0.011097
799.691415	0.011234
799.883348	0.011296
800.075262	0.011450
800.267158	0.011248
800.459035	0.011249
800.650895	0.011137
800.842736	0.011302
801.034559	0.011184
801.226364	0.011363
801.418150	0.011360
801.609919	0.011374
801.801669	0.011314
801.993401	0.011493
802.185114	0.011457
802.376810	0.011507
802.568487	0.011456
802.760146	0.011416
802.951787	0.011487
803.143409	0.011686
803.335014	0.011662
803.526600	0.011843
803.718168	0.011775
803.909717	0.011820
804.101249	0.011594
804.292762	0.011560
804.484257	0.011771
804.675734	0.011634
804.867192	0.011457
805.058632	0.011396
805.250054	0.011079
805.441458	0.011087
805.632844	0.011270
805.824211	0.011449
806.015561	0.011688
806.206891	0.011717
806.398204	0.011751
806.589499	0.011771
806.780775	0.011943
806.972033	0.012341
807.163273	0.012387
807.354495	0.012145
807.545698	0.012322
807.736883	0.012250
807.928050	0.012167
808.119199	0.012221
808.310329	0.012287
808.501441	0.012273
808.692535	0.012085
808.883611	0.012046
809.074669	0.012274
809.265708	0.011948
809.456729	0.011910
809.647732	0.012184
809.838717	0.012332
810.029683	0.012503
810.220632	0.012573
810.411562	0.012680
810.602474	0.012833
810.793367	0.012712
810.984242	0.013002
811.175100	0.013115
811.365938	0.013198
811.556759	0.013159
811.747562	0.013099
811.938346	0.013148
812.129112	0.013372
812.319860	0.013462
812.510589	0.013641
812.701300	0.013770
812.891994	0.013752
813.082668	0.013656
813.273325	0.013566
813.463964	0.013575
813.654584	0.013551
813.845186	0.013212
814.035769	0.013279
814.226335	0.013119
814.416882	0.013064
814.607411	0.013034
814.797922	0.013079
814.988415	0.013035
815.178889	0.012958
815.369345	0.012946
815.559783	0.012992
815.750203	0.012737
815.940605	0.012789
816.130988	0.012815
816.321353	0.013191
816.511700	0.013204
816.702028	0.013573
816.892339	0.013794
817.082631	0.013978
817.272905	0.014343
817.463161	0.014677
817.653398	0.014822
817.843617	0.014852
818.033819	0.014659
818.224001	0.014529
818.414166	0.014449
818.604312	0.014399
818.794440	0.014248
818.984550	0.014032
819.174642	0.013922
819.364716	0.014087
819.554771	0.013964
819.744808	0.013959
819.934827	0.014129
820.124827	0.014132
820.314810	0.013994
820.504774	0.013992
820.694720	0.014053
820.884647	0.013941
821.074557	0.013660
821.264448	0.013691
821.454321	0.013846
821.644176	0.013896
821.834012	0.013707
822.023831	0.013687
822.213631	0.013664
822.403413	0.013598
822.593176	0.013745
822.782922	0.013769
822.972649	0.013900
823.162358	0.013614
823.352049	0.013735
823.541721	0.013796
823.731376	0.014048
823.921012	0.014131
824.110629	0.014170
824.300229	0.014200
824.489811	0.014202
824.679374	0.014145
824.868919	0.014444
825.058445	0.014484
825.247954	0.014708
825.437444	0.014772
825.626916	0.014833
825.816370	0.014996
826.005806	0.015087
826.195223	0.015279
826.384622	0.015562
826.574003	0.015471
826.763366	0.015375
826.952711	0.015393
827.142037	0.015210
827.331345	0.015289
827.520635	0.015331
827.709906	0.015344
827.899160	0.015341
828.088395	0.015172
828.277612	0.015210
828.466810	0.015266
828.655991	0.015306
828.845153	0.015455
829.034297	0.015391
829.223423	0.015253
829.412531	0.015206
829.601620	0.015149
829.790691	0.015132
829.979744	0.015199
830.168779	0.015190
830.357795	0.014991
830.546793	0.014961
830.735773	0.014881
830.924735	0.015114
831.113679	0.015179
831.302604	0.015417
831.491511	0.015424
831.680400	0.015407
831.869271	0.015442
832.058123	0.015606
832.246957	0.015498
832.435773	0.015592
832.624571	0.015474
832.813351	0.015592
833.002112	0.015482
833.190855	0.015477
833.379580	0.015630
833.568287	0.015740
833.756975	0.015737
833.945645	0.016006
834.134297	0.016314
834.322931	0.016638
834.511547	0.016698
834.700144	0.016911
834.888723	0.017138
835.077284	0.017178
835.265826	0.017092
835.454351	0.017202
835.642857	0.017294
835.831345	0.017244
836.019815	0.017063
836.208266	0.017263
836.396699	0.017408
836.585114	0.017631
836.773511	0.017491
836.961890	0.017538
837.150250	0.017743
837.338592	0.017817
837.526916	0.017919
837.715222	0.017891
837.903510	0.017824
838.091779	0.017833
838.280030	0.017865
838.468263	0.018132
838.656477	0.018377
838.844674	0.018492
839.032852	0.018596
839.221012	0.018757
839.409153	0.019095
839.597277	0.019242
839.785382	0.019360
839.973469	0.019589
840.161538	0.019859
840.349589	0.020069
840.537621	0.020188
840.725635	0.020086
840.913631	0.020412
841.101609	0.020775
841.289568	0.021020
841.477509	0.021184
841.665432	0.021369
841.853337	0.021561
842.041224	0.021744
842.229092	0.021689
842.416942	0.022397
842.604774	0.022415
842.792588	0.022522
842.980383	0.022653
843.168160	0.022546
843.355919	0.022430
843.543660	0.022556
843.731382	0.022595
843.919087	0.022763
844.106773	0.022651
844.294441	0.022544
844.482090	0.022182
844.669722	0.021972
844.857335	0.022213
845.044930	0.022334
845.232507	0.022131
845.420065	0.022005
845.607605	0.022107
845.795127	0.021970
845.982631	0.021866
846.170117	0.022128
846.357584	0.022339
846.545033	0.022351
846.732464	0.022024
846.919877	0.021818
847.107272	0.021883
847.294648	0.022120
847.482006	0.021997
847.669346	0.022194
847.856667	0.022386
848.043971	0.022272
848.231256	0.022382
848.418523	0.022650
848.605771	0.023113
848.793002	0.023382
848.980214	0.023170
849.167408	0.023583
849.354584	0.023847
849.541742	0.023969
849.728881	0.024274
849.916002	0.024756
850.103105	0.024927
850.290190	0.024819
850.477256	0.024749
850.664304	0.024947
850.851334	0.024865
851.038346	0.024547
851.225340	0.024642
851.412315	0.024525
851.599272	0.024196
851.786211	0.024412
851.973132	0.024837
852.160034	0.025009
852.346918	0.024801
852.533784	0.024928
852.720632	0.025442
852.907462	0.025361
853.094273	0.025803
853.281066	0.025679
853.467841	0.025422
853.654598	0.025084
853.841336	0.025190
854.028056	0.025504
854.214758	0.025590
854.401442	0.025411
854.588107	0.025503
854.774755	0.025240
854.961384	0.025413
855.147995	0.025670
855.334587	0.025608
855.521162	0.025609
855.707718	0.025682
855.894256	0.025781
856.080775	0.026000
856.267277	0.026236
856.453760	0.026384
856.640225	0.026793
856.826672	0.026989
857.013101	0.027396
857.199511	0.027815
857.385903	0.027817
857.572277	0.027995
857.758633	0.027991
857.944970	0.028148
858.131290	0.028118
858.317591	0.027995
858.503873	0.027996
858.690138	0.028098
858.876384	0.028079
859.062612	0.028284
859.248822	0.028254
859.435014	0.028516
859.621188	0.028303
859.807343	0.028496
859.993480	0.028473
860.179599	0.028412
860.365699	0.028218
860.551781	0.027928
860.737846	0.027931
860.923891	0.028073
861.109919	0.027937
861.295929	0.028060
861.481920	0.028185
861.667893	0.028340
861.853848	0.028554
862.039784	0.028906
862.225702	0.028965
862.411603	0.029175
862.597484	0.029127
862.783348	0.029041
862.969193	0.029044
863.155021	0.028831
863.340830	0.028793
863.526620	0.028836
863.712393	0.028937
863.898147	0.029069
864.083883	0.028808
864.269601	0.028832
864.455301	0.029037
864.640982	0.029064
864.826645	0.029321
865.012290	0.029192
865.197917	0.029305
865.383526	0.029443
865.569116	0.029699
865.754688	0.029807
865.940242	0.029894
866.125777	0.030023
866.311295	0.030052
866.496794	0.029848
866.682275	0.029771
866.867737	0.029704
867.053182	0.029292
867.238608	0.029003
867.424016	0.029167
867.609406	0.028970
867.794778	0.028833
867.980131	0.029028
868.165466	0.028967
868.350783	0.029502
868.536082	0.029645
868.721362	0.029710
868.906625	0.029748
869.091869	0.030163
869.277094	0.030471
869.462302	0.030566
869.647491	0.030421
869.832662	0.030803
870.017815	0.030802
870.202950	0.030506
870.388066	0.030829
870.573165	0.030961
870.758245	0.030745
870.943306	0.030633
871.128350	0.030797
871.313375	0.031199
871.498382	0.031278
871.683371	0.031429
871.868342	0.031607
872.053294	0.031474
872.238229	0.031593
872.423144	0.031552
872.608042	0.031810
872.792922	0.031659
872.977783	0.031347
873.162626	0.031461
873.347451	0.031448
873.532258	0.031810
873.717046	0.031857
873.901816	0.031711
874.086568	0.031474
874.271302	0.031328
874.456017	0.031619
874.640715	0.031619
874.825394	0.031507
875.010055	0.031317
875.194697	0.031223
875.379322	0.031508
875.563928	0.031827
875.748516	0.032092
875.933085	0.031854
876.117637	0.031645
876.302170	0.031730
876.486685	0.031568
876.671182	0.031492
876.855661	0.031464
877.040121	0.031054
877.224563	0.030957
877.408987	0.030777
877.593393	0.030955
877.777780	0.030889
877.962150	0.030614
878.146501	0.030857
878.330833	0.031244
878.515148	0.031155
878.699444	0.031501
878.883722	0.031490
879.067982	0.031537
879.252224	0.031623
879.436447	0.031844
879.620653	0.032189
879.804840	0.032197
879.989008	0.031864
880.173159	0.032019
880.357291	0.032109
880.541405	0.031873
880.725501	0.031983
880.909579	0.032039
881.093638	0.032123
881.277680	0.032195
881.461703	0.032201
881.645707	0.032162
881.829694	0.032104
882.013662	0.031999
882.197612	0.032302
882.381544	0.032550
882.565458	0.032665
882.749353	0.032418
882.933230	0.032376
883.117089	0.032394
883.300930	0.032704
883.484753	0.032582
883.668557	0.032499
883.852343	0.032328
884.036111	0.032025
884.219861	0.031750
884.403592	0.031977
884.587305	0.031753
884.771000	0.031393
884.954677	0.030953
885.138335	0.030684
885.321976	0.030568
885.505598	0.030236
885.689201	0.030019
885.872787	0.029872
886.056354	0.029595
886.239904	0.029631
886.423434	0.029893
886.606947	0.029812
886.790442	0.030274
886.973918	0.030152
887.157376	0.030259
887.340816	0.029939
887.524237	0.030247
887.707641	0.030243
887.891026	0.030269
888.074393	0.030162
888.257741	0.030414
888.441072	0.030080
888.624384	0.030222
888.807678	0.030441
888.990954	0.031036
889.174211	0.031208
889.357451	0.031085
889.540672	0.031066
889.723875	0.030773
889.907059	0.030499
890.090226	0.030716
890.273374	0.030581
890.456504	0.030336
890.639616	0.030125
890.822709	0.029954
891.005785	0.030066
891.188842	0.030027
891.371881	0.030286
891.554901	0.030473
891.737904	0.030195
891.920888	0.030320
892.103854	0.030369
892.286802	0.030180
892.469731	0.030332
892.652643	0.030571
892.835536	0.030138
893.018410	0.029808
893.201267	0.029504
893.384106	0.029557
893.566926	0.029536
893.749728	0.029556
893.932511	0.029998
894.115277	0.029445
894.298024	0.029082
894.480753	0.029571
894.663464	0.030059
894.846157	0.030487
895.028831	0.030662
895.211487	0.030934
895.394125	0.031070
895.576745	0.030839
895.759346	0.031270
895.941930	0.031169
896.124495	0.031108
896.307041	0.030814
896.489570	0.030489
896.672080	0.030378
896.854573	0.030009
897.037046	0.030146
897.219502	0.030583
897.401940	0.030309
897.584359	0.030318
897.766760	0.030179
897.949143	0.030474
898.131507	0.030751
898.313854	0.030706
898.496182	0.030782
898.678492	0.030733
898.860783	0.030247
899.043057	0.030488
899.225312	0.030908
899.407549	0.031117
899.589768	0.030680
899.771968	0.030670
899.954151	0.030403
900.136315	0.030205
900.318461	0.029929
900.500588	0.029868
900.682698	0.029694
900.864789	0.029495
901.046862	0.029240
901.228917	0.029241
901.410953	0.028962
901.592971	0.028865
901.774972	0.028845
901.956953	0.028537
902.138917	0.028504
902.320862	0.028216
902.502790	0.027979
902.684699	0.027752
902.866589	0.027808
903.048462	0.027756
903.230316	0.028151
903.412152	0.027891
903.593970	0.028075
903.775770	0.027752
903.957551	0.027747
904.139314	0.027712
904.321059	0.027541
904.502786	0.027349
904.684494	0.026964
904.866185	0.026467
905.047857	0.026503
905.229510	0.026307
905.411146	0.026645
905.592763	0.026462
905.774363	0.026643
905.955943	0.026998
906.137506	0.026998
906.319051	0.027023
906.500577	0.026703
906.682085	0.026563
906.863575	0.026073
907.045046	0.025579
907.226500	0.025408
907.407935	0.024564
907.589352	0.024039
907.770750	0.023867
907.952131	0.023664
908.133493	0.023877
908.314837	0.023871
908.496163	0.024011
908.677470	0.023903
908.858760	0.024058
909.040031	0.024190
909.221284	0.024420
909.402518	0.024222
909.583735	0.024488
909.764933	0.024891
909.946113	0.024795
910.127275	0.025022
910.308418	0.025591
910.489544	0.025387
910.670651	0.025627
910.851740	0.025315
911.032810	0.025321
911.213863	0.024788
911.394897	0.024045
911.575913	0.023927
911.756911	0.023958
911.937890	0.022872
912.118851	0.022599
912.299794	0.022246
912.480719	0.022356
912.661626	0.022061
912.842514	0.022095
913.023384	0.021625
913.204236	0.021621
913.385070	0.021081
913.565886	0.021276
913.746683	0.021305
913.927462	0.020973
914.108223	0.020776
914.288965	0.020484
914.469690	0.020260
914.650396	0.020356
914.831084	0.019915
915.011754	0.019697
915.192405	0.019585
915.373038	0.019077
915.553653	0.018942
915.734250	0.018544
915.914829	0.018152
916.095389	0.018278
916.275931	0.018225
916.456455	0.017937
916.636961	0.017768
916.817448	0.017597
916.997917	0.017718
917.178368	0.017472
917.358801	0.017439
917.539216	0.017712
917.719612	0.017537
917.899990	0.017332
918.080350	0.017318
918.260692	0.017178
918.441015	0.016867
918.621320	0.016380
918.801607	0.016316
918.981876	0.015827
919.162127	0.015866
919.342359	0.015308
919.522573	0.015122
919.702769	0.014976
919.882947	0.014933
920.063106	0.014690
920.243247	0.014415
920.423370	0.014408
920.603475	0.014733
920.783562	0.013973
920.963630	0.014007
921.143680	0.013718
921.323712	0.013442
921.503725	0.013260
921.683721	0.013398
921.863698	0.013151
922.043657	0.012604
922.223598	0.012041
922.403520	0.011638
922.583424	0.011257
922.763311	0.011409
922.943178	0.010912
923.123028	0.010495
923.302859	0.009565
923.482673	0.009387
923.662467	0.009373
923.842244	0.009186
924.022003	0.009352
924.201743	0.009432
924.381465	0.008541
924.561169	0.008467
924.740854	0.008029
924.920522	0.008303
925.100171	0.008592
925.279802	0.008191
925.459414	0.008083
925.639009	0.008158
925.818585	0.008037
925.998143	0.008311
926.177683	0.008146
926.357205	0.007913
926.536708	0.007814
926.716193	0.007159
926.895660	0.007057
927.075109	0.006432
927.254539	0.005736
927.433951	0.005346
927.613345	0.005119
927.792721	0.004720
927.972079	0.004848
928.151418	0.003686
928.330739	0.003702
928.510042	0.003299
928.689327	0.003144
928.868593	0.003057
929.047841	0.002456
929.227071	0.001893
929.406283	0.002051
929.585476	0.002172
929.764652	0.002244
929.943809	0.001864
930.122948	0.001896
930.302068	0.001909
930.481171	0.002146
930.660255	0.002580
930.839321	0.002848
931.018369	0.002617
931.197398	0.001882
931.376409	0.002199
931.555402	0.002059
931.734377	0.001795
931.913334	0.001420
932.092272	0.000817
932.271192	-0.000056
932.450094	-0.000597
932.628978	-0.001299
932.807844	-0.001559
932.986691	-0.002119
933.165520	-0.002240
933.344331	-0.002875
933.523123	-0.003318
933.701898	-0.003798
933.880654	-0.004158
934.059392	-0.003654
934.238111	-0.003681
934.416813	-0.004237
934.595496	-0.004667
934.774161	-0.005299
934.952808	-0.005178
935.131437	-0.005902
935.310047	-0.006173
935.488639	-0.006641
935.667213	-0.008189
935.845769	-0.009014
936.024306	-0.009043
936.202825	-0.008869
936.381326	-0.009079
936.559809	-0.009604
936.738274	-0.009807
936.916720	-0.010192
937.095148	-0.010320
937.273558	-0.010336
937.451950	-0.010446
937.630323	-0.010838
937.808678	-0.011804
937.987015	-0.012974
938.165334	-0.012913
938.343635	-0.012612
938.521917	-0.013325
938.700181	-0.013540
938.878427	-0.013882
939.056655	-0.013887
939.234864	-0.014899
939.413055	-0.014531
939.591228	-0.014397
939.769383	-0.015189
939.947519	-0.016094
940.125638	-0.015736
940.303738	-0.015999
940.481820	-0.016204
940.659883	-0.016512
940.837929	-0.015949
941.015956	-0.016645
941.193965	-0.017194
941.371955	-0.016827
941.549928	-0.017180
941.727882	-0.017455
941.905818	-0.017902
942.083736	-0.018374
942.261636	-0.019001
942.439517	-0.018596
942.617380	-0.018938
942.795225	-0.018176
942.973052	-0.018518
943.150860	-0.018925
943.328651	-0.020079
943.506423	-0.020721
943.684176	-0.021253
943.861912	-0.021012
944.039629	-0.022326
944.217328	-0.023105
944.395009	-0.024174
944.572672	-0.025211
944.750317	-0.025164
944.927943	-0.025303
945.105551	-0.025624
945.283141	-0.025172
945.460712	-0.025446
945.638265	-0.025734
945.815801	-0.024289
945.993317	-0.024015
946.170816	-0.023750
946.348297	-0.024414
946.525759	-0.024206
946.703203	-0.023253
946.880629	-0.023641
947.058036	-0.023923
947.235425	-0.025365
947.412797	-0.026850
947.590149	-0.026916
947.767484	-0.027573
947.944800	-0.026470
948.122099	-0.025755
948.299379	-0.026104
948.476640	-0.025841
948.653884	-0.025939
948.831109	-0.024173
949.008316	-0.024218
949.185505	-0.025080
949.362676	-0.025147
949.539828	-0.026459
949.716962	-0.026895
949.894078	-0.027906
950.071176	-0.028298
950.248256	-0.028227
950.425317	-0.028673
950.602360	-0.028270
950.779385	-0.027895
950.956391	-0.027977
951.133380	-0.026520
951.310350	-0.026432
951.487302	-0.026508
951.664235	-0.026454
951.841151	-0.025719
952.018048	-0.026507
952.194927	-0.025883
952.371788	-0.024697
952.548631	-0.023839
952.725455	-0.024131
952.902261	-0.024424
953.079049	-0.023541
953.255819	-0.022662
953.432570	-0.022904
953.609303	-0.022502
953.786018	-0.023473
953.962715	-0.023871
954.139394	-0.024176
954.316054	-0.024706
954.492696	-0.023868
954.669320	-0.023243
954.845926	-0.026112
955.022513	-0.024949
955.199083	-0.025623
955.375634	-0.024214
955.552166	-0.024803
955.728681	-0.024387
955.905177	-0.023906
956.081655	-0.024766
956.258115	-0.025521
956.434557	-0.024715
956.610980	-0.025337
956.787385	-0.024362
956.963772	-0.026110
957.140141	-0.025257
957.316492	-0.023589
957.492824	-0.022320
957.669138	-0.020466
957.845434	-0.019714
958.021712	-0.018128
958.197971	-0.016176
958.374212	-0.016000
958.550435	-0.015018
958.726640	-0.013012
958.902826	-0.014247
959.078995	-0.014736
959.255145	-0.013743
959.431277	-0.013047
959.607390	-0.010486
959.783486	-0.012393
959.959563	-0.011448
960.135622	-0.010039
960.311662	-0.011013
960.487685	-0.009677
960.663689	-0.009829
960.839675	-0.011996
961.015643	-0.012145
961.191593	-0.014095
961.367524	-0.012754
961.543437	-0.010650
961.719332	-0.009975
961.895209	-0.009326
962.071067	-0.009330
962.246907	-0.008195
962.422730	-0.006616
962.598533	-0.005678
962.774319	-0.005585
962.950086	-0.005189
963.125835	-0.006129
963.301566	-0.005874
963.477279	-0.006917
963.652973	-0.007125
963.828650	-0.008052
964.004308	-0.006826
964.179947	-0.006780
964.355569	-0.006917
964.531172	-0.007322
964.706757	-0.006489
964.882324	-0.004715
965.057873	-0.003461
965.233403	-0.002731
965.408916	-0.001657
965.584410	-0.002777
965.759885	-0.002625
965.935343	-0.002709
966.110782	-0.004152
966.286203	-0.003636
966.461606	-0.004032
966.636991	-0.004017
966.812357	-0.004599
966.987705	-0.005655
967.163035	-0.004498
967.338347	-0.003226
967.513641	-0.001158
967.688916	0.000804
967.864173	0.000752
968.039412	-0.000827
968.214632	0.000398
968.389835	0.001524
968.565019	0.003563
968.740185	0.003044
968.915333	0.001150
969.090462	0.000705
969.265573	0.000474
969.440667	0.000776
969.615741	-0.000135
969.790798	-0.001748
969.965836	-0.002064
970.140856	-0.001055
970.315858	-0.003202
970.490842	-0.002818
970.665808	-0.003839
970.840755	-0.005070
971.015684	-0.005668
971.190595	-0.002327
971.365487	-0.000944
971.540362	-0.001772
971.715218	-0.002000
971.890056	0.000276
972.064875	0.002899
972.239677	0.004426
972.414460	0.005940
972.589225	0.003625
972.763972	0.000181
972.938700	-0.000979
973.113411	-0.001681
973.288103	-0.004129
973.462777	-0.004399
973.637432	-0.005515
973.812070	-0.005632
973.986689	-0.005240
974.161290	-0.002222
974.335873	-0.000483
974.510437	0.000338
974.684984	0.001801
974.859512	0.003875
975.034022	0.003933
975.208513	0.004642
975.382987	0.005589
975.557442	0.005063
975.731879	0.005162
975.906298	0.007823
976.080698	0.007085
976.255080	0.005970
976.429445	0.006924
976.603790	0.005838
976.778118	0.006553
976.952427	0.005490
977.126719	0.004332
977.300992	0.005364
977.475246	0.001177
977.649483	0.002163
977.823701	0.003648
977.997901	0.002301
978.172083	0.004006
978.346247	0.002842
978.520392	0.001845
978.694519	0.001841
978.868628	0.000969
979.042719	0.000687
979.216791	-0.000052
979.390845	-0.000148
979.564882	0.000881
979.738899	-0.000123
979.912899	-0.002197
980.086880	-0.001102
980.260843	-0.000007
980.434788	0.000865
980.608715	0.003558
980.782623	0.003454
980.956514	0.003664
981.130386	0.002613
981.304240	0.003573
981.478075	0.003273
981.651892	0.003836
981.825692	0.003504
981.999472	0.002398
982.173235	0.001091
982.346980	0.002251
982.520706	0.002689
982.694414	0.002856
982.868104	0.003696
983.041775	0.004084
983.215428	0.003122
983.389064	0.003738
983.562680	0.002686
983.736279	0.002079
983.909860	0.000914
984.083422	-0.001966
984.256966	-0.003283
984.430491	-0.005358
984.603999	-0.005532
984.777488	-0.006241
984.950959	-0.007723
985.124412	-0.007332
985.297847	-0.007852
985.471263	-0.009051
985.644661	-0.006239
985.818041	-0.005561
985.991403	-0.004750
986.164747	-0.004126
986.338072	-0.001999
986.511379	-0.001561
986.684668	-0.000946
986.857938	0.000128
987.031191	0.001667
987.204425	0.001558
987.377641	0.002714
987.550839	0.003252
987.724018	0.004711
987.897179	0.002199
988.070322	0.002519
988.243447	0.001210
988.416554	0.002677
988.589642	0.002571
988.762712	0.003612
988.935764	0.003286
989.108798	0.000082
989.281813	-0.002401
989.454811	-0.000710
989.627790	-0.000522
989.800751	-0.000448
989.973693	-0.001786
990.146617	-0.002683
990.319524	-0.004848
990.492412	-0.005550
990.665281	-0.002599
990.838133	-0.000582
991.010966	-0.001992
991.183781	-0.001792
991.356578	-0.001916
991.529356	-0.002414
991.702117	-0.001060
991.874859	-0.001177
992.047583	-0.001753
992.220288	-0.003424
992.392976	-0.002190
992.565645	0.000118
992.738296	0.000567
992.910929	0.000396
993.083543	0.000372
993.256139	-0.000616
993.428718	-0.002253
993.601277	-0.000562
993.773819	0.000584
993.946342	-0.000176
994.118848	-0.003289
994.291335	-0.005187
994.463803	-0.003778
994.636254	-0.003643
994.808686	-0.003298
994.981100	-0.000041
995.153496	-0.001321
995.325874	0.000434
995.498233	-0.000560
995.670574	0.001446
995.842897	0.001015
996.015202	0.001303
996.187488	0.003118
996.359757	0.003414
996.532007	0.002843
996.704239	0.003209
996.876452	0.002971
997.048648	0.002722
997.220825	0.003807
997.392984	0.005743
997.565124	0.005130
997.737247	0.004732
997.909351	0.004646
998.081437	0.002365
998.253505	0.003004
998.425554	0.001658
998.597586	0.001164
998.769599	-0.000157
998.941594	-0.001120
999.113571	-0.000658
999.285529	-0.001496
999.457469	-0.002116
999.629391	0.000025
999.801295	0.000025
999.973181	0.000088
1000.145048	0.000957
1000.316897	-0.001319
1000.488728	-0.000031
1000.660541	-0.001897
1000.832335	-0.001977
1001.004111	-0.001419
1001.175869	-0.001856
1001.347609	-0.000642
1001.519331	-0.000862
1001.691034	-0.000249
1001.862719	0.002035
1002.034386	0.000461
1002.206035	0.002331
1002.377665	0.002224
1002.549277	0.001700
1002.720871	0.000684
1002.892447	-0.001424
1003.064004	-0.002035
1003.235544	-0.001336
1003.407065	-0.000844
1003.578568	-0.001231
1003.750052	-0.000855
1003.921519	0.000004
1004.092967	0.000821
1004.264397	0.001996
1004.435809	0.002762
1004.607202	0.002126
1004.778577	0.002190
1004.949934	0.000549
1005.121273	0.000717
1005.292594	-0.000248
1005.463896	-0.001835
1005.635180	-0.003459
1005.806446	-0.005838
1005.977694	-0.005030
1006.148923	-0.005982
1006.320135	-0.007514
1006.491328	-0.005907
1006.662503	-0.004512
1006.833659	-0.004222
1007.004798	-0.002799
1007.175918	-0.002190
1007.347020	0.000612
1007.518103	-0.001037
1007.689169	-0.000166
1007.860216	-0.000974
1008.031245	-0.001885
1008.202256	-0.003075
1008.373248	-0.002975
1008.544223	-0.002496
1008.715179	-0.002074
1008.886117	-0.003977
1009.057036	-0.003587
1009.227938	-0.003009
1009.398821	-0.002033
1009.569686	-0.002989
1009.740533	-0.002792
1009.911361	-0.004862
1010.082172	-0.005395
1010.252964	-0.003972
1010.423738	-0.003510
1010.594493	-0.003296
1010.765231	-0.002966
1010.935950	-0.004111
1011.106651	-0.003326
1011.277334	-0.002764
1011.447998	-0.001425
1011.618645	-0.001492
1011.789273	-0.003118
1011.959882	-0.002186
1012.130474	-0.002306
1012.301048	-0.001978
1012.471603	-0.001507
1012.642140	-0.001667
1012.812658	-0.001516
1012.983159	-0.000530
1013.153641	-0.000561
1013.324105	-0.001047
1013.494551	-0.001947
1013.664979	-0.003113
1013.835388	-0.003649
1014.005779	-0.002903
1014.176152	-0.002335
1014.346507	-0.003223
1014.516843	-0.003947
1014.687162	-0.003926
1014.857462	-0.003511
1015.027744	-0.003446
1015.198007	-0.002387
1015.368252	-0.002460
1015.538480	-0.003367
1015.708689	-0.003810
1015.878879	-0.003655
1016.049052	-0.004356
1016.219206	-0.005138
1016.389342	-0.004523
1016.559460	-0.004870
1016.729559	-0.006222
1016.899641	-0.005810
1017.069704	-0.003728
1017.239749	-0.002549
1017.409775	-0.001852
1017.579784	-0.001601
1017.749774	0.000876
1017.919746	-0.000540
1018.089700	-0.000439
1018.259635	0.001026
1018.429553	0.001614
1018.599452	-0.000174
1018.769333	-0.001979
1018.939195	-0.001654
1019.109040	-0.001536
1019.278866	-0.003903
1019.448674	-0.002353
1019.618464	-0.000593
1019.788235	-0.000926
1019.957989	-0.001818
1020.127724	-0.001804
1020.297441	-0.001559
1020.467139	-0.002892
1020.636820	-0.003126
1020.806482	-0.003404
1020.976126	-0.005292
1021.145752	-0.007376
1021.315359	-0.006279
1021.484948	-0.006420
1021.654519	-0.005689
1021.824072	-0.004825
1021.993607	-0.005579
1022.163123	-0.004362
1022.332621	-0.004740
1022.502101	-0.003646
1022.671563	-0.003137
1022.841007	-0.005763
1023.010432	-0.005035
1023.179839	-0.003587
1023.349228	-0.003497
1023.518598	-0.002825
1023.687951	-0.004473
1023.857285	-0.004108
1024.026601	-0.003031
1024.195899	-0.003274
1024.365178	-0.001289
1024.534439	-0.000877
1024.703682	-0.003138
1024.872907	-0.003299
1025.042114	-0.002976
1025.211302	-0.002107
1025.380472	-0.001539
1025.549624	-0.002840
1025.718758	-0.002664
1025.887873	-0.003746
1026.056970	-0.006389
1026.226049	-0.004903
1026.395110	-0.003507
1026.564153	-0.003153
1026.733177	-0.001941
1026.902183	-0.001414
1027.071171	-0.000054
1027.240141	-0.000356
1027.409092	0.001298
1027.578026	0.002137
1027.746940	0.001416
1027.915837	0.000113
1028.084716	-0.000468
1028.253576	-0.001667
1028.422418	-0.002195
1028.591242	-0.002965
1028.760048	-0.002135
1028.928835	-0.003992
1029.097604	-0.003294
1029.266355	-0.004114
1029.435088	-0.005434
1029.603803	-0.003851
1029.772499	-0.003482
1029.941177	-0.004559
1030.109837	-0.005176
1030.278478	-0.005616
1030.447102	-0.005868
1030.615707	-0.005821
1030.784294	-0.006511
1030.952863	-0.005656
1031.121413	-0.006589
1031.289945	-0.006494
1031.458460	-0.005634
1031.626955	-0.006094
1031.795433	-0.007235
1031.963892	-0.007216
1032.132334	-0.006550
1032.300756	-0.005902
1032.469161	-0.005442
1032.637548	-0.004914
1032.805916	-0.005701
1032.974266	-0.005500
1033.142598	-0.004714
1033.310911	-0.003021
1033.479207	-0.001398
1033.647484	-0.002133
1033.815743	-0.002022
1033.983983	-0.002236
1034.152206	-0.003425
1034.320410	-0.002393
1034.488596	-0.002208
1034.656764	-0.001373
1034.824914	-0.000354
1034.993045	0.000379
1035.161158	0.002199
1035.329253	0.001356
1035.497330	0.001115
1035.665388	0.001898
1035.833428	0.002292
1036.001450	0.000707
1036.169454	0.001175
1036.337440	0.000495
1036.505407	-0.002722
1036.673356	-0.004751
1036.841287	-0.005651
1037.009200	-0.004885
1037.177094	-0.005398
1037.344970	-0.006249
1037.512828	-0.004605
1037.680668	-0.007192
1037.848489	-0.008691
1038.016293	-0.008389
1038.184078	-0.007409
1038.351845	-0.004598
1038.519593	-0.006314
1038.687324	-0.006272
1038.855036	-0.007822
1039.022730	-0.010115
1039.190406	-0.009698
1039.358063	-0.008651
1039.525702	-0.006697
1039.693323	-0.007752
1039.860926	-0.007462
1040.028511	-0.005148
1040.196077	-0.004175
1040.363625	-0.003902
1040.531155	-0.002127
1040.698667	-0.000431
1040.866161	-0.000472
1041.033636	-0.000900
1041.201093	-0.000234
1041.368532	-0.001434
1041.535952	-0.003391
1041.703355	-0.004200
1041.870739	-0.004742
1042.038105	-0.003655
1042.205452	-0.003911
1042.372782	-0.004572
1042.540093	-0.004937
1042.707386	-0.005547
1042.874661	-0.004873
1043.041918	-0.004732
1043.209156	-0.005504
1043.376376	-0.003370
1043.543578	-0.004143
1043.710762	-0.004848
1043.877927	-0.003737
1044.045074	-0.004303
1044.212203	-0.003769
1044.379314	-0.005118
1044.546407	-0.004389
1044.713481	-0.003244
1044.880537	-0.003795
1045.047575	-0.004261
1045.214595	-0.003622
1045.381596	-0.005257
1045.548579	-0.003542
1045.715544	-0.003624
1045.882491	-0.002735
1046.049420	-0.001806
1046.216330	-0.003274
1046.383222	-0.004159
1046.550096	-0.005026
1046.716951	-0.006201
1046.883789	-0.006190
1047.050608	-0.006879
1047.217409	-0.008565
1047.384192	-0.007699
1047.550956	-0.009192
1047.717703	-0.008871
1047.884431	-0.007915
1048.051140	-0.008173
1048.217832	-0.008196
1048.384505	-0.008531
1048.551161	-0.008190
1048.717798	-0.006733
1048.884416	-0.006596
1049.051017	-0.006544
1049.217599	-0.006674
1049.384163	-0.006578
1049.550709	-0.006106
1049.717237	-0.005985
1049.883746	-0.003907
1050.050237	-0.004444
1050.216710	-0.006170
1050.383165	-0.007800
1050.549601	-0.008277
1050.716019	-0.007682
1050.882420	-0.009711
1051.048801	-0.008394
1051.215165	-0.007435
1051.381510	-0.007920
1051.547837	-0.008423
1051.714146	-0.006681
1051.880437	-0.007766
1052.046709	-0.007216
1052.212964	-0.005974
1052.379200	-0.004962
1052.545417	-0.004744
1052.711617	-0.005210
1052.877798	-0.004588
1053.043961	-0.004020
1053.210106	-0.003493
1053.376233	-0.003042
1053.542341	-0.002464
1053.708432	-0.003607
1053.874504	-0.003776
1054.040557	-0.004671
1054.206593	-0.004523
1054.372610	-0.006588
1054.538609	-0.006823
1054.704590	-0.007572
1054.870553	-0.007142
1055.036497	-0.006714
1055.202424	-0.006632
1055.368331	-0.006983
1055.534221	-0.007193
1055.700093	-0.008829
1055.865946	-0.009730
1056.031781	-0.008441
1056.197598	-0.009589
1056.363397	-0.009486
1056.529177	-0.011077
1056.694939	-0.010575
1056.860683	-0.010639
1057.026409	-0.010996
1057.192116	-0.009588
1057.357806	-0.008077
1057.523477	-0.009178
1057.689130	-0.008073
1057.854764	-0.008844
1058.020381	-0.007502
1058.185979	-0.007902
1058.351559	-0.008378
1058.517120	-0.008432
1058.682664	-0.009441
1058.848189	-0.009678
1059.013696	-0.008881
1059.179185	-0.008615
1059.344656	-0.007412
1059.510108	-0.009063
1059.675542	-0.011561
1059.840958	-0.009456
1060.006356	-0.009148
1060.171735	-0.009335
1060.337096	-0.009141
1060.502439	-0.010900
1060.667764	-0.011532
1060.833071	-0.012233
1060.998359	-0.011807
1061.163629	-0.009056
1061.328881	-0.010340
1061.494115	-0.010221
1061.659330	-0.008983
1061.824527	-0.011356
1061.989706	-0.011367
1062.154867	-0.009483
1062.320010	-0.009514
1062.485134	-0.008177
1062.650240	-0.008946
1062.815328	-0.008206
1062.980398	-0.008097
1063.145449	-0.008469
1063.310482	-0.004728
1063.475497	-0.004507
1063.640494	-0.006162
1063.805473	-0.006742
1063.970433	-0.008190
1064.135375	-0.006527
1064.300299	-0.007667
1064.465204	-0.007450
1064.630092	-0.007795
1064.794961	-0.009270
1064.959812	-0.009017
1065.124645	-0.010204
1065.289459	-0.009620
1065.454256	-0.008754
1065.619034	-0.011127
1065.783793	-0.010962
1065.948535	-0.011533
1066.113258	-0.010903
1066.277964	-0.010209
1066.442651	-0.011197
1066.607319	-0.008945
1066.771970	-0.010364
1066.936602	-0.010628
1067.101216	-0.008340
1067.265812	-0.008232
1067.430389	-0.009093
1067.594949	-0.009259
1067.759490	-0.010126
1067.924013	-0.010015
1068.088518	-0.010179
1068.253004	-0.007539
1068.417472	-0.006620
1068.581922	-0.007890
1068.746354	-0.009146
1068.910768	-0.008510
1069.075163	-0.008942
1069.239540	-0.009187
1069.403899	-0.008955
1069.568240	-0.010782
1069.732562	-0.013082
1069.896866	-0.012702
1070.061152	-0.013005
1070.225420	-0.011057
1070.389670	-0.010782
1070.553901	-0.008862
1070.718114	-0.006357
1070.882309	-0.005919
1071.046486	-0.005148
1071.210644	-0.004048
1071.374784	-0.003503
1071.538906	-0.003034
1071.703010	-0.002548
1071.867096	-0.003568
1072.031163	-0.005150
1072.195212	-0.006296
1072.359243	-0.004053
1072.523256	-0.004196
1072.687250	-0.002699
1072.851226	-0.003625
1073.015184	-0.004138
1073.179124	-0.004857
1073.343045	-0.002476
1073.506949	-0.000624
1073.670834	-0.001099
1073.834701	-0.004321
1073.998549	-0.004694
1074.162380	-0.007250
1074.326192	-0.007836
1074.489986	-0.008099
1074.653761	-0.007565
1074.817519	-0.007867
1074.981258	-0.009457
1075.144979	-0.008328
1075.308682	-0.006240
1075.472367	-0.005402
1075.636033	-0.003501
1075.799681	-0.005554
1075.963311	-0.003837
1076.126923	-0.003237
1076.290516	-0.006253
1076.454092	-0.005679
1076.617649	-0.006291
1076.781187	-0.007726
1076.944708	-0.007942
1077.108210	-0.007812
1077.271695	-0.006380
1077.435160	-0.008132
1077.598608	-0.010569
1077.762038	-0.009198
1077.925449	-0.010084
1078.088842	-0.011495
1078.252217	-0.012540
1078.415573	-0.012858
1078.578912	-0.013840
1078.742232	-0.014806
1078.905534	-0.016215
1079.068817	-0.013216
1079.232083	-0.012320
1079.395330	-0.013058
1079.558559	-0.012944
1079.721770	-0.014095
1079.884962	-0.013203
1080.048136	-0.012605
1080.211293	-0.012284
1080.374430	-0.012363
1080.537550	-0.014754
1080.700651	-0.013464
1080.863735	-0.014184
1081.026800	-0.011386
1081.189846	-0.008050
1081.352875	-0.008578
1081.515885	-0.011425
1081.678877	-0.010603
1081.841851	-0.008417
1082.004807	-0.007595
1082.167744	-0.010342
1082.330663	-0.008137
1082.493564	-0.011094
1082.656447	-0.011111
1082.819312	-0.010047
1082.982158	-0.008048
1083.144986	-0.008338
1083.307796	-0.007614
1083.470587	-0.005600
1083.633361	-0.004043
1083.796116	-0.004802
1083.958853	-0.003161
1084.121571	-0.003312
1084.284272	-0.005918
1084.446954	-0.004499
1084.609618	-0.006271
1084.772264	-0.008633
1084.934892	-0.009195
1085.097501	-0.008543
1085.260092	-0.008027
1085.422665	-0.008921
1085.585220	-0.011124
1085.747756	-0.009116
1085.910274	-0.010542
1086.072774	-0.008832
1086.235256	-0.007091
1086.397720	-0.008259
1086.560165	-0.012312
1086.722592	-0.011364
1086.885001	-0.011513
1087.047392	-0.010807
1087.209764	-0.009373
1087.372119	-0.008500
1087.534455	-0.007368
1087.696772	-0.007146
1087.859072	-0.010100
1088.021353	-0.009212
1088.183616	-0.011772
1088.345861	-0.013768
1088.508088	-0.011550
1088.670296	-0.015009
1088.832486	-0.016872
1088.994658	-0.019215
1089.156812	-0.021336
1089.318948	-0.020670
1089.481065	-0.019621
1089.643164	-0.019603
1089.805245	-0.019485
1089.967308	-0.020648
1090.129352	-0.020854
1090.291378	-0.019172
1090.453386	-0.019096
1090.615376	-0.017619
1090.777347	-0.015998
1090.939301	-0.014203
1091.101236	-0.014161
1091.263153	-0.012997
1091.425051	-0.012717
1091.586932	-0.009624
1091.748794	-0.011814
1091.910638	-0.010856
1092.072463	-0.008675
1092.234271	-0.009596
1092.396060	-0.011723
1092.557831	-0.008409
1092.719584	-0.006438
1092.881319	-0.005465
1093.043035	-0.006424
1093.204733	-0.004659
1093.366413	-0.007878
1093.528075	-0.013086
1093.689718	-0.013218
1093.851343	-0.012094
1094.012950	-0.017445
1094.174539	-0.021465
1094.336110	-0.024026
1094.497662	-0.024982
1094.659196	-0.024440
1094.820712	-0.022229
1094.982210	-0.020375
1095.143689	-0.020007
1095.305151	-0.019385
1095.466594	-0.013710
1095.628018	-0.012625
1095.789425	-0.012640
1095.950813	-0.012468
1096.112183	-0.013744
1096.273535	-0.012560
1096.434869	-0.011392
1096.596184	-0.011528
1096.757482	-0.014739
1096.918761	-0.017825
1097.080021	-0.016266
1097.241264	-0.017172
1097.402488	-0.018291
1097.563694	-0.018995
1097.724882	-0.019111
1097.886052	-0.021954
1098.047203	-0.024541
1098.208336	-0.024501
1098.369451	-0.025465
1098.530548	-0.024858
1098.691627	-0.022101
1098.852687	-0.021362
1099.013729	-0.020391
1099.174753	-0.020854
1099.335758	-0.018419
1099.496746	-0.013754
1099.657715	-0.011942
1099.818666	-0.010319
1099.979599	-0.012089
1100.140513	-0.013817
1100.301409	-0.011023
1100.462287	-0.012512
1100.623147	-0.007708
1100.783989	-0.008069
1100.944812	-0.008554
1101.105617	-0.007654
1101.266404	-0.010774
1101.427173	-0.007796
1101.587923	-0.009854
1101.748656	-0.012048
1101.909370	-0.012348
1102.070066	-0.018206
1102.230743	-0.016952
1102.391403	-0.014618
1102.552044	-0.018417
1102.712667	-0.019067
1102.873271	-0.019196
1103.033858	-0.016770
1103.194426	-0.018094
1103.354976	-0.015460
1103.515508	-0.017184
1103.676021	-0.017044
1103.836517	-0.020996
1103.996994	-0.017822
1104.157453	-0.016384
1104.317893	-0.017667
1104.478316	-0.017127
1104.638720	-0.016746
1104.799106	-0.018819
1104.959474	-0.015555
1105.119823	-0.017205
1105.280155	-0.018940
1105.440468	-0.019086
1105.600763	-0.016637
1105.761039	-0.019749
1105.921298	-0.020245
1106.081538	-0.018310
1106.241760	-0.017530
1106.401964	-0.016474
1106.562149	-0.017937
1106.722316	-0.014057
1106.882465	-0.013196
1107.042596	-0.014449
1107.202709	-0.015830
1107.362803	-0.017399
1107.522879	-0.021311
1107.682937	-0.021611
1107.842977	-0.022773
1108.002999	-0.021950
1108.163002	-0.023402
1108.322987	-0.024042
1108.482954	-0.024711
1108.642902	-0.022133
1108.802833	-0.016936
1108.962745	-0.017157
1109.122639	-0.015544
1109.282515	-0.016631
1109.442372	-0.020206
1109.602211	-0.024663
1109.762032	-0.030452
1109.921835	-0.028138
1110.081620	-0.029876
1110.241386	-0.036961
1110.401134	-0.036713
1110.560864	-0.035276
1110.720576	-0.037542
1110.880269	-0.030144
1111.039945	-0.028650
1111.199602	-0.022176
1111.359240	-0.021737
1111.518861	-0.024192
1111.678463	-0.019875
1111.838047	-0.021989
1111.997613	-0.021777
1112.157161	-0.019069
1112.316690	-0.023100
1112.476202	-0.021571
1112.635695	-0.020782
1112.795169	-0.020370
1112.954626	-0.012029
1113.114064	-0.012228
1113.273484	-0.006884
1113.432886	-0.012492
1113.592270	-0.014805
1113.751635	-0.017173
1113.910983	-0.016844
1114.070312	-0.023287
1114.229622	-0.027050
1114.388915	-0.032826
1114.548189	-0.033235
1114.707445	-0.033426
1114.866683	-0.031623
1115.025903	-0.033063
1115.185104	-0.023903
1115.344287	-0.026132
1115.503452	-0.019985
1115.662599	-0.018180
1115.821727	-0.017597
1115.980838	-0.020149
1116.139930	-0.019264
1116.299004	-0.017640
1116.458059	-0.011509
1116.617097	-0.018463
1116.776116	-0.013386
1116.935117	-0.010694
1117.094099	-0.018230
1117.253064	-0.018354
1117.412010	-0.019524
1117.570938	-0.025145
1117.729848	-0.026879
1117.888740	-0.030499
1118.047613	-0.031558
1118.206468	-0.034438
1118.365305	-0.040190
1118.524124	-0.034886
1118.682924	-0.035036
1118.841707	-0.029720
1119.000471	-0.025068
1119.159216	-0.023616
1119.317944	-0.020983
1119.476653	-0.020332
1119.635344	-0.019926
1119.794017	-0.017453
1119.952672	-0.021931
1120.111308	-0.021457
1120.269927	-0.025729
1120.428527	-0.024138
1120.587108	-0.018435
1120.745672	-0.021585
1120.904217	-0.020421
1121.062744	-0.021715
1121.221253	-0.025326
1121.379744	-0.020095
1121.538216	-0.018258
1121.696671	-0.014804
1121.855107	-0.014324
1122.013524	-0.018333
1122.171924	-0.019921
1122.330305	-0.020838
1122.488668	-0.019419
1122.647013	-0.018555
1122.805340	-0.021780
1122.963648	-0.021912
1123.121938	-0.023676
1123.280210	-0.029080
1123.438464	-0.031464
1123.596700	-0.027051
1123.754917	-0.027748
1123.913116	-0.025577
1124.071297	-0.023014
1124.229459	-0.020585
1124.387604	-0.025632
1124.545730	-0.028315
1124.703838	-0.026826
1124.861928	-0.028308
1125.019999	-0.027464
1125.178052	-0.029581
1125.336088	-0.030962
1125.494104	-0.028923
1125.652103	-0.029664
1125.810083	-0.026563
1125.968045	-0.029615
1126.125989	-0.029135
1126.283915	-0.025768
1126.441823	-0.026352
1126.599712	-0.027094
1126.757583	-0.026600
1126.915436	-0.026932
1127.073270	-0.026180
1127.231087	-0.023581
1127.388885	-0.018169
1127.546665	-0.014050
1127.704426	-0.016733
1127.862170	-0.021742
1128.019895	-0.021089
1128.177602	-0.024370
1128.335291	-0.027639
1128.492961	-0.025078
1128.650614	-0.025635
1128.808248	-0.024150
1128.965864	-0.027439
1129.123461	-0.024585
1129.281041	-0.018132
1129.438602	-0.016977
1129.596145	-0.012490
1129.753670	-0.004903
1129.911176	-0.008905
1130.068665	-0.013003
1130.226135	-0.014755
1130.383587	-0.016631
1130.541020	-0.024046
1130.698436	-0.025712
1130.855833	-0.022888
1131.013212	-0.026620
1131.170573	-0.032078
1131.327915	-0.027968
1131.485239	-0.024009
1131.642545	-0.025852
1131.799833	-0.021272
1131.957103	-0.016215
1132.114354	-0.011597
1132.271588	-0.007581
1132.428803	-0.007101
1132.585999	-0.004097
1132.743178	-0.003938
1132.900338	-0.001815
1133.057480	-0.003236
1133.214604	-0.008648
1133.371710	-0.012032
1133.528797	-0.020613
1133.685866	-0.027155
1133.842917	-0.028020
1133.999950	-0.035801
1134.156964	-0.041345
1134.313960	-0.043791
1134.470938	-0.043230
1134.627898	-0.045005
1134.784840	-0.044830
1134.941763	-0.039813
1135.098668	-0.034003
1135.255555	-0.033033
1135.412424	-0.034141
1135.569274	-0.028005
1135.726107	-0.022225
1135.882921	-0.021253
1136.039716	-0.016783
1136.196494	-0.010267
1136.353253	-0.012534
1136.509995	-0.018657
1136.666717	-0.014269
1136.823422	-0.001542
1136.980109	-0.000501
1137.136777	-0.005791
1137.293427	-0.004951
1137.450059	-0.010527
1137.606672	-0.017202
1137.763267	-0.014088
1137.919844	-0.010314
1138.076403	-0.006579
1138.232944	-0.017209
1138.389466	-0.019987
1138.545971	-0.022494
1138.702457	-0.020930
1138.858924	-0.021477
1139.015374	-0.026170
1139.171805	-0.030059
1139.328218	-0.037426
1139.484613	-0.045750
1139.640990	-0.049826
1139.797348	-0.049340
1139.953688	-0.047715
1140.110010	-0.044893
1140.266314	-0.035519
1140.422600	-0.028986
1140.578867	-0.028664
1140.735116	-0.021023
1140.891347	-0.021488
1141.047559	-0.010667
1141.203754	-0.011505
1141.359930	-0.010220
1141.516088	-0.015326
1141.672228	-0.016896
1141.828349	-0.012718
1141.984452	-0.017304
1142.140537	-0.018706
1142.296604	-0.019721
1142.452653	-0.021905
1142.608683	-0.021856
1142.764695	-0.023439
1142.920689	-0.018452
1143.076665	-0.024739
1143.232622	-0.031334
1143.388562	-0.028881
1143.544483	-0.022886
1143.700385	-0.022723
1143.856270	-0.017996
1144.012136	-0.020260
1144.167985	-0.018136
1144.323814	-0.029875
1144.479626	-0.024976
1144.635420	-0.025435
1144.791195	-0.026343
1144.946952	-0.046596
1145.102691	-0.043863
1145.258411	-0.037481
1145.414113	-0.038364
1145.569798	-0.038816
1145.725463	-0.025783
1145.881111	-0.024758
1146.036741	-0.015554
1146.192352	-0.011453
1146.347945	0.008153
1146.503519	0.019183
1146.659076	0.007146
1146.814614	0.002694
1146.970134	-0.000091
1147.125636	-0.007859
1147.281120	-0.008898
1147.436585	-0.008928
1147.592032	-0.002748
1147.747461	-0.014567
1147.902872	-0.028164
1148.058265	-0.030929
1148.213639	-0.029271
1148.368995	-0.031995
1148.524333	-0.030283
1148.679653	-0.031470
1148.834954	-0.034646
1148.990237	-0.035533
1149.145502	-0.024890
1149.300749	-0.019032
1149.455977	-0.017013
1149.611188	-0.010260
1149.766380	-0.007277
1149.921553	-0.012143
1150.076709	-0.012317
1150.231846	-0.016576
1150.386966	-0.019837
1150.542066	-0.017060
1150.697149	-0.025707
1150.852214	-0.025928
1151.007260	-0.019633
1151.162288	-0.020675
1151.317298	-0.018339
1151.472289	-0.022370
1151.627263	-0.018941
1151.782218	-0.021593
1151.937155	-0.027348
1152.092073	-0.027684
1152.246974	-0.031391
1152.401856	-0.040809
1152.556720	-0.037483
1152.711566	-0.042450
1152.866393	-0.028945
1153.021203	-0.031450
1153.175994	-0.036779
1153.330767	-0.034045
1153.485521	-0.036969
1153.640258	-0.032307
1153.794976	-0.029588
1153.949676	-0.030224
1154.104358	-0.011246
1154.259021	-0.019988
1154.413667	-0.018024
1154.568294	-0.017176
1154.722903	-0.012128
1154.877493	-0.002815
1155.032066	-0.011416
1155.186620	-0.013841
1155.341156	-0.014293
1155.495674	-0.023447
1155.650173	-0.026480
1155.804654	-0.027431
1155.959118	-0.017951
1156.113562	-0.033010
1156.267989	-0.033780
1156.422397	-0.037512
1156.576788	-0.041901
1156.731160	-0.043533
1156.885513	-0.045716
1157.039849	-0.046179
1157.194166	-0.050711
1157.348465	-0.058325
1157.502746	-0.055181
1157.657009	-0.055402
1157.811253	-0.043169
1157.965479	-0.032173
1158.119687	-0.032362
1158.273877	-0.033003
1158.428048	-0.033488
1158.582201	-0.028824
1158.736337	-0.036834
1158.890453	-0.031153
1159.044552	-0.034619
1159.198632	-0.033316
1159.352694	-0.040375
1159.506738	-0.042902
1159.660764	-0.040108
1159.814771	-0.034091
1159.968761	-0.033457
1160.122732	-0.023768
1160.276685	-0.024757
1160.430619	-0.012310
1160.584535	-0.015506
1160.738434	-0.017617
1160.892313	-0.010764
1161.046175	-0.015129
1161.200019	-0.013470
1161.353844	-0.010680
1161.507651	-0.008498
1161.661440	-0.009611
1161.815210	-0.021733
1161.968962	-0.026737
1162.122697	-0.018206
1162.276412	-0.012460
1162.430110	-0.005999
1162.583789	-0.010676
1162.737451	-0.013451
1162.891094	-0.006860
1163.044718	-0.006349
1163.198325	-0.002708
1163.351913	-0.003573
1163.505483	0.000439
1163.659035	-0.001734
1163.812569	-0.000721
1163.966084	-0.004734
1164.119581	-0.017226
1164.273060	-0.018830
1164.426521	-0.007060
1164.579964	-0.009418
1164.733388	0.005582
1164.886794	-0.001248
1165.040182	-0.001236
1165.193551	-0.005070
1165.346903	0.004583
1165.500236	0.035965
1165.653551	0.030553
1165.806848	0.014268
1165.960126	0.013355
1166.113386	-0.010861
1166.266628	-0.016964
1166.419852	-0.031800
1166.573058	-0.044987
1166.726245	-0.041152
1166.879414	-0.054100
1167.032565	-0.068397
1167.185698	-0.056113
1167.338812	-0.048332
1167.491909	-0.043255
1167.644987	-0.032623
1167.798046	-0.032095
1167.951088	-0.034595
1168.104111	-0.047949
1168.257117	-0.046956
1168.410103	-0.027322
1168.563072	-0.036262
1168.716023	-0.047853
1168.868955	-0.041585
1169.021869	-0.044876
1169.174765	-0.045874
1169.327642	-0.031636
1169.480501	-0.032860
1169.633343	-0.030385
1169.786165	-0.049241
1169.938970	-0.061452
1170.091757	-0.050855
1170.244525	-0.058564
1170.397275	-0.059854
1170.550007	-0.064933
1170.702720	-0.052907
1170.855415	-0.043894
1171.008092	-0.035836
1171.160751	-0.005483
1171.313392	0.020645
1171.466014	0.044199
1171.618619	0.148047
1171.771205	0.148047
1171.923772	0.148047
