sample name	sample
index	954
start time	 04-12-2021  03:46:03 PM


Wavelength (nm)	Absorbance
494.344910	-0.206286
494.563924	-0.206286
494.782919	-0.206286
495.001897	-0.044771
495.220856	-0.028211
495.439797	-0.041816
495.658719	0.013490
495.877624	0.027612
496.096510	0.037736
496.315378	0.042345
496.534227	-0.010220
496.753059	0.013824
496.971872	0.005258
497.190667	0.004301
497.409444	0.013750
497.628203	0.013670
497.846943	0.015850
498.065665	0.018037
498.284369	0.018005
498.503055	0.018643
498.721723	0.018589
498.940372	0.018194
499.159003	0.018654
499.377616	0.019073
499.596210	0.019009
499.814787	0.019569
500.033345	0.019112
500.251885	0.018224
500.470406	0.018784
500.688910	0.018904
500.907395	0.019400
501.125862	0.019562
501.344311	0.018783
501.562742	0.020075
501.781154	0.019064
501.999548	0.019189
502.217924	0.019856
502.436282	0.019315
502.654621	0.018999
502.872942	0.018784
503.091245	0.019737
503.309530	0.020058
503.527797	0.019338
503.746045	0.019646
503.964275	0.019182
504.182487	0.019763
504.400681	0.019276
504.618856	0.019022
504.837013	0.018784
505.055152	0.017635
505.273273	0.017816
505.491376	0.017158
505.709460	0.016813
505.927526	0.016266
506.145574	0.015199
506.363604	0.015220
506.581615	0.015194
506.799608	0.015264
507.017583	0.015999
507.235540	0.016027
507.453478	0.016797
507.671399	0.016853
507.889301	0.018085
508.107185	0.018635
508.325050	0.018598
508.542898	0.018854
508.760727	0.018731
508.978538	0.018316
509.196330	0.018702
509.414105	0.017833
509.631861	0.018001
509.849599	0.017228
510.067319	0.017127
510.285021	0.017894
510.502704	0.018030
510.720369	0.018331
510.938016	0.018117
511.155645	0.017623
511.373255	0.017945
511.590848	0.017977
511.808422	0.018026
512.025977	0.017572
512.243515	0.017509
512.461034	0.017823
512.678536	0.017898
512.896018	0.018638
513.113483	0.018517
513.330930	0.018242
513.548358	0.018306
513.765768	0.018359
513.983160	0.018519
514.200533	0.017902
514.417889	0.017429
514.635226	0.017607
514.852545	0.017222
515.069845	0.017756
515.287128	0.017685
515.504392	0.018362
515.721638	0.018105
515.938866	0.018362
516.156075	0.019015
516.373267	0.019210
516.590440	0.018934
516.807594	0.018673
517.024731	0.018329
517.241850	0.018170
517.458950	0.017430
517.676032	0.017942
517.893095	0.017903
518.110141	0.017833
518.327168	0.018265
518.544177	0.018694
518.761168	0.019013
518.978141	0.019256
519.195095	0.019919
519.412031	0.019589
519.628949	0.018890
519.845849	0.019257
520.062731	0.019270
520.279594	0.019005
520.496439	0.018652
520.713266	0.018586
520.930074	0.018390
521.146865	0.018328
521.363637	0.018835
521.580391	0.019529
521.797127	0.019629
522.013844	0.019484
522.230543	0.019347
522.447224	0.019875
522.663887	0.020162
522.880532	0.020388
523.097158	0.020782
523.313766	0.020981
523.530356	0.020996
523.746928	0.020946
523.963481	0.020876
524.180017	0.020946
524.396534	0.020918
524.613032	0.020860
524.829513	0.021007
525.045975	0.021102
525.262420	0.020517
525.478845	0.020523
525.695253	0.020278
525.911643	0.020653
526.128014	0.020454
526.344367	0.020429
526.560702	0.020814
526.777018	0.021210
526.993316	0.021317
527.209597	0.021682
527.425858	0.022206
527.642102	0.022504
527.858328	0.022568
528.074535	0.022307
528.290724	0.022569
528.506894	0.021988
528.723047	0.021662
528.939181	0.021456
529.155297	0.021858
529.371395	0.021373
529.587475	0.021059
529.803536	0.020840
530.019579	0.021669
530.235604	0.021290
530.451611	0.021615
530.667600	0.021587
530.883570	0.021435
531.099522	0.021600
531.315456	0.021984
531.531372	0.022302
531.747269	0.022361
531.963148	0.022375
532.179009	0.022816
532.394852	0.023243
532.610676	0.023228
532.826482	0.022773
533.042271	0.022874
533.258040	0.022564
533.473792	0.022529
533.689525	0.022958
533.905240	0.023182
534.120937	0.022653
534.336616	0.022513
534.552277	0.022850
534.767919	0.023386
534.983543	0.023239
535.199149	0.023417
535.414736	0.023380
535.630306	0.023072
535.845857	0.022795
536.061390	0.023017
536.276904	0.022658
536.492401	0.022652
536.707879	0.022488
536.923339	0.022621
537.138781	0.022809
537.354204	0.022817
537.569610	0.023321
537.784997	0.023463
538.000366	0.023213
538.215716	0.023044
538.431049	0.022955
538.646363	0.023172
538.861659	0.022858
539.076937	0.022448
539.292196	0.022262
539.507438	0.022178
539.722661	0.022306
539.937866	0.022461
540.153052	0.022711
540.368221	0.022840
540.583371	0.022938
540.798503	0.022780
541.013617	0.022965
541.228712	0.023054
541.443789	0.022777
541.658848	0.022463
541.873889	0.022680
542.088912	0.022895
542.303916	0.022623
542.518902	0.022876
542.733870	0.023033
542.948820	0.023270
543.163752	0.023407
543.378665	0.023558
543.593560	0.023869
543.808437	0.024196
544.023295	0.024235
544.238136	0.024637
544.452958	0.024392
544.667762	0.024585
544.882548	0.024628
545.097315	0.024857
545.312064	0.024962
545.526795	0.024833
545.741508	0.024406
545.956203	0.024024
546.170879	0.024124
546.385537	0.024033
546.600177	0.023796
546.814799	0.023532
547.029402	0.023587
547.243988	0.023574
547.458555	0.023275
547.673103	0.023802
547.887634	0.023740
548.102146	0.023377
548.316640	0.023588
548.531116	0.023950
548.745574	0.024384
548.960013	0.024143
549.174435	0.024215
549.388838	0.024681
549.603222	0.024380
549.817589	0.025000
550.031937	0.024913
550.246267	0.024709
550.460579	0.024457
550.674873	0.024260
550.889148	0.024316
551.103405	0.024185
551.317644	0.024080
551.531865	0.023953
551.746068	0.023790
551.960252	0.024241
552.174418	0.024356
552.388566	0.024371
552.602696	0.024301
552.816807	0.024588
553.030900	0.024239
553.244975	0.023927
553.459032	0.024119
553.673070	0.024044
553.887091	0.024205
554.101093	0.024379
554.315077	0.024417
554.529042	0.024489
554.742990	0.024409
554.956919	0.024456
555.170830	0.025145
555.384722	0.025101
555.598597	0.025099
555.812453	0.024581
556.026291	0.024895
556.240111	0.024916
556.453913	0.024967
556.667696	0.025262
556.881461	0.025573
557.095208	0.025508
557.308937	0.025655
557.522647	0.025836
557.736339	0.026039
557.950013	0.025844
558.163669	0.026210
558.377307	0.026453
558.590926	0.025893
558.804527	0.025960
559.018110	0.025554
559.231675	0.025351
559.445221	0.025133
559.658749	0.025216
559.872259	0.025201
560.085751	0.024862
560.299225	0.024543
560.512680	0.025062
560.726117	0.025351
560.939536	0.025419
561.152937	0.025606
561.366319	0.025746
561.579683	0.025776
561.793029	0.025610
562.006357	0.025692
562.219667	0.025728
562.432958	0.025528
562.646231	0.025246
562.859486	0.025338
563.072723	0.025344
563.285941	0.025454
563.499141	0.024975
563.712323	0.025118
563.925487	0.025372
564.138632	0.025228
564.351760	0.025321
564.564869	0.025459
564.777960	0.025681
564.991032	0.025703
565.204087	0.025857
565.417123	0.026387
565.630141	0.026146
565.843140	0.025985
566.056122	0.026120
566.269085	0.026200
566.482030	0.026162
566.694957	0.026038
566.907866	0.025872
567.120756	0.025830
567.333628	0.025510
567.546482	0.025810
567.759318	0.025658
567.972135	0.025926
568.184935	0.025744
568.397716	0.025669
568.610478	0.025631
568.823223	0.025914
569.035949	0.025775
569.248657	0.025958
569.461347	0.025668
569.674019	0.025632
569.886672	0.025450
570.099308	0.025390
570.311925	0.025252
570.524523	0.025283
570.737104	0.025215
570.949666	0.025412
571.162210	0.025424
571.374736	0.025381
571.587244	0.025688
571.799733	0.025500
572.012205	0.025725
572.224658	0.025916
572.437092	0.025974
572.649509	0.026164
572.861907	0.025972
573.074287	0.025962
573.286649	0.026286
573.498993	0.026071
573.711318	0.026293
573.923625	0.026008
574.135914	0.025853
574.348185	0.026050
574.560438	0.025859
574.772672	0.025655
574.984888	0.025811
575.197086	0.025574
575.409266	0.025784
575.621427	0.025813
575.833570	0.026011
576.045695	0.026033
576.257802	0.025433
576.469890	0.025214
576.681961	0.025702
576.894013	0.025594
577.106046	0.025942
577.318062	0.025925
577.530059	0.025877
577.742039	0.025626
577.954000	0.025584
578.165942	0.025805
578.377867	0.026038
578.589773	0.025901
578.801661	0.026163
579.013531	0.026076
579.225382	0.026302
579.437216	0.026388
579.649031	0.026627
579.860828	0.026688
580.072606	0.026722
580.284367	0.026850
580.496109	0.027011
580.707833	0.026862
580.919539	0.026707
581.131227	0.026230
581.342896	0.026135
581.554547	0.026270
581.766180	0.026262
581.977795	0.026230
582.189391	0.025696
582.400969	0.025534
582.612529	0.025613
582.824071	0.025412
583.035595	0.025618
583.247100	0.025620
583.458587	0.025509
583.670056	0.025765
583.881506	0.026094
584.092939	0.026328
584.304353	0.026222
584.515749	0.026122
584.727127	0.026038
584.938486	0.025887
585.149828	0.026055
585.361151	0.026068
585.572456	0.025877
585.783742	0.025600
585.995011	0.025621
586.206261	0.025642
586.417493	0.025494
586.628706	0.026055
586.839902	0.026426
587.051079	0.026378
587.262238	0.026487
587.473379	0.026524
587.684502	0.026626
587.895606	0.026839
588.106692	0.026796
588.317760	0.027169
588.528810	0.026686
588.739841	0.026495
588.950855	0.026621
589.161850	0.026651
589.372827	0.026490
589.583785	0.026506
589.794726	0.026609
590.005648	0.026482
590.216552	0.026319
590.427437	0.026306
590.638305	0.026158
590.849154	0.025979
591.059985	0.025908
591.270798	0.025936
591.481592	0.026057
591.692369	0.025996
591.903127	0.026322
592.113867	0.026132
592.324588	0.026461
592.535292	0.026746
592.745977	0.026804
592.956644	0.026476
593.167293	0.026849
593.377923	0.026544
593.588536	0.026224
593.799130	0.026176
594.009706	0.026394
594.220263	0.026485
594.430803	0.026458
594.641324	0.026279
594.851827	0.026389
595.062312	0.026035
595.272778	0.026287
595.483227	0.026287
595.693657	0.026161
595.904069	0.025976
596.114462	0.025900
596.324838	0.025995
596.535195	0.025986
596.745534	0.026214
596.955855	0.026579
597.166157	0.026286
597.376441	0.026631
597.586707	0.026681
597.796955	0.027003
598.007185	0.027122
598.217396	0.027011
598.427589	0.027229
598.637764	0.027401
598.847921	0.027378
599.058060	0.027934
599.268180	0.027900
599.478282	0.027886
599.688366	0.027856
599.898431	0.027720
600.108479	0.027876
600.318508	0.027831
600.528519	0.027865
600.738511	0.027963
600.948486	0.027815
601.158442	0.027818
601.368380	0.027970
601.578300	0.027825
601.788202	0.027737
601.998085	0.027559
602.207950	0.027506
602.417797	0.027294
602.627626	0.027089
602.837436	0.027059
603.047228	0.027005
603.257002	0.027097
603.466758	0.026921
603.676496	0.027110
603.886215	0.027105
604.095916	0.027487
604.305599	0.027476
604.515264	0.027428
604.724910	0.027271
604.934538	0.027301
605.144148	0.027089
605.353740	0.027380
605.563314	0.027348
605.772869	0.027376
605.982406	0.027113
606.191925	0.027325
606.401425	0.027333
606.610908	0.027513
606.820372	0.027637
607.029818	0.027930
607.239246	0.027798
607.448655	0.027802
607.658047	0.027702
607.867420	0.027680
608.076775	0.027602
608.286111	0.027627
608.495430	0.027498
608.704730	0.027542
608.914012	0.027288
609.123275	0.027577
609.332521	0.027491
609.541748	0.027682
609.750957	0.027866
609.960148	0.027894
610.169321	0.027868
610.378475	0.027899
610.587611	0.027784
610.796729	0.028022
611.005829	0.027591
611.214910	0.027914
611.423974	0.028077
611.633019	0.028079
611.842045	0.027929
612.051054	0.028329
612.260044	0.028326
612.469017	0.028500
612.677970	0.028492
612.886906	0.028698
613.095824	0.028612
613.304723	0.028306
613.513604	0.028248
613.722467	0.028483
613.931311	0.028399
614.140138	0.028601
614.348946	0.028318
614.557736	0.028253
614.766507	0.028404
614.975261	0.028201
615.183996	0.028439
615.392713	0.028616
615.601412	0.028597
615.810092	0.028539
616.018754	0.028467
616.227399	0.028748
616.436024	0.028661
616.644632	0.028903
616.853222	0.029035
617.061793	0.029196
617.270346	0.029211
617.478880	0.029155
617.687397	0.028858
617.895895	0.029082
618.104375	0.028850
618.312837	0.029050
618.521281	0.028523
618.729706	0.028654
618.938113	0.028380
619.146502	0.028359
619.354873	0.028376
619.563226	0.028537
619.771560	0.028217
619.979876	0.028151
620.188174	0.028123
620.396453	0.028217
620.604715	0.028060
620.812958	0.028217
621.021183	0.028126
621.229390	0.027994
621.437578	0.028073
621.645748	0.028236
621.853900	0.028296
622.062034	0.028184
622.270150	0.028553
622.478247	0.028572
622.686326	0.028561
622.894387	0.028375
623.102430	0.028398
623.310454	0.028354
623.518461	0.028255
623.726449	0.028601
623.934418	0.028763
624.142370	0.028468
624.350303	0.028537
624.558218	0.028556
624.766115	0.028669
624.973994	0.028701
625.181855	0.028719
625.389697	0.028767
625.597521	0.028785
625.805327	0.028677
626.013114	0.028764
626.220883	0.028897
626.428634	0.028831
626.636367	0.028884
626.844082	0.028946
627.051778	0.029010
627.259457	0.029240
627.467117	0.028974
627.674758	0.028853
627.882382	0.028763
628.089987	0.028647
628.297574	0.028733
628.505143	0.028806
628.712694	0.028826
628.920226	0.028855
629.127740	0.028800
629.335236	0.028822
629.542714	0.028947
629.750174	0.029048
629.957615	0.028860
630.165038	0.028718
630.372443	0.028483
630.579829	0.028374
630.787198	0.028481
630.994548	0.028406
631.201880	0.028396
631.409194	0.028407
631.616489	0.028353
631.823766	0.028602
632.031025	0.028830
632.238266	0.028967
632.445489	0.029038
632.652693	0.028868
632.859879	0.028769
633.067047	0.028896
633.274197	0.028899
633.481329	0.029021
633.688442	0.029140
633.895537	0.029001
634.102614	0.029179
634.309672	0.029534
634.516713	0.029673
634.723735	0.029911
634.930739	0.030106
635.137724	0.030270
635.344692	0.030435
635.551641	0.030210
635.758572	0.030276
635.965485	0.030435
636.172379	0.030213
636.379256	0.030336
636.586114	0.030398
636.792954	0.030270
636.999775	0.030200
637.206579	0.030172
637.413364	0.030271
637.620131	0.030431
637.826880	0.030200
638.033610	0.030081
638.240323	0.029913
638.447017	0.029787
638.653692	0.029767
638.860350	0.029642
639.066990	0.029479
639.273611	0.029544
639.480214	0.029552
639.686798	0.029515
639.893365	0.029626
640.099913	0.029749
640.306443	0.029697
640.512955	0.029803
640.719449	0.030018
640.925924	0.030243
641.132381	0.030198
641.338820	0.029866
641.545241	0.029967
641.751644	0.030093
641.958028	0.029874
642.164394	0.029932
642.370742	0.029754
642.577071	0.029627
642.783383	0.029373
642.989676	0.029445
643.195951	0.029339
643.402207	0.029309
643.608446	0.029227
643.814666	0.029251
644.020868	0.029174
644.227052	0.029106
644.433218	0.029132
644.639365	0.029156
644.845494	0.029201
645.051605	0.029674
645.257698	0.029615
645.463772	0.029404
645.669828	0.029462
645.875866	0.029467
646.081886	0.029638
646.287888	0.029715
646.493871	0.029605
646.699836	0.029576
646.905783	0.029353
647.111712	0.029581
647.317622	0.029744
647.523514	0.029936
647.729388	0.030042
647.935244	0.029942
648.141082	0.029963
648.346901	0.030115
648.552702	0.030178
648.758485	0.030324
648.964250	0.030346
649.169996	0.030305
649.375724	0.030376
649.581434	0.030310
649.787126	0.030495
649.992800	0.030501
650.198455	0.030712
650.404092	0.030650
650.609711	0.030591
650.815311	0.030568
651.020894	0.030920
651.226458	0.030888
651.432004	0.031091
651.637532	0.031077
651.843041	0.031083
652.048532	0.030988
652.254006	0.031060
652.459460	0.031208
652.664897	0.031331
652.870315	0.031297
653.075716	0.031299
653.281097	0.031320
653.486461	0.031595
653.691807	0.031747
653.897134	0.031828
654.102443	0.031934
654.307734	0.031983
654.513006	0.031915
654.718261	0.031918
654.923497	0.032069
655.128715	0.032097
655.333915	0.031880
655.539096	0.031842
655.744259	0.031816
655.949404	0.031847
656.154531	0.031673
656.359640	0.031681
656.564730	0.031722
656.769802	0.031763
656.974856	0.031615
657.179892	0.031968
657.384909	0.032083
657.589908	0.032130
657.794889	0.032136
657.999852	0.032322
658.204797	0.032225
658.409723	0.032238
658.614631	0.032086
658.819521	0.032088
659.024393	0.031744
659.229246	0.031575
659.434081	0.031665
659.638898	0.031702
659.843697	0.031696
660.048478	0.031955
660.253240	0.031947
660.457984	0.031875
660.662710	0.032089
660.867417	0.032144
661.072107	0.032470
661.276778	0.032495
661.481431	0.032479
661.686066	0.032578
661.890682	0.032470
662.095281	0.032543
662.299861	0.032872
662.504422	0.032765
662.708966	0.032750
662.913491	0.032410
663.117999	0.032400
663.322488	0.032366
663.526958	0.032340
663.731411	0.032403
663.935845	0.032371
664.140261	0.032376
664.344659	0.032782
664.549038	0.032958
664.753400	0.033215
664.957743	0.033351
665.162068	0.033436
665.366375	0.033540
665.570663	0.033607
665.774933	0.033677
665.979185	0.033584
666.183419	0.033614
666.387635	0.033742
666.591832	0.033747
666.796011	0.033775
667.000172	0.033896
667.204315	0.033922
667.408439	0.033893
667.612545	0.033883
667.816634	0.033930
668.020703	0.033620
668.224755	0.033521
668.428788	0.033615
668.632803	0.033597
668.836800	0.033621
669.040779	0.033611
669.244739	0.033603
669.448681	0.033637
669.652605	0.033650
669.856511	0.033614
670.060399	0.033584
670.264268	0.033545
670.468119	0.033632
670.671952	0.033733
670.875767	0.033685
671.079563	0.033648
671.283341	0.033640
671.487101	0.033757
671.690843	0.033802
671.894567	0.033975
672.098272	0.033798
672.301959	0.033609
672.505628	0.033507
672.709278	0.033719
672.912911	0.033871
673.116525	0.033913
673.320121	0.033812
673.523699	0.033926
673.727258	0.033931
673.930799	0.034219
674.134322	0.034297
674.337827	0.034443
674.541314	0.034343
674.744782	0.034300
674.948232	0.034290
675.151664	0.034302
675.355078	0.034240
675.558474	0.034280
675.761851	0.034348
675.965210	0.034561
676.168551	0.034435
676.371873	0.034419
676.575178	0.034493
676.778464	0.034529
676.981732	0.034649
677.184981	0.034787
677.388213	0.034911
677.591426	0.034762
677.794621	0.034816
677.997798	0.034929
678.200956	0.034970
678.404097	0.034935
678.607219	0.034949
678.810323	0.034989
679.013408	0.035108
679.216476	0.034842
679.419525	0.034847
679.622556	0.034730
679.825569	0.034576
680.028563	0.034655
680.231540	0.034715
680.434498	0.034676
680.637438	0.034517
680.840359	0.034488
681.043263	0.034648
681.246148	0.034725
681.449015	0.034822
681.651864	0.035100
681.854694	0.035070
682.057506	0.035134
682.260301	0.035306
682.463076	0.035334
682.665834	0.035318
682.868573	0.035337
683.071295	0.035453
683.273998	0.035270
683.476682	0.035275
683.679349	0.035249
683.881997	0.035280
684.084627	0.035191
684.287239	0.035259
684.489833	0.035284
684.692408	0.035226
684.894965	0.035190
685.097504	0.035373
685.300025	0.035358
685.502527	0.035333
685.705012	0.035107
685.907478	0.035265
686.109925	0.035363
686.312355	0.035261
686.514766	0.035183
686.717159	0.034999
686.919534	0.034841
687.121891	0.034584
687.324230	0.034552
687.526550	0.034709
687.728852	0.034570
687.931136	0.034586
688.133401	0.034659
688.335649	0.034723
688.537878	0.034812
688.740089	0.034790
688.942281	0.034916
689.144456	0.034975
689.346612	0.035033
689.548750	0.035323
689.750870	0.035401
689.952971	0.035480
690.155055	0.035544
690.357120	0.035500
690.559167	0.035647
690.761195	0.035556
690.963206	0.035659
691.165198	0.035564
691.367172	0.035314
691.569128	0.035139
691.771065	0.035010
691.972984	0.034989
692.174885	0.035159
692.376768	0.035099
692.578633	0.035097
692.780479	0.035075
692.982308	0.035114
693.184118	0.035245
693.385909	0.035285
693.587683	0.035434
693.789438	0.035511
693.991175	0.035464
694.192894	0.035546
694.394595	0.035703
694.596277	0.035708
694.797941	0.035908
694.999587	0.035881
695.201215	0.035939
695.402824	0.035792
695.604416	0.035967
695.805989	0.035864
696.007543	0.035954
696.209080	0.035911
696.410598	0.036030
696.612099	0.035878
696.813580	0.035783
697.015044	0.035767
697.216490	0.035922
697.417917	0.035757
697.619326	0.036097
697.820717	0.035990
698.022089	0.036134
698.223444	0.036008
698.424780	0.035936
698.626098	0.035951
698.827397	0.035923
699.028679	0.035906
699.229942	0.035836
699.431187	0.035523
699.632414	0.035453
699.833622	0.035465
700.034813	0.035564
700.235985	0.035625
700.437139	0.035674
700.638274	0.035788
700.839392	0.035813
701.040491	0.035905
701.241572	0.036107
701.442635	0.036321
701.643679	0.036095
701.844706	0.036023
702.045714	0.035984
702.246704	0.035981
702.447675	0.036014
702.648629	0.036086
702.849564	0.036055
703.050481	0.035992
703.251380	0.035915
703.452260	0.036108
703.653122	0.036333
703.853966	0.036584
704.054792	0.036727
704.255600	0.036642
704.456389	0.036540
704.657160	0.036671
704.857913	0.036673
705.058648	0.036725
705.259365	0.036586
705.460063	0.036218
705.660743	0.036012
705.861405	0.035828
706.062048	0.035877
706.262674	0.035891
706.463281	0.035890
706.663870	0.035818
706.864441	0.035728
707.064993	0.035848
707.265527	0.036081
707.466043	0.036191
707.666541	0.036256
707.867021	0.036204
708.067482	0.036189
708.267925	0.036142
708.468350	0.036330
708.668757	0.036311
708.869145	0.036437
709.069516	0.036305
709.269868	0.036341
709.470201	0.036330
709.670517	0.036362
709.870814	0.036565
710.071093	0.036675
710.271354	0.036607
710.471597	0.036803
710.671821	0.036619
710.872028	0.036579
711.072216	0.036514
711.272385	0.036295
711.472537	0.036260
711.672670	0.036006
711.872785	0.035718
712.072882	0.035658
712.272961	0.035396
712.473021	0.035366
712.673063	0.035413
712.873087	0.035318
713.073093	0.035421
713.273081	0.035340
713.473050	0.035249
713.673001	0.035214
713.872934	0.035290
714.072849	0.035368
714.272745	0.035197
714.472623	0.035259
714.672483	0.035278
714.872325	0.035237
715.072148	0.035274
715.271954	0.035411
715.471741	0.035434
715.671509	0.035135
715.871260	0.035014
716.070992	0.035215
716.270707	0.035096
716.470403	0.035080
716.670080	0.035183
716.869740	0.035170
717.069381	0.035090
717.269004	0.035158
717.468609	0.035258
717.668195	0.035403
717.867764	0.035368
718.067314	0.035490
718.266846	0.035616
718.466360	0.035695
718.665855	0.035743
718.865332	0.035789
719.064791	0.035621
719.264232	0.035576
719.463655	0.035512
719.663059	0.035532
719.862445	0.035450
720.061813	0.035345
720.261163	0.035099
720.460494	0.035027
720.659807	0.034921
720.859102	0.035058
721.058379	0.035156
721.257638	0.035175
721.456878	0.035183
721.656100	0.035245
721.855304	0.035184
722.054490	0.035212
722.253657	0.035134
722.452806	0.034994
722.651937	0.034998
722.851050	0.034856
723.050145	0.034764
723.249221	0.034704
723.448279	0.034482
723.647319	0.034230
723.846340	0.034197
724.045344	0.034138
724.244329	0.034273
724.443296	0.034190
724.642245	0.034245
724.841175	0.034250
725.040088	0.034256
725.238982	0.034438
725.437857	0.034604
725.636715	0.034553
725.835554	0.034653
726.034376	0.034581
726.233179	0.034585
726.431963	0.034516
726.630730	0.034582
726.829478	0.034325
727.028208	0.033927
727.226920	0.034011
727.425614	0.034061
727.624289	0.034091
727.822946	0.034116
728.021585	0.034007
728.220206	0.033940
728.418808	0.033804
728.617392	0.033960
728.815958	0.034105
729.014506	0.034110
729.213036	0.034160
729.411547	0.034060
729.610040	0.034078
729.808515	0.034260
730.006972	0.034177
730.205410	0.033985
730.403831	0.033862
730.602233	0.033881
730.800616	0.033652
730.998982	0.033561
731.197329	0.033429
731.395658	0.033344
731.593969	0.033146
731.792262	0.033194
731.990536	0.033167
732.188793	0.033160
732.387031	0.033081
732.585250	0.033122
732.783452	0.033028
732.981635	0.032947
733.179800	0.032925
733.377947	0.032927
733.576076	0.032962
733.774186	0.033140
733.972278	0.033068
734.170352	0.033082
734.368408	0.033161
734.566446	0.033285
734.764465	0.033406
734.962466	0.033396
735.160449	0.033235
735.358413	0.033220
735.556360	0.033180
735.754288	0.033321
735.952198	0.033260
736.150090	0.033146
736.347963	0.033046
736.545818	0.032888
736.743655	0.032949
736.941474	0.033060
737.139275	0.032945
737.337057	0.032980
737.534821	0.032876
737.732567	0.032775
737.930295	0.032706
738.128005	0.032734
738.325696	0.032753
738.523369	0.032790
738.721024	0.032725
738.918660	0.032652
739.116279	0.032555
739.313879	0.032436
739.511461	0.032418
739.709024	0.032435
739.906570	0.032337
740.104097	0.032300
740.301606	0.032051
740.499097	0.032029
740.696569	0.032184
740.894024	0.032228
741.091460	0.032345
741.288878	0.032444
741.486277	0.032624
741.683659	0.032541
741.881022	0.032606
742.078367	0.032432
742.275694	0.032381
742.473002	0.032271
742.670293	0.032083
742.867565	0.032003
743.064819	0.032006
743.262054	0.031883
743.459272	0.031867
743.656471	0.031983
743.853652	0.032119
744.050815	0.032285
744.247959	0.032488
744.445085	0.032458
744.642194	0.032452
744.839283	0.032307
745.036355	0.032149
745.233408	0.032265
745.430444	0.032124
745.627461	0.032294
745.824459	0.032141
746.021440	0.031913
746.218402	0.031793
746.415346	0.031849
746.612272	0.032038
746.809180	0.032073
747.006069	0.031885
747.202940	0.031949
747.399793	0.031819
747.596628	0.031787
747.793444	0.031829
747.990243	0.031946
748.187023	0.031961
748.383784	0.031732
748.580528	0.031589
748.777253	0.031665
748.973960	0.031567
749.170649	0.031432
749.367320	0.031456
749.563973	0.031256
749.760607	0.031373
749.957223	0.031081
750.153821	0.031395
750.350400	0.031509
750.546962	0.031405
750.743505	0.031452
750.940030	0.031437
751.136536	0.031472
751.333025	0.031525
751.529495	0.031342
751.725947	0.031468
751.922381	0.031181
752.118796	0.031029
752.315194	0.031120
752.511573	0.030921
752.707934	0.030960
752.904276	0.030742
753.100601	0.030795
753.296907	0.030900
753.493195	0.030925
753.689465	0.030880
753.885716	0.030945
754.081949	0.030890
754.278164	0.031006
754.474361	0.030895
754.670540	0.031189
754.866700	0.031220
755.062843	0.031171
755.258967	0.031190
755.455072	0.031316
755.651160	0.031511
755.847229	0.031577
756.043280	0.031623
756.239313	0.031863
756.435328	0.031694
756.631324	0.031676
756.827302	0.031716
757.023262	0.031625
757.219204	0.031633
757.415127	0.031350
757.611033	0.031031
757.806920	0.030677
758.002788	0.030366
758.198639	0.030114
758.394471	0.029929
758.590286	0.029607
758.786081	0.029679
758.981859	0.029570
759.177619	0.029645
759.373360	0.029691
759.569083	0.029949
759.764788	0.029954
759.960474	0.030217
760.156143	0.030314
760.351793	0.030500
760.547425	0.030371
760.743038	0.030362
760.938634	0.030300
761.134211	0.030401
761.329770	0.030215
761.525311	0.030219
761.720833	0.030203
761.916338	0.030201
762.111824	0.030270
762.307292	0.030289
762.502741	0.030131
762.698173	0.030026
762.893586	0.030077
763.088981	0.030109
763.284358	0.030182
763.479716	0.029925
763.675057	0.029841
763.870379	0.029952
764.065683	0.029989
764.260968	0.030116
764.456236	0.030279
764.651485	0.030246
764.846716	0.030509
765.041929	0.030598
765.237123	0.030878
765.432299	0.030835
765.627457	0.030800
765.822597	0.030803
766.017719	0.030834
766.212822	0.031057
766.407907	0.031280
766.602974	0.031060
766.798023	0.031028
766.993054	0.030956
767.188066	0.031058
767.383060	0.030856
767.578036	0.030859
767.772993	0.030770
767.967933	0.030506
768.162854	0.030286
768.357757	0.030452
768.552642	0.030570
768.747508	0.030494
768.942356	0.030351
769.137186	0.030579
769.331998	0.030527
769.526792	0.030753
769.721567	0.030781
769.916324	0.030779
770.111063	0.030536
770.305784	0.030506
770.500486	0.030486
770.695171	0.030757
770.889837	0.030571
771.084484	0.030782
771.279114	0.030462
771.473725	0.030295
771.668318	0.030207
771.862893	0.030124
772.057450	0.029902
772.251988	0.029969
772.446509	0.029894
772.641011	0.029849
772.835494	0.029546
773.029960	0.029824
773.224407	0.029836
773.418836	0.029696
773.613247	0.029802
773.807640	0.029911
774.002014	0.029744
774.196370	0.029682
774.390708	0.029613
774.585028	0.029758
774.779330	0.029513
774.973613	0.029652
775.167878	0.029880
775.362125	0.030065
775.556354	0.030121
775.750564	0.030503
775.944756	0.030442
776.138930	0.030557
776.333086	0.030475
776.527223	0.030452
776.721343	0.030417
776.915444	0.030493
777.109526	0.030396
777.303591	0.030366
777.497637	0.030100
777.691666	0.030005
777.885676	0.029973
778.079667	0.029992
778.273641	0.029969
778.467596	0.029907
778.661533	0.029691
778.855452	0.029619
779.049352	0.029607
779.243235	0.029519
779.437099	0.029733
779.630945	0.029663
779.824773	0.029654
780.018582	0.029762
780.212373	0.029886
780.406146	0.029978
780.599901	0.029911
780.793638	0.029656
780.987356	0.029689
781.181056	0.029563
781.374738	0.029635
781.568402	0.029638
781.762047	0.029528
781.955674	0.029455
782.149283	0.029525
782.342874	0.029409
782.536447	0.029404
782.730001	0.029156
782.923537	0.029114
783.117055	0.029207
783.310555	0.029139
783.504036	0.029267
783.697499	0.029362
783.890944	0.029336
784.084371	0.029547
784.277780	0.029582
784.471170	0.029857
784.664542	0.029919
784.857896	0.029665
785.051231	0.029651
785.244549	0.029555
785.437848	0.029491
785.631129	0.029377
785.824392	0.029346
786.017636	0.029508
786.210863	0.029508
786.404071	0.029618
786.597260	0.029664
786.790432	0.029755
786.983585	0.029838
787.176721	0.029699
787.369838	0.029868
787.562936	0.029743
787.756017	0.029645
787.949079	0.029750
788.142123	0.029585
788.335149	0.029722
788.528156	0.029738
788.721146	0.029431
788.914117	0.029498
789.107070	0.029370
789.300005	0.029553
789.492921	0.029682
789.685819	0.029415
789.878699	0.029603
790.071561	0.029643
790.264405	0.029682
790.457230	0.030040
790.650037	0.029920
790.842826	0.029966
791.035597	0.030007
791.228349	0.029841
791.421084	0.030092
791.613800	0.029975
791.806497	0.029777
791.999177	0.029499
792.191838	0.029450
792.384481	0.029617
792.577106	0.029782
792.769713	0.029785
792.962301	0.029999
793.154871	0.030005
793.347423	0.030118
793.539957	0.030290
793.732473	0.030442
793.924970	0.030301
794.117449	0.030358
794.309910	0.030295
794.502353	0.030447
794.694777	0.030501
794.887183	0.030479
795.079571	0.030420
795.271941	0.030413
795.464293	0.030447
795.656626	0.030672
795.848941	0.030657
796.041238	0.030878
796.233516	0.030639
796.425777	0.030567
796.618019	0.030668
796.810243	0.030492
797.002449	0.030596
797.194636	0.030470
797.386805	0.030445
797.578956	0.030360
797.771089	0.030299
797.963204	0.030254
798.155300	0.030238
798.347378	0.029918
798.539438	0.029922
798.731480	0.029758
798.923503	0.029755
799.115509	0.029653
799.307496	0.029683
799.499465	0.029519
799.691415	0.029542
799.883348	0.029696
800.075262	0.029983
800.267158	0.030329
800.459035	0.030444
800.650895	0.030588
800.842736	0.030793
801.034559	0.030900
801.226364	0.031067
801.418150	0.031283
801.609919	0.031145
801.801669	0.030968
801.993401	0.030957
802.185114	0.030882
802.376810	0.030829
802.568487	0.030885
802.760146	0.030833
802.951787	0.030691
803.143409	0.030554
803.335014	0.030750
803.526600	0.030934
803.718168	0.030971
803.909717	0.031018
804.101249	0.031186
804.292762	0.031275
804.484257	0.031556
804.675734	0.031650
804.867192	0.031702
805.058632	0.031672
805.250054	0.031773
805.441458	0.031760
805.632844	0.031923
805.824211	0.031965
806.015561	0.031941
806.206891	0.031799
806.398204	0.031700
806.589499	0.031724
806.780775	0.031646
806.972033	0.031737
807.163273	0.031618
807.354495	0.031676
807.545698	0.031694
807.736883	0.031548
807.928050	0.031645
808.119199	0.031821
808.310329	0.031753
808.501441	0.031960
808.692535	0.031746
808.883611	0.031926
809.074669	0.031899
809.265708	0.031946
809.456729	0.032145
809.647732	0.032035
809.838717	0.031981
810.029683	0.032247
810.220632	0.032283
810.411562	0.032418
810.602474	0.032343
810.793367	0.032280
810.984242	0.032432
811.175100	0.032259
811.365938	0.032247
811.556759	0.032241
811.747562	0.032281
811.938346	0.032153
812.129112	0.032026
812.319860	0.031980
812.510589	0.032217
812.701300	0.031982
812.891994	0.032152
813.082668	0.032234
813.273325	0.032325
813.463964	0.032180
813.654584	0.032188
813.845186	0.032376
814.035769	0.032357
814.226335	0.032218
814.416882	0.032396
814.607411	0.032247
814.797922	0.032160
814.988415	0.032113
815.178889	0.032034
815.369345	0.032015
815.559783	0.032127
815.750203	0.032301
815.940605	0.032370
816.130988	0.032380
816.321353	0.032352
816.511700	0.032505
816.702028	0.032441
816.892339	0.032632
817.082631	0.032672
817.272905	0.032682
817.463161	0.032724
817.653398	0.032573
817.843617	0.032490
818.033819	0.032646
818.224001	0.032661
818.414166	0.032852
818.604312	0.032945
818.794440	0.033100
818.984550	0.033122
819.174642	0.033154
819.364716	0.033062
819.554771	0.033071
819.744808	0.033218
819.934827	0.033334
820.124827	0.033281
820.314810	0.033394
820.504774	0.033427
820.694720	0.033395
820.884647	0.033434
821.074557	0.033949
821.264448	0.034313
821.454321	0.034353
821.644176	0.034425
821.834012	0.034545
822.023831	0.034394
822.213631	0.034338
822.403413	0.034244
822.593176	0.034151
822.782922	0.034042
822.972649	0.033729
823.162358	0.033560
823.352049	0.033468
823.541721	0.033533
823.731376	0.033552
823.921012	0.033817
824.110629	0.034015
824.300229	0.034167
824.489811	0.034198
824.679374	0.034264
824.868919	0.034449
825.058445	0.034381
825.247954	0.034315
825.437444	0.034471
825.626916	0.034191
825.816370	0.034083
826.005806	0.034075
826.195223	0.033812
826.384622	0.033843
826.574003	0.033680
826.763366	0.033739
826.952711	0.033938
827.142037	0.033731
827.331345	0.033761
827.520635	0.033789
827.709906	0.033673
827.899160	0.033768
828.088395	0.033956
828.277612	0.034116
828.466810	0.034193
828.655991	0.033845
828.845153	0.033844
829.034297	0.034049
829.223423	0.034166
829.412531	0.034371
829.601620	0.034450
829.790691	0.034202
829.979744	0.034315
830.168779	0.034358
830.357795	0.034629
830.546793	0.034709
830.735773	0.034866
830.924735	0.035028
831.113679	0.035037
831.302604	0.035245
831.491511	0.035705
831.680400	0.035763
831.869271	0.035840
832.058123	0.035909
832.246957	0.036094
832.435773	0.035910
832.624571	0.036021
832.813351	0.036130
833.002112	0.036354
833.190855	0.036221
833.379580	0.036393
833.568287	0.036425
833.756975	0.036314
833.945645	0.036336
834.134297	0.036569
834.322931	0.036517
834.511547	0.036583
834.700144	0.036441
834.888723	0.036689
835.077284	0.036551
835.265826	0.036711
835.454351	0.036947
835.642857	0.037250
835.831345	0.037139
836.019815	0.037283
836.208266	0.037408
836.396699	0.037587
836.585114	0.037358
836.773511	0.037646
836.961890	0.037717
837.150250	0.037737
837.338592	0.037606
837.526916	0.037859
837.715222	0.037735
837.903510	0.037657
838.091779	0.037582
838.280030	0.038070
838.468263	0.038016
838.656477	0.038032
838.844674	0.038114
839.032852	0.038284
839.221012	0.038297
839.409153	0.038540
839.597277	0.038692
839.785382	0.038954
839.973469	0.038866
840.161538	0.038990
840.349589	0.039154
840.537621	0.039449
840.725635	0.039701
840.913631	0.039582
841.101609	0.039712
841.289568	0.039922
841.477509	0.039695
841.665432	0.039678
841.853337	0.039749
842.041224	0.039800
842.229092	0.039733
842.416942	0.039460
842.604774	0.039715
842.792588	0.039619
842.980383	0.039798
843.168160	0.040324
843.355919	0.040412
843.543660	0.040286
843.731382	0.040382
843.919087	0.040345
844.106773	0.040549
844.294441	0.040617
844.482090	0.040760
844.669722	0.040571
844.857335	0.040384
845.044930	0.040247
845.232507	0.040563
845.420065	0.040533
845.607605	0.040391
845.795127	0.040341
845.982631	0.040349
846.170117	0.040388
846.357584	0.040447
846.545033	0.040627
846.732464	0.040975
846.919877	0.040951
847.107272	0.041056
847.294648	0.041486
847.482006	0.041630
847.669346	0.041392
847.856667	0.041481
848.043971	0.041623
848.231256	0.041823
848.418523	0.041724
848.605771	0.041645
848.793002	0.041712
848.980214	0.041819
849.167408	0.042075
849.354584	0.042434
849.541742	0.042302
849.728881	0.042433
849.916002	0.042534
850.103105	0.042813
850.290190	0.043000
850.477256	0.043042
850.664304	0.042968
850.851334	0.043007
851.038346	0.043145
851.225340	0.043653
851.412315	0.043724
851.599272	0.043486
851.786211	0.043856
851.973132	0.044084
852.160034	0.044305
852.346918	0.044706
852.533784	0.044661
852.720632	0.044878
852.907462	0.044858
853.094273	0.044800
853.281066	0.045173
853.467841	0.044986
853.654598	0.045043
853.841336	0.044835
854.028056	0.044792
854.214758	0.044993
854.401442	0.044875
854.588107	0.044805
854.774755	0.044957
854.961384	0.044661
855.147995	0.044546
855.334587	0.044649
855.521162	0.045032
855.707718	0.045149
855.894256	0.045299
856.080775	0.045595
856.267277	0.045880
856.453760	0.046018
856.640225	0.046275
856.826672	0.046167
857.013101	0.046136
857.199511	0.046405
857.385903	0.046305
857.572277	0.046185
857.758633	0.046186
857.944970	0.046278
858.131290	0.046379
858.317591	0.046487
858.503873	0.047033
858.690138	0.047418
858.876384	0.047358
859.062612	0.047711
859.248822	0.047974
859.435014	0.048168
859.621188	0.048159
859.807343	0.048216
859.993480	0.048387
860.179599	0.048329
860.365699	0.048225
860.551781	0.048095
860.737846	0.048019
860.923891	0.047901
861.109919	0.048195
861.295929	0.048166
861.481920	0.048350
861.667893	0.048289
861.853848	0.048361
862.039784	0.048314
862.225702	0.048436
862.411603	0.048491
862.597484	0.048720
862.783348	0.048491
862.969193	0.048629
863.155021	0.048471
863.340830	0.048490
863.526620	0.048369
863.712393	0.048457
863.898147	0.048772
864.083883	0.048922
864.269601	0.048801
864.455301	0.048801
864.640982	0.048815
864.826645	0.048842
865.012290	0.048849
865.197917	0.049027
865.383526	0.049085
865.569116	0.049017
865.754688	0.048809
865.940242	0.048930
866.125777	0.048740
866.311295	0.048720
866.496794	0.048986
866.682275	0.049077
866.867737	0.049200
867.053182	0.049513
867.238608	0.049544
867.424016	0.049961
867.609406	0.049756
867.794778	0.049989
867.980131	0.050022
868.165466	0.049942
868.350783	0.050136
868.536082	0.050362
868.721362	0.050002
868.906625	0.050039
869.091869	0.049934
869.277094	0.050500
869.462302	0.050653
869.647491	0.050740
869.832662	0.050798
870.017815	0.050615
870.202950	0.050530
870.388066	0.050937
870.573165	0.051142
870.758245	0.051312
870.943306	0.051209
871.128350	0.051195
871.313375	0.051388
871.498382	0.051318
871.683371	0.051687
871.868342	0.051682
872.053294	0.051711
872.238229	0.051689
872.423144	0.051661
872.608042	0.051686
872.792922	0.051807
872.977783	0.051880
873.162626	0.052337
873.347451	0.052052
873.532258	0.052314
873.717046	0.052458
873.901816	0.052562
874.086568	0.052306
874.271302	0.052252
874.456017	0.052297
874.640715	0.052247
874.825394	0.052013
875.010055	0.052110
875.194697	0.051722
875.379322	0.051435
875.563928	0.051398
875.748516	0.051653
875.933085	0.051743
876.117637	0.051634
876.302170	0.051568
876.486685	0.051908
876.671182	0.052149
876.855661	0.052332
877.040121	0.052528
877.224563	0.052184
877.408987	0.052151
877.593393	0.052169
877.777780	0.052240
877.962150	0.052494
878.146501	0.052258
878.330833	0.052030
878.515148	0.052167
878.699444	0.052204
878.883722	0.052376
879.067982	0.052198
879.252224	0.052211
879.436447	0.052228
879.620653	0.052084
879.804840	0.051929
879.989008	0.052318
880.173159	0.052085
880.357291	0.051815
880.541405	0.052036
880.725501	0.052286
880.909579	0.052387
881.093638	0.052389
881.277680	0.052149
881.461703	0.052261
881.645707	0.052380
881.829694	0.052405
882.013662	0.052440
882.197612	0.052441
882.381544	0.052733
882.565458	0.052633
882.749353	0.052713
882.933230	0.052866
883.117089	0.052810
883.300930	0.052786
883.484753	0.052874
883.668557	0.053058
883.852343	0.052908
884.036111	0.052683
884.219861	0.052493
884.403592	0.052691
884.587305	0.052713
884.771000	0.052686
884.954677	0.052407
885.138335	0.052386
885.321976	0.052117
885.505598	0.052136
885.689201	0.051967
885.872787	0.051918
886.056354	0.051749
886.239904	0.051992
886.423434	0.052157
886.606947	0.052180
886.790442	0.051961
886.973918	0.052020
887.157376	0.051671
887.340816	0.052008
887.524237	0.052293
887.707641	0.052019
887.891026	0.052029
888.074393	0.051707
888.257741	0.051346
888.441072	0.051540
888.624384	0.051607
888.807678	0.051936
888.990954	0.051324
889.174211	0.051037
889.357451	0.051120
889.540672	0.050908
889.723875	0.051119
889.907059	0.051264
890.090226	0.051293
890.273374	0.051268
890.456504	0.051590
890.639616	0.051761
890.822709	0.052202
891.005785	0.052282
891.188842	0.052191
891.371881	0.052142
891.554901	0.052137
891.737904	0.052187
891.920888	0.052391
892.103854	0.052312
892.286802	0.052468
892.469731	0.052004
892.652643	0.052070
892.835536	0.051993
893.018410	0.051895
893.201267	0.052264
893.384106	0.052148
893.566926	0.052091
893.749728	0.051730
893.932511	0.051719
894.115277	0.051966
894.298024	0.051852
894.480753	0.051954
894.663464	0.052173
894.846157	0.051841
895.028831	0.052090
895.211487	0.052121
895.394125	0.051944
895.576745	0.051884
895.759346	0.052004
895.941930	0.051592
896.124495	0.051696
896.307041	0.051858
896.489570	0.051837
896.672080	0.051642
896.854573	0.051500
897.037046	0.051784
897.219502	0.051829
897.401940	0.051706
897.584359	0.052086
897.766760	0.052151
897.949143	0.051546
898.131507	0.051461
898.313854	0.051311
898.496182	0.051394
898.678492	0.051445
898.860783	0.051463
899.043057	0.051318
899.225312	0.051389
899.407549	0.051227
899.589768	0.051592
899.771968	0.051802
899.954151	0.051919
900.136315	0.051662
900.318461	0.051521
900.500588	0.051197
900.682698	0.051057
900.864789	0.050728
901.046862	0.050831
901.228917	0.050871
901.410953	0.050547
901.592971	0.050376
901.774972	0.050431
901.956953	0.050403
902.138917	0.050466
902.320862	0.050653
902.502790	0.050769
902.684699	0.050329
902.866589	0.050081
903.048462	0.050102
903.230316	0.049629
903.412152	0.049227
903.593970	0.048749
903.775770	0.048909
903.957551	0.048482
904.139314	0.048452
904.321059	0.048480
904.502786	0.048112
904.684494	0.047750
904.866185	0.048156
905.047857	0.048046
905.229510	0.048055
905.411146	0.047582
905.592763	0.047610
905.774363	0.047580
905.955943	0.047606
906.137506	0.047594
906.319051	0.047981
906.500577	0.047719
906.682085	0.048017
906.863575	0.048237
907.045046	0.048400
907.226500	0.048288
907.407935	0.048110
907.589352	0.047515
907.770750	0.047559
907.952131	0.047216
908.133493	0.047209
908.314837	0.046736
908.496163	0.046448
908.677470	0.046534
908.858760	0.046448
909.040031	0.046283
909.221284	0.046515
909.402518	0.046524
909.583735	0.046286
909.764933	0.046294
909.946113	0.046601
910.127275	0.046732
910.308418	0.046286
910.489544	0.046223
910.670651	0.045810
910.851740	0.045929
911.032810	0.045806
911.213863	0.046076
911.394897	0.046026
911.575913	0.045624
911.756911	0.045421
911.937890	0.045304
912.118851	0.045205
912.299794	0.045519
912.480719	0.045314
912.661626	0.045400
912.842514	0.044841
913.023384	0.044601
913.204236	0.044471
913.385070	0.044416
913.565886	0.044173
913.746683	0.044074
913.927462	0.043849
914.108223	0.043499
914.288965	0.042848
914.469690	0.042987
914.650396	0.042807
914.831084	0.043070
915.011754	0.042708
915.192405	0.042974
915.373038	0.043183
915.553653	0.042896
915.734250	0.042824
915.914829	0.042845
916.095389	0.042561
916.275931	0.042754
916.456455	0.042260
916.636961	0.042172
916.817448	0.041915
916.997917	0.041685
917.178368	0.041515
917.358801	0.041365
917.539216	0.041571
917.719612	0.041539
917.899990	0.041134
918.080350	0.040962
918.260692	0.040620
918.441015	0.040186
918.621320	0.039559
918.801607	0.039361
918.981876	0.039239
919.162127	0.038723
919.342359	0.038492
919.522573	0.038642
919.702769	0.038971
919.882947	0.038955
920.063106	0.038934
920.243247	0.038956
920.423370	0.038798
920.603475	0.038741
920.783562	0.038641
920.963630	0.038378
921.143680	0.037583
921.323712	0.037415
921.503725	0.037852
921.683721	0.037953
921.863698	0.037523
922.043657	0.037463
922.223598	0.037103
922.403520	0.036846
922.583424	0.036687
922.763311	0.036583
922.943178	0.035959
923.123028	0.034888
923.302859	0.034318
923.482673	0.034371
923.662467	0.034609
923.842244	0.034319
924.022003	0.034647
924.201743	0.034536
924.381465	0.034354
924.561169	0.034243
924.740854	0.034261
924.920522	0.033883
925.100171	0.033772
925.279802	0.033418
925.459414	0.033214
925.639009	0.032548
925.818585	0.032049
925.998143	0.031708
926.177683	0.031345
926.357205	0.031148
926.536708	0.031134
926.716193	0.031047
926.895660	0.030775
927.075109	0.030427
927.254539	0.030122
927.433951	0.030455
927.613345	0.030322
927.792721	0.030295
927.972079	0.030193
928.151418	0.029825
928.330739	0.029095
928.510042	0.028730
928.689327	0.028784
928.868593	0.028431
929.047841	0.027741
929.227071	0.027497
929.406283	0.026650
929.585476	0.026209
929.764652	0.026199
929.943809	0.026349
930.122948	0.025433
930.302068	0.025334
930.481171	0.024800
930.660255	0.024581
930.839321	0.024401
931.018369	0.024462
931.197398	0.024210
931.376409	0.023904
931.555402	0.023879
931.734377	0.024035
931.913334	0.023969
932.092272	0.023822
932.271192	0.023610
932.450094	0.022832
932.628978	0.022943
932.807844	0.022550
932.986691	0.022066
933.165520	0.021190
933.344331	0.020687
933.523123	0.019549
933.701898	0.019970
933.880654	0.019533
934.059392	0.020249
934.238111	0.019141
934.416813	0.018887
934.595496	0.018683
934.774161	0.018686
934.952808	0.018448
935.131437	0.018657
935.310047	0.017446
935.488639	0.017891
935.667213	0.017036
935.845769	0.017386
936.024306	0.016567
936.202825	0.016158
936.381326	0.015381
936.559809	0.015253
936.738274	0.015123
936.916720	0.015027
937.095148	0.014632
937.273558	0.014876
937.451950	0.014359
937.630323	0.014635
937.808678	0.015055
937.987015	0.015238
938.165334	0.014682
938.343635	0.014076
938.521917	0.014011
938.700181	0.012656
938.878427	0.011739
939.056655	0.011960
939.234864	0.011882
939.413055	0.011469
939.591228	0.010974
939.769383	0.010993
939.947519	0.010932
940.125638	0.010774
940.303738	0.011477
940.481820	0.011588
940.659883	0.010959
940.837929	0.010517
941.015956	0.009749
941.193965	0.010509
941.371955	0.010427
941.549928	0.010466
941.727882	0.010422
941.905818	0.010019
942.083736	0.009780
942.261636	0.009289
942.439517	0.009761
942.617380	0.009414
942.795225	0.008657
942.973052	0.007925
943.150860	0.007367
943.328651	0.007111
943.506423	0.007454
943.684176	0.006243
943.861912	0.006359
944.039629	0.005817
944.217328	0.005556
944.395009	0.004706
944.572672	0.005396
944.750317	0.005021
944.927943	0.004852
945.105551	0.003848
945.283141	0.004588
945.460712	0.004385
945.638265	0.003916
945.815801	0.004773
945.993317	0.004488
946.170816	0.003719
946.348297	0.003558
946.525759	0.003883
946.703203	0.003423
946.880629	0.003470
947.058036	0.003542
947.235425	0.003827
947.412797	0.003320
947.590149	0.003278
947.767484	0.003469
947.944800	0.002593
948.122099	0.002001
948.299379	0.001937
948.476640	0.002095
948.653884	0.002338
948.831109	0.001894
949.008316	0.002170
949.185505	0.003726
949.362676	0.004573
949.539828	0.005713
949.716962	0.005069
949.894078	0.005278
950.071176	0.003987
950.248256	0.003291
950.425317	0.003367
950.602360	0.002774
950.779385	0.000539
950.956391	-0.000519
951.133380	-0.001041
951.310350	-0.000972
951.487302	-0.001179
951.664235	-0.000908
951.841151	-0.000946
952.018048	-0.002112
952.194927	-0.003351
952.371788	-0.002491
952.548631	-0.001909
952.725455	-0.001645
952.902261	-0.000643
953.079049	-0.000185
953.255819	0.000231
953.432570	-0.000167
953.609303	0.001012
953.786018	0.001712
953.962715	-0.000579
954.139394	-0.002002
954.316054	-0.003453
954.492696	-0.004471
954.669320	-0.004789
954.845926	-0.005387
955.022513	-0.005728
955.199083	-0.005206
955.375634	-0.004400
955.552166	-0.002104
955.728681	-0.001861
955.905177	0.000547
956.081655	0.000847
956.258115	-0.000186
956.434557	-0.000471
956.610980	-0.000862
956.787385	-0.000352
956.963772	-0.001285
957.140141	-0.001417
957.316492	-0.000985
957.492824	-0.002084
957.669138	-0.001761
957.845434	-0.000243
958.021712	-0.000181
958.197971	0.002006
958.374212	0.000014
958.550435	0.000143
958.726640	-0.000185
958.902826	-0.000403
959.078995	-0.000597
959.255145	-0.000393
959.431277	-0.001624
959.607390	-0.000911
959.783486	-0.002297
959.959563	-0.001618
960.135622	-0.000259
960.311662	-0.000194
960.487685	0.000806
960.663689	0.000980
960.839675	0.000524
961.015643	0.001847
961.191593	0.002517
961.367524	0.005418
961.543437	0.005905
961.719332	0.005681
961.895209	0.004767
962.071067	0.006373
962.246907	0.007084
962.422730	0.008338
962.598533	0.007626
962.774319	0.006949
962.950086	0.001841
963.125835	0.001749
963.301566	-0.000237
963.477279	0.000671
963.652973	-0.000859
963.828650	-0.000519
964.004308	-0.001930
964.179947	-0.002442
964.355569	-0.000690
964.531172	0.003446
964.706757	0.004144
964.882324	0.006033
965.057873	0.007253
965.233403	0.006419
965.408916	0.006522
965.584410	0.008203
965.759885	0.010791
965.935343	0.011970
966.110782	0.010845
966.286203	0.010560
966.461606	0.012230
966.636991	0.009535
966.812357	0.011122
966.987705	0.011010
967.163035	0.009529
967.338347	0.008017
967.513641	0.005367
967.688916	0.008247
967.864173	0.007729
968.039412	0.006167
968.214632	0.008389
968.389835	0.007036
968.565019	0.007204
968.740185	0.008231
968.915333	0.008873
969.090462	0.010216
969.265573	0.006018
969.440667	0.004078
969.615741	0.004658
969.790798	0.003101
969.965836	0.002625
970.140856	0.001945
970.315858	0.002480
970.490842	0.001456
970.665808	0.001834
970.840755	0.002590
971.015684	0.005490
971.190595	0.006071
971.365487	0.007879
971.540362	0.009750
971.715218	0.010861
971.890056	0.010466
972.064875	0.011410
972.239677	0.009815
972.414460	0.010187
972.589225	0.008452
972.763972	0.008246
972.938700	0.008665
973.113411	0.006710
973.288103	0.008287
973.462777	0.008320
973.637432	0.009278
973.812070	0.011407
973.986689	0.012284
974.161290	0.014161
974.335873	0.015101
974.510437	0.016279
974.684984	0.019189
974.859512	0.016157
975.034022	0.014638
975.208513	0.015149
975.382987	0.015032
975.557442	0.013683
975.731879	0.014552
975.906298	0.012055
976.080698	0.010915
976.255080	0.007971
976.429445	0.006885
976.603790	0.006572
976.778118	0.005037
976.952427	0.004017
977.126719	0.005118
977.300992	0.003668
977.475246	0.006272
977.649483	0.007507
977.823701	0.008365
977.997901	0.010390
978.172083	0.010370
978.346247	0.010013
978.520392	0.009529
978.694519	0.010055
978.868628	0.009812
979.042719	0.008968
979.216791	0.007059
979.390845	0.008486
979.564882	0.006790
979.738899	0.007004
979.912899	0.007661
980.086880	0.007512
980.260843	0.006536
980.434788	0.006427
980.608715	0.006090
980.782623	0.006269
980.956514	0.005842
981.130386	0.007991
981.304240	0.008514
981.478075	0.008353
981.651892	0.007355
981.825692	0.007638
981.999472	0.008731
982.173235	0.008128
982.346980	0.010331
982.520706	0.010149
982.694414	0.008948
982.868104	0.009803
983.041775	0.010209
983.215428	0.010726
983.389064	0.012400
983.562680	0.012595
983.736279	0.012075
983.909860	0.010875
984.083422	0.011636
984.256966	0.010638
984.430491	0.009907
984.603999	0.009861
984.777488	0.011081
984.950959	0.010056
985.124412	0.010315
985.297847	0.011006
985.471263	0.009498
985.644661	0.007894
985.818041	0.010603
985.991403	0.011111
986.164747	0.011416
986.338072	0.011278
986.511379	0.011637
986.684668	0.010640
986.857938	0.009285
987.031191	0.009826
987.204425	0.010336
987.377641	0.009208
987.550839	0.007985
987.724018	0.008056
987.897179	0.007630
988.070322	0.007832
988.243447	0.009154
988.416554	0.009865
988.589642	0.009252
988.762712	0.009887
988.935764	0.010457
989.108798	0.011506
989.281813	0.010274
989.454811	0.010366
989.627790	0.009715
989.800751	0.008679
989.973693	0.010783
990.146617	0.012033
990.319524	0.012824
990.492412	0.011656
990.665281	0.012346
990.838133	0.012420
991.010966	0.012569
991.183781	0.013569
991.356578	0.012208
991.529356	0.011757
991.702117	0.011876
991.874859	0.010957
992.047583	0.012511
992.220288	0.010627
992.392976	0.011177
992.565645	0.011934
992.738296	0.012186
992.910929	0.013470
993.083543	0.012455
993.256139	0.012543
993.428718	0.011732
993.601277	0.011273
993.773819	0.012818
993.946342	0.011649
994.118848	0.011115
994.291335	0.009958
994.463803	0.011900
994.636254	0.011401
994.808686	0.012233
994.981100	0.011764
995.153496	0.010590
995.325874	0.008623
995.498233	0.009900
995.670574	0.010095
995.842897	0.009598
996.015202	0.008298
996.187488	0.008427
996.359757	0.008096
996.532007	0.010490
996.704239	0.012017
996.876452	0.012739
997.048648	0.013220
997.220825	0.013641
997.392984	0.015334
997.565124	0.015227
997.737247	0.016051
997.909351	0.016814
998.081437	0.016150
998.253505	0.016273
998.425554	0.017453
998.597586	0.017559
998.769599	0.018776
998.941594	0.017732
999.113571	0.017739
999.285529	0.017522
999.457469	0.017247
999.629391	0.016906
999.801295	0.016365
999.973181	0.016468
1000.145048	0.014957
1000.316897	0.013756
1000.488728	0.014181
1000.660541	0.013499
1000.832335	0.014113
1001.004111	0.011904
1001.175869	0.012137
1001.347609	0.012452
1001.519331	0.013069
1001.691034	0.014591
1001.862719	0.014712
1002.034386	0.014171
1002.206035	0.014214
1002.377665	0.012122
1002.549277	0.012426
1002.720871	0.012125
1002.892447	0.010686
1003.064004	0.010292
1003.235544	0.008627
1003.407065	0.009634
1003.578568	0.009418
1003.750052	0.010318
1003.921519	0.012558
1004.092967	0.012891
1004.264397	0.012659
1004.435809	0.014021
1004.607202	0.015237
1004.778577	0.015618
1004.949934	0.014227
1005.121273	0.014934
1005.292594	0.014469
1005.463896	0.013716
1005.635180	0.014138
1005.806446	0.013299
1005.977694	0.013096
1006.148923	0.013088
1006.320135	0.014482
1006.491328	0.013324
1006.662503	0.012993
1006.833659	0.012673
1007.004798	0.012310
1007.175918	0.012886
1007.347020	0.014008
1007.518103	0.012880
1007.689169	0.011919
1007.860216	0.012191
1008.031245	0.013237
1008.202256	0.013719
1008.373248	0.013586
1008.544223	0.014533
1008.715179	0.014521
1008.886117	0.013814
1009.057036	0.014346
1009.227938	0.013300
1009.398821	0.011274
1009.569686	0.011356
1009.740533	0.010010
1009.911361	0.009371
1010.082172	0.007922
1010.252964	0.006801
1010.423738	0.005826
1010.594493	0.005785
1010.765231	0.006351
1010.935950	0.006790
1011.106651	0.006720
1011.277334	0.007096
1011.447998	0.009470
1011.618645	0.010232
1011.789273	0.010637
1011.959882	0.011501
1012.130474	0.012209
1012.301048	0.010897
1012.471603	0.012011
1012.642140	0.011423
1012.812658	0.011145
1012.983159	0.009075
1013.153641	0.010067
1013.324105	0.010566
1013.494551	0.011028
1013.664979	0.010892
1013.835388	0.012089
1014.005779	0.010719
1014.176152	0.009942
1014.346507	0.011790
1014.516843	0.011683
1014.687162	0.009376
1014.857462	0.008168
1015.027744	0.008498
1015.198007	0.008360
1015.368252	0.008198
1015.538480	0.007544
1015.708689	0.007393
1015.878879	0.006041
1016.049052	0.007195
1016.219206	0.008859
1016.389342	0.008271
1016.559460	0.008180
1016.729559	0.007491
1016.899641	0.006951
1017.069704	0.008847
1017.239749	0.010128
1017.409775	0.010763
1017.579784	0.010063
1017.749774	0.009855
1017.919746	0.010258
1018.089700	0.010985
1018.259635	0.011024
1018.429553	0.010298
1018.599452	0.009787
1018.769333	0.009642
1018.939195	0.008971
1019.109040	0.008209
1019.278866	0.007203
1019.448674	0.008668
1019.618464	0.008425
1019.788235	0.007938
1019.957989	0.008611
1020.127724	0.008701
1020.297441	0.009146
1020.467139	0.008794
1020.636820	0.008861
1020.806482	0.008987
1020.976126	0.008330
1021.145752	0.007275
1021.315359	0.008829
1021.484948	0.009316
1021.654519	0.008928
1021.824072	0.008039
1021.993607	0.009002
1022.163123	0.009787
1022.332621	0.011689
1022.502101	0.013101
1022.671563	0.012845
1022.841007	0.012297
1023.010432	0.013256
1023.179839	0.013502
1023.349228	0.013530
1023.518598	0.013726
1023.687951	0.012108
1023.857285	0.011594
1024.026601	0.010698
1024.195899	0.010855
1024.365178	0.010397
1024.534439	0.010049
1024.703682	0.011127
1024.872907	0.010971
1025.042114	0.011888
1025.211302	0.014660
1025.380472	0.012962
1025.549624	0.013508
1025.718758	0.014744
1025.887873	0.015398
1026.056970	0.015110
1026.226049	0.014450
1026.395110	0.015624
1026.564153	0.013621
1026.733177	0.012725
1026.902183	0.012954
1027.071171	0.011091
1027.240141	0.010455
1027.409092	0.010507
1027.578026	0.011242
1027.746940	0.011332
1027.915837	0.011365
1028.084716	0.011946
1028.253576	0.011678
1028.422418	0.012652
1028.591242	0.012792
1028.760048	0.012537
1028.928835	0.011924
1029.097604	0.009849
1029.266355	0.009382
1029.435088	0.007635
1029.603803	0.006687
1029.772499	0.007425
1029.941177	0.006850
1030.109837	0.007263
1030.278478	0.007921
1030.447102	0.008397
1030.615707	0.010185
1030.784294	0.010310
1030.952863	0.013013
1031.121413	0.013397
1031.289945	0.012483
1031.458460	0.011624
1031.626955	0.010186
1031.795433	0.010385
1031.963892	0.010700
1032.132334	0.010283
1032.300756	0.009843
1032.469161	0.005644
1032.637548	0.005375
1032.805916	0.005177
1032.974266	0.006676
1033.142598	0.007995
1033.310911	0.007937
1033.479207	0.007132
1033.647484	0.006895
1033.815743	0.005589
1033.983983	0.008381
1034.152206	0.009375
1034.320410	0.009866
1034.488596	0.009427
1034.656764	0.009521
1034.824914	0.008557
1034.993045	0.008823
1035.161158	0.010548
1035.329253	0.011237
1035.497330	0.009644
1035.665388	0.008361
1035.833428	0.007601
1036.001450	0.008113
1036.169454	0.008367
1036.337440	0.008764
1036.505407	0.009149
1036.673356	0.007387
1036.841287	0.007080
1037.009200	0.007467
1037.177094	0.007287
1037.344970	0.007643
1037.512828	0.005643
1037.680668	0.006387
1037.848489	0.006482
1038.016293	0.007389
1038.184078	0.007688
1038.351845	0.009218
1038.519593	0.009706
1038.687324	0.009710
1038.855036	0.010957
1039.022730	0.013866
1039.190406	0.013990
1039.358063	0.014709
1039.525702	0.013480
1039.693323	0.013817
1039.860926	0.013947
1040.028511	0.014578
1040.196077	0.017722
1040.363625	0.016413
1040.531155	0.014880
1040.698667	0.013431
1040.866161	0.012298
1041.033636	0.012204
1041.201093	0.012226
1041.368532	0.012129
1041.535952	0.012604
1041.703355	0.010582
1041.870739	0.009750
1042.038105	0.008123
1042.205452	0.007500
1042.372782	0.006963
1042.540093	0.007534
1042.707386	0.008430
1042.874661	0.007520
1043.041918	0.006706
1043.209156	0.007700
1043.376376	0.008466
1043.543578	0.009711
1043.710762	0.009227
1043.877927	0.009898
1044.045074	0.008944
1044.212203	0.006491
1044.379314	0.008348
1044.546407	0.009730
1044.713481	0.008036
1044.880537	0.009270
1045.047575	0.009332
1045.214595	0.010441
1045.381596	0.010740
1045.548579	0.012074
1045.715544	0.012876
1045.882491	0.010635
1046.049420	0.009904
1046.216330	0.009558
1046.383222	0.008218
1046.550096	0.007732
1046.716951	0.006870
1046.883789	0.006519
1047.050608	0.004205
1047.217409	0.005023
1047.384192	0.003975
1047.550956	0.002540
1047.717703	0.003661
1047.884431	0.004710
1048.051140	0.005752
1048.217832	0.008175
1048.384505	0.007776
1048.551161	0.009424
1048.717798	0.008992
1048.884416	0.010707
1049.051017	0.009791
1049.217599	0.011371
1049.384163	0.009700
1049.550709	0.009042
1049.717237	0.008902
1049.883746	0.010016
1050.050237	0.008831
1050.216710	0.006279
1050.383165	0.006782
1050.549601	0.007631
1050.716019	0.004634
1050.882420	0.005898
1051.048801	0.007494
1051.215165	0.006813
1051.381510	0.007418
1051.547837	0.007564
1051.714146	0.009997
1051.880437	0.010235
1052.046709	0.012101
1052.212964	0.015041
1052.379200	0.015415
1052.545417	0.013796
1052.711617	0.013577
1052.877798	0.012962
1053.043961	0.012042
1053.210106	0.012691
1053.376233	0.011398
1053.542341	0.010675
1053.708432	0.009400
1053.874504	0.007636
1054.040557	0.008069
1054.206593	0.007120
1054.372610	0.005992
1054.538609	0.007556
1054.704590	0.005478
1054.870553	0.006431
1055.036497	0.005549
1055.202424	0.004174
1055.368331	0.003342
1055.534221	0.002285
1055.700093	0.002983
1055.865946	0.003570
1056.031781	0.002936
1056.197598	0.005147
1056.363397	0.005220
1056.529177	0.005897
1056.694939	0.006676
1056.860683	0.008289
1057.026409	0.009354
1057.192116	0.009862
1057.357806	0.009367
1057.523477	0.011661
1057.689130	0.010682
1057.854764	0.009994
1058.020381	0.011662
1058.185979	0.013813
1058.351559	0.013718
1058.517120	0.014541
1058.682664	0.015121
1058.848189	0.015021
1059.013696	0.013424
1059.179185	0.014619
1059.344656	0.014459
1059.510108	0.012996
1059.675542	0.010192
1059.840958	0.010778
1060.006356	0.010237
1060.171735	0.008622
1060.337096	0.008074
1060.502439	0.006591
1060.667764	0.006419
1060.833071	0.006835
1060.998359	0.005602
1061.163629	0.006642
1061.328881	0.006983
1061.494115	0.008191
1061.659330	0.009947
1061.824527	0.012648
1061.989706	0.015122
1062.154867	0.014121
1062.320010	0.014035
1062.485134	0.015450
1062.650240	0.015455
1062.815328	0.016387
1062.980398	0.015112
1063.145449	0.011350
1063.310482	0.010971
1063.475497	0.010416
1063.640494	0.010587
1063.805473	0.010784
1063.970433	0.011499
1064.135375	0.010438
1064.300299	0.010345
1064.465204	0.009279
1064.630092	0.010464
1064.794961	0.008994
1064.959812	0.008398
1065.124645	0.007450
1065.289459	0.007077
1065.454256	0.005091
1065.619034	0.007850
1065.783793	0.007903
1065.948535	0.009319
1066.113258	0.010694
1066.277964	0.010943
1066.442651	0.011403
1066.607319	0.012077
1066.771970	0.013850
1066.936602	0.014980
1067.101216	0.011036
1067.265812	0.011173
1067.430389	0.010078
1067.594949	0.009610
1067.759490	0.009899
1067.924013	0.010118
1068.088518	0.011596
1068.253004	0.008513
1068.417472	0.008041
1068.581922	0.011646
1068.746354	0.010064
1068.910768	0.011043
1069.075163	0.011118
1069.239540	0.010103
1069.403899	0.008972
1069.568240	0.007769
1069.732562	0.009206
1069.896866	0.009440
1070.061152	0.006505
1070.225420	0.007789
1070.389670	0.008822
1070.553901	0.009096
1070.718114	0.009919
1070.882309	0.011172
1071.046486	0.012125
1071.210644	0.012518
1071.374784	0.014481
1071.538906	0.017779
1071.703010	0.016525
1071.867096	0.015188
1072.031163	0.015482
1072.195212	0.012807
1072.359243	0.011813
1072.523256	0.010417
1072.687250	0.010913
1072.851226	0.007856
1073.015184	0.006883
1073.179124	0.007019
1073.343045	0.008002
1073.506949	0.008835
1073.670834	0.010779
1073.834701	0.009603
1073.998549	0.011960
1074.162380	0.010898
1074.326192	0.011880
1074.489986	0.008822
1074.653761	0.009214
1074.817519	0.007875
1074.981258	0.007122
1075.144979	0.008583
1075.308682	0.008554
1075.472367	0.006244
1075.636033	0.007397
1075.799681	0.007620
1075.963311	0.009771
1076.126923	0.007305
1076.290516	0.007590
1076.454092	0.009135
1076.617649	0.008074
1076.781187	0.009706
1076.944708	0.010497
1077.108210	0.010935
1077.271695	0.009551
1077.435160	0.007956
1077.598608	0.009907
1077.762038	0.012698
1077.925449	0.010582
1078.088842	0.011089
1078.252217	0.011601
1078.415573	0.012536
1078.578912	0.011766
1078.742232	0.015774
1078.905534	0.018249
1079.068817	0.018010
1079.232083	0.014551
1079.395330	0.015698
1079.558559	0.014681
1079.721770	0.015204
1079.884962	0.013965
1080.048136	0.015656
1080.211293	0.013911
1080.374430	0.013831
1080.537550	0.012730
1080.700651	0.014672
1080.863735	0.013027
1081.026800	0.013407
1081.189846	0.012670
1081.352875	0.012443
1081.515885	0.011589
1081.678877	0.011862
1081.841851	0.011904
1082.004807	0.013318
1082.167744	0.009007
1082.330663	0.009449
1082.493564	0.009574
1082.656447	0.007944
1082.819312	0.009000
1082.982158	0.007529
1083.144986	0.006079
1083.307796	0.005846
1083.470587	0.004621
1083.633361	0.006596
1083.796116	0.008559
1083.958853	0.010283
1084.121571	0.010130
1084.284272	0.009397
1084.446954	0.008121
1084.609618	0.008946
1084.772264	0.006571
1084.934892	0.007263
1085.097501	0.008697
1085.260092	0.008390
1085.422665	0.006523
1085.585220	0.010145
1085.747756	0.011592
1085.910274	0.012916
1086.072774	0.013700
1086.235256	0.016187
1086.397720	0.015393
1086.560165	0.015648
1086.722592	0.014755
1086.885001	0.014495
1087.047392	0.014789
1087.209764	0.013703
1087.372119	0.012894
1087.534455	0.011153
1087.696772	0.010551
1087.859072	0.012176
1088.021353	0.012228
1088.183616	0.011338
1088.345861	0.010713
1088.508088	0.009738
1088.670296	0.008475
1088.832486	0.009242
1088.994658	0.012672
1089.156812	0.014168
1089.318948	0.013086
1089.481065	0.010270
1089.643164	0.011566
1089.805245	0.013575
1089.967308	0.013613
1090.129352	0.015574
1090.291378	0.015516
1090.453386	0.012070
1090.615376	0.010770
1090.777347	0.009937
1090.939301	0.014769
1091.101236	0.014707
1091.263153	0.012750
1091.425051	0.011447
1091.586932	0.010743
1091.748794	0.010499
1091.910638	0.011217
1092.072463	0.010918
1092.234271	0.012126
1092.396060	0.008341
1092.557831	0.009360
1092.719584	0.010767
1092.881319	0.011105
1093.043035	0.007976
1093.204733	0.007749
1093.366413	0.006929
1093.528075	0.007409
1093.689718	0.007222
1093.851343	0.009360
1094.012950	0.005686
1094.174539	0.004239
1094.336110	0.003464
1094.497662	0.005922
1094.659196	0.005590
1094.820712	0.008591
1094.982210	0.009221
1095.143689	0.010769
1095.305151	0.013020
1095.466594	0.013553
1095.628018	0.013782
1095.789425	0.014968
1095.950813	0.014149
1096.112183	0.013038
1096.273535	0.009977
1096.434869	0.006524
1096.596184	0.007143
1096.757482	0.001112
1096.918761	0.005007
1097.080021	0.005425
1097.241264	0.004310
1097.402488	0.006635
1097.563694	0.008008
1097.724882	0.010183
1097.886052	0.012433
1098.047203	0.009327
1098.208336	0.009867
1098.369451	0.009214
1098.530548	0.009640
1098.691627	0.008995
1098.852687	0.005633
1099.013729	0.009758
1099.174753	0.005833
1099.335758	0.007536
1099.496746	0.005876
1099.657715	0.005564
1099.818666	0.005232
1099.979599	0.004750
1100.140513	0.004508
1100.301409	0.005682
1100.462287	0.003410
1100.623147	0.007496
1100.783989	0.003756
1100.944812	0.007513
1101.105617	0.009847
1101.266404	0.007197
1101.427173	0.010459
1101.587923	0.008728
1101.748656	0.008910
1101.909370	0.008099
1102.070066	0.006411
1102.230743	0.010288
1102.391403	0.012037
1102.552044	0.011898
1102.712667	0.012307
1102.873271	0.008926
1103.033858	0.011006
1103.194426	0.011757
1103.354976	0.014120
1103.515508	0.013844
1103.676021	0.012411
1103.836517	0.007251
1103.996994	0.007532
1104.157453	0.004631
1104.317893	0.005232
1104.478316	0.006260
1104.638720	0.005210
1104.799106	0.001392
1104.959474	0.002042
1105.119823	0.003667
1105.280155	0.009016
1105.440468	0.003783
1105.600763	0.005340
1105.761039	0.007033
1105.921298	0.007816
1106.081538	0.009490
1106.241760	0.010263
1106.401964	0.012073
1106.562149	0.012547
1106.722316	0.010825
1106.882465	0.017700
1107.042596	0.020901
1107.202709	0.023124
1107.362803	0.027144
1107.522879	0.022368
1107.682937	0.022776
1107.842977	0.017802
1108.002999	0.014529
1108.163002	0.010694
1108.322987	0.007224
1108.482954	0.004761
1108.642902	0.000310
1108.802833	-0.004245
1108.962745	0.001467
1109.122639	0.001993
1109.282515	0.005054
1109.442372	0.008678
1109.602211	0.009970
1109.762032	0.012719
1109.921835	0.017395
1110.081620	0.016738
1110.241386	0.014640
1110.401134	0.012593
1110.560864	0.010420
1110.720576	0.009341
1110.880269	0.007933
1111.039945	0.010371
1111.199602	0.010789
1111.359240	0.007129
1111.518861	0.009001
1111.678463	0.007931
1111.838047	0.011725
1111.997613	0.011904
1112.157161	0.014766
1112.316690	0.012089
1112.476202	0.009459
1112.635695	0.003104
1112.795169	0.003980
1112.954626	0.001605
1113.114064	0.004109
1113.273484	0.000180
1113.432886	0.004102
1113.592270	0.001862
1113.751635	0.002523
1113.910983	0.004506
1114.070312	0.009252
1114.229622	0.010053
1114.388915	0.012905
1114.548189	0.012465
1114.707445	0.015810
1114.866683	0.014711
1115.025903	0.015904
1115.185104	0.015068
1115.344287	0.015887
1115.503452	0.015969
1115.662599	0.010763
1115.821727	0.011304
1115.980838	0.012564
1116.139930	0.009866
1116.299004	0.010094
1116.458059	0.007388
1116.617097	0.007393
1116.776116	0.006114
1116.935117	0.006873
1117.094099	0.013500
1117.253064	0.010611
1117.412010	0.007206
1117.570938	0.007131
1117.729848	0.000918
1117.888740	0.000790
1118.047613	0.001744
1118.206468	0.001903
1118.365305	0.000170
1118.524124	-0.002520
1118.682924	-0.000472
1118.841707	0.002191
1119.000471	0.002838
1119.159216	0.004927
1119.317944	0.005938
1119.476653	0.006013
1119.635344	0.006525
1119.794017	0.012174
1119.952672	0.012002
1120.111308	0.010324
1120.269927	0.010217
1120.428527	0.007440
1120.587108	0.011345
1120.745672	0.010999
1120.904217	0.012514
1121.062744	0.014296
1121.221253	0.010539
1121.379744	0.008309
1121.538216	0.009090
1121.696671	0.009095
1121.855107	0.012075
1122.013524	0.010408
1122.171924	0.011431
1122.330305	0.010833
1122.488668	0.006762
1122.647013	0.004753
1122.805340	0.008552
1122.963648	0.002609
1123.121938	0.002708
1123.280210	0.004215
1123.438464	0.004213
1123.596700	0.002846
1123.754917	0.001782
1123.913116	0.008600
1124.071297	0.010514
1124.229459	0.011948
1124.387604	0.017645
1124.545730	0.021241
1124.703838	0.014945
1124.861928	0.019501
1125.019999	0.022793
1125.178052	0.026328
1125.336088	0.021930
1125.494104	0.020064
1125.652103	0.018109
1125.810083	0.019557
1125.968045	0.016342
1126.125989	0.021633
1126.283915	0.020250
1126.441823	0.017933
1126.599712	0.016626
1126.757583	0.019562
1126.915436	0.024031
1127.073270	0.024963
1127.231087	0.023418
1127.388885	0.028962
1127.546665	0.030396
1127.704426	0.030446
1127.862170	0.032197
1128.019895	0.032436
1128.177602	0.028168
1128.335291	0.024264
1128.492961	0.019210
1128.650614	0.016943
1128.808248	0.012720
1128.965864	0.012592
1129.123461	0.011099
1129.281041	0.006056
1129.438602	0.009032
1129.596145	0.009918
1129.753670	0.015695
1129.911176	0.018867
1130.068665	0.023342
1130.226135	0.022331
1130.383587	0.022602
1130.541020	0.021729
1130.698436	0.029023
1130.855833	0.027157
1131.013212	0.025840
1131.170573	0.019881
1131.327915	0.018830
1131.485239	0.017377
1131.642545	0.018784
1131.799833	0.014286
1131.957103	0.009672
1132.114354	0.003714
1132.271588	-0.003168
1132.428803	-0.002719
1132.585999	-0.002021
1132.743178	0.003645
1132.900338	0.005728
1133.057480	0.002045
1133.214604	0.001890
1133.371710	0.001622
1133.528797	0.005733
1133.685866	0.004611
1133.842917	0.002623
1133.999950	0.002672
1134.156964	0.002061
1134.313960	0.003506
1134.470938	0.003724
1134.627898	0.008719
1134.784840	0.011077
1134.941763	0.010080
1135.098668	0.015932
1135.255555	0.019105
1135.412424	0.022483
1135.569274	0.018001
1135.726107	0.014999
1135.882921	0.021768
1136.039716	0.021733
1136.196494	0.022465
1136.353253	0.026131
1136.509995	0.027326
1136.666717	0.026368
1136.823422	0.020598
1136.980109	0.021451
1137.136777	0.019660
1137.293427	0.013225
1137.450059	0.003739
1137.606672	0.006166
1137.763267	0.002451
1137.919844	0.002473
1138.076403	0.003253
1138.232944	0.004515
1138.389466	0.002601
1138.545971	0.002752
1138.702457	0.000561
1138.858924	0.008864
1139.015374	0.005199
1139.171805	0.007856
1139.328218	0.003459
1139.484613	0.003045
1139.640990	0.005233
1139.797348	0.010856
1139.953688	0.011175
1140.110010	0.013909
1140.266314	0.009821
1140.422600	0.014763
1140.578867	0.009149
1140.735116	0.013440
1140.891347	0.018210
1141.047559	0.019780
1141.203754	0.014569
1141.359930	0.010889
1141.516088	0.013481
1141.672228	0.018498
1141.828349	0.010970
1141.984452	0.011028
1142.140537	0.007788
1142.296604	0.003724
1142.452653	0.001094
1142.608683	0.005822
1142.764695	0.009924
1142.920689	0.007335
1143.076665	0.003803
1143.232622	0.004983
1143.388562	0.005101
1143.544483	0.002816
1143.700385	0.000407
1143.856270	-0.002872
1144.012136	-0.008418
1144.167985	-0.008650
1144.323814	-0.004908
1144.479626	-0.006623
1144.635420	-0.003337
1144.791195	0.000411
1144.946952	0.005466
1145.102691	0.008888
1145.258411	0.013645
1145.414113	0.013453
1145.569798	0.012779
1145.725463	0.006758
1145.881111	0.008123
1146.036741	0.008628
1146.192352	0.009349
1146.347945	0.001042
1146.503519	-0.000642
1146.659076	-0.006359
1146.814614	-0.003559
1146.970134	-0.003400
1147.125636	-0.005205
1147.281120	-0.006451
1147.436585	-0.003460
1147.592032	-0.005274
1147.747461	0.000534
1147.902872	0.001013
1148.058265	0.002719
1148.213639	0.003216
1148.368995	0.004018
1148.524333	0.009352
1148.679653	0.018101
1148.834954	0.012083
1148.990237	0.014794
1149.145502	0.020148
1149.300749	0.023545
1149.455977	0.027067
1149.611188	0.026700
1149.766380	0.027518
1149.921553	0.022700
1150.076709	0.013860
1150.231846	0.019997
1150.386966	0.019690
1150.542066	0.018110
1150.697149	0.011124
1150.852214	0.007243
1151.007260	0.002265
1151.162288	0.004880
1151.317298	0.009401
1151.472289	0.010754
1151.627263	0.004949
1151.782218	-0.000921
1151.937155	-0.005123
1152.092073	0.004614
1152.246974	0.015824
1152.401856	0.022124
1152.556720	0.017462
1152.711566	0.010144
1152.866393	0.009258
1153.021203	0.007119
1153.175994	0.004367
1153.330767	0.007062
1153.485521	0.002445
1153.640258	0.001903
1153.794976	-0.003370
1153.949676	-0.000887
1154.104358	0.005671
1154.259021	0.005629
1154.413667	0.009183
1154.568294	0.012356
1154.722903	0.011203
1154.877493	0.007555
1155.032066	0.008466
1155.186620	0.008979
1155.341156	0.006143
1155.495674	0.002725
1155.650173	0.006900
1155.804654	0.014772
1155.959118	0.019935
1156.113562	0.021799
1156.267989	0.023674
1156.422397	0.012764
1156.576788	0.021408
1156.731160	0.021441
1156.885513	0.029608
1157.039849	0.025130
1157.194166	0.018944
1157.348465	0.021765
1157.502746	0.022478
1157.657009	0.021755
1157.811253	0.022793
1157.965479	0.017015
1158.119687	0.014939
1158.273877	0.010526
1158.428048	0.010229
1158.582201	0.010544
1158.736337	0.005680
1158.890453	0.004154
1159.044552	0.008758
1159.198632	0.012743
1159.352694	0.007913
1159.506738	0.014333
1159.660764	0.021101
1159.814771	0.024431
1159.968761	0.023732
1160.122732	0.017708
1160.276685	0.014567
1160.430619	0.003791
1160.584535	0.005184
1160.738434	0.014768
1160.892313	0.011076
1161.046175	0.002220
1161.200019	0.004108
1161.353844	0.002938
1161.507651	0.001322
1161.661440	0.005046
1161.815210	0.005178
1161.968962	0.002557
1162.122697	-0.005158
1162.276412	-0.002797
1162.430110	-0.002616
1162.583789	-0.009881
1162.737451	-0.019780
1162.891094	-0.007351
1163.044718	-0.008345
1163.198325	-0.002519
1163.351913	-0.007457
1163.505483	-0.006296
1163.659035	-0.007345
1163.812569	-0.012245
1163.966084	-0.012270
1164.119581	0.007277
1164.273060	0.002536
1164.426521	-0.001511
1164.579964	0.000400
1164.733388	0.012044
1164.886794	0.008785
1165.040182	0.010716
1165.193551	0.015728
1165.346903	0.019203
1165.500236	0.015173
1165.653551	0.015441
1165.806848	0.016974
1165.960126	0.017702
1166.113386	0.014167
1166.266628	0.019087
1166.419852	0.021807
1166.573058	0.025942
1166.726245	0.036018
1166.879414	0.035893
1167.032565	0.036302
1167.185698	0.030155
1167.338812	0.030452
1167.491909	0.025543
1167.644987	0.023027
1167.798046	0.026289
1167.951088	0.019616
1168.104111	0.009583
1168.257117	0.007109
1168.410103	0.005718
1168.563072	0.008611
1168.716023	0.014080
1168.868955	0.009978
1169.021869	0.011802
1169.174765	0.015523
1169.327642	0.014277
1169.480501	0.017384
1169.633343	0.013757
1169.786165	0.012339
1169.938970	0.028288
1170.091757	0.018252
1170.244525	0.033308
1170.397275	0.021469
1170.550007	0.013191
1170.702720	0.027188
1170.855415	0.006531
1171.008092	0.001347
1171.160751	-0.005912
1171.313392	-0.022111
1171.466014	-0.115942
1171.618619	-0.060083
1171.771205	-0.060083
1171.923772	-0.060083
