sample name	sample
index	1273
start time	 04-29-2021  02:18:26 PM
880	0.082280
Peak Time (s)	91.54
Peak Height 	0.08228
calc peak height	90,93
Baseline Time (s)	9.537
Baseline Value 	-0.002117
subtract baseline	10,4
Abs	0.028331
Peak Time (s)	92.538
Peak Height 	0.02833
calc peak height	90,93
Baseline Time (s)	11.534
Baseline Value 	0.00168
subtract baseline	10,3
PK_550	0.029104
Peak Time (s)	92.538
Peak Height 	0.0291
calc peak height	90,93
Baseline Time (s)	9.037
Baseline Value 	5.1102E-4
subtract baseline	10,2
PK_880	0.025150
Peak Time (s)	91.037
Peak Height 	0.02515
calc peak height	90,93
Baseline Time (s)	8.536
Baseline Value 	-1.4161E-4
subtract baseline	10,1


Time (s)	A880-A510	A880-A775	A880-A975	A880	I510	I775	I975	I880	
0.038000	0.000191	-0.000727	-0.003527	0.001376	6197.341318	43781.080720	3911.516694	22695.985690
0.537500	-0.001622	-0.000494	0.000601	0.004074	6163.955978	43550.205185	3914.712310	22573.765691
1.035000	0.000277	0.000188	-0.003839	0.003671	6180.950114	43651.741852	3905.719699	22591.997955
1.554000	-0.001054	-0.000091	0.002509	0.000991	6190.955276	43877.156758	3925.945758	22713.502935
2.035000	0.000554	0.000217	0.001766	0.001124	6201.921630	43893.609288	3923.963386	22707.445385
2.544500	-0.002079	-0.000963	-0.009214	0.001357	6180.640669	43760.720857	3898.957614	22696.859321
3.035500	0.003157	0.000150	-0.002186	-0.001574	6241.652498	44142.151075	3921.136523	22830.487728
3.536000	0.000189	0.000350	0.000347	0.000594	6203.153234	43956.076680	3921.957500	22731.549866
4.036000	0.000114	0.000173	-0.003837	0.000586	6202.655790	43940.201468	3912.590644	22731.941096
4.537000	0.001438	-0.000304	-0.002761	-0.000028	6217.120757	43953.016599	3916.368309	22759.881876
5.036500	0.000067	0.000524	-0.008610	0.000311	6204.350352	43999.217096	3902.596364	22744.439203
5.537000	0.000081	-0.000779	-0.005653	-0.000398	6209.748275	43943.200904	3910.733588	22776.774858
6.040000	0.001342	0.000683	-0.000326	0.000774	6210.413806	43970.506355	3920.036133	22723.364867
6.535000	0.001544	0.000402	0.000069	0.000474	6214.163908	43972.365640	3921.603842	22737.045234
7.035000	-0.002399	-0.000169	-0.002499	0.000132	6187.348854	43950.690887	3916.597837	22752.598363
7.535500	-0.000015	-0.000610	-0.005993	-0.000320	6208.451846	43951.729706	3909.801944	22773.219900
8.036000	-0.000027	0.000176	-0.003664	0.000225	6204.291951	43974.489001	3913.783076	22748.372575
8.536000	0.000000	-0.000177	0.001117	0.000333	6203.686846	43930.957395	3924.285559	22743.433731
9.036500	0.000023	0.000000	-0.001152	0.000078	6205.758542	43971.729600	3919.743189	22755.051829
9.536500	-0.001053	0.000608	-0.003542	0.000000	6198.328549	44036.542516	3914.558367	22758.619123
10.039500	-0.001327	-0.001003	-0.005338	-0.000842	6202.551094	43963.896493	3912.424221	22797.027666
10.542000	0.000954	0.000216	0.000085	0.000499	6209.571985	43952.415166	3921.581310	22735.888362
11.050500	0.000661	0.000167	0.001862	-0.000064	6211.584540	44000.951850	3926.870034	22761.550148
11.534500	-0.001003	-0.000456	0.000000	-0.000747	6204.260774	44006.540726	3924.201332	22792.686276
12.120000	0.000813	0.000553	-0.000727	0.000606	6207.720848	43974.124691	3919.514711	22731.036601
12.535500	0.001743	0.000796	-0.001869	0.000253	6217.306582	44030.461284	3917.740453	22747.104499
13.035500	0.002015	-0.000040	-0.001100	-0.000907	6228.037307	44060.959165	3922.079063	22799.987386
13.536500	-0.000345	0.000448	0.001171	0.002401	6185.752615	43795.222680	3919.744841	22649.492201
14.044500	0.000361	0.000023	-0.005059	0.001527	6197.487913	43837.443168	3907.771339	22689.158472
14.561500	0.003054	0.000700	0.000155	0.002540	6210.002679	43805.849227	3917.150365	22643.160528
15.040000	0.001919	0.000856	-0.000784	0.000056	6220.098011	44054.606092	3920.621487	22756.049304
15.708000	-0.005226	-0.000615	-0.004788	0.004493	6134.476079	43499.866731	3901.801604	22554.866394
16.083500	0.002793	0.000790	0.001784	-0.000331	6229.556271	44085.012842	3927.297022	22773.702270
16.538500	-0.000489	0.000520	-0.002945	-0.000967	6209.736268	44119.626780	3918.063452	22802.725775
17.035500	0.000155	-0.000116	0.003355	-0.000671	6212.343108	44031.538721	3931.639832	22789.244331
17.535500	0.001649	0.000265	-0.003642	0.001991	6203.621133	43816.539606	3909.890303	22668.071169
18.038500	-0.000882	-0.000549	-0.002870	0.000135	6198.596886	43914.616030	3915.759733	22752.461588
18.536500	-0.000087	0.000528	0.002066	0.000771	6199.777501	43956.230911	3925.441549	22723.504530
19.036500	0.001807	0.000644	0.002432	0.000943	6212.623254	43950.841254	3925.879863	22715.660589
19.536500	0.000402	-0.000823	0.000362	0.000766	6203.458381	43829.461469	3921.605719	22723.741929
20.037000	0.001306	0.000475	0.000274	0.000881	6209.343372	43940.801765	3921.147420	22718.495083
20.537000	-0.001060	-0.000391	-0.000876	-0.000002	6198.289417	43942.446961	3920.545833	22758.723384
21.034000	-0.002317	-0.000360	-0.000597	0.000853	6182.606730	43864.765391	3919.248964	22719.770384
21.535000	-0.001098	-0.000385	-0.001320	0.000979	6190.711791	43850.557532	3917.342178	22714.039815
22.035000	-0.000085	-0.000106	-0.000579	0.000370	6202.778867	43934.210708	3920.377534	22741.772347
22.537000	0.000849	0.000998	-0.003188	0.001200	6203.556902	43960.095416	3912.667280	22704.003708
23.038500	0.000010	0.000350	0.002124	0.000704	6200.998581	43945.705493	3925.725094	22726.559460
23.536500	-0.001213	-0.000344	-0.007466	0.001637	6184.981695	43792.587553	3902.193803	22684.124295
24.039500	-0.000572	0.000090	0.000005	0.000707	6196.642880	43920.933233	3920.934037	22726.419615
24.534000	-0.001948	-0.000357	-0.001938	0.000252	6189.796944	43921.627812	3917.587939	22747.126037
25.037000	0.001179	0.001142	0.000153	0.001668	6202.529305	43929.562634	3919.104403	22682.748918
25.552500	-0.001392	-0.000301	0.000697	0.001886	6181.810661	43773.241168	3919.838760	22672.857146
26.038000	0.000424	-0.000489	-0.003168	0.000288	6207.183136	43905.861622	3914.749801	22745.490461
26.535000	0.000404	0.000747	0.001760	0.000930	6202.249603	43961.836230	3924.388187	22716.267223
27.036000	-0.000354	0.000557	0.002258	0.001147	6194.999555	43923.530749	3925.025079	22706.421262
27.535500	0.001696	0.000808	-0.005328	0.001073	6210.821130	43954.103539	3908.181560	22709.764452
28.036000	-0.000099	0.000993	0.003709	-0.000715	6210.767472	44140.609042	3932.544501	22791.217499
28.609500	0.000912	0.000782	-0.001599	-0.000230	6214.705523	44074.745898	3919.432291	22769.111518
29.060500	-0.000049	0.000283	-0.000779	-0.000569	6210.049370	44059.569312	3922.040590	22784.558071
29.561500	0.000215	-0.000216	0.008570	-0.001016	6215.368041	44054.668898	3944.378331	22804.964136
30.037000	-0.001597	-0.001026	0.000624	0.002527	6175.551401	43645.150886	3918.232422	22643.761510
30.558500	0.000874	0.000266	-0.000762	-0.000773	6218.484381	44077.287511	3922.541201	22793.907640
31.035000	0.000338	0.000866	0.000276	-0.000468	6212.186186	44105.182512	3924.193740	22779.941054
31.535000	0.002005	0.000252	-0.001913	-0.001048	6229.030170	44101.933373	3920.565215	22806.443469
32.035500	-0.002946	-0.000888	-0.008147	0.003005	6162.075344	43613.278825	3897.677873	22622.094915
32.551000	-0.001904	0.000189	-0.006702	0.001472	6181.085493	43858.207788	3904.250021	22691.635219
33.040000	-0.000331	-0.000357	-0.003489	-0.001405	6214.192861	44078.049309	3917.824301	22822.747201
33.537000	0.003264	0.000517	0.002711	-0.000647	6235.480444	44089.101360	3930.119219	22788.116940
34.053000	-0.000499	-0.000202	-0.004677	0.003021	6180.022964	43676.126988	3905.304210	22621.404504
34.549000	-0.000404	0.001046	0.001075	-0.000264	6205.128337	44102.916785	3925.541699	22770.658444
35.055500	0.000556	0.001001	0.003268	-0.000291	6212.500819	44101.257874	3930.577604	22771.910519
35.542000	-0.000473	0.000316	0.002514	-0.001091	6210.789508	44112.128558	3930.682419	22808.425244
36.035500	-0.000117	0.000933	0.002264	0.003044	6182.676791	43780.350619	3920.757252	22620.358752
36.534500	-0.000131	-0.000221	-0.000880	0.001185	6196.373456	43846.620553	3917.869832	22704.689460
37.036000	-0.000708	0.000128	-0.002618	0.001500	6189.738000	43849.790461	3913.269314	22690.349783
37.541500	-0.002226	-0.000046	0.001222	0.002330	6172.359071	43755.494093	3920.017869	22652.675421
38.036000	-0.001569	0.000036	-0.003529	0.002442	6176.387639	43752.655846	3909.137407	22647.614085
38.536500	0.002546	0.000740	-0.000164	0.001521	6213.823237	43905.477610	3918.722206	22689.400830
39.034000	-0.000131	-0.000315	0.001942	0.000451	6201.830867	43906.841133	3925.883994	22738.062535
39.534000	0.001011	0.000550	0.001683	0.002336	6196.305322	43810.947268	3921.044636	22652.437333
40.034500	-0.000299	0.000015	-0.000680	0.001171	6195.221053	43870.111908	3918.349544	22705.308581
40.589500	-0.000138	-0.000040	-0.000244	0.000901	6198.433344	43890.374267	3919.936654	22717.594804
41.035500	0.000693	0.000269	-0.001255	0.001297	6201.670783	43882.234438	3916.774175	22699.580113
41.618000	0.002052	0.000183	0.000481	0.001444	6210.713815	43860.291690	3920.345826	22692.920022
42.036000	-0.000043	-0.000388	-0.003843	0.000600	6201.377001	43885.966685	3912.543685	22731.283473
42.536000	-0.000292	-0.000449	-0.002433	0.000402	6200.999372	43898.843871	3916.140278	22740.302516
43.036500	-0.000192	0.000369	0.002942	0.001362	6194.598507	43885.505164	3926.086704	22696.641900
43.562500	0.000071	-0.000066	0.000425	0.002519	6187.962606	43735.879163	3917.803782	22644.126627
44.035000	-0.001364	-0.000357	0.000976	0.000883	6189.446885	43862.244359	3922.724596	22718.393624
44.537500	-0.001174	-0.000607	-0.006385	0.000634	6192.716490	43862.206291	3906.809417	22729.750653
45.035000	-0.001880	-0.000216	-0.003154	0.000499	6188.472353	43911.683319	3914.308922	22735.886590
45.535500	-0.000912	-0.000352	0.000991	0.001926	6185.071964	43764.691913	3920.407813	22671.021747
46.036000	0.003563	0.001506	0.002287	-0.002129	6248.918900	44323.594902	3932.529026	22855.923486
46.538000	0.000570	0.000954	-0.003283	-0.000714	6215.761728	44136.793261	3916.735857	22791.180678
47.036000	0.004351	0.000292	-0.004568	-0.000796	6244.791614	44081.901619	3914.043934	22794.922980
47.536500	-0.002227	-0.000815	-0.002801	0.001698	6177.017053	43742.621447	3912.418058	22681.349780
48.036500	0.002124	0.000210	-0.000299	-0.001021	6229.719566	44095.491951	3924.146178	22805.231492
48.533500	0.000688	0.000158	-0.000876	-0.000892	6217.977005	44078.307251	3922.550445	22799.314962
49.037500	0.003020	0.000912	0.002363	-0.000037	6229.055615	44068.794103	3927.944586	22760.293590
49.614500	-0.002793	0.001254	0.001043	0.005631	6143.929497	43568.125040	3912.219567	22503.580909
50.035000	0.000077	-0.000418	-0.003701	0.002741	6186.360784	43682.033793	3908.090723	22634.062100
50.535000	-0.000794	-0.000666	0.001084	0.001074	6192.272061	43815.284628	3922.538567	22709.745113
51.088000	-0.001112	0.000696	0.000153	-0.000246	6199.721175	44068.173719	3923.416349	22769.844883
51.537000	0.000258	-0.000592	-0.001930	0.002528	6189.282503	43685.786054	3912.510101	22643.727309
52.036500	-0.002212	0.000143	-0.003803	0.005178	6151.512262	43506.704286	3902.464041	22524.001867
52.559500	0.001848	0.000242	-0.000105	-0.003027	6242.746203	44288.824151	3929.130098	22897.094813
53.037500	-0.000123	-0.000588	0.002698	0.001637	6193.067092	43769.617925	3924.912157	22684.136179
53.537000	0.006390	-0.002839	0.006715	0.014874	6143.498705	42341.155227	3904.282624	22092.113986
54.037500	0.015615	-0.022247	-0.004127	0.375350	4381.466919	19400.697595	3351.730688	11303.543408
54.535000	0.003571	-0.018608	0.001324	-0.059570	6713.160617	48032.997222	4069.976260	25669.062866
55.035000	-0.014244	-0.051874	-0.012663	-0.210903	8061.752061	62103.478595	4489.240153	35135.074995
55.534500	-0.006549	-0.043584	-0.002822	-0.204635	8078.529245	62379.378386	4502.015921	34674.085850
56.036000	-0.005736	-0.023643	-0.007288	-0.156212	7547.728217	58609.635661	4323.242092	31328.235278
56.535500	0.002285	-0.017547	0.002649	-0.109373	7155.999333	53629.226786	4210.796120	28428.144353
57.036500	-0.004712	-0.014945	-0.004319	-0.085114	6865.070657	51166.158573	4122.827147	27044.644505
57.536500	-0.006915	-0.012960	-0.006145	-0.089260	6882.554085	51850.976536	4129.146322	27275.654760
58.108000	-0.002310	-0.006205	-0.002391	-0.098414	7008.606509	53673.898085	4164.933542	27793.563098
58.537000	0.001329	-0.006042	-0.006521	-0.113764	7189.273158	55517.059324	4196.919670	28686.939122
59.038000	0.000558	-0.003825	-0.002928	-0.109222	7137.929180	55236.494741	4194.182956	28419.290001
59.535000	0.002772	-0.003505	-0.003079	-0.109251	7159.521661	55278.508117	4193.829230	28420.989526
60.041000	0.002886	-0.003007	-0.002564	-0.097219	7046.027482	53908.337465	4161.091790	27725.366912
60.535500	0.006212	-0.001285	-0.002750	-0.083798	6952.282702	52554.962447	4123.514527	26971.789767
61.035500	0.007982	0.000533	0.001855	-0.062764	6779.350699	50409.908511	4079.685412	25836.648842
61.536000	0.007693	0.002871	0.003490	-0.046513	6636.858453	48914.882323	4042.058797	24996.499376
62.036000	0.011515	0.002208	0.006393	-0.036959	6588.736102	47847.224788	4025.355174	24517.085337
62.536500	0.011193	0.002491	0.005656	-0.034935	6569.217639	47667.781238	4018.494437	24416.856715
63.034500	0.008822	0.008524	0.004235	0.002640	6252.626165	44538.273526	3926.122096	22638.666003
63.534000	0.007769	0.006730	0.010375	0.013147	6166.298334	43377.954143	3916.281758	22168.324402
64.035000	0.008099	0.002612	0.001409	-0.002867	6289.018306	44499.521300	3932.208661	22889.752101
64.542500	0.009075	0.006198	0.007605	0.018411	6137.271511	42842.617051	3898.440702	21936.925652
65.035500	0.013604	0.016267	0.008553	0.044927	5980.732738	41361.693216	3843.805108	20813.080882
65.558000	0.008775	0.015870	-0.002114	0.038552	5991.479422	41893.482193	3834.946679	21077.041759
66.035500	0.010125	0.018677	0.006427	0.025154	6095.975333	43372.428438	3881.169748	21644.594591
66.546500	0.013673	0.019269	0.004939	0.016181	6187.513829	44271.611490	3897.482308	22034.615532
67.037500	0.011829	0.018893	0.005022	0.010656	6214.931172	44763.858557	3909.887221	22278.779958
67.536000	0.009765	0.020175	0.006197	0.012978	6182.284587	44663.971408	3907.335728	22175.772849
68.034500	0.013805	0.021818	0.004149	0.007634	6252.540144	45339.811004	3914.685938	22413.686485
68.534500	0.012213	0.021476	0.006638	0.004495	6264.263634	45613.390099	3927.361245	22554.773085
69.037500	0.012427	0.021386	0.007290	0.002151	6283.745633	45835.207269	3934.176074	22660.805643
69.545000	0.010516	0.022137	0.003520	0.006404	6236.992441	45491.097290	3916.032245	22468.855682
70.035500	0.014900	0.021524	0.009597	0.001490	6307.763971	45914.037889	3940.973551	22690.800937
70.535500	0.015263	0.022758	0.009940	0.001982	6306.772442	45987.417677	3940.631771	22668.457855
71.036000	0.014052	0.022401	0.010541	0.001203	6303.450762	46029.215023	3943.807849	22703.840644
71.536500	0.010156	0.022435	0.003627	0.005636	6240.070835	45595.614789	3917.995079	22503.392366
72.081000	0.015153	0.024256	0.010903	0.003514	6294.177437	45984.090645	3939.325969	22599.105643
72.540000	0.015279	0.023771	0.009426	0.001543	6310.280739	46131.435392	3940.460770	22688.408922
73.037500	0.012528	0.023689	0.006392	0.001864	6286.707621	46091.474351	3932.783945	22673.845417
73.541000	0.011534	0.023674	0.006106	0.008310	6230.314691	45455.071195	3917.558039	22383.443516
74.046500	0.013757	0.025655	0.010979	0.009604	6237.301787	45522.246152	3925.622913	22325.653335
74.535500	0.014628	0.023800	0.008365	0.008985	6248.543100	45401.368172	3921.117588	22353.277824
75.035500	0.014971	0.023799	0.007459	0.011779	6230.067896	45129.289509	3912.818899	22228.900263
75.535500	0.013344	0.024502	0.006407	0.015160	6192.652209	44870.309553	3902.968870	22079.518026
76.036000	0.011385	0.023934	0.007791	0.021711	6130.050910	44189.464696	3891.611672	21793.288311
76.536500	0.011816	0.023411	0.012583	0.021793	6132.594655	44132.057735	3901.957578	21789.733772
77.036500	0.009393	0.023962	0.009639	0.025770	6086.272106	43808.790838	3886.793193	21618.097889
77.537500	0.013613	0.022975	0.003173	0.028609	6096.219510	43450.924558	3866.786369	21496.578413
78.043500	0.012492	0.023253	0.004013	0.035742	6037.289654	42817.287688	3853.493156	21194.620286
78.544500	0.013248	0.023383	0.008017	0.036614	6036.476193	42749.338848	3860.085290	21158.074071
79.046500	0.012397	0.024825	0.015007	0.040994	5999.715663	42481.214485	3865.614525	20975.466638
79.536000	0.014974	0.024865	0.007480	0.044069	5996.236665	42206.300999	3843.360030	20848.387204
80.039000	0.014203	0.024382	0.011206	0.049507	5953.227991	41675.320183	3839.818658	20625.828974
80.541500	0.015327	0.025361	0.012456	0.050441	5954.535537	41679.341043	3840.470354	20587.883103
81.037000	0.014629	0.024817	0.017113	0.052732	5934.040318	41427.576905	3845.372457	20495.114988
81.536500	0.016583	0.025192	0.013203	0.055497	5928.500543	41216.637578	3831.606812	20383.846627
82.036500	0.017079	0.025003	0.013526	0.060479	5898.060836	40764.239675	3822.123953	20185.141219
82.543000	0.019130	0.026914	0.020146	0.061680	5903.802888	40825.988208	3833.163488	20137.567953
83.034500	0.016516	0.025750	0.018372	0.062835	5878.423397	40624.515191	3827.179930	20091.959795
83.537500	0.018676	0.026561	0.020126	0.066009	5871.629784	40420.337650	3824.292509	19967.226594
84.034500	0.020208	0.026621	0.015928	0.070135	5854.336480	40071.572840	3807.559658	19806.448613
84.535500	0.020091	0.026636	0.018360	0.069827	5855.603264	40099.132205	3813.031037	19818.377692
85.036000	0.019566	0.027232	0.014031	0.071725	5839.526989	39988.082921	3800.643854	19744.868846
85.536000	0.020127	0.026571	0.017728	0.072173	5840.275823	39893.753447	3807.084816	19727.572847
86.036500	0.019532	0.027470	0.019776	0.075290	5815.816762	39705.791678	3804.962031	19607.690170
86.536500	0.020126	0.027424	0.024165	0.074357	5825.854336	39780.843322	3815.589451	19643.469397
87.037000	0.022380	0.027995	0.024363	0.075282	5834.619346	39750.832358	3814.130446	19607.993567
87.534500	0.018530	0.027263	0.018337	0.080944	5772.484215	39213.652828	3790.996534	19392.400805
88.040500	0.020844	0.026886	0.019111	0.076188	5818.534474	39580.661226	3801.864155	19573.293581
88.534500	0.022865	0.027845	0.022375	0.077117	5825.719550	39583.292452	3806.494728	19537.812787
89.035500	0.021875	0.028490	0.023545	0.078228	5811.921597	39544.018885	3806.613210	19495.473758
89.535000	0.019566	0.027863	0.015651	0.082744	5767.552214	39113.783531	3782.280927	19324.445929
90.123500	0.021543	0.028627	0.024449	0.077967	5811.456515	39577.586625	3808.933386	19505.413363
90.537000	0.021290	0.028052	0.023522	0.077730	5811.344704	39549.028632	3807.557781	19514.423776
91.037000	0.025150	0.028306	0.026504	0.078105	5834.266570	39538.904310	3812.763104	19500.138876
91.540000	0.020435	0.027465	0.023184	0.082280	5776.161291	39119.213325	3797.881302	19341.935587
92.040000	0.023745	0.028756	0.022596	0.077073	5831.810327	39663.852571	3807.023810	19539.497481
92.537500	0.023080	0.029104	0.028331	0.076492	5831.248899	39742.284549	3819.680871	19561.663538
93.037500	0.025398	0.027637	0.024307	0.074554	5859.464979	39782.209702	3815.481710	19635.924723
93.535500	0.019960	0.026832	0.020449	0.078286	5799.016702	39399.895700	3800.361806	19493.256095
94.035000	0.025331	0.028491	0.024248	0.074751	5857.705840	39837.848584	3814.965400	19628.356075
94.536000	0.024575	0.027445	0.021438	0.071274	5875.883111	40044.763059	3816.307799	19762.342052
95.036000	0.025727	0.028600	0.026325	0.071567	5881.641221	40118.344209	3825.596056	19751.004331
95.536500	0.024130	0.027971	0.024452	0.075885	5842.201666	39697.836219	3813.100460	19584.903012
96.039500	0.026046	0.028096	0.025752	0.070264	5892.547594	40186.678250	3827.079849	19801.432728
96.634500	0.027478	0.028712	0.027981	0.068488	5914.237657	40392.055782	3835.271486	19870.426315
97.117500	0.028414	0.027709	0.028005	0.067393	5928.060512	40400.051597	3837.574895	19913.137229
97.561500	0.021748	0.027065	0.026388	0.071850	5853.173850	39963.245823	3825.148343	19740.063164
98.035000	0.023243	0.027508	0.027183	0.066409	5899.642499	40467.486933	3837.907878	19951.562827
98.535000	0.027165	0.027153	0.022887	0.064315	5940.554773	40617.845490	3833.380398	20033.674337
99.039000	0.028028	0.027732	0.023255	0.064064	5948.195790	40689.808470	3834.651188	20043.549779
99.535000	0.028957	0.029729	0.023857	0.064557	5951.191572	40820.640391	3834.876585	20024.186366
100.036000	0.027093	0.029256	0.017293	0.064021	5942.081691	40826.072053	3822.578654	20045.244188
