sample name	sample
index	307
start time	 02-25-2021  02:36:00 PM
880	-0.010048
Peak Time (s)	92.036
Peak Height 	-0.01005
calc peak height	90,93
Baseline Time (s)	8.538
Baseline Value 	-0.004049
subtract baseline	10,4
Abs	-0.004014
Peak Time (s)	90.535
Peak Height 	-0.004014
calc peak height	90,93
Baseline Time (s)	9.535
Baseline Value 	0.002374
subtract baseline	10,3
PK_550	-0.000366
Peak Time (s)	91.035
Peak Height 	-3.6605E-4
calc peak height	90,93
Baseline Time (s)	10.539
Baseline Value 	6.9386E-4
subtract baseline	10,2
PK_880	-0.005392
Peak Time (s)	92.537
Peak Height 	-0.005392
calc peak height	90,93
Baseline Time (s)	11.036
Baseline Value 	0.001755
subtract baseline	10,1


Time (s)	A880-A510	A880-A775	A880-A975	A880	I510	I775	I975	I880	
0.035500	-0.000020	-0.000764	0.003497	0.002035	6835.757562	44919.341870	4002.533434	23835.219112
0.536000	-0.001647	-0.000569	0.001097	0.003797	6805.663269	44768.257862	3992.380391	23750.662888
1.036000	-0.001508	0.000686	0.004840	0.004469	6800.948912	44824.436177	3999.863285	23718.529224
1.538000	-0.002121	-0.000386	0.001778	0.002033	6817.088627	44956.063771	3998.334565	23835.316271
2.036500	-0.001151	-0.000899	-0.000550	0.000868	6836.075900	45019.087441	3995.498837	23891.426447
2.537000	-0.000555	-0.000536	0.003911	0.001115	6839.186063	45030.333750	4005.808681	23879.498635
3.037500	0.001113	-0.000340	0.005293	-0.001722	6879.598323	45325.052121	4016.233098	24016.680015
3.537500	0.000905	0.000474	-0.002578	0.001417	6849.533676	45098.875069	3989.242321	23864.943883
4.035000	0.000609	-0.000275	0.003180	0.000412	6855.882266	45123.770762	4005.741736	23913.416259
4.535500	0.000544	-0.000067	0.003020	0.000274	6856.541276	45157.384571	4005.687185	23920.075358
5.035500	-0.000424	-0.000059	0.004102	0.000584	6845.098724	45128.090727	4007.586622	23905.109372
5.536000	0.000821	-0.000196	-0.000021	0.000372	6858.138454	45135.326283	3997.995196	23915.319068
6.036000	0.001081	-0.000031	0.005138	0.000490	6859.420751	45139.954124	4010.371930	23909.660782
6.536500	0.002101	0.000277	-0.000239	0.000872	6865.143041	45132.720857	3996.245657	23891.226502
7.036500	0.000043	-0.000189	0.002508	0.000270	6852.086314	45145.884861	4004.439394	23920.271844
7.537500	-0.001983	-0.000546	-0.003176	-0.001077	6846.009173	45242.115368	3993.841341	23985.373995
8.035000	-0.000365	-0.000456	0.004754	0.000047	6850.434787	45141.664561	4010.518368	23931.042272
8.538000	-0.000420	-0.000444	-0.000704	0.000000	6850.358846	45147.405746	3997.238461	23933.305149
9.035500	0.001382	0.000227	-0.000101	0.000744	6859.838599	45140.268042	3996.896148	23897.404552
9.535000	0.003450	0.000366	0.000000	0.000705	6878.779576	45157.516536	3997.235604	23899.261038
10.036000	0.000086	-0.000538	0.000769	-0.000119	6855.952031	45149.805250	4001.127706	23939.037192
10.539000	-0.001885	0.000000	0.002180	-0.000048	6837.694373	45195.119565	4004.413625	23935.601594
11.036000	0.000000	-0.000564	-0.001612	-0.000694	6860.341429	45203.170331	3996.715989	23966.860841
11.536500	-0.002130	0.000243	0.000333	0.000199	6833.319897	45194.855067	3999.284696	23923.710359
12.036000	-0.001479	-0.000517	0.003646	0.003023	6814.009641	44847.863537	4000.480434	23787.787706
12.537500	0.002026	-0.000070	0.003114	0.000061	6871.761797	45177.756849	4006.441149	23930.350448
13.040500	0.000456	0.000200	0.001803	-0.000039	6858.561736	45213.742679	4003.468451	23935.208562
13.535000	-0.001054	-0.000491	0.006495	0.000072	6844.053586	45135.871740	4014.764110	23929.839620
14.035000	-0.002076	-0.000055	-0.004043	0.003727	6802.490703	44824.493490	3980.144379	23754.035376
14.536000	-0.003141	0.000073	0.001482	0.002265	6806.000284	44977.920440	3997.046269	23824.152749
15.043500	0.000537	0.000154	0.005570	0.000410	6855.260510	45165.623498	4011.636265	23913.502442
15.535500	-0.000612	-0.000397	0.002890	-0.000289	6851.225273	45179.917674	4006.750394	23947.250557
16.036500	-0.002165	-0.000730	-0.002406	0.003172	6806.610676	44812.914091	3985.417473	23780.627915
16.537000	-0.000342	-0.000143	0.001872	0.000322	6848.180082	45145.341565	4002.750792	23917.773887
17.037500	0.001568	0.000316	0.001798	-0.003176	6896.840045	45531.275020	4011.178258	24087.296094
17.540500	-0.000687	-0.000424	0.005094	-0.000195	6849.714461	45168.172710	4011.956183	23942.705043
18.034500	-0.001627	-0.000229	0.006857	0.002095	6820.921883	44965.264520	4010.652928	23832.344697
18.535000	-0.001126	-0.000447	0.001884	0.001025	6834.900028	45047.651623	4001.057904	23883.852780
19.035500	-0.000546	-0.000194	0.001060	0.000769	6842.367078	45097.086647	3999.669596	23896.209659
19.536000	-0.001602	-0.000097	0.005234	0.001287	6828.321688	45056.181598	4008.641103	23871.201318
20.036000	-0.000609	-0.000921	0.000212	0.001328	6836.811048	44972.506119	3996.233108	23869.242860
20.536500	-0.002293	-0.001202	0.000671	0.000019	6833.462836	45071.954215	4000.549323	23932.363445
21.036500	-0.000488	0.000550	-0.000069	0.001717	6834.418741	45077.232525	3994.603033	23850.524041
21.537000	-0.001754	0.000336	0.000729	0.001085	6828.780989	45117.806315	3998.087909	23880.971445
22.040000	0.000103	0.000292	0.006689	0.001295	6843.455497	45093.166257	4012.216593	23870.848589
22.535000	-0.001190	-0.000626	0.003510	0.000547	6838.596028	45076.653999	4006.221759	23906.920590
23.035000	-0.001160	-0.000453	-0.001885	0.000740	6837.140455	45074.750439	3992.563787	23897.592979
23.535500	-0.001476	0.000066	0.003855	0.001277	6829.545190	45073.017736	4005.273659	23871.721081
24.036000	-0.002126	0.000270	0.002468	0.002559	6812.385289	44968.640643	3998.735542	23810.039611
24.536000	-0.000703	-0.000682	0.001272	0.001054	6838.415440	45022.041540	3999.489953	23882.434174
25.036500	-0.000503	-0.000217	0.001256	0.001267	6838.303184	45046.485050	3998.929473	23872.188620
25.536500	-0.002337	-0.001121	0.002728	0.000775	6826.350044	45006.655242	4003.739155	23895.908011
26.037000	-0.002343	0.000134	0.001590	0.003243	6804.410073	44889.404790	3994.926927	23777.235509
26.537500	-0.002020	-0.000635	0.002803	0.000733	6829.538273	45057.780322	4004.025110	23897.924827
27.035000	-0.002186	0.000074	0.000480	0.001224	6823.697947	45078.923791	3997.141083	23874.258532
27.535000	0.001209	-0.000267	0.001614	-0.002371	6886.317280	45395.520913	4008.737277	24048.156896
28.035500	-0.002520	0.000306	0.004935	0.003918	6796.886104	44840.948491	4001.444233	23744.900371
28.535500	0.000023	-0.000667	0.001851	-0.000709	6860.680815	45194.501434	4005.227837	23967.564878
29.036000	-0.001732	-0.000191	-0.000048	0.003059	6811.444156	44875.792888	3991.393818	23786.039811
29.536500	0.000269	0.000536	0.004573	0.000472	6852.304996	45196.798032	4009.023524	23910.532458
30.036500	0.001758	-0.000305	-0.000897	-0.000162	6871.356450	45176.664104	3997.164907	23941.154085
30.537000	-0.001769	0.000541	0.002631	0.000360	6835.098749	45208.122674	4004.518130	23915.911535
31.037000	-0.003021	-0.000801	-0.004234	0.003581	6795.432162	44766.747836	3980.035433	23761.013452
31.540000	-0.002209	-0.000225	0.004718	-0.000165	6835.854254	45184.681197	4010.953687	23941.279311
32.034500	-0.003140	0.000032	-0.002043	0.003186	6797.864095	44885.007810	3986.258589	23779.940964
32.534500	0.002359	0.001094	0.005360	0.000582	6870.067680	45240.362011	4010.694327	23905.222325
33.035500	-0.001429	-0.000533	-0.002526	0.002910	6815.442931	44857.143810	3985.759184	23793.177370
33.535500	0.001443	-0.000723	0.007347	-0.001141	6877.329586	45231.181622	4019.896412	23988.499039
34.036000	-0.002389	-0.000779	-0.000435	0.001367	6820.623456	44982.420290	3994.563063	23867.363087
34.536500	-0.003280	-0.000434	0.003715	0.001582	6810.807084	44994.949646	4004.179811	23857.000310
35.037000	-0.002049	0.000536	0.003985	0.003320	6806.325688	44920.763841	4000.583510	23773.535412
35.537000	0.000227	-0.000279	0.004831	0.001765	6840.374831	44992.308770	4006.475336	23848.229253
36.039000	-0.001743	-0.000156	0.003088	0.001361	6826.421785	45043.302416	4003.185801	23867.668195
36.534500	0.000515	0.001160	0.006757	0.002275	6838.385301	45082.259502	4009.963809	23823.693384
37.035000	-0.001287	-0.000701	0.004273	0.002928	6816.553040	44839.332427	4002.249424	23792.346066
37.535500	-0.001178	0.000081	0.003014	0.001634	6829.015482	45039.830620	4002.334322	23854.518569
38.035500	-0.002245	-0.000179	0.000480	0.003212	6805.549481	44862.186882	3992.305253	23778.707899
38.536000	-0.001156	-0.000838	-0.001219	0.001202	6833.062825	44992.721859	3993.060490	23875.339119
39.036500	-0.002864	-0.000975	0.000806	0.003112	6800.963389	44795.165349	3993.339456	23783.511229
39.536500	-0.000609	-0.000425	0.004855	0.001459	6835.641007	45007.800465	4007.284658	23862.923942
40.036500	-0.000822	-0.001155	-0.002082	0.002795	6821.855653	44808.278285	3987.110448	23798.710613
40.540000	-0.000053	-0.000653	0.004346	0.001079	6843.994247	45022.505020	4006.968734	23881.267289
41.037500	0.000892	0.000782	0.005509	0.002270	6841.804168	45046.157948	4006.900653	23823.953254
41.538000	0.000442	0.000085	0.006997	0.001979	6840.378141	45006.823809	4011.285844	23837.929555
42.035000	-0.002537	-0.000952	0.002561	0.002132	6812.521903	44891.878837	4000.004989	23830.571652
42.535500	-0.001770	0.000128	0.005602	0.001997	6820.524541	45009.287988	4007.800831	23837.067985
43.035500	-0.002624	-0.000039	0.003771	0.002913	6804.846251	44904.554020	4001.055339	23793.071611
43.538500	-0.000620	-0.000406	0.005888	-0.001408	6861.185621	45287.987390	4016.929275	24001.421286
44.036500	-0.000307	-0.000129	0.000050	0.002046	6833.107885	44979.677094	3994.092731	23834.708942
44.536000	-0.000012	0.000611	0.006034	0.000359	6850.803818	45215.038526	4012.911116	23915.975187
45.036000	0.000106	0.000348	0.004908	-0.000036	6855.391097	45227.840253	4011.102672	23935.046880
45.537500	-0.001175	0.000471	0.005124	-0.000295	6846.239169	45265.014208	4012.276238	23947.543032
46.037500	-0.001099	-0.000408	0.005606	0.003314	6814.796866	44830.363710	4004.571854	23773.840825
46.534500	-0.000696	-0.000675	-0.001231	-0.000179	6849.494050	45142.321182	3996.392473	23941.978116
47.035500	-0.003399	-0.000382	0.001223	0.003466	6793.112929	44818.173303	3993.492349	23766.526808
47.535500	-0.000315	0.000142	0.002516	0.002089	6832.646805	45001.647307	4000.001684	23832.631934
48.035500	-0.002414	-0.000028	0.000953	0.003604	6800.595888	44839.049930	3992.502179	23759.941015
48.536500	0.002442	-0.000086	0.008693	-0.000028	6876.307375	45184.898508	4020.476361	23934.665816
49.036500	-0.001547	-0.000120	-0.005945	0.005102	6795.012486	44685.927797	3972.310754	23688.258516
49.536500	0.001208	0.000228	0.003240	-0.002382	6886.413182	45444.925065	4012.780377	24048.706981
50.036500	-0.001705	0.000342	0.000319	0.003141	6810.955359	44919.341504	3992.086534	23782.125242
50.534500	0.001350	0.001390	0.009761	0.002509	6843.756494	45081.877303	4016.822068	23812.454936
51.034500	-0.000129	-0.002041	0.001992	0.055434	6386.978121	39958.387871	3876.121517	21419.263436
51.535000	-0.027489	-0.021127	0.006825	0.070670	6067.210029	37148.526377	3853.916684	20782.645301
52.035000	-0.033419	-0.024841	-0.003867	-0.066438	7161.402246	49433.283612	4163.367933	27401.315413
52.535500	-0.018720	-0.022971	0.001712	-0.128625	7974.270840	56815.746828	4370.283124	31165.042729
53.036000	-0.031952	-0.020957	-0.006273	-0.081393	7323.140023	51492.655804	4199.291297	28257.855634
53.535500	-0.022974	-0.012171	-0.008599	-0.090654	7510.102149	53550.962937	4219.591667	28803.241659
54.036500	-0.013951	-0.013244	-0.009175	-0.111596	7834.820227	55918.249291	4281.119464	30080.283190
54.537000	-0.007709	-0.008349	-0.002695	-0.094863	7718.569897	54494.793448	4249.783019	29054.960413
55.040000	-0.011340	-0.006650	-0.012104	-0.068185	7398.088593	51615.479715	4145.191035	27499.825194
55.534500	-0.006345	-0.006772	-0.007059	-0.069491	7462.890248	51748.323503	4162.974081	27573.760282
56.035000	-0.007307	-0.006757	-0.004841	-0.084951	7615.599273	53517.388935	4213.864078	28466.002056
56.535000	-0.007014	-0.006751	-0.005560	-0.055663	7315.195786	50222.256577	4128.688986	26802.199066
57.035500	-0.006687	-0.005943	-0.001048	-0.042493	7188.420714	48896.520979	4105.189092	26089.846813
57.535500	-0.007577	-0.006186	-0.008492	-0.028850	7049.398374	47451.666453	4049.871231	25374.327670
58.036000	-0.008188	-0.006465	-0.003180	-0.021620	6976.311366	46689.421219	4044.972812	25004.159890
58.536000	-0.007928	-0.006462	-0.004020	-0.014073	6909.549480	45936.694497	4023.800754	24624.282679
59.039000	-0.009790	-0.005870	-0.002816	-0.007989	6838.016565	45396.898353	4011.670296	24322.802507
59.537000	-0.013215	-0.007045	-0.004154	-0.013566	6857.269853	45829.087639	4022.200131	24599.007220
60.037000	-0.014686	-0.006435	-0.007904	-0.018378	6887.322989	46367.354293	4024.853066	24840.150198
60.537000	-0.012868	-0.007304	-0.001765	-0.020225	6920.576112	46465.201578	4045.026089	24933.466954
61.034500	-0.012033	-0.007272	-0.007721	-0.027219	6992.549108	47174.417201	4047.673154	25290.291301
61.535000	-0.009234	-0.003773	-0.011086	-0.022795	6977.505519	47080.419553	4027.951527	25063.919839
62.036000	-0.008265	-0.003713	-0.006214	-0.015373	6918.304905	46339.085737	4021.568042	24689.220920
62.535500	-0.009143	-0.002814	-0.004218	-0.024326	6992.507901	47333.889532	4049.231327	25141.960537
63.036500	-0.010704	-0.002258	-0.006272	-0.021196	6949.242353	47071.856253	4036.047059	24982.641290
63.539000	-0.006683	-0.001700	-0.006245	-0.026059	7031.602191	47625.607002	4048.480755	25230.724531
64.042500	-0.006091	-0.001372	-0.009130	-0.027146	7047.353358	47771.384594	4043.893681	25286.547166
64.537000	-0.006191	-0.002380	-0.009779	-0.028484	7059.007577	47805.388494	4045.649606	25355.453913
65.037500	-0.008350	-0.002015	-0.010735	-0.025321	7009.138737	47517.508686	4035.194462	25192.880874
65.535000	-0.006672	-0.001208	-0.008111	-0.030605	7074.495397	48146.520754	4055.353507	25465.095427
66.038000	-0.006947	-0.001727	-0.006630	-0.031780	7083.018257	48214.765221	4062.206498	25526.088380
66.535000	-0.005570	-0.001860	-0.005037	-0.033133	7108.993614	48342.043955	4069.859052	25596.540548
67.036000	-0.010079	-0.002646	-0.004114	-0.029269	7029.855503	47858.964679	4062.220923	25395.982327
67.536000	-0.006557	-0.002112	-0.004866	-0.034935	7116.776483	48504.162930	4075.013147	25690.661089
68.039000	-0.010006	-0.002514	-0.002357	-0.030604	7043.056355	48010.768095	4070.254624	25465.073675
68.536500	-0.005983	-0.002410	-0.005915	-0.035724	7129.841856	48555.760535	4074.333496	25732.042344
69.037000	-0.009519	-0.002114	-0.008116	-0.030756	7049.057703	48068.008722	4055.729473	25472.925925
69.537000	-0.004925	-0.002323	-0.001124	-0.035683	7139.600470	48560.537755	4086.828352	25729.882017
70.037500	-0.006726	-0.001701	-0.005828	-0.030200	7070.150468	48053.153031	4060.194897	25444.109491
70.535000	-0.006230	-0.003256	-0.004343	-0.035886	7129.021774	48484.019151	4078.879015	25740.546473
71.035000	-0.006403	-0.002829	-0.009047	-0.030697	7077.919601	47987.806559	4053.184882	25469.877883
71.535500	-0.007401	-0.002582	-0.006366	-0.034259	7102.277918	48384.270650	4069.331019	25655.336689
72.036000	-0.007898	-0.003044	-0.006242	-0.029741	7054.770802	47866.625647	4057.944679	25420.395162
72.536000	-0.006887	-0.002353	-0.004519	-0.033414	7099.122151	48319.910483	4071.944655	25611.215204
73.036500	-0.008170	-0.001939	-0.003239	-0.028141	7037.170029	47815.413426	4061.565923	25337.728091
73.536500	-0.007330	-0.003070	0.000122	-0.032770	7088.784173	48178.093436	4082.428960	25577.633460
74.037000	-0.007101	-0.002599	-0.009069	-0.027893	7044.877155	47721.838590	4045.952397	25324.971016
74.537500	-0.006901	-0.002282	-0.007304	-0.031021	7076.262837	48078.080437	4058.504040	25486.670424
75.034500	-0.007906	-0.003368	-0.007164	-0.031270	7069.124155	47991.310655	4059.508636	25499.626933
75.535000	-0.005445	-0.003831	-0.004197	-0.030952	7089.425594	47910.479594	4066.370423	25483.133696
76.035000	-0.006084	-0.003000	0.000790	-0.029723	7071.717802	47869.316127	4076.175748	25419.452885
76.536000	-0.007230	-0.002969	-0.010509	-0.029266	7056.592344	47825.339388	4045.783426	25395.837517
77.039000	-0.006003	-0.003032	-0.005795	-0.028317	7059.201999	47720.925583	4055.425857	25346.817584
77.539000	-0.008400	-0.003163	-0.005563	-0.028005	7033.737081	47675.255620	4055.220824	25330.746288
78.036500	-0.007764	-0.003655	-0.006476	-0.028225	7041.772525	47647.299865	4053.440180	25342.097993
78.537000	-0.005542	-0.003301	-0.005093	-0.027023	7051.358062	47560.200856	4053.903678	25280.199041
79.037500	-0.008356	-0.002769	-0.008904	-0.024388	7000.400012	47344.896081	4037.465268	25145.170802
79.537500	-0.005752	-0.002913	-0.005265	-0.026028	7040.032854	47497.867956	4050.908740	25229.101320
80.035000	-0.007439	-0.002835	-0.002292	-0.025538	7019.653597	47455.676528	4057.289970	25203.991093
80.535000	-0.006118	-0.002830	-0.000653	-0.025027	7027.229049	47403.992368	4060.201507	25177.841467
81.038500	-0.007086	-0.002355	-0.003715	-0.024441	7012.717589	47392.610926	4050.815200	25147.867260
81.536000	-0.007911	-0.002521	-0.005368	-0.024295	7003.676682	47360.650424	4046.216559	25140.410846
82.038500	-0.007928	-0.003320	-0.008676	-0.024145	7002.118438	47263.775491	4037.426347	25132.726418
82.536000	-0.007121	-0.002174	-0.005600	-0.022684	6996.045151	47231.697453	4041.521968	25058.266785
83.036500	-0.006691	-0.002338	-0.003617	-0.022295	6996.424806	47175.412790	4045.581096	25038.482363
83.537000	-0.004960	-0.002792	-0.007236	-0.022262	7012.222121	47125.895991	4036.305972	25036.785968
84.037500	-0.006421	-0.002249	-0.005040	-0.021594	6992.417632	47113.188234	4040.176953	25002.836281
84.535000	-0.004804	-0.001718	-0.006646	-0.020917	7001.145240	47098.265488	4034.397981	24968.489048
85.038000	-0.008334	-0.002559	-0.006751	-0.019040	6951.209649	46823.122844	4029.406848	24873.576004
85.535500	-0.006918	-0.002182	-0.004522	-0.020370	6976.496648	46995.806146	4038.386841	24940.808582
86.035500	-0.009711	-0.002471	-0.006403	-0.015493	6906.251861	46475.247896	4021.396438	24695.258942
86.539000	-0.006135	-0.001828	-0.002701	-0.018934	6970.465753	46886.228675	4039.362139	24868.215601
87.036500	-0.008339	-0.001078	-0.004912	-0.016673	6929.484703	46733.720591	4028.080079	24754.387442
87.536000	-0.005962	-0.001546	-0.002572	-0.018395	6967.088340	46860.274588	4038.322754	24841.032764
88.037000	-0.007986	-0.001289	-0.003808	-0.018366	6948.211890	46883.293674	4035.122560	24839.568287
88.537000	-0.005870	-0.001717	-0.003555	-0.018000	6964.300221	46803.154958	4034.836605	24821.131844
89.035000	-0.008644	-0.001440	-0.003804	-0.015713	6917.952079	46600.753406	4028.450778	24706.280725
89.534000	-0.005914	-0.001809	-0.003807	-0.017146	6956.034928	46707.680389	4032.046029	24778.144128
90.035500	-0.008375	-0.000417	-0.006968	-0.011058	6878.227832	46237.556010	4008.997531	24474.371177
90.535000	-0.005515	-0.000556	-0.004014	-0.015604	6945.539930	46678.667485	4027.650320	24700.805719
91.035500	-0.006038	-0.000366	-0.004249	-0.015586	6940.586437	46695.973786	4027.017405	24699.918493
91.536000	-0.006050	-0.001706	-0.004048	-0.016284	6946.864917	46631.314185	4029.271909	24734.875071
92.036000	-0.009558	-0.001156	-0.007709	-0.010048	6858.511043	46063.582793	4004.685826	24424.362163
92.536500	-0.005392	-0.001441	-0.006530	-0.015660	6947.189283	46595.387809	4021.497190	24703.632154
93.037000	-0.007627	-0.001553	-0.005768	-0.014338	6914.696951	46451.562557	4020.099724	24637.515236
93.543000	-0.008589	-0.002248	-0.005215	-0.016042	6921.447579	46552.616134	4025.736322	24722.731909
94.037000	-0.008647	-0.000639	-0.009448	-0.008985	6857.141787	46009.410742	3997.824418	24371.850532
94.534500	-0.006220	-0.000566	-0.003568	-0.014241	6926.634083	46540.697640	4025.351869	24632.672167
95.035500	-0.008206	-0.001778	-0.005586	-0.014021	6906.554932	46397.349674	4019.764555	24621.705131
95.535500	-0.008156	-0.001684	-0.004318	-0.014571	6912.001374	46461.803226	4024.300538	24649.146242
96.035500	-0.007874	-0.001481	-0.003036	-0.014313	6912.215560	46456.188055	4026.865183	24636.242317
