sample name	sample
index	573
start time	 03-16-2021  03:09:52 PM
880	0.042201
Peak Time (s)	180.036
Peak Height 	0.0422
calc peak height	180,183
Baseline Time (s)	9.537
Baseline Value 	-0.006193
subtract baseline	10,4
Abs	0.039284
Peak Time (s)	180.036
Peak Height 	0.03928
calc peak height	180,183
Baseline Time (s)	8.536
Baseline Value 	0.005812
subtract baseline	10,3
PK_550	0.022919
Peak Time (s)	180.036
Peak Height 	0.02292
calc peak height	180,183
Baseline Time (s)	10.037
Baseline Value 	6.3709E-4
subtract baseline	10,2
PK_880	0.034144
Peak Time (s)	180.036
Peak Height 	0.03414
calc peak height	180,183
Baseline Time (s)	8.536
Baseline Value 	0.002519
subtract baseline	10,1


Time (s)	A880-A510	A880-A775	A880-A975	A880	I510	I775	I975	I880	
0.036500	0.000194	-0.000481	-0.003804	0.000964	5589.179105	34010.502973	3613.361930	18439.979363
0.537000	-0.003269	-0.000387	-0.002154	0.005396	5539.481812	33700.835325	3608.220005	18281.411858
1.037000	-0.002008	-0.000594	-0.001215	0.005577	5546.228634	33673.309413	3609.619501	18274.985615
1.539000	-0.001463	-0.000845	-0.000230	0.000268	5583.079879	34034.277246	3621.314795	18465.023319
2.038000	0.002205	-0.000752	-0.003747	0.000289	5606.291970	34039.464094	3614.719425	18464.267935
2.541000	-0.003511	-0.001037	-0.001430	0.003807	5547.899974	33767.573884	3612.492720	18338.081896
3.038000	0.000318	-0.000374	0.002357	-0.001660	5606.687929	34207.000795	3629.810100	18534.605676
3.535500	0.001295	-0.000532	-0.003161	0.000071	5601.872087	34070.946870	3616.212151	18472.114166
4.036500	0.001801	-0.000958	0.001491	-0.000515	5608.853452	34082.438048	3626.014791	18493.239038
4.536500	-0.001696	-0.000857	-0.000525	-0.000181	5584.448147	34065.697803	3621.603453	18481.203360
5.036500	0.000345	0.000555	-0.003066	0.000915	5590.445889	34088.370396	3614.820935	18441.722952
5.537000	0.002378	0.000756	-0.001657	0.000433	5606.480858	34137.532682	3618.341116	18459.082815
6.037000	-0.000764	0.000527	0.002404	0.000009	5589.159243	34151.577485	3626.748975	18474.354512
6.538000	0.001095	0.000044	-0.000947	0.000434	5598.285824	34086.214607	3619.664424	18459.043832
7.035000	-0.000469	0.000269	-0.001380	0.000193	5589.864450	34119.722398	3619.303710	18467.701760
7.536000	-0.000071	-0.000094	-0.004228	-0.000498	5596.796555	34143.426248	3615.288633	18492.641004
8.036000	-0.000302	0.000009	-0.002850	0.000234	5590.663928	34098.096974	3616.489173	18466.244080
8.536000	0.000000	0.000331	0.000000	0.000391	5591.586779	34110.002009	3621.514939	18460.587207
9.036000	0.001579	-0.000398	0.005081	-0.000249	5605.727577	34103.562455	3632.296922	18483.644340
9.536500	-0.000821	0.000764	0.001029	0.000000	5588.852367	34169.362445	3624.177186	18474.672673
10.036500	0.001797	0.000000	-0.006024	-0.000036	5605.764485	34116.907314	3611.103518	18475.981931
10.537000	0.000173	0.000173	0.003035	0.000088	5594.611268	34120.414761	3627.788428	18471.499077
11.037500	-0.000645	-0.000479	-0.001722	-0.000533	5593.361531	34118.125175	3620.021834	18493.883127
11.535000	-0.004209	-0.000090	-0.004846	0.003838	5543.338882	33832.821588	3606.134780	18336.956491
12.035000	0.002348	0.000461	0.002952	0.000594	5605.261458	34104.750781	3626.679105	18453.293047
12.538500	0.002072	0.000545	-0.001462	-0.000103	5607.950809	34160.999995	3619.705221	18478.392146
13.036000	0.004832	0.000554	0.002886	-0.001838	5636.842253	34286.881405	3631.147610	18541.041908
13.536000	-0.002852	0.000104	-0.002357	0.004073	5550.353796	33829.930515	3610.285622	18328.561229
14.036500	0.001152	0.000560	0.000810	0.000473	5598.397833	34120.544950	3622.878442	18457.619361
14.536500	-0.001259	-0.000511	-0.001288	0.002364	5571.115276	33908.035776	3615.432505	18389.716138
15.036500	0.000012	0.000117	-0.004893	0.000093	5593.555953	34115.984639	3612.957492	18471.320066
15.537500	-0.001945	-0.000630	0.000020	0.003156	5561.805143	33842.966509	3616.391725	18361.346046
16.037000	0.002018	0.000542	-0.000458	-0.000033	5607.157507	34155.754370	3621.451007	18475.870063
16.535000	0.002218	-0.000897	-0.000445	-0.001452	5617.525179	34154.288197	3624.136545	18527.093461
17.038000	-0.001800	-0.000460	-0.001746	-0.000865	5588.133178	34143.496067	3620.597652	18505.883100
17.536000	-0.000541	-0.000426	-0.002011	0.002013	5577.863434	33939.229280	3614.739702	18402.280035
18.035500	-0.001849	0.000320	0.002938	-0.000671	5586.583235	34185.634523	3629.038493	18498.855814
18.536000	-0.002085	-0.001172	-0.005281	0.000095	5580.241956	34023.240631	3612.235392	18471.266014
19.036500	-0.003823	-0.000788	-0.000715	0.000443	5567.059139	34025.829322	3620.080429	18458.722961
19.537000	-0.002959	-0.001336	-0.002946	0.002005	5562.665492	33874.784096	3613.022405	18402.598226
20.037000	-0.002221	-0.000126	0.002349	0.000808	5574.862216	34047.101332	3625.138954	18445.565153
20.537000	-0.001915	-0.000721	0.004883	0.000279	5580.142497	34042.408762	3630.920336	18464.608267
21.034500	0.000901	-0.000444	0.003432	0.001201	5592.167872	33996.109022	3626.439953	18431.456408
21.535500	-0.002804	-0.000467	0.001519	0.002098	5563.060315	33930.265452	3621.164742	18399.262345
22.035000	-0.001365	0.000073	-0.008904	0.001277	5577.313171	34027.744052	3603.389959	18428.716995
22.535000	-0.000451	-0.000452	0.000497	0.000481	5588.154967	34047.272555	3622.278886	18457.362897
23.038500	-0.004739	-0.000371	-0.000926	0.000783	5559.156059	34031.352500	3619.051494	18446.486855
23.536000	-0.001472	-0.000296	0.000245	0.002909	5566.333774	33884.492784	3617.271005	18370.189837
24.036500	-0.001490	-0.000790	-0.000601	0.000095	5584.003965	34050.670192	3620.943476	18471.249227
24.537000	-0.000514	0.000019	-0.003210	0.001251	5582.865249	34025.725226	3613.928659	18429.638934
25.037000	0.000726	-0.000880	0.001033	0.000598	5594.887807	34008.072633	3623.062750	18453.120505
25.537500	-0.001200	0.000323	-0.000931	0.001669	5575.876621	34017.552566	3617.388816	18414.626145
26.035500	-0.002264	0.000689	-0.003118	0.001827	5568.163517	34032.503344	3613.032768	18408.965934
26.538000	-0.001355	-0.000335	-0.008715	0.000684	5581.126269	34041.020520	3604.821834	18450.025843
27.035000	-0.002815	-0.000415	0.002423	0.001191	5568.699203	33998.920736	3624.560141	18431.814697
27.536000	0.001111	0.000566	0.003765	0.001554	5591.257472	34043.328746	3626.401859	18418.785996
28.036000	0.002107	0.000465	0.005072	-0.001894	5619.647717	34284.540952	3635.406279	18543.062756
28.537500	0.002480	0.000900	0.002132	0.000169	5608.822572	34166.957008	3625.934385	18468.592415
29.050000	0.000807	-0.000869	0.000252	-0.001308	5607.565917	34145.926901	3625.176377	18521.878234
29.537000	-0.000651	-0.000495	0.000321	-0.000707	5594.427666	34129.494038	3624.174484	18500.154876
30.037000	0.000372	0.000442	0.001362	-0.000394	5598.951307	34174.507416	3625.544149	18488.866700
30.535000	-0.003617	-0.000475	-0.007001	0.005410	5537.220486	33693.564868	3599.318455	18280.907919
31.035000	0.000073	0.000159	0.000551	-0.000640	5598.613748	34171.835907	3624.482524	18497.754353
31.535000	-0.001519	-0.000100	0.001636	0.002725	5567.197087	33911.633696	3620.208913	18376.765914
32.036000	-0.000350	0.000022	-0.003511	0.002366	5576.841074	33945.992292	3611.308413	18389.630765
32.538000	-0.001432	0.000270	-0.003728	0.004117	5558.986589	33838.627849	3607.677926	18327.005069
33.041500	0.000473	0.000137	-0.003775	-0.000060	5597.463964	34128.478326	3615.313575	18476.821605
33.537000	0.000687	0.000753	0.004281	0.000218	5597.061236	34152.815763	3629.896961	18466.813237
34.036500	0.001003	-0.000309	0.001969	-0.000854	5605.917454	34153.537057	3627.555682	18505.493856
34.537000	-0.002125	0.000870	0.000082	0.005375	5546.753402	33791.691446	3612.387837	18282.153197
35.037000	-0.000194	-0.000126	-0.003408	0.000944	5586.840702	34037.387919	3614.131213	18440.681957
35.535000	-0.003252	-0.000452	-0.005341	0.003057	5554.215066	33862.738966	3606.659576	18364.873090
36.038000	-0.002345	-0.000844	-0.005940	0.000909	5573.441723	33988.389093	3609.513189	18441.947597
36.535500	-0.003893	-0.000014	-0.004634	0.002105	5556.167589	33962.145533	3609.714849	18398.982143
37.035500	0.001332	0.000459	0.004229	0.002167	5588.768768	33991.593206	3626.120414	18396.776242
37.536000	-0.001704	-0.000288	0.000191	0.003792	5559.316884	33822.004518	3615.525753	18338.593419
38.036000	-0.002615	-0.001236	0.000963	0.001204	5569.879324	33939.152851	3621.795266	18431.333892
38.536500	-0.000642	-0.000282	-0.000156	0.002381	5574.906782	33923.185317	3617.507522	18389.102102
39.037000	-0.002908	0.000222	-0.005438	0.002146	5562.100013	33976.161460	3608.158018	18397.526663
39.537000	-0.000586	0.000006	0.002075	0.003579	5567.693247	33858.155180	3619.432796	18346.212721
40.034500	-0.000611	-0.000349	-0.001183	0.001991	5577.563228	33946.322305	3616.319445	18403.071752
40.535000	0.000416	-0.000019	0.002098	0.002047	5583.714531	33965.929984	3622.342749	18401.064987
41.035000	-0.001419	-0.000043	-0.002654	0.002066	5571.980369	33962.838061	3613.449462	18400.377432
41.536000	-0.005152	-0.000030	-0.002471	0.003142	5541.796449	33886.830801	3611.797215	18361.864994
42.036000	-0.002458	-0.000724	-0.002605	0.001214	5570.810327	33975.116177	3615.121831	18430.997530
42.536500	-0.000962	-0.001069	0.001574	0.001574	5577.985225	33924.623969	3622.247936	18418.058405
43.036500	-0.001988	-0.000599	-0.001321	0.002016	5568.711111	33926.650723	3616.018170	18402.181822
43.536500	-0.000806	0.000209	-0.000603	0.003896	5564.314549	33850.055946	3613.860131	18334.907398
44.037000	-0.000085	-0.000334	-0.004863	0.002253	5579.232394	33928.654368	3609.019877	18393.685216
44.534500	0.000470	-0.001169	-0.003277	0.001378	5588.299338	33931.536139	3613.571026	18425.088097
45.035000	0.001544	0.000493	0.004992	-0.002689	5621.140148	34344.118425	3636.768887	18571.866673
45.535000	-0.001865	-0.000235	-0.005095	0.003981	5557.124878	33812.317748	3605.415538	18331.872234
46.035500	-0.001687	0.000460	-0.001073	0.000045	5583.071875	34144.183725	3620.155947	18473.054335
46.535500	-0.000801	-0.000826	0.001025	-0.000946	5594.993591	34122.907632	3625.948586	18508.785248
47.036000	-0.001626	-0.000448	0.000993	-0.000624	5587.706289	34126.932722	3625.284186	18497.179239
47.536500	-0.001058	-0.000795	-0.002477	0.003868	5562.902999	33780.513656	3610.443180	18335.896449
48.036500	0.002763	0.000591	-0.000288	0.000583	5607.982035	34114.885980	3620.616364	18453.680908
48.545000	0.000108	-0.000383	0.001236	0.002981	5575.853794	33873.076131	3618.982673	18367.604590
49.037500	-0.001127	0.000195	-0.000241	0.003146	5567.015413	33902.616272	3615.923804	18361.695071
49.537000	-0.004139	-0.000288	0.006510	0.004430	5540.077233	33776.557560	3626.153775	18315.819253
50.048500	0.001309	0.000105	0.001269	-0.000476	5605.457708	34156.158066	3625.525145	18491.839748
50.535500	-0.003583	-0.000546	-0.000157	0.003912	5546.792879	33795.113217	3614.658643	18334.331055
51.035500	-0.000252	0.000750	0.000518	0.000251	5590.876236	34150.275449	3622.748839	18465.645839
51.536000	-0.002795	0.000123	-0.006609	0.004288	5549.363601	33815.922150	3602.079715	18320.887929
52.036500	-0.000180	0.000505	0.001026	0.000527	5589.582476	34112.712942	3623.184313	18455.701574
52.536500	-0.003323	-0.000636	-0.002898	0.009209	5515.469106	33413.702518	3599.873219	18146.296175
53.036500	0.017958	0.005527	0.008912	0.003050	5690.588570	34293.058695	3633.307525	18365.144325
53.537000	-0.003676	-0.009506	-0.002319	0.146862	4784.516909	24663.222956	3385.638544	13983.960532
54.037000	-0.005435	-0.015205	-0.003976	-0.104738	6304.074049	41270.721481	3834.780566	22743.369116
54.534500	-0.018114	-0.058480	-0.008059	-0.343628	8678.300272	63127.349897	4570.867643	37352.118483
55.035000	-0.000417	-0.101157	0.004398	-0.403317	9818.908715	65535.000000	4889.380565	42439.287065
55.535000	0.003786	-0.068730	0.005240	-0.366491	9313.201104	64903.446574	4723.906318	39218.597829
56.035500	-0.002859	-0.034210	-0.003563	-0.314181	8490.290489	62413.134360	4472.461479	35088.527630
56.536000	-0.009592	-0.018029	-0.011919	-0.270577	7870.864286	58768.776148	4284.814865	32006.357399
57.036500	0.001063	-0.009814	-0.006909	-0.256229	7828.188279	57984.821901	4253.408238	31057.978434
57.536500	-0.000186	-0.005950	-0.011560	-0.238030	7609.320645	56194.797024	4179.344428	29899.226027
58.037000	0.002245	-0.003244	-0.005329	-0.201701	7250.500260	52221.232315	4087.549539	27726.469823
58.537000	0.003473	-0.002451	-0.003326	-0.186315	7108.722510	50589.929690	4048.729666	26859.633303
59.037500	-0.002613	-0.003026	-0.001887	-0.149789	6708.889997	46681.540888	3952.462675	24920.753856
59.537500	0.001232	-0.001930	-0.003987	-0.124523	6522.227187	44309.071000	3882.595237	23671.848873
60.035000	-0.001376	-0.003471	-0.001653	-0.105198	6340.406060	42364.534246	3841.378105	22764.470313
60.535500	-0.004747	-0.002145	-0.008061	-0.079749	6115.049565	40229.920694	3768.317840	21629.539658
61.035500	-0.004215	-0.001953	-0.006108	-0.071402	6056.464234	39534.693055	3754.287654	21271.531126
61.536000	0.000301	-0.000826	0.002000	-0.064214	6036.681979	39026.333525	3756.292335	20968.706464
62.036000	-0.003072	-0.001441	-0.002959	-0.068957	6046.809921	39371.767642	3755.821934	21167.975138
62.536500	-0.000369	-0.000526	-0.000505	-0.062953	6022.458768	38946.431328	3748.109804	20916.110942
63.036500	-0.000144	0.000594	-0.004388	-0.061118	6010.640563	38886.991661	3735.816539	20839.794730
63.536500	0.000854	0.005716	-0.011563	-0.072015	6098.953033	40240.857277	3743.799373	21297.592085
64.037500	-0.002818	0.005506	-0.003683	-0.076828	6107.551586	40639.161170	3771.542822	21503.468978
64.538000	-0.003414	0.005692	-0.003491	-0.070800	6057.950786	40134.387787	3758.687717	21245.996857
65.035000	-0.004132	0.006907	-0.004887	-0.068565	6036.076775	40046.884717	3750.775356	21151.434190
65.535500	-0.002364	0.006949	-0.005581	-0.064472	6018.957636	39701.641105	3740.444702	20979.503157
66.036500	-0.003460	0.006433	-0.005183	-0.060544	5982.284805	39326.519062	3732.897789	20816.022798
66.536500	-0.004058	0.006632	-0.007966	-0.055055	5938.419240	38884.971352	3715.455679	20590.030950
67.036500	-0.006742	0.006101	-0.002951	-0.053549	5908.577375	38716.351648	3722.814393	20528.536701
67.537000	-0.006506	0.006048	-0.007526	-0.044157	5844.355726	37944.843774	3693.871746	20149.741613
68.037000	-0.005060	0.006565	-0.001010	-0.047447	5877.406522	38253.825906	3714.093984	20281.516992
68.537500	-0.004046	0.007402	0.000703	-0.042993	5853.371187	37960.294049	3708.397500	20103.389198
69.038000	-0.001662	0.007940	-0.000190	-0.041547	5859.902985	37886.966649	3703.560844	20045.934447
69.535000	-0.008351	0.005821	-0.004471	-0.035425	5771.842647	37228.417020	3682.373378	19804.849529
70.035500	-0.002771	0.008246	-0.000544	-0.037959	5827.316431	37623.204201	3695.472747	19904.225090
70.535500	-0.004146	0.007625	-0.005994	-0.036019	5804.527622	37418.825975	3680.505668	19828.105913
71.036000	-0.001410	0.007253	-0.002747	-0.034920	5815.762660	37301.953071	3684.829990	19785.127614
71.536000	-0.006844	0.007142	-0.007192	-0.027909	5731.421691	36741.645506	3662.012381	19513.486371
72.036500	-0.003034	0.007693	-0.002816	-0.031278	5779.779670	37048.858315	3677.371126	19643.470207
72.537000	-0.000518	0.007161	-0.003017	-0.029079	5781.927702	36834.543964	3672.582703	19558.510876
73.037000	-0.001955	0.007314	0.005782	-0.028544	5768.564445	36804.686480	3689.185417	19537.920775
73.535000	-0.005306	0.007347	0.003431	-0.021058	5696.155667	36227.114087	3669.460572	19252.296641
74.035500	0.000362	0.008071	0.002835	-0.025315	5762.397183	36611.928210	3676.748572	19414.094139
74.535500	-0.000010	0.008310	0.000661	-0.023771	5749.489966	36510.673601	3669.346221	19355.218559
75.035500	0.000997	0.007544	0.001687	-0.023907	5757.180491	36461.889577	3671.653090	19360.398836
75.536000	0.000130	0.008853	0.003428	-0.016098	5699.296760	35962.756616	3659.674631	19065.719021
76.036500	0.002604	0.009037	0.003132	-0.020529	5745.274190	36316.387690	3667.818327	19232.267455
76.536500	-0.000419	0.009666	0.004174	-0.018698	5712.878402	36223.917555	3666.258725	19163.248657
77.036500	0.001065	0.009193	0.008051	-0.019408	5727.471584	36242.147759	3675.367495	19189.978123
77.537000	0.004667	0.010203	0.005262	-0.017121	5736.258432	36144.059853	3665.292585	19104.000559
78.037500	0.005061	0.010603	0.005579	-0.015935	5730.959969	36083.841488	3663.580090	19059.600316
78.537500	0.003336	0.010391	0.007483	-0.014504	5709.963106	35958.401970	3664.511286	19006.188193
79.035500	0.003440	0.010235	0.002773	-0.014100	5707.978467	35915.816441	3654.491082	18991.159762
79.536000	-0.001261	0.010053	0.003733	-0.007864	5636.411708	35430.819890	3644.272076	18760.648750
80.035500	0.004942	0.010569	0.013510	-0.012143	5704.963712	35792.464505	3671.769249	18918.460359
80.536000	0.003780	0.010379	0.002383	-0.011408	5692.432543	35722.407483	3648.506096	18891.244039
81.036500	0.005745	0.010820	0.005707	-0.011238	5704.289583	35742.896821	3654.630152	18884.964889
81.536500	0.003352	0.009812	0.009314	-0.005096	5648.364700	35205.938721	3649.706188	18659.423409
82.037000	0.007535	0.011269	0.006919	-0.010408	5710.642620	35714.013721	3655.374493	18854.286646
82.534500	0.006886	0.011906	0.009708	-0.009203	5698.376824	35671.131687	3658.470028	18809.885233
83.037500	0.006935	0.011346	0.011888	-0.009576	5701.164647	35657.016919	3663.482264	18823.626517
83.535000	0.006918	0.011890	0.006859	-0.009067	5697.686291	35659.618445	3652.647557	18804.864415
84.035000	0.005817	0.011834	0.016185	-0.008194	5684.685742	35589.584861	3669.241096	18772.786192
84.535500	0.007170	0.011649	0.010082	-0.007924	5691.811627	35555.284896	3656.699523	18762.865030
85.036000	0.010122	0.011964	0.012263	-0.008647	5716.133283	35633.509927	3662.391273	18789.425384
85.536000	0.011011	0.012491	0.017984	-0.007572	5714.897232	35592.224272	3671.577728	18749.968262
86.036500	0.010188	0.013226	0.010011	-0.007461	5708.699584	35639.272682	3655.657659	18745.876394
86.537000	0.011463	0.011874	0.007328	-0.007094	5714.719262	35509.713114	3649.728807	18732.424339
87.037000	0.011961	0.011936	0.008116	-0.007860	5723.128087	35572.096845	3652.744849	18760.519613
87.537000	0.012190	0.012774	0.012201	-0.007545	5722.557617	35611.495016	3660.106937	18748.977257
88.038000	0.013677	0.011579	0.015044	-0.007948	5735.167296	35551.816743	3666.495311	18763.740921
88.535000	0.013865	0.012904	0.014923	-0.006635	5727.659040	35552.778036	3663.668001	18715.642056
89.035500	0.014391	0.012216	0.008582	-0.008123	5741.120372	35612.971315	3654.161920	18770.156907
89.536000	0.009991	0.012692	0.011960	-0.001484	5668.065035	35151.385095	3647.834415	18528.230178
90.036000	0.016449	0.013393	0.016048	-0.006854	5746.417798	35606.099683	3666.319507	18723.659293
90.536500	0.012969	0.012638	0.011394	-0.007287	5726.025695	35581.769039	3658.018855	18739.490730
91.036000	0.016487	0.012899	0.013934	-0.007335	5749.899414	35605.094940	3663.098638	18741.263293
91.537000	0.013353	0.012337	0.014555	-0.002217	5694.950348	35179.567939	3654.293933	18554.771552
92.037000	0.013578	0.012462	0.013041	-0.007670	5732.645143	35597.379662	3661.999453	18753.539436
92.540000	0.018044	0.013177	0.016105	-0.006421	5754.231300	35557.192978	3665.576440	18707.805211
93.035000	0.015992	0.013262	0.017516	-0.007094	5744.952838	35614.274339	3669.698966	18732.420428
93.535500	0.010409	0.012748	0.017774	-0.001482	5670.787391	35155.438365	3659.144790	18528.176546
94.035000	0.017061	0.014110	0.018310	-0.006278	5746.654465	35616.678476	3669.654709	18702.556111
94.536000	0.015635	0.012704	0.020422	-0.007120	5742.738005	35574.157474	3675.533539	18733.386948
95.036000	0.018060	0.012643	0.017727	-0.006836	5757.130737	35548.207287	3669.605426	18722.987113
95.536500	0.013302	0.013080	0.017239	-0.000818	5685.404487	35130.745994	3656.800585	18504.188837
96.036500	0.015625	0.012767	0.017861	-0.006181	5736.376074	35508.226836	3668.572273	18699.014869
96.536500	0.014069	0.012834	0.010681	-0.006590	5728.716331	35544.037305	3655.265323	18713.983078
97.037500	0.016586	0.012476	0.021751	-0.006700	5746.298477	35525.378706	3677.350693	18718.000617
97.535000	0.013612	0.012106	0.010336	-0.001441	5691.539880	35104.688507	3644.619553	18526.685688
98.035500	0.014671	0.011991	0.017121	-0.006153	5729.820808	35447.825255	3667.053623	18698.002173
98.535500	0.017807	0.013004	0.020256	-0.006286	5751.722586	35533.994246	3673.539065	18702.872049
99.036000	0.014993	0.012005	0.015003	-0.006845	5736.599301	35500.928273	3664.239378	18723.324589
99.536000	0.012665	0.011898	0.016090	-0.001293	5684.344725	35078.261693	3655.484558	18521.354407
100.036000	0.016307	0.011949	0.018164	-0.005536	5736.630379	35398.467851	3667.895858	18675.467783
100.536000	0.015211	0.011762	0.019401	-0.006476	5735.584304	35454.865656	3672.214930	18709.800635
101.036500	0.015347	0.011727	0.018929	-0.006381	5735.859904	35445.202433	3671.088616	18706.343651
101.537000	0.012334	0.010772	0.019294	-0.001157	5681.271223	34984.761949	3661.489530	18516.414119
102.039500	0.014758	0.011710	0.022753	-0.004262	5717.797656	35285.231466	3674.480916	18629.017759
102.535000	0.012968	0.011049	0.019851	-0.006562	5721.187422	35407.881774	3673.280463	18712.939372
103.035500	0.016266	0.011472	0.020848	-0.006133	5740.350095	35407.480697	3674.415040	18697.274612
103.535500	0.016394	0.012014	0.014023	-0.005656	5738.014804	35412.255664	3659.973427	18679.831161
104.036000	0.013084	0.011575	0.017765	-0.003187	5699.580908	35195.035207	3662.473314	18589.945429
104.536000	0.017529	0.011707	0.017475	-0.004830	5740.081560	35327.519887	3665.140295	18649.718316
105.036500	0.015877	0.011322	0.016085	-0.004537	5727.075625	35276.765085	3661.825904	18639.025494
105.537000	0.019696	0.013188	0.015862	-0.003245	5743.982604	35319.682953	3658.853654	18592.045029
106.037000	0.012755	0.011487	0.020018	-0.001612	5687.027752	35071.456474	3663.808345	18532.881487
106.537500	0.016611	0.011737	0.018575	-0.002956	5721.439800	35189.916090	3663.614879	18581.573751
107.035000	0.015752	0.011961	0.020423	-0.002664	5713.785245	35184.865437	3666.684266	18570.987505
107.537500	0.016060	0.011377	0.018223	-0.002763	5716.494903	35148.756358	3662.541308	18574.582561
108.035000	0.016607	0.010116	0.019070	-0.000438	5704.699080	34883.193037	3659.639394	18490.472703
108.535500	0.019437	0.011314	0.014075	-0.001298	5729.216987	35035.309841	3651.572694	18521.503669
109.036000	0.019638	0.011568	0.021717	-0.001227	5730.095914	35048.894753	3666.402374	18518.966097
109.536500	0.019806	0.012173	0.020019	-0.000374	5725.522519	35030.534416	3661.375402	18488.150000
110.036500	0.015388	0.010806	0.023743	0.002303	5678.606625	34732.311289	3663.433808	18391.886455
110.536500	0.018788	0.011584	0.025714	0.000625	5712.110249	34913.090640	3670.650595	18452.181870
111.037500	0.018901	0.011853	0.024960	0.001212	5708.959917	34889.658428	3667.990379	18431.056425
111.540500	0.019593	0.012702	0.020585	0.002347	5706.028365	34868.519135	3657.153777	18390.306198
112.034500	0.023536	0.012642	0.019252	0.002045	5734.272657	34886.375671	3655.141436	18401.152491
112.535500	0.019219	0.011854	0.019900	0.002537	5702.292246	34792.073096	3655.445035	18383.495432
113.035500	0.017077	0.011956	0.019989	0.002599	5687.755044	34795.051163	3655.497330	18381.282764
113.535500	0.017426	0.011260	0.025091	0.002481	5690.833685	34752.618747	3665.741882	18385.529486
114.036500	0.020256	0.013510	0.021718	0.004865	5693.774278	34742.727044	3654.451112	18300.323880
114.537000	0.021532	0.013999	0.017184	0.005346	5699.018343	34743.364091	3644.737519	18283.196123
115.036500	0.019055	0.013158	0.017760	0.004435	5688.691878	34748.465427	3647.605781	18315.654983
115.537000	0.015268	0.010728	0.021202	0.009575	5630.538674	34197.377271	3644.330895	18133.371736
116.037000	0.019883	0.012928	0.025155	0.006158	5682.811432	34605.386171	3658.638998	18254.319680
116.537000	0.022311	0.013841	0.025510	0.007027	5693.067244	34608.637488	3657.633421	18223.471819
117.035000	0.022227	0.012385	0.027878	0.006414	5696.551429	34546.984665	3663.481748	18245.206725
117.535500	0.019261	0.012706	0.020281	0.006360	5677.402491	34574.379344	3648.757864	18247.135647
118.035500	0.020213	0.013707	0.025978	0.007635	5675.283412	34554.366377	3657.357536	18201.912007
118.536000	0.021986	0.012901	0.027645	0.007779	5685.973870	34485.098582	3660.339925	18196.810305
119.036500	0.021827	0.013974	0.025344	0.009303	5674.930389	34452.331037	3652.871525	18142.974042
119.536500	0.015531	0.012938	0.018755	0.013750	5605.432707	34055.936527	3631.682407	17986.913910
120.036500	0.022075	0.013444	0.023968	0.009463	5675.508616	34402.131104	3649.889807	18137.323485
120.537000	0.023011	0.015136	0.022862	0.010773	5673.056524	34429.920506	3645.220021	18091.196618
121.037000	0.021961	0.013736	0.028261	0.010227	5669.762660	34367.821964	3656.754744	18110.402528
121.538000	0.019893	0.013656	0.023318	0.016259	5617.296467	33927.500319	3635.584270	17899.553391
122.035000	0.020433	0.014068	0.025178	0.016500	5619.217567	33939.733171	3638.675071	17891.198196
122.535500	0.022360	0.014758	0.026689	0.012065	5660.366704	34308.706708	3650.119491	18045.833498
123.036000	0.023504	0.014752	0.030956	0.012195	5666.989265	34298.889328	3658.176103	18041.302121
123.536000	0.019637	0.014133	0.022012	0.017812	5605.708407	33850.577544	3630.156010	17845.727685
124.036000	0.020213	0.014394	0.023528	0.018236	5606.684223	33839.015284	3632.226896	17831.086902
124.536500	0.024412	0.015701	0.030107	0.014305	5659.143054	34214.941130	3652.405548	17967.540422
125.037000	0.023945	0.015500	0.031416	0.013994	5658.133837	34222.910596	3655.561641	17978.394445
125.539500	0.019932	0.014182	0.028837	0.018752	5601.594313	33787.081677	3641.368423	17813.259560
126.037500	0.020134	0.015260	0.026115	0.019954	5595.221561	33778.276017	3633.875683	17771.825598
126.535000	0.024632	0.016038	0.021228	0.014658	5658.281668	34213.816030	3634.654502	17955.247073
127.034500	0.025294	0.015535	0.023967	0.014975	5660.527084	34154.623503	3639.274850	17944.188500
127.535000	0.023534	0.015259	0.022410	0.021262	5608.568020	33685.225197	3624.400483	17726.864477
128.036000	0.022036	0.014924	0.026308	0.021489	5597.556457	33645.268128	3631.328613	17719.065891
128.536000	0.023183	0.015260	0.026490	0.015536	5643.161594	34094.385069	3643.036145	17924.653270
129.036000	0.024096	0.015842	0.029352	0.016434	5643.264957	34071.702772	3646.819215	17893.481856
129.537000	0.028095	0.015495	0.029182	0.016602	5668.185938	34034.681766	3646.167295	17887.637250
130.037000	0.021627	0.016062	0.020974	0.022735	5587.029986	33637.645082	3618.952997	17676.401038
130.537000	0.025479	0.016461	0.028761	0.017830	5643.177306	34015.932272	3642.991665	17845.108478
131.037000	0.028123	0.016608	0.030694	0.018112	5658.518779	34006.200751	3646.171048	17835.355826
131.535500	0.022849	0.015899	0.030300	0.023217	5591.731991	33591.997714	3635.629353	17659.924460
132.035500	0.023031	0.015967	0.029001	0.023486	5591.178171	33577.817119	3632.649287	17650.746921
132.535500	0.024512	0.016694	0.027724	0.018381	5633.364639	33993.059873	3639.945412	17826.053931
133.035500	0.026098	0.017868	0.034447	0.019821	5634.312442	33974.026197	3650.124224	17776.411721
133.536500	0.028042	0.016974	0.028820	0.019423	5649.465273	33938.485372	3640.048196	17790.099549
134.036500	0.024612	0.017239	0.028645	0.025947	5585.589334	33493.804174	3627.319457	17566.959317
134.536000	0.026212	0.017054	0.033930	0.020233	5632.387093	33886.316454	3648.325403	17762.229426
135.040000	0.022913	0.017190	0.024382	0.020507	5609.427084	33876.456520	3629.540756	17752.793528
135.534500	0.023884	0.016694	0.025095	0.026233	5579.169200	33435.261218	3620.118300	17557.261533
136.035000	0.024704	0.016067	0.031338	0.026244	5584.294734	33390.325257	3631.850706	17556.892414
136.535500	0.027255	0.019324	0.026883	0.023109	5620.582821	33843.060407	3629.349167	17663.607051
137.035000	0.026706	0.018650	0.033107	0.022460	5621.229133	33841.326568	3642.448157	17685.825747
137.536000	0.021448	0.017301	0.018973	0.027438	5556.219962	33393.144497	3606.537565	17516.432586
138.036500	0.025428	0.018286	0.026321	0.028439	5574.975756	33391.995539	3618.288304	17482.596211
138.536500	0.028998	0.019119	0.032454	0.023139	5631.613999	33826.335469	3639.893203	17662.610843
139.037000	0.028764	0.019379	0.030858	0.024120	5623.785082	33774.956584	3634.974489	17629.124005
139.537500	0.023011	0.018220	0.023216	0.028963	5556.453862	33350.515938	3611.548304	17464.914428
140.034500	0.025234	0.017858	0.030249	0.029757	5565.435231	33269.459398	3623.169509	17438.165257
140.537500	0.028361	0.018034	0.033361	0.023533	5624.967772	33721.026784	3640.876230	17649.140077
141.035000	0.025622	0.018719	0.031787	0.024661	5600.196202	33689.548787	3635.711617	17610.686983
141.535500	0.031676	0.018861	0.029521	0.024975	5637.044927	33677.290758	3630.811166	17599.988417
142.035500	0.028376	0.017873	0.033003	0.029287	5588.285306	33303.513415	3629.240755	17454.004995
142.536000	0.031215	0.019580	0.033265	0.025590	5630.098098	33684.709513	3636.757835	17579.072785
143.036000	0.029200	0.019047	0.033809	0.025334	5618.784798	33665.078671	3638.286487	17587.797794
143.536500	0.028394	0.018560	0.031927	0.025288	5613.906504	33633.719565	3634.783502	17589.333226
144.037000	0.030575	0.019324	0.033671	0.026255	5621.698711	33619.396495	3636.264816	17556.499229
144.539500	0.029019	0.020178	0.030336	0.026979	5607.091102	33628.605832	3628.563961	17531.979910
145.034500	0.029546	0.019911	0.029253	0.026644	5612.606321	33633.435603	3627.152965	17543.331134
145.535000	0.029188	0.019263	0.033905	0.027106	5607.353906	33554.847289	3635.088014	17527.660844
146.035500	0.027936	0.019303	0.031926	0.031268	5572.956285	33264.926755	3623.481836	17387.436777
146.535500	0.029338	0.019382	0.027426	0.027283	5607.179000	33550.749285	3622.516006	17521.672872
147.035500	0.028463	0.019085	0.030920	0.026982	5603.520699	33551.064906	3629.662699	17531.881003
147.535500	0.025824	0.019710	0.027270	0.033787	5543.863402	33117.391997	3610.125294	17303.189419
148.036500	0.030803	0.020731	0.025559	0.028894	5606.246712	33532.238142	3616.022077	17467.246488
148.536500	0.030511	0.019484	0.028328	0.027675	5612.182643	33530.275054	3623.472816	17508.414867
149.039500	0.029722	0.020078	0.031664	0.028874	5599.476667	33487.603117	3627.494297	17467.938190
149.537000	0.026653	0.019539	0.027359	0.033064	5553.577648	33155.844276	3611.627195	17327.322236
150.034500	0.030709	0.019985	0.038558	0.028993	5605.014218	33472.669550	3640.372538	17463.923544
150.535000	0.031712	0.020160	0.028926	0.029308	5609.414386	33462.776766	3621.532222	17453.299484
151.035500	0.032310	0.020662	0.035405	0.030227	5607.360427	33433.360753	3632.008712	17422.364142
151.536000	0.027593	0.020404	0.031944	0.035829	5542.159750	33023.613895	3614.998839	17235.274702
152.036000	0.027168	0.019448	0.028866	0.034900	5545.306278	33021.687135	3611.017569	17266.132285
152.536500	0.031342	0.020850	0.031735	0.030121	5601.856573	33454.131324	3625.278334	17425.946718
153.036500	0.030962	0.021272	0.036956	0.030965	5594.053743	33424.338386	3633.552752	17397.579423
153.539500	0.026970	0.020422	0.030793	0.036546	5533.802903	32975.014937	3611.536805	17211.485739
154.037000	0.027602	0.021769	0.032004	0.035856	5542.044480	33116.695093	3615.061273	17234.373789
154.535000	0.030490	0.020541	0.027487	0.030940	5591.209793	33374.701634	3615.801482	17398.418913
155.034500	0.030612	0.021201	0.036127	0.031593	5587.840284	33375.216842	3630.789460	17376.533362
155.535500	0.027121	0.020554	0.027387	0.037424	5529.280942	32923.324642	3603.653829	17182.424006
156.035500	0.029715	0.020343	0.035248	0.036161	5553.360646	32996.333346	3620.539349	17224.259991
156.535500	0.030771	0.020951	0.034191	0.031979	5586.401115	33330.590843	3626.404114	17363.610031
157.036500	0.032123	0.021040	0.034455	0.032571	5591.222342	33295.287361	3625.785400	17343.780011
157.536500	0.031015	0.021058	0.034298	0.032282	5586.025315	33316.791422	3626.034466	17353.460106
158.036500	0.027477	0.019227	0.024517	0.035367	5544.319146	32973.937647	3602.166197	17250.592209
158.539500	0.032296	0.020709	0.033270	0.032778	5591.005489	33257.540465	3623.169286	17336.858277
159.034500	0.032207	0.020952	0.040286	0.033063	5588.628003	33254.670065	3635.895994	17327.340107
159.537500	0.031966	0.021086	0.035172	0.033282	5585.716462	33248.738833	3625.798551	17320.051118
160.035000	0.031612	0.022373	0.031609	0.038620	5549.836736	32966.596163	3609.214909	17142.957735
160.538000	0.030903	0.021855	0.035632	0.034214	5573.082672	33237.302277	3624.908307	17288.958907
161.035500	0.031640	0.021922	0.032643	0.034472	5576.107408	33223.902742	3618.826252	17280.355604
161.536500	0.029309	0.021102	0.029314	0.040054	5526.534327	32779.574519	3602.366875	17095.723151
162.036000	0.029261	0.021386	0.029553	0.038204	5537.751528	32927.014702	3606.196836	17156.677663
162.536500	0.032889	0.022096	0.034536	0.035110	5579.974508	33191.486780	3621.171886	17259.147740
163.036500	0.032696	0.021119	0.038184	0.034452	5582.919549	33169.198125	3629.270276	17281.019427
163.537000	0.030621	0.022421	0.034824	0.035140	5565.464086	33212.145126	3621.656419	17258.151831
164.037500	0.031310	0.021324	0.030770	0.037464	5555.191723	32973.947644	3609.799299	17181.124639
164.537500	0.032069	0.021064	0.030684	0.034833	5576.541708	33138.852882	3614.509968	17268.362971
165.035000	0.031140	0.021600	0.034995	0.035362	5567.335036	33139.316105	3621.559643	17250.776245
165.535500	0.030785	0.021534	0.030123	0.040756	5531.344684	32760.960634	3602.562596	17072.680094
166.035500	0.032957	0.022176	0.040071	0.036304	5572.856430	33113.818046	3629.336618	17219.507429
166.535500	0.032046	0.021660	0.032704	0.035635	5571.324620	33124.472590	3616.772494	17241.695475
167.036500	0.031639	0.021915	0.035662	0.035972	5566.641885	33118.750631	3621.667384	17230.527921
167.539500	0.033214	0.021555	0.036828	0.036539	5572.995812	33054.245151	3622.789567	17211.716639
168.039500	0.033041	0.021846	0.042677	0.036421	5572.652472	33082.675409	3634.057115	17215.644085
168.537000	0.033631	0.021900	0.036470	0.036677	5574.761768	33068.648459	3621.860850	17207.160838
169.034500	0.032554	0.022148	0.039290	0.037137	5565.065607	33053.892963	3626.293000	17191.924548
169.534500	0.030488	0.021131	0.032031	0.041589	5524.325769	32676.008205	3604.531679	17045.389116
170.035000	0.033729	0.022037	0.033379	0.037138	5572.460817	33046.047790	3615.232430	17191.878944
170.535500	0.034932	0.022120	0.034607	0.036940	5581.325830	33065.596783	3617.886638	17198.434927
171.035500	0.036186	0.022955	0.035588	0.038770	5577.680029	32996.498837	3616.306603	17138.008091
171.536000	0.031678	0.021650	0.025497	0.043608	5519.188525	32573.149141	3589.003499	16979.403710
172.036500	0.032279	0.022638	0.033838	0.041091	5538.566916	32813.973802	3608.769451	17061.715074
172.539500	0.032501	0.021742	0.033643	0.037944	5559.654887	32969.638116	3614.226629	17165.245918
173.037000	0.031760	0.022260	0.038096	0.038000	5554.648428	33001.698411	3622.427803	17163.394907
173.537500	0.028823	0.021477	0.025268	0.043901	5499.767100	32541.310955	3588.067277	16969.860841
174.034500	0.032924	0.022448	0.041543	0.040018	5549.298925	32874.958651	3625.109966	17096.921204
174.535000	0.032204	0.022634	0.038408	0.039405	5548.630132	32930.288010	3620.381344	17117.099707
175.035000	0.032338	0.022486	0.037926	0.039076	5551.528037	32942.773714	3620.093960	17127.910507
175.536000	0.026070	0.020886	0.033308	0.044292	5480.511984	32474.275140	3601.919989	16957.132704
176.035500	0.031247	0.022283	0.036283	0.040541	5535.559324	32827.470346	3614.307620	17079.755871
176.542000	0.032575	0.022161	0.043807	0.039186	5552.320548	32912.628551	3630.953318	17124.279294
177.036500	0.034625	0.022725	0.035580	0.040153	5559.121375	32884.804047	3613.723539	17092.498657
177.537000	0.030506	0.021279	0.033171	0.045111	5502.679481	32445.250664	3600.176165	16930.521667
178.037000	0.032762	0.022496	0.028599	0.041299	5540.278375	32789.849410	3598.791851	17054.870831
178.537500	0.033745	0.021840	0.033320	0.039471	5557.880976	32870.777409	3610.802914	17114.925753
179.035000	0.033462	0.023287	0.038584	0.040515	5549.555701	32898.611141	3618.635936	17080.597950
179.535000	0.031608	0.022858	0.036909	0.039920	5541.684341	32910.049987	3616.623285	17100.143048
180.035500	0.034144	0.022919	0.039284	0.042201	5543.280877	32756.866916	3616.799692	17025.370669
180.536000	0.032402	0.022758	0.036834	0.040539	5542.775280	32860.323787	3615.333182	17079.800750
181.036000	0.033519	0.022330	0.032563	0.040140	5552.262296	32858.386700	3608.171393	17092.917772
181.542500	0.031705	0.022200	0.032617	0.040207	5540.498885	32844.796350	3608.147363	17090.718126
182.039500	0.034065	0.022088	0.026056	0.041537	5546.933100	32745.404267	3593.747442	17047.101305
182.536500	0.032523	0.022896	0.032973	0.040981	5540.775918	32839.377122	3607.379267	17065.319066
183.034500	0.034505	0.023562	0.034230	0.041973	5546.956866	32816.885017	3607.865005	17032.813068
183.538000	0.033734	0.023605	0.036985	0.041939	5542.354370	32822.221646	3613.016019	17033.928246
184.035000	0.034657	0.023814	0.042395	0.042046	5547.446454	32829.223429	3622.900234	17030.412423
184.535000	0.033509	0.022600	0.037896	0.041392	5544.364651	32790.600532	3615.723126	17051.838974
185.036000	0.035611	0.023652	0.039161	0.042374	5551.373438	32795.460736	3616.248077	17019.699567
185.593000	0.032663	0.023724	0.045431	0.042319	5533.306397	32804.168800	3628.100308	17021.491440
186.036000	0.036315	0.024938	0.038029	0.043857	5546.495292	32781.869561	3611.398338	16971.302062
186.536500	0.035088	0.023497	0.040539	0.042434	5547.717212	32780.578018	3618.703173	17017.725949
187.037000	0.033958	0.023031	0.035865	0.042548	5539.953119	32740.694980	3609.820627	17014.027716
187.534000	0.034970	0.023669	0.042945	0.042809	5544.638226	32766.600873	3622.500754	17005.474561
188.034500	0.034755	0.024015	0.038711	0.043701	5537.729096	32729.069933	3612.950280	16976.384638
188.541000	0.032922	0.022886	0.035194	0.042242	5535.394053	32751.695010	3609.144212	17024.000829
189.035000	0.033693	0.022493	0.031088	0.042688	5537.423060	32694.074106	3600.796085	17009.443189
