sample name	sample
index	383
start time	 03-04-2021  02:41:37 PM


Wavelength (nm)	Absorbance
494.344910	-0.301633
494.563924	-0.301633
494.782919	-0.301633
495.001897	0.922164
495.220856	0.012053
495.439797	0.058098
495.658719	0.097289
495.877624	0.147992
496.096510	0.098776
496.315378	0.071987
496.534227	0.043245
496.753059	0.013220
496.971872	-0.008616
497.190667	0.019098
497.409444	0.028443
497.628203	0.032037
497.846943	0.031415
498.065665	0.032539
498.284369	0.033032
498.503055	0.034520
498.721723	0.035138
498.940372	0.034923
499.159003	0.036194
499.377616	0.036531
499.596210	0.036617
499.814787	0.036684
500.033345	0.036440
500.251885	0.036581
500.470406	0.036569
500.688910	0.035868
500.907395	0.036836
501.125862	0.036673
501.344311	0.036337
501.562742	0.036721
501.781154	0.037283
501.999548	0.037831
502.217924	0.037853
502.436282	0.037431
502.654621	0.037364
502.872942	0.037290
503.091245	0.037571
503.309530	0.037861
503.527797	0.037067
503.746045	0.036786
503.964275	0.036282
504.182487	0.036107
504.400681	0.036699
504.618856	0.036877
504.837013	0.036276
505.055152	0.036077
505.273273	0.036145
505.491376	0.036284
505.709460	0.036147
505.927526	0.036545
506.145574	0.036896
506.363604	0.035765
506.581615	0.036185
506.799608	0.036390
507.017583	0.036493
507.235540	0.036598
507.453478	0.037019
507.671399	0.037547
507.889301	0.036633
508.107185	0.036261
508.325050	0.035925
508.542898	0.035759
508.760727	0.034786
508.978538	0.034218
509.196330	0.034260
509.414105	0.034539
509.631861	0.034161
509.849599	0.035379
510.067319	0.035111
510.285021	0.036337
510.502704	0.036610
510.720369	0.037593
510.938016	0.037867
511.155645	0.038450
511.373255	0.038213
511.590848	0.038471
511.808422	0.038216
512.025977	0.038936
512.243515	0.038869
512.461034	0.038904
512.678536	0.038673
512.896018	0.037971
513.113483	0.037276
513.330930	0.037294
513.548358	0.037039
513.765768	0.036509
513.983160	0.035989
514.200533	0.036008
514.417889	0.035445
514.635226	0.035618
514.852545	0.035888
515.069845	0.036100
515.287128	0.035800
515.504392	0.036170
515.721638	0.036657
515.938866	0.037091
516.156075	0.036984
516.373267	0.037077
516.590440	0.037094
516.807594	0.037148
517.024731	0.037223
517.241850	0.037203
517.458950	0.037284
517.676032	0.037257
517.893095	0.037151
518.110141	0.036893
518.327168	0.036888
518.544177	0.037345
518.761168	0.037604
518.978141	0.037000
519.195095	0.037751
519.412031	0.037370
519.628949	0.037226
519.845849	0.036538
520.062731	0.036133
520.279594	0.036178
520.496439	0.035821
520.713266	0.036495
520.930074	0.036568
521.146865	0.035799
521.363637	0.036147
521.580391	0.036135
521.797127	0.036359
522.013844	0.037042
522.230543	0.037555
522.447224	0.037795
522.663887	0.037456
522.880532	0.038025
523.097158	0.038260
523.313766	0.037715
523.530356	0.037878
523.746928	0.038332
523.963481	0.038430
524.180017	0.038534
524.396534	0.038265
524.613032	0.037872
524.829513	0.037805
525.045975	0.037721
525.262420	0.037827
525.478845	0.037854
525.695253	0.038223
525.911643	0.038249
526.128014	0.037766
526.344367	0.038390
526.560702	0.038882
526.777018	0.039046
526.993316	0.039474
527.209597	0.039678
527.425858	0.039479
527.642102	0.038769
527.858328	0.039397
528.074535	0.039546
528.290724	0.038902
528.506894	0.038588
528.723047	0.038315
528.939181	0.038761
529.155297	0.038743
529.371395	0.038829
529.587475	0.039142
529.803536	0.038558
530.019579	0.038390
530.235604	0.039135
530.451611	0.039407
530.667600	0.039947
530.883570	0.039493
531.099522	0.040578
531.315456	0.040880
531.531372	0.040970
531.747269	0.040470
531.963148	0.040834
532.179009	0.040868
532.394852	0.040619
532.610676	0.040908
532.826482	0.040894
533.042271	0.040611
533.258040	0.040484
533.473792	0.041300
533.689525	0.042365
533.905240	0.042736
534.120937	0.042653
534.336616	0.043045
534.552277	0.042196
534.767919	0.042436
534.983543	0.041878
535.199149	0.041956
535.414736	0.041249
535.630306	0.041029
535.845857	0.040946
536.061390	0.040586
536.276904	0.040551
536.492401	0.041051
536.707879	0.041150
536.923339	0.041609
537.138781	0.041828
537.354204	0.042325
537.569610	0.042449
537.784997	0.042638
538.000366	0.043186
538.215716	0.043651
538.431049	0.043683
538.646363	0.043960
538.861659	0.044119
539.076937	0.044298
539.292196	0.044171
539.507438	0.044367
539.722661	0.043765
539.937866	0.043508
540.153052	0.043209
540.368221	0.043050
540.583371	0.042988
540.798503	0.043075
541.013617	0.043143
541.228712	0.043412
541.443789	0.043286
541.658848	0.043815
541.873889	0.044056
542.088912	0.044466
542.303916	0.044850
542.518902	0.044647
542.733870	0.044751
542.948820	0.044956
543.163752	0.044898
543.378665	0.044694
543.593560	0.044999
543.808437	0.045093
544.023295	0.044973
544.238136	0.045286
544.452958	0.045450
544.667762	0.045356
544.882548	0.044951
545.097315	0.045063
545.312064	0.045552
545.526795	0.045571
545.741508	0.045532
545.956203	0.045544
546.170879	0.045260
546.385537	0.045418
546.600177	0.045601
546.814799	0.045451
547.029402	0.044977
547.243988	0.044709
547.458555	0.044367
547.673103	0.044385
547.887634	0.044440
548.102146	0.044523
548.316640	0.044687
548.531116	0.044578
548.745574	0.045147
548.960013	0.045741
549.174435	0.045763
549.388838	0.045977
549.603222	0.045835
549.817589	0.046027
550.031937	0.046222
550.246267	0.045975
550.460579	0.046254
550.674873	0.046245
550.889148	0.046061
551.103405	0.045936
551.317644	0.045657
551.531865	0.045984
551.746068	0.045922
551.960252	0.045726
552.174418	0.045659
552.388566	0.045328
552.602696	0.045304
552.816807	0.045405
553.030900	0.045918
553.244975	0.046336
553.459032	0.046174
553.673070	0.046052
553.887091	0.046279
554.101093	0.046531
554.315077	0.046756
554.529042	0.046963
554.742990	0.047469
554.956919	0.047340
555.170830	0.047524
555.384722	0.047921
555.598597	0.048030
555.812453	0.048017
556.026291	0.047893
556.240111	0.048031
556.453913	0.048085
556.667696	0.047712
556.881461	0.047910
557.095208	0.047884
557.308937	0.047600
557.522647	0.047751
557.736339	0.047660
557.950013	0.047810
558.163669	0.047531
558.377307	0.047302
558.590926	0.047546
558.804527	0.047699
559.018110	0.047647
559.231675	0.047727
559.445221	0.047312
559.658749	0.047313
559.872259	0.047080
560.085751	0.047425
560.299225	0.047612
560.512680	0.047572
560.726117	0.047310
560.939536	0.047279
561.152937	0.047355
561.366319	0.047774
561.579683	0.047545
561.793029	0.047591
562.006357	0.047407
562.219667	0.047156
562.432958	0.047357
562.646231	0.047424
562.859486	0.047759
563.072723	0.047759
563.285941	0.047685
563.499141	0.047964
563.712323	0.048156
563.925487	0.048503
564.138632	0.048655
564.351760	0.048447
564.564869	0.048708
564.777960	0.048489
564.991032	0.048411
565.204087	0.048635
565.417123	0.048575
565.630141	0.048814
565.843140	0.048426
566.056122	0.048499
566.269085	0.048595
566.482030	0.048572
566.694957	0.048571
566.907866	0.048858
567.120756	0.048727
567.333628	0.048769
567.546482	0.048779
567.759318	0.049095
567.972135	0.049149
568.184935	0.049060
568.397716	0.048995
568.610478	0.048922
568.823223	0.048761
569.035949	0.048842
569.248657	0.049076
569.461347	0.049055
569.674019	0.048695
569.886672	0.048699
570.099308	0.048847
570.311925	0.049071
570.524523	0.049135
570.737104	0.048924
570.949666	0.048908
571.162210	0.048800
571.374736	0.049050
571.587244	0.049029
571.799733	0.049185
572.012205	0.049009
572.224658	0.048650
572.437092	0.049009
572.649509	0.049317
572.861907	0.049094
573.074287	0.049339
573.286649	0.049112
573.498993	0.049713
573.711318	0.049674
573.923625	0.049698
574.135914	0.049617
574.348185	0.049609
574.560438	0.049773
574.772672	0.050187
574.984888	0.050211
575.197086	0.050327
575.409266	0.050139
575.621427	0.050261
575.833570	0.050392
576.045695	0.050653
576.257802	0.050324
576.469890	0.050113
576.681961	0.049827
576.894013	0.049700
577.106046	0.049798
577.318062	0.049875
577.530059	0.049647
577.742039	0.049549
577.954000	0.049354
578.165942	0.049468
578.377867	0.049844
578.589773	0.050382
578.801661	0.050287
579.013531	0.050236
579.225382	0.050479
579.437216	0.050723
579.649031	0.050672
579.860828	0.050916
580.072606	0.051173
580.284367	0.051050
580.496109	0.050712
580.707833	0.051151
580.919539	0.051231
581.131227	0.051068
581.342896	0.050888
581.554547	0.051167
581.766180	0.051380
581.977795	0.051245
582.189391	0.051332
582.400969	0.051444
582.612529	0.051311
582.824071	0.051166
583.035595	0.051262
583.247100	0.051514
583.458587	0.051137
583.670056	0.050823
583.881506	0.050916
584.092939	0.050427
584.304353	0.050239
584.515749	0.050308
584.727127	0.050637
584.938486	0.050411
585.149828	0.050555
585.361151	0.051215
585.572456	0.051201
585.783742	0.051184
585.995011	0.051486
586.206261	0.051633
586.417493	0.051654
586.628706	0.051412
586.839902	0.051387
587.051079	0.051281
587.262238	0.050732
587.473379	0.050910
587.684502	0.051008
587.895606	0.051281
588.106692	0.051483
588.317760	0.051269
588.528810	0.051267
588.739841	0.051185
588.950855	0.050918
589.161850	0.051508
589.372827	0.051603
589.583785	0.051548
589.794726	0.051391
590.005648	0.051443
590.216552	0.051599
590.427437	0.051848
590.638305	0.052160
590.849154	0.052256
591.059985	0.052037
591.270798	0.051877
591.481592	0.051702
591.692369	0.051853
591.903127	0.051690
592.113867	0.051867
592.324588	0.051773
592.535292	0.051669
592.745977	0.052088
592.956644	0.052041
593.167293	0.052295
593.377923	0.052642
593.588536	0.052569
593.799130	0.052720
594.009706	0.052681
594.220263	0.052627
594.430803	0.052881
594.641324	0.052662
594.851827	0.052827
595.062312	0.052764
595.272778	0.052779
595.483227	0.052886
595.693657	0.052978
595.904069	0.053189
596.114462	0.053634
596.324838	0.053519
596.535195	0.053563
596.745534	0.053581
596.955855	0.053866
597.166157	0.054058
597.376441	0.054209
597.586707	0.054370
597.796955	0.054629
598.007185	0.054211
598.217396	0.054111
598.427589	0.054574
598.637764	0.054810
598.847921	0.054804
599.058060	0.054578
599.268180	0.054586
599.478282	0.054680
599.688366	0.054413
599.898431	0.054657
600.108479	0.055030
600.318508	0.054938
600.528519	0.054816
600.738511	0.054735
600.948486	0.054941
601.158442	0.054971
601.368380	0.054781
601.578300	0.054703
601.788202	0.054864
601.998085	0.054817
602.207950	0.054755
602.417797	0.054833
602.627626	0.054861
602.837436	0.055181
603.047228	0.055064
603.257002	0.054962
603.466758	0.054787
603.676496	0.054699
603.886215	0.054716
604.095916	0.054438
604.305599	0.054432
604.515264	0.054726
604.724910	0.054470
604.934538	0.054802
605.144148	0.054917
605.353740	0.055340
605.563314	0.055221
605.772869	0.055037
605.982406	0.055175
606.191925	0.055223
606.401425	0.054990
606.610908	0.055034
606.820372	0.054902
607.029818	0.055116
607.239246	0.055035
607.448655	0.055235
607.658047	0.055417
607.867420	0.055346
608.076775	0.055330
608.286111	0.055640
608.495430	0.055623
608.704730	0.055701
608.914012	0.055714
609.123275	0.055618
609.332521	0.055481
609.541748	0.055593
609.750957	0.056053
609.960148	0.056000
610.169321	0.055828
610.378475	0.055929
610.587611	0.055608
610.796729	0.055689
611.005829	0.055908
611.214910	0.056188
611.423974	0.056264
611.633019	0.056268
611.842045	0.056530
612.051054	0.056454
612.260044	0.056244
612.469017	0.056625
612.677970	0.056619
612.886906	0.056700
613.095824	0.056606
613.304723	0.056610
613.513604	0.056615
613.722467	0.056475
613.931311	0.056781
614.140138	0.057088
614.348946	0.057126
614.557736	0.057309
614.766507	0.057292
614.975261	0.057438
615.183996	0.057403
615.392713	0.057288
615.601412	0.057501
615.810092	0.057333
616.018754	0.057129
616.227399	0.057122
616.436024	0.056798
616.644632	0.056666
616.853222	0.056643
617.061793	0.056699
617.270346	0.056903
617.478880	0.056815
617.687397	0.056809
617.895895	0.057047
618.104375	0.057210
618.312837	0.057344
618.521281	0.057641
618.729706	0.057433
618.938113	0.057567
619.146502	0.057403
619.354873	0.057375
619.563226	0.057442
619.771560	0.057326
619.979876	0.057133
620.188174	0.057236
620.396453	0.057030
620.604715	0.057233
620.812958	0.056967
621.021183	0.057197
621.229390	0.057491
621.437578	0.057628
621.645748	0.057597
621.853900	0.057484
622.062034	0.057320
622.270150	0.057310
622.478247	0.057354
622.686326	0.057630
622.894387	0.057542
623.102430	0.057417
623.310454	0.057154
623.518461	0.057322
623.726449	0.057665
623.934418	0.057729
624.142370	0.058022
624.350303	0.058176
624.558218	0.058067
624.766115	0.058186
624.973994	0.058078
625.181855	0.058538
625.389697	0.058439
625.597521	0.058417
625.805327	0.058472
626.013114	0.058187
626.220883	0.058163
626.428634	0.058337
626.636367	0.058415
626.844082	0.058519
627.051778	0.058129
627.259457	0.058249
627.467117	0.058456
627.674758	0.058506
627.882382	0.058766
628.089987	0.058607
628.297574	0.058648
628.505143	0.058449
628.712694	0.058578
628.920226	0.058912
629.127740	0.059145
629.335236	0.058786
629.542714	0.058973
629.750174	0.059040
629.957615	0.059227
630.165038	0.059368
630.372443	0.059707
630.579829	0.059685
630.787198	0.059803
630.994548	0.059772
631.201880	0.060064
631.409194	0.059925
631.616489	0.059928
631.823766	0.059931
632.031025	0.059903
632.238266	0.060086
632.445489	0.060143
632.652693	0.059952
632.859879	0.060021
633.067047	0.059983
633.274197	0.060125
633.481329	0.059942
633.688442	0.059960
633.895537	0.060196
634.102614	0.059815
634.309672	0.059916
634.516713	0.060140
634.723735	0.059990
634.930739	0.060056
635.137724	0.059951
635.344692	0.060077
635.551641	0.059999
635.758572	0.059892
635.965485	0.060025
636.172379	0.060026
636.379256	0.059940
636.586114	0.059969
636.792954	0.060062
636.999775	0.060407
637.206579	0.060678
637.413364	0.061104
637.620131	0.061080
637.826880	0.061042
638.033610	0.061179
638.240323	0.061355
638.447017	0.061535
638.653692	0.061657
638.860350	0.061651
639.066990	0.061545
639.273611	0.061284
639.480214	0.061440
639.686798	0.061569
639.893365	0.061596
640.099913	0.061476
640.306443	0.061700
640.512955	0.061786
640.719449	0.061942
640.925924	0.062222
641.132381	0.062518
641.338820	0.062425
641.545241	0.062434
641.751644	0.062349
641.958028	0.062491
642.164394	0.062529
642.370742	0.062573
642.577071	0.062507
642.783383	0.062374
642.989676	0.062315
643.195951	0.062258
643.402207	0.062315
643.608446	0.062492
643.814666	0.062591
644.020868	0.062443
644.227052	0.062396
644.433218	0.062446
644.639365	0.062259
644.845494	0.062195
645.051605	0.062589
645.257698	0.062747
645.463772	0.062803
645.669828	0.062888
645.875866	0.062982
646.081886	0.063041
646.287888	0.063123
646.493871	0.063417
646.699836	0.063611
646.905783	0.063540
647.111712	0.063541
647.317622	0.063589
647.523514	0.063593
647.729388	0.063649
647.935244	0.063804
648.141082	0.063764
648.346901	0.063872
648.552702	0.063975
648.758485	0.063845
648.964250	0.063893
649.169996	0.063646
649.375724	0.063498
649.581434	0.063556
649.787126	0.063497
649.992800	0.063519
650.198455	0.063409
650.404092	0.063444
650.609711	0.063541
650.815311	0.063747
651.020894	0.063867
651.226458	0.064058
651.432004	0.064022
651.637532	0.064079
651.843041	0.064168
652.048532	0.064302
652.254006	0.064336
652.459460	0.064446
652.664897	0.064489
652.870315	0.064660
653.075716	0.064793
653.281097	0.064978
653.486461	0.064954
653.691807	0.065035
653.897134	0.064924
654.102443	0.065019
654.307734	0.065069
654.513006	0.065213
654.718261	0.065084
654.923497	0.065211
655.128715	0.065376
655.333915	0.065514
655.539096	0.065534
655.744259	0.065848
655.949404	0.065805
656.154531	0.066048
656.359640	0.065970
656.564730	0.066267
656.769802	0.066288
656.974856	0.066234
657.179892	0.066230
657.384909	0.066481
657.589908	0.066636
657.794889	0.066729
657.999852	0.066648
658.204797	0.066634
658.409723	0.066883
658.614631	0.066883
658.819521	0.066997
659.024393	0.067142
659.229246	0.067137
659.434081	0.067156
659.638898	0.067231
659.843697	0.067344
660.048478	0.067390
660.253240	0.067315
660.457984	0.067215
660.662710	0.067181
660.867417	0.067183
661.072107	0.067194
661.276778	0.067177
661.481431	0.067163
661.686066	0.067178
661.890682	0.067277
662.095281	0.067364
662.299861	0.067574
662.504422	0.067684
662.708966	0.067943
662.913491	0.067964
663.117999	0.068041
663.322488	0.068148
663.526958	0.068034
663.731411	0.068031
663.935845	0.067965
664.140261	0.067984
664.344659	0.068040
664.549038	0.067795
664.753400	0.067884
664.957743	0.067936
665.162068	0.067971
665.366375	0.068274
665.570663	0.068525
665.774933	0.068612
665.979185	0.068837
666.183419	0.068852
666.387635	0.069052
666.591832	0.069137
666.796011	0.069053
667.000172	0.069172
667.204315	0.069203
667.408439	0.069048
667.612545	0.069194
667.816634	0.069155
668.020703	0.069222
668.224755	0.069324
668.428788	0.069369
668.632803	0.069482
668.836800	0.069323
669.040779	0.069269
669.244739	0.069458
669.448681	0.069501
669.652605	0.069497
669.856511	0.069580
670.060399	0.069507
670.264268	0.069664
670.468119	0.069895
670.671952	0.070124
670.875767	0.070234
671.079563	0.070208
671.283341	0.070142
671.487101	0.070251
671.690843	0.070394
671.894567	0.070522
672.098272	0.070311
672.301959	0.070150
672.505628	0.070097
672.709278	0.070192
672.912911	0.070263
673.116525	0.070461
673.320121	0.070561
673.523699	0.070433
673.727258	0.070607
673.930799	0.070868
674.134322	0.071068
674.337827	0.071174
674.541314	0.071115
674.744782	0.071155
674.948232	0.071215
675.151664	0.071212
675.355078	0.071347
675.558474	0.071304
675.761851	0.071305
675.965210	0.071272
676.168551	0.071380
676.371873	0.071604
676.575178	0.071677
676.778464	0.071596
676.981732	0.071722
677.184981	0.071818
677.388213	0.071877
677.591426	0.071930
677.794621	0.071978
677.997798	0.072064
678.200956	0.071980
678.404097	0.072031
678.607219	0.072170
678.810323	0.072303
679.013408	0.072216
679.216476	0.072196
679.419525	0.072191
679.622556	0.072395
679.825569	0.072468
680.028563	0.072474
680.231540	0.072487
680.434498	0.072539
680.637438	0.072653
680.840359	0.072771
681.043263	0.072784
681.246148	0.072931
681.449015	0.072808
681.651864	0.072717
681.854694	0.072740
682.057506	0.072738
682.260301	0.072785
682.463076	0.072721
682.665834	0.072800
682.868573	0.072891
683.071295	0.072905
683.273998	0.072930
683.476682	0.072984
683.679349	0.073200
683.881997	0.073266
684.084627	0.073272
684.287239	0.073127
684.489833	0.073105
684.692408	0.073142
684.894965	0.073072
685.097504	0.073098
685.300025	0.073150
685.502527	0.073169
685.705012	0.073163
685.907478	0.073091
686.109925	0.073132
686.312355	0.073180
686.514766	0.073149
686.717159	0.073320
686.919534	0.073354
687.121891	0.073452
687.324230	0.073417
687.526550	0.073578
687.728852	0.073801
687.931136	0.073760
688.133401	0.073950
688.335649	0.074093
688.537878	0.073896
688.740089	0.073981
688.942281	0.073930
689.144456	0.074037
689.346612	0.074067
689.548750	0.073972
689.750870	0.074213
689.952971	0.073953
690.155055	0.073922
690.357120	0.074106
690.559167	0.074146
690.761195	0.074289
690.963206	0.074328
691.165198	0.074284
691.367172	0.074451
691.569128	0.074358
691.771065	0.074714
691.972984	0.074787
692.174885	0.074884
692.376768	0.074936
692.578633	0.074906
692.780479	0.074961
692.982308	0.075075
693.184118	0.075065
693.385909	0.075118
693.587683	0.074875
693.789438	0.074908
693.991175	0.074676
694.192894	0.074640
694.394595	0.074605
694.596277	0.074458
694.797941	0.074454
694.999587	0.074334
695.201215	0.074293
695.402824	0.074423
695.604416	0.074424
695.805989	0.074756
696.007543	0.074821
696.209080	0.074920
696.410598	0.075042
696.612099	0.075082
696.813580	0.075208
697.015044	0.075383
697.216490	0.075368
697.417917	0.075478
697.619326	0.075579
697.820717	0.075733
698.022089	0.075618
698.223444	0.075756
698.424780	0.075766
698.626098	0.075877
698.827397	0.075779
699.028679	0.075767
699.229942	0.075775
699.431187	0.075383
699.632414	0.075384
699.833622	0.075528
700.034813	0.075317
700.235985	0.075202
700.437139	0.075263
700.638274	0.075314
700.839392	0.075487
701.040491	0.075643
701.241572	0.076001
701.442635	0.075928
701.643679	0.075908
701.844706	0.076119
702.045714	0.076142
702.246704	0.076042
702.447675	0.076212
702.648629	0.076082
702.849564	0.075934
703.050481	0.075834
703.251380	0.075854
703.452260	0.076049
703.653122	0.076045
703.853966	0.076203
704.054792	0.076323
704.255600	0.076157
704.456389	0.076229
704.657160	0.076154
704.857913	0.076147
705.058648	0.076047
705.259365	0.075862
705.460063	0.075702
705.660743	0.075623
705.861405	0.075377
706.062048	0.075437
706.262674	0.075431
706.463281	0.075352
706.663870	0.075460
706.864441	0.075430
707.064993	0.075431
707.265527	0.075330
707.466043	0.075340
707.666541	0.075508
707.867021	0.075531
708.067482	0.075590
708.267925	0.075677
708.468350	0.075575
708.668757	0.075656
708.869145	0.075630
709.069516	0.075794
709.269868	0.075777
709.470201	0.075677
709.670517	0.075659
709.870814	0.075695
710.071093	0.075580
710.271354	0.075511
710.471597	0.075616
710.671821	0.075684
710.872028	0.075622
711.072216	0.075780
711.272385	0.075847
711.472537	0.075848
711.672670	0.075859
711.872785	0.076035
712.072882	0.075978
712.272961	0.075983
712.473021	0.076139
712.673063	0.076240
712.873087	0.076206
713.073093	0.076226
713.273081	0.076070
713.473050	0.076131
713.673001	0.076187
713.872934	0.076414
714.072849	0.076462
714.272745	0.076416
714.472623	0.076421
714.672483	0.076371
714.872325	0.076400
715.072148	0.076604
715.271954	0.076601
715.471741	0.076563
715.671509	0.076527
715.871260	0.076315
716.070992	0.076260
716.270707	0.076159
716.470403	0.076158
716.670080	0.075984
716.869740	0.075807
717.069381	0.075695
717.269004	0.075682
717.468609	0.075632
717.668195	0.075605
717.867764	0.075607
718.067314	0.075654
718.266846	0.075701
718.466360	0.075824
718.665855	0.075970
718.865332	0.075745
719.064791	0.075587
719.264232	0.075357
719.463655	0.075384
719.663059	0.075341
719.862445	0.075267
720.061813	0.075326
720.261163	0.075261
720.460494	0.075268
720.659807	0.075245
720.859102	0.075262
721.058379	0.075398
721.257638	0.075447
721.456878	0.075354
721.656100	0.075527
721.855304	0.075323
722.054490	0.075350
722.253657	0.075177
722.452806	0.075283
722.651937	0.075311
722.851050	0.075237
723.050145	0.075189
723.249221	0.075086
723.448279	0.074883
723.647319	0.074866
723.846340	0.074822
724.045344	0.074845
724.244329	0.074710
724.443296	0.074678
724.642245	0.074705
724.841175	0.074669
725.040088	0.074825
725.238982	0.074638
725.437857	0.074529
725.636715	0.074390
725.835554	0.074166
726.034376	0.074185
726.233179	0.074100
726.431963	0.073984
726.630730	0.073968
726.829478	0.073736
727.028208	0.073734
727.226920	0.073746
727.425614	0.073756
727.624289	0.073861
727.822946	0.073711
728.021585	0.073784
728.220206	0.073857
728.418808	0.073796
728.617392	0.073911
728.815958	0.073958
729.014506	0.073942
729.213036	0.073954
729.411547	0.073865
729.610040	0.074133
729.808515	0.074309
730.006972	0.074195
730.205410	0.074207
730.403831	0.074035
730.602233	0.073986
730.800616	0.074009
730.998982	0.073951
731.197329	0.073985
731.395658	0.073781
731.593969	0.073493
731.792262	0.073427
731.990536	0.073341
732.188793	0.073537
732.387031	0.073667
732.585250	0.073503
732.783452	0.073559
732.981635	0.073578
733.179800	0.073470
733.377947	0.073490
733.576076	0.073619
733.774186	0.073459
733.972278	0.073179
734.170352	0.073098
734.368408	0.073212
734.566446	0.073039
734.764465	0.072901
734.962466	0.072964
735.160449	0.072707
735.358413	0.072624
735.556360	0.072679
735.754288	0.072742
735.952198	0.072625
736.150090	0.072317
736.347963	0.072285
736.545818	0.072252
736.743655	0.072224
736.941474	0.072318
737.139275	0.072421
737.337057	0.072360
737.534821	0.072335
737.732567	0.072322
737.930295	0.072204
738.128005	0.072145
738.325696	0.071967
738.523369	0.071734
738.721024	0.071491
738.918660	0.071297
739.116279	0.071289
739.313879	0.071380
739.511461	0.071203
739.709024	0.071308
739.906570	0.071124
740.104097	0.071301
740.301606	0.071471
740.499097	0.071636
740.696569	0.071475
740.894024	0.071573
741.091460	0.071435
741.288878	0.071449
741.486277	0.071356
741.683659	0.071342
741.881022	0.071291
742.078367	0.071060
742.275694	0.070990
742.473002	0.070917
742.670293	0.070778
742.867565	0.070545
743.064819	0.070577
743.262054	0.070744
743.459272	0.070805
743.656471	0.070818
743.853652	0.070960
744.050815	0.070965
744.247959	0.071145
744.445085	0.071118
744.642194	0.071293
744.839283	0.071380
745.036355	0.071373
745.233408	0.071357
745.430444	0.071186
745.627461	0.071036
745.824459	0.071004
746.021440	0.070879
746.218402	0.070683
746.415346	0.070598
746.612272	0.070347
746.809180	0.070004
747.006069	0.069918
747.202940	0.069764
747.399793	0.069836
747.596628	0.069674
747.793444	0.069442
747.990243	0.069473
748.187023	0.069315
748.383784	0.069155
748.580528	0.069342
748.777253	0.069366
748.973960	0.069271
749.170649	0.069101
749.367320	0.068961
749.563973	0.068982
749.760607	0.068900
749.957223	0.068911
750.153821	0.069120
750.350400	0.068953
750.546962	0.068878
750.743505	0.069001
750.940030	0.068981
751.136536	0.069121
751.333025	0.069338
751.529495	0.069333
751.725947	0.069177
751.922381	0.068951
752.118796	0.069081
752.315194	0.069037
752.511573	0.068976
752.707934	0.069088
752.904276	0.069056
753.100601	0.068936
753.296907	0.068901
753.493195	0.068843
753.689465	0.068865
753.885716	0.068618
754.081949	0.068584
754.278164	0.068696
754.474361	0.068550
754.670540	0.068495
754.866700	0.068400
755.062843	0.068481
755.258967	0.068421
755.455072	0.068634
755.651160	0.068692
755.847229	0.068754
756.043280	0.068552
756.239313	0.068545
756.435328	0.068554
756.631324	0.068489
756.827302	0.068337
757.023262	0.068525
757.219204	0.068118
757.415127	0.067868
757.611033	0.067749
757.806920	0.067780
758.002788	0.067549
758.198639	0.067425
758.394471	0.067320
758.590286	0.067257
758.786081	0.067005
758.981859	0.067164
759.177619	0.067375
759.373360	0.067288
759.569083	0.067068
759.764788	0.067128
759.960474	0.067043
760.156143	0.067091
760.351793	0.067043
760.547425	0.067189
760.743038	0.067073
760.938634	0.067016
761.134211	0.066969
761.329770	0.067105
761.525311	0.067297
761.720833	0.067296
761.916338	0.067395
762.111824	0.067249
762.307292	0.067222
762.502741	0.067293
762.698173	0.067382
762.893586	0.067534
763.088981	0.067584
763.284358	0.067486
763.479716	0.067590
763.675057	0.067343
763.870379	0.067512
764.065683	0.067562
764.260968	0.067494
764.456236	0.067246
764.651485	0.067003
764.846716	0.067026
765.041929	0.066995
765.237123	0.066841
765.432299	0.066835
765.627457	0.066881
765.822597	0.066915
766.017719	0.066952
766.212822	0.067231
766.407907	0.067398
766.602974	0.067354
766.798023	0.067437
766.993054	0.067527
767.188066	0.067534
767.383060	0.067425
767.578036	0.067206
767.772993	0.067300
767.967933	0.067115
768.162854	0.067134
768.357757	0.067081
768.552642	0.066837
768.747508	0.066873
768.942356	0.066760
769.137186	0.066724
769.331998	0.066788
769.526792	0.066716
769.721567	0.066649
769.916324	0.066572
770.111063	0.066517
770.305784	0.066532
770.500486	0.066432
770.695171	0.066509
770.889837	0.066480
771.084484	0.066495
771.279114	0.066417
771.473725	0.066761
771.668318	0.066668
771.862893	0.066690
772.057450	0.066793
772.251988	0.066868
772.446509	0.066984
772.641011	0.066953
772.835494	0.066827
773.029960	0.066843
773.224407	0.066497
773.418836	0.066587
773.613247	0.066385
773.807640	0.066256
774.002014	0.066227
774.196370	0.066183
774.390708	0.066241
774.585028	0.066143
774.779330	0.065981
774.973613	0.066065
775.167878	0.066213
775.362125	0.066502
775.556354	0.066496
775.750564	0.066523
775.944756	0.066651
776.138930	0.066722
776.333086	0.066759
776.527223	0.066968
776.721343	0.066949
776.915444	0.066713
777.109526	0.066615
777.303591	0.066814
777.497637	0.066779
777.691666	0.066562
777.885676	0.066440
778.079667	0.066454
778.273641	0.066337
778.467596	0.066341
778.661533	0.066416
778.855452	0.066363
779.049352	0.066062
779.243235	0.066122
779.437099	0.066303
779.630945	0.066283
779.824773	0.066417
780.018582	0.066347
780.212373	0.066394
780.406146	0.066361
780.599901	0.066431
780.793638	0.066581
780.987356	0.066546
781.181056	0.066521
781.374738	0.066827
781.568402	0.066967
781.762047	0.067119
781.955674	0.067205
782.149283	0.067262
782.342874	0.067343
782.536447	0.067473
782.730001	0.067460
782.923537	0.067380
783.117055	0.067232
783.310555	0.067143
783.504036	0.066908
783.697499	0.066887
783.890944	0.066835
784.084371	0.067106
784.277780	0.067136
784.471170	0.067076
784.664542	0.067238
784.857896	0.067175
785.051231	0.067159
785.244549	0.067417
785.437848	0.067178
785.631129	0.067254
785.824392	0.066949
786.017636	0.066868
786.210863	0.066911
786.404071	0.066707
786.597260	0.066846
786.790432	0.066831
786.983585	0.066934
787.176721	0.067239
787.369838	0.067193
787.562936	0.067066
787.756017	0.067135
787.949079	0.067258
788.142123	0.067488
788.335149	0.067504
788.528156	0.067823
788.721146	0.067801
788.914117	0.067689
789.107070	0.067780
789.300005	0.067937
789.492921	0.067966
789.685819	0.068119
789.878699	0.068177
790.071561	0.068291
790.264405	0.068394
790.457230	0.068599
790.650037	0.068741
790.842826	0.068939
791.035597	0.069173
791.228349	0.069351
791.421084	0.069398
791.613800	0.069492
791.806497	0.069596
791.999177	0.069351
792.191838	0.069183
792.384481	0.069403
792.577106	0.069539
792.769713	0.069688
792.962301	0.069620
793.154871	0.069490
793.347423	0.069475
793.539957	0.069332
793.732473	0.069493
793.924970	0.069669
794.117449	0.069503
794.309910	0.069323
794.502353	0.069348
794.694777	0.069567
794.887183	0.069731
795.079571	0.069815
795.271941	0.069924
795.464293	0.069924
795.656626	0.070073
795.848941	0.070168
796.041238	0.070542
796.233516	0.070379
796.425777	0.070501
796.618019	0.070605
796.810243	0.070727
797.002449	0.070743
797.194636	0.070955
797.386805	0.070939
797.578956	0.071208
797.771089	0.071098
797.963204	0.071422
798.155300	0.071288
798.347378	0.071185
798.539438	0.071042
798.731480	0.071097
798.923503	0.071012
799.115509	0.071070
799.307496	0.070902
799.499465	0.070786
799.691415	0.070721
799.883348	0.070745
800.075262	0.070834
800.267158	0.071072
800.459035	0.071344
800.650895	0.071410
800.842736	0.071518
801.034559	0.071561
801.226364	0.071726
801.418150	0.071782
801.609919	0.071789
801.801669	0.071905
801.993401	0.071955
802.185114	0.071790
802.376810	0.071795
802.568487	0.071903
802.760146	0.072106
802.951787	0.072148
803.143409	0.071963
803.335014	0.072036
803.526600	0.072106
803.718168	0.072184
803.909717	0.072463
804.101249	0.072712
804.292762	0.072707
804.484257	0.072860
804.675734	0.073020
804.867192	0.073246
805.058632	0.073478
805.250054	0.073707
805.441458	0.073757
805.632844	0.073811
805.824211	0.073863
806.015561	0.073880
806.206891	0.073705
806.398204	0.073713
806.589499	0.073865
806.780775	0.073979
806.972033	0.074033
807.163273	0.074161
807.354495	0.074152
807.545698	0.074187
807.736883	0.074277
807.928050	0.074527
808.119199	0.074661
808.310329	0.074821
808.501441	0.074759
808.692535	0.074688
808.883611	0.074879
809.074669	0.074971
809.265708	0.074878
809.456729	0.074949
809.647732	0.075029
809.838717	0.075098
810.029683	0.075099
810.220632	0.075287
810.411562	0.075309
810.602474	0.075338
810.793367	0.075534
810.984242	0.075894
811.175100	0.075961
811.365938	0.075995
811.556759	0.076056
811.747562	0.076148
811.938346	0.076040
812.129112	0.076149
812.319860	0.076068
812.510589	0.076278
812.701300	0.076397
812.891994	0.076546
813.082668	0.076704
813.273325	0.076903
813.463964	0.077023
813.654584	0.077350
813.845186	0.077550
814.035769	0.077768
814.226335	0.077633
814.416882	0.077654
814.607411	0.077797
814.797922	0.078022
814.988415	0.078072
815.178889	0.078168
815.369345	0.078193
815.559783	0.078371
815.750203	0.078387
815.940605	0.078680
816.130988	0.078647
816.321353	0.078679
816.511700	0.078740
816.702028	0.078832
816.892339	0.078739
817.082631	0.078747
817.272905	0.078925
817.463161	0.079110
817.653398	0.078996
817.843617	0.079259
818.033819	0.079343
818.224001	0.079141
818.414166	0.079251
818.604312	0.079545
818.794440	0.079563
818.984550	0.079395
819.174642	0.079538
819.364716	0.079376
819.554771	0.079410
819.744808	0.079486
819.934827	0.079734
820.124827	0.079823
820.314810	0.079779
820.504774	0.080189
820.694720	0.080436
820.884647	0.080328
821.074557	0.080861
821.264448	0.080958
821.454321	0.081151
821.644176	0.081332
821.834012	0.081358
822.023831	0.081446
822.213631	0.081326
822.403413	0.081483
822.593176	0.081536
822.782922	0.081659
822.972649	0.082019
823.162358	0.082116
823.352049	0.082130
823.541721	0.082247
823.731376	0.082355
823.921012	0.082397
824.110629	0.082279
824.300229	0.082578
824.489811	0.082480
824.679374	0.082304
824.868919	0.082407
825.058445	0.082504
825.247954	0.082592
825.437444	0.082789
825.626916	0.083085
825.816370	0.083073
826.005806	0.083108
826.195223	0.083234
826.384622	0.083202
826.574003	0.083236
826.763366	0.083459
826.952711	0.083507
827.142037	0.083474
827.331345	0.083533
827.520635	0.083862
827.709906	0.084032
827.899160	0.084195
828.088395	0.084221
828.277612	0.084276
828.466810	0.084268
828.655991	0.084390
828.845153	0.084459
829.034297	0.084541
829.223423	0.084548
829.412531	0.084566
829.601620	0.084614
829.790691	0.084804
829.979744	0.084566
830.168779	0.084603
830.357795	0.084558
830.546793	0.084848
830.735773	0.084844
830.924735	0.085057
831.113679	0.085150
831.302604	0.085068
831.491511	0.085138
831.680400	0.085717
831.869271	0.085884
832.058123	0.086206
832.246957	0.086272
832.435773	0.086490
832.624571	0.086544
832.813351	0.086439
833.002112	0.086764
833.190855	0.087111
833.379580	0.087128
833.568287	0.087086
833.756975	0.087077
833.945645	0.087272
834.134297	0.087305
834.322931	0.087539
834.511547	0.087828
834.700144	0.087870
834.888723	0.088025
835.077284	0.088458
835.265826	0.088808
835.454351	0.089109
835.642857	0.089220
835.831345	0.089532
836.019815	0.089656
836.208266	0.089720
836.396699	0.090049
836.585114	0.089955
836.773511	0.089788
836.961890	0.089731
837.150250	0.089669
837.338592	0.089712
837.526916	0.089683
837.715222	0.089514
837.903510	0.089634
838.091779	0.089440
838.280030	0.089716
838.468263	0.089574
838.656477	0.089649
838.844674	0.089871
839.032852	0.089788
839.221012	0.089852
839.409153	0.090221
839.597277	0.090315
839.785382	0.090227
839.973469	0.090122
840.161538	0.090511
840.349589	0.090927
840.537621	0.090948
840.725635	0.091276
840.913631	0.091439
841.101609	0.091543
841.289568	0.091824
841.477509	0.092357
841.665432	0.092571
841.853337	0.092556
842.041224	0.092380
842.229092	0.092516
842.416942	0.092468
842.604774	0.092405
842.792588	0.092689
842.980383	0.092592
843.168160	0.092457
843.355919	0.092579
843.543660	0.092893
843.731382	0.093247
843.919087	0.093354
844.106773	0.093708
844.294441	0.094042
844.482090	0.094012
844.669722	0.094169
844.857335	0.094282
845.044930	0.094483
845.232507	0.094480
845.420065	0.094355
845.607605	0.094607
845.795127	0.094629
845.982631	0.094734
846.170117	0.094545
846.357584	0.094635
846.545033	0.095180
846.732464	0.095259
846.919877	0.095145
847.107272	0.095280
847.294648	0.095265
847.482006	0.095716
847.669346	0.095931
847.856667	0.096145
848.043971	0.096423
848.231256	0.096288
848.418523	0.096310
848.605771	0.096541
848.793002	0.096759
848.980214	0.096716
849.167408	0.096755
849.354584	0.096698
849.541742	0.097083
849.728881	0.097085
849.916002	0.097408
850.103105	0.097567
850.290190	0.097804
850.477256	0.097825
850.664304	0.098136
850.851334	0.097957
851.038346	0.098135
851.225340	0.098361
851.412315	0.098567
851.599272	0.098558
851.786211	0.098749
851.973132	0.098850
852.160034	0.099034
852.346918	0.099291
852.533784	0.099449
852.720632	0.099621
852.907462	0.099573
853.094273	0.099796
853.281066	0.099949
853.467841	0.100119
853.654598	0.100283
853.841336	0.100465
854.028056	0.100485
854.214758	0.100689
854.401442	0.100864
854.588107	0.100928
854.774755	0.100834
854.961384	0.100742
855.147995	0.100546
855.334587	0.100688
855.521162	0.100882
855.707718	0.100836
855.894256	0.100876
856.080775	0.100569
856.267277	0.100683
856.453760	0.100697
856.640225	0.100809
856.826672	0.100881
857.013101	0.100909
857.199511	0.100772
857.385903	0.100827
857.572277	0.100792
857.758633	0.101078
857.944970	0.101014
858.131290	0.100892
858.317591	0.101094
858.503873	0.101126
858.690138	0.101015
858.876384	0.101476
859.062612	0.101916
859.248822	0.102271
859.435014	0.102504
859.621188	0.102610
859.807343	0.103206
859.993480	0.103275
860.179599	0.103767
860.365699	0.104239
860.551781	0.104327
860.737846	0.104529
860.923891	0.104384
861.109919	0.104543
861.295929	0.104581
861.481920	0.104800
861.667893	0.104650
861.853848	0.104579
862.039784	0.104670
862.225702	0.104585
862.411603	0.104552
862.597484	0.104927
862.783348	0.105041
862.969193	0.105157
863.155021	0.105173
863.340830	0.105663
863.526620	0.105546
863.712393	0.105868
863.898147	0.105946
864.083883	0.105890
864.269601	0.105968
864.455301	0.106120
864.640982	0.106324
864.826645	0.106485
865.012290	0.106291
865.197917	0.106816
865.383526	0.106700
865.569116	0.106701
865.754688	0.107081
865.940242	0.106923
866.125777	0.107065
866.311295	0.107185
866.496794	0.107144
866.682275	0.107468
866.867737	0.107277
867.053182	0.107247
867.238608	0.107207
867.424016	0.107093
867.609406	0.107231
867.794778	0.107225
867.980131	0.107342
868.165466	0.107401
868.350783	0.107524
868.536082	0.108082
868.721362	0.108044
868.906625	0.108267
869.091869	0.108489
869.277094	0.108858
869.462302	0.109041
869.647491	0.109157
869.832662	0.109331
870.017815	0.109090
870.202950	0.108626
870.388066	0.108656
870.573165	0.108670
870.758245	0.108193
870.943306	0.108008
871.128350	0.107871
871.313375	0.107809
871.498382	0.107653
871.683371	0.107898
871.868342	0.108308
872.053294	0.108403
872.238229	0.108543
872.423144	0.109115
872.608042	0.109293
872.792922	0.109338
872.977783	0.109504
873.162626	0.109807
873.347451	0.110001
873.532258	0.109972
873.717046	0.110219
873.901816	0.110382
874.086568	0.110459
874.271302	0.110346
874.456017	0.110385
874.640715	0.110376
874.825394	0.110279
875.010055	0.110165
875.194697	0.110063
875.379322	0.110123
875.563928	0.110090
875.748516	0.109892
875.933085	0.110267
876.117637	0.110392
876.302170	0.110661
876.486685	0.110729
876.671182	0.110968
876.855661	0.110915
877.040121	0.110762
877.224563	0.111019
877.408987	0.111012
877.593393	0.111055
877.777780	0.110919
877.962150	0.110641
878.146501	0.110630
878.330833	0.110575
878.515148	0.110785
878.699444	0.110745
878.883722	0.110683
879.067982	0.111006
879.252224	0.110518
879.436447	0.110476
879.620653	0.110388
879.804840	0.110403
879.989008	0.110407
880.173159	0.110562
880.357291	0.110671
880.541405	0.110648
880.725501	0.110475
880.909579	0.110802
881.093638	0.110895
881.277680	0.111227
881.461703	0.111359
881.645707	0.111237
881.829694	0.110926
882.013662	0.111144
882.197612	0.110849
882.381544	0.110942
882.565458	0.110854
882.749353	0.111125
882.933230	0.111113
883.117089	0.111255
883.300930	0.111487
883.484753	0.111825
883.668557	0.111732
883.852343	0.112045
884.036111	0.111939
884.219861	0.112186
884.403592	0.112082
884.587305	0.111779
884.771000	0.111776
884.954677	0.111645
885.138335	0.111681
885.321976	0.111487
885.505598	0.111403
885.689201	0.111571
885.872787	0.111493
886.056354	0.111670
886.239904	0.111956
886.423434	0.112089
886.606947	0.112485
886.790442	0.112597
886.973918	0.112807
887.157376	0.112926
887.340816	0.112985
887.524237	0.113049
887.707641	0.112976
887.891026	0.113039
888.074393	0.112766
888.257741	0.112151
888.441072	0.112013
888.624384	0.112224
888.807678	0.112006
888.990954	0.111503
889.174211	0.111274
889.357451	0.111479
889.540672	0.111529
889.723875	0.111661
889.907059	0.111798
890.090226	0.112088
890.273374	0.112096
890.456504	0.112367
890.639616	0.113063
890.822709	0.113063
891.005785	0.112773
891.188842	0.112832
891.371881	0.112719
891.554901	0.112819
891.737904	0.112334
891.920888	0.112004
892.103854	0.111881
892.286802	0.111357
892.469731	0.111512
892.652643	0.111544
892.835536	0.111718
893.018410	0.111861
893.201267	0.111943
893.384106	0.112118
893.566926	0.112145
893.749728	0.112082
893.932511	0.112214
894.115277	0.112163
894.298024	0.112020
894.480753	0.111791
894.663464	0.111355
894.846157	0.111335
895.028831	0.111293
895.211487	0.111616
895.394125	0.111763
895.576745	0.111755
895.759346	0.111528
895.941930	0.111802
896.124495	0.111871
896.307041	0.112050
896.489570	0.112202
896.672080	0.112384
896.854573	0.112175
897.037046	0.112142
897.219502	0.111904
897.401940	0.112050
897.584359	0.111596
897.766760	0.111298
897.949143	0.110945
898.131507	0.110745
898.313854	0.110305
898.496182	0.109945
898.678492	0.109529
898.860783	0.109632
899.043057	0.109357
899.225312	0.109338
899.407549	0.108984
899.589768	0.109278
899.771968	0.109004
899.954151	0.109216
900.136315	0.109190
900.318461	0.109059
900.500588	0.109067
900.682698	0.109156
900.864789	0.109074
901.046862	0.109312
901.228917	0.108757
901.410953	0.108762
901.592971	0.108395
901.774972	0.108401
901.956953	0.108524
902.138917	0.108572
902.320862	0.108236
902.502790	0.108242
902.684699	0.107930
902.866589	0.107914
903.048462	0.107582
903.230316	0.107260
903.412152	0.106975
903.593970	0.106284
903.775770	0.106001
903.957551	0.106060
904.139314	0.105993
904.321059	0.106134
904.502786	0.106441
904.684494	0.106374
904.866185	0.106541
905.047857	0.106788
905.229510	0.107376
905.411146	0.107349
905.592763	0.107426
905.774363	0.107221
905.955943	0.107231
906.137506	0.107179
906.319051	0.107079
906.500577	0.106575
906.682085	0.106586
906.863575	0.106354
907.045046	0.105892
907.226500	0.105774
907.407935	0.105598
907.589352	0.105140
907.770750	0.104748
907.952131	0.104792
908.133493	0.105329
908.314837	0.104923
908.496163	0.104739
908.677470	0.105432
908.858760	0.105031
909.040031	0.104706
909.221284	0.104811
909.402518	0.104797
909.583735	0.104687
909.764933	0.104454
909.946113	0.104138
910.127275	0.104018
910.308418	0.103440
910.489544	0.103516
910.670651	0.103672
910.851740	0.103383
911.032810	0.103327
911.213863	0.102969
911.394897	0.102687
911.575913	0.102323
911.756911	0.102160
911.937890	0.101766
912.118851	0.101829
912.299794	0.101661
912.480719	0.101205
912.661626	0.100946
912.842514	0.100785
913.023384	0.100192
913.204236	0.100474
913.385070	0.100400
913.565886	0.100189
913.746683	0.099411
913.927462	0.098797
914.108223	0.099005
914.288965	0.098338
914.469690	0.098042
914.650396	0.098056
914.831084	0.097608
915.011754	0.097463
915.192405	0.097099
915.373038	0.097142
915.553653	0.097420
915.734250	0.097249
915.914829	0.097538
916.095389	0.097689
916.275931	0.097536
916.456455	0.097304
916.636961	0.097133
916.817448	0.097356
916.997917	0.097018
917.178368	0.096416
917.358801	0.096392
917.539216	0.096129
917.719612	0.095451
917.899990	0.095080
918.080350	0.095236
918.260692	0.094620
918.441015	0.093905
918.621320	0.093368
918.801607	0.093456
918.981876	0.093021
919.162127	0.092564
919.342359	0.092689
919.522573	0.092651
919.702769	0.091604
919.882947	0.091695
920.063106	0.091591
920.243247	0.092060
920.423370	0.091632
920.603475	0.091421
920.783562	0.091062
920.963630	0.090976
921.143680	0.090919
921.323712	0.091690
921.503725	0.091291
921.683721	0.090751
921.863698	0.090132
922.043657	0.090184
922.223598	0.089761
922.403520	0.090080
922.583424	0.089604
922.763311	0.089592
922.943178	0.088790
923.123028	0.089087
923.302859	0.089057
923.482673	0.088891
923.662467	0.088518
923.842244	0.088268
924.022003	0.087221
924.201743	0.087198
924.381465	0.086557
924.561169	0.086204
924.740854	0.085900
924.920522	0.086038
925.100171	0.086021
925.279802	0.086039
925.459414	0.085433
925.639009	0.085801
925.818585	0.085504
925.998143	0.084635
926.177683	0.084623
926.357205	0.083897
926.536708	0.083556
926.716193	0.083481
926.895660	0.082837
927.075109	0.082860
927.254539	0.082670
927.433951	0.081859
927.613345	0.081771
927.792721	0.081459
927.972079	0.081187
928.151418	0.080682
928.330739	0.079572
928.510042	0.078934
928.689327	0.078599
928.868593	0.077804
929.047841	0.077901
929.227071	0.077946
929.406283	0.077196
929.585476	0.077162
929.764652	0.077496
929.943809	0.077361
930.122948	0.077699
930.302068	0.077457
930.481171	0.077546
930.660255	0.076874
930.839321	0.076786
931.018369	0.077267
931.197398	0.076694
931.376409	0.075707
931.555402	0.075630
931.734377	0.074537
931.913334	0.074507
932.092272	0.073939
932.271192	0.073575
932.450094	0.072612
932.628978	0.071754
932.807844	0.070941
932.986691	0.070018
933.165520	0.068930
933.344331	0.069246
933.523123	0.067988
933.701898	0.067876
933.880654	0.067548
934.059392	0.067727
934.238111	0.067377
934.416813	0.067638
934.595496	0.067304
934.774161	0.067837
934.952808	0.067488
935.131437	0.067789
935.310047	0.066656
935.488639	0.066721
935.667213	0.066058
935.845769	0.065583
936.024306	0.064725
936.202825	0.064699
936.381326	0.064326
936.559809	0.063789
936.738274	0.063801
936.916720	0.063920
937.095148	0.063095
937.273558	0.061983
937.451950	0.061936
937.630323	0.061563
937.808678	0.061599
937.987015	0.061073
938.165334	0.060665
938.343635	0.059786
938.521917	0.060029
938.700181	0.059330
938.878427	0.060801
939.056655	0.060948
939.234864	0.060924
939.413055	0.061395
939.591228	0.060828
939.769383	0.060553
939.947519	0.060110
940.125638	0.059627
940.303738	0.060004
940.481820	0.059104
940.659883	0.058108
940.837929	0.057086
941.015956	0.055839
941.193965	0.055907
941.371955	0.055283
941.549928	0.055073
941.727882	0.053961
941.905818	0.053567
942.083736	0.052947
942.261636	0.052666
942.439517	0.052657
942.617380	0.052251
942.795225	0.051445
942.973052	0.051014
943.150860	0.050388
943.328651	0.049681
943.506423	0.049616
943.684176	0.049441
943.861912	0.048951
944.039629	0.048495
944.217328	0.047944
944.395009	0.047057
944.572672	0.046792
944.750317	0.046077
944.927943	0.046836
945.105551	0.046437
945.283141	0.046195
945.460712	0.045716
945.638265	0.044889
945.815801	0.045358
945.993317	0.045217
946.170816	0.045202
946.348297	0.045141
946.525759	0.044578
946.703203	0.044151
946.880629	0.043106
947.058036	0.042791
947.235425	0.043126
947.412797	0.041732
947.590149	0.043028
947.767484	0.041351
947.944800	0.042506
948.122099	0.042111
948.299379	0.041110
948.476640	0.040765
948.653884	0.040871
948.831109	0.040119
949.008316	0.040036
949.185505	0.038773
949.362676	0.041294
949.539828	0.038938
949.716962	0.037930
949.894078	0.038264
950.071176	0.037607
950.248256	0.036771
950.425317	0.036579
950.602360	0.036216
950.779385	0.034843
950.956391	0.032820
951.133380	0.032920
951.310350	0.033716
951.487302	0.034450
951.664235	0.035512
951.841151	0.035822
952.018048	0.036346
952.194927	0.036433
952.371788	0.037610
952.548631	0.038665
952.725455	0.038742
952.902261	0.036777
953.079049	0.034275
953.255819	0.033340
953.432570	0.033241
953.609303	0.033377
953.786018	0.033083
953.962715	0.032854
954.139394	0.032358
954.316054	0.033336
954.492696	0.035328
954.669320	0.035543
954.845926	0.036090
955.022513	0.034732
955.199083	0.033993
955.375634	0.034366
955.552166	0.033055
955.728681	0.033428
955.905177	0.033561
956.081655	0.033109
956.258115	0.035083
956.434557	0.034598
956.610980	0.035096
956.787385	0.034436
956.963772	0.033483
957.140141	0.034677
957.316492	0.032334
957.492824	0.030948
957.669138	0.030212
957.845434	0.029443
958.021712	0.029351
958.197971	0.029260
958.374212	0.031725
958.550435	0.032138
958.726640	0.030774
958.902826	0.030865
959.078995	0.030840
959.255145	0.030848
959.431277	0.028100
959.607390	0.027287
959.783486	0.027499
959.959563	0.024751
960.135622	0.025328
960.311662	0.025468
960.487685	0.026156
960.663689	0.026672
960.839675	0.026061
961.015643	0.029109
961.191593	0.030089
961.367524	0.030516
961.543437	0.031204
961.719332	0.029754
961.895209	0.030975
962.071067	0.032135
962.246907	0.031514
962.422730	0.033437
962.598533	0.032172
962.774319	0.030890
962.950086	0.031334
963.125835	0.032671
963.301566	0.033839
963.477279	0.032763
963.652973	0.031846
963.828650	0.032422
964.004308	0.030016
964.179947	0.032123
964.355569	0.033190
964.531172	0.032400
964.706757	0.031803
964.882324	0.030917
965.057873	0.031063
965.233403	0.030661
965.408916	0.031551
965.584410	0.033523
965.759885	0.031664
965.935343	0.031735
966.110782	0.033014
966.286203	0.031374
966.461606	0.030560
966.636991	0.032745
966.812357	0.034566
966.987705	0.032087
967.163035	0.031502
967.338347	0.032532
967.513641	0.031943
967.688916	0.031269
967.864173	0.032950
968.039412	0.034863
968.214632	0.032287
968.389835	0.031558
968.565019	0.032825
968.740185	0.033565
968.915333	0.032830
969.090462	0.031269
969.265573	0.031518
969.440667	0.032192
969.615741	0.029978
969.790798	0.031667
969.965836	0.030903
970.140856	0.030578
970.315858	0.030087
970.490842	0.031118
970.665808	0.031865
970.840755	0.031501
971.015684	0.031936
971.190595	0.033588
971.365487	0.033413
971.540362	0.032912
971.715218	0.033017
971.890056	0.032101
972.064875	0.032277
972.239677	0.032899
972.414460	0.031683
972.589225	0.031808
972.763972	0.032125
972.938700	0.032877
973.113411	0.032372
973.288103	0.032793
973.462777	0.034594
973.637432	0.034184
973.812070	0.034502
973.986689	0.036327
974.161290	0.036730
974.335873	0.036947
974.510437	0.034927
974.684984	0.036795
974.859512	0.036628
975.034022	0.036479
975.208513	0.036771
975.382987	0.038568
975.557442	0.038515
975.731879	0.037163
975.906298	0.036265
976.080698	0.037316
976.255080	0.037415
976.429445	0.036444
976.603790	0.035738
976.778118	0.034481
976.952427	0.032640
977.126719	0.032310
977.300992	0.033254
977.475246	0.034777
977.649483	0.035677
977.823701	0.035102
977.997901	0.036565
978.172083	0.036795
978.346247	0.036561
978.520392	0.038455
978.694519	0.038629
978.868628	0.037116
979.042719	0.037043
979.216791	0.036276
979.390845	0.035535
979.564882	0.033383
979.738899	0.033290
979.912899	0.035410
980.086880	0.033686
980.260843	0.031696
980.434788	0.031515
980.608715	0.030978
980.782623	0.031063
980.956514	0.030946
981.130386	0.032653
981.304240	0.033508
981.478075	0.031566
981.651892	0.031923
981.825692	0.034058
981.999472	0.033611
982.173235	0.032573
982.346980	0.032437
982.520706	0.033093
982.694414	0.033488
982.868104	0.031458
983.041775	0.032130
983.215428	0.030883
983.389064	0.030690
983.562680	0.031569
983.736279	0.033174
983.909860	0.031465
984.083422	0.031526
984.256966	0.030622
984.430491	0.032701
984.603999	0.032004
984.777488	0.034175
984.950959	0.031970
985.124412	0.031460
985.297847	0.030412
985.471263	0.032082
985.644661	0.031677
985.818041	0.032126
985.991403	0.031551
986.164747	0.032411
986.338072	0.029938
986.511379	0.031846
986.684668	0.031664
986.857938	0.029961
987.031191	0.029371
987.204425	0.031405
987.377641	0.030548
987.550839	0.030085
987.724018	0.030305
987.897179	0.031654
988.070322	0.032695
988.243447	0.032402
988.416554	0.034830
988.589642	0.035151
988.762712	0.033240
988.935764	0.031855
989.108798	0.033822
989.281813	0.033222
989.454811	0.032846
989.627790	0.032001
989.800751	0.033959
989.973693	0.034057
990.146617	0.034625
990.319524	0.035376
990.492412	0.037427
990.665281	0.036617
990.838133	0.038382
991.010966	0.038936
991.183781	0.037478
991.356578	0.034886
991.529356	0.032710
991.702117	0.031358
991.874859	0.028345
992.047583	0.027584
992.220288	0.026704
992.392976	0.025158
992.565645	0.025623
992.738296	0.027461
992.910929	0.028871
993.083543	0.029501
993.256139	0.031404
993.428718	0.034038
993.601277	0.034445
993.773819	0.033522
993.946342	0.033232
994.118848	0.031318
994.291335	0.031584
994.463803	0.032615
994.636254	0.031407
994.808686	0.030153
994.981100	0.029641
995.153496	0.030557
995.325874	0.031859
995.498233	0.032066
995.670574	0.033250
995.842897	0.033177
996.015202	0.031270
996.187488	0.032756
996.359757	0.030887
996.532007	0.031254
996.704239	0.030017
996.876452	0.030207
997.048648	0.030402
997.220825	0.030563
997.392984	0.030913
997.565124	0.031373
997.737247	0.032258
997.909351	0.034147
998.081437	0.034580
998.253505	0.036564
998.425554	0.035650
998.597586	0.036413
998.769599	0.035455
998.941594	0.034239
999.113571	0.034367
999.285529	0.033896
999.457469	0.033327
999.629391	0.032887
999.801295	0.032045
999.973181	0.032346
1000.145048	0.031598
1000.316897	0.031356
1000.488728	0.031418
1000.660541	0.032073
1000.832335	0.031430
1001.004111	0.032056
1001.175869	0.033096
1001.347609	0.032774
1001.519331	0.032639
1001.691034	0.033516
1001.862719	0.034341
1002.034386	0.033638
1002.206035	0.032088
1002.377665	0.032263
1002.549277	0.031629
1002.720871	0.029822
1002.892447	0.030022
1003.064004	0.030371
1003.235544	0.028805
1003.407065	0.028646
1003.578568	0.029887
1003.750052	0.031491
1003.921519	0.032281
1004.092967	0.032500
1004.264397	0.033459
1004.435809	0.034010
1004.607202	0.033817
1004.778577	0.034835
1004.949934	0.035999
1005.121273	0.035702
1005.292594	0.034283
1005.463896	0.033632
1005.635180	0.034218
1005.806446	0.033851
1005.977694	0.033604
1006.148923	0.032522
1006.320135	0.031702
1006.491328	0.030319
1006.662503	0.028944
1006.833659	0.028250
1007.004798	0.029003
1007.175918	0.028997
1007.347020	0.026689
1007.518103	0.025694
1007.689169	0.025917
1007.860216	0.027125
1008.031245	0.027084
1008.202256	0.028501
1008.373248	0.031075
1008.544223	0.031258
1008.715179	0.031267
1008.886117	0.032311
1009.057036	0.031992
1009.227938	0.033350
1009.398821	0.032281
1009.569686	0.033156
1009.740533	0.032325
1009.911361	0.030790
1010.082172	0.030997
1010.252964	0.031415
1010.423738	0.032689
1010.594493	0.034460
1010.765231	0.032466
1010.935950	0.032579
1011.106651	0.031972
1011.277334	0.031340
1011.447998	0.031475
1011.618645	0.031593
1011.789273	0.030200
1011.959882	0.029347
1012.130474	0.028878
1012.301048	0.030972
1012.471603	0.030930
1012.642140	0.031386
1012.812658	0.031029
1012.983159	0.031782
1013.153641	0.030175
1013.324105	0.031055
1013.494551	0.033347
1013.664979	0.032711
1013.835388	0.030541
1014.005779	0.030758
1014.176152	0.029940
1014.346507	0.030994
1014.516843	0.029126
1014.687162	0.029415
1014.857462	0.029059
1015.027744	0.028324
1015.198007	0.028530
1015.368252	0.030880
1015.538480	0.029878
1015.708689	0.031313
1015.878879	0.029920
1016.049052	0.030203
1016.219206	0.030073
1016.389342	0.031551
1016.559460	0.032425
1016.729559	0.033617
1016.899641	0.031874
1017.069704	0.032876
1017.239749	0.032444
1017.409775	0.033799
1017.579784	0.034220
1017.749774	0.033895
1017.919746	0.032584
1018.089700	0.031681
1018.259635	0.030697
1018.429553	0.031835
1018.599452	0.031211
1018.769333	0.031780
1018.939195	0.031988
1019.109040	0.032990
1019.278866	0.033722
1019.448674	0.035070
1019.618464	0.034488
1019.788235	0.035744
1019.957989	0.035742
1020.127724	0.036031
1020.297441	0.034936
1020.467139	0.035036
1020.636820	0.034786
1020.806482	0.034971
1020.976126	0.033111
1021.145752	0.032652
1021.315359	0.030316
1021.484948	0.030605
1021.654519	0.031019
1021.824072	0.031075
1021.993607	0.029596
1022.163123	0.028842
1022.332621	0.029465
1022.502101	0.029605
1022.671563	0.030178
1022.841007	0.031380
1023.010432	0.030322
1023.179839	0.031507
1023.349228	0.032004
1023.518598	0.032468
1023.687951	0.032963
1023.857285	0.031367
1024.026601	0.033099
1024.195899	0.032147
1024.365178	0.030675
1024.534439	0.029937
1024.703682	0.027206
1024.872907	0.028144
1025.042114	0.027717
1025.211302	0.028556
1025.380472	0.029418
1025.549624	0.028496
1025.718758	0.029203
1025.887873	0.030920
1026.056970	0.030679
1026.226049	0.033349
1026.395110	0.031925
1026.564153	0.033366
1026.733177	0.031960
1026.902183	0.032713
1027.071171	0.032436
1027.240141	0.032097
1027.409092	0.030998
1027.578026	0.031934
1027.746940	0.029306
1027.915837	0.028974
1028.084716	0.028075
1028.253576	0.029175
1028.422418	0.028539
1028.591242	0.028999
1028.760048	0.028158
1028.928835	0.028309
1029.097604	0.028853
1029.266355	0.030491
1029.435088	0.032258
1029.603803	0.031332
1029.772499	0.031932
1029.941177	0.031768
1030.109837	0.031007
1030.278478	0.032712
1030.447102	0.032309
1030.615707	0.031118
1030.784294	0.030272
1030.952863	0.030011
1031.121413	0.032121
1031.289945	0.029966
1031.458460	0.030430
1031.626955	0.031487
1031.795433	0.031065
1031.963892	0.031726
1032.132334	0.031779
1032.300756	0.031821
1032.469161	0.030573
1032.637548	0.030287
1032.805916	0.031740
1032.974266	0.030315
1033.142598	0.031380
1033.310911	0.031357
1033.479207	0.031916
1033.647484	0.033786
1033.815743	0.034649
1033.983983	0.036517
1034.152206	0.036533
1034.320410	0.035296
1034.488596	0.037842
1034.656764	0.036062
1034.824914	0.034719
1034.993045	0.035517
1035.161158	0.034974
1035.329253	0.035043
1035.497330	0.033662
1035.665388	0.033841
1035.833428	0.034991
1036.001450	0.033403
1036.169454	0.032229
1036.337440	0.033741
1036.505407	0.033532
1036.673356	0.032706
1036.841287	0.032359
1037.009200	0.031099
1037.177094	0.030547
1037.344970	0.029879
1037.512828	0.029615
1037.680668	0.030734
1037.848489	0.029900
1038.016293	0.028835
1038.184078	0.028118
1038.351845	0.026993
1038.519593	0.027959
1038.687324	0.028977
1038.855036	0.027962
1039.022730	0.028756
1039.190406	0.028848
1039.358063	0.030182
1039.525702	0.030188
1039.693323	0.032525
1039.860926	0.032260
1040.028511	0.031967
1040.196077	0.031631
1040.363625	0.032049
1040.531155	0.030984
1040.698667	0.031628
1040.866161	0.031863
1041.033636	0.031390
1041.201093	0.030554
1041.368532	0.030574
1041.535952	0.032010
1041.703355	0.029903
1041.870739	0.030625
1042.038105	0.031307
1042.205452	0.030895
1042.372782	0.029767
1042.540093	0.029863
1042.707386	0.030213
1042.874661	0.032191
1043.041918	0.031059
1043.209156	0.032098
1043.376376	0.033029
1043.543578	0.032787
1043.710762	0.031190
1043.877927	0.031828
1044.045074	0.031937
1044.212203	0.029848
1044.379314	0.028690
1044.546407	0.029278
1044.713481	0.030891
1044.880537	0.030131
1045.047575	0.029588
1045.214595	0.031169
1045.381596	0.031892
1045.548579	0.033187
1045.715544	0.035421
1045.882491	0.034891
1046.049420	0.034480
1046.216330	0.033199
1046.383222	0.033089
1046.550096	0.033866
1046.716951	0.032952
1046.883789	0.032041
1047.050608	0.030677
1047.217409	0.029424
1047.384192	0.029185
1047.550956	0.029038
1047.717703	0.028520
1047.884431	0.027742
1048.051140	0.029186
1048.217832	0.029698
1048.384505	0.028556
1048.551161	0.027246
1048.717798	0.028619
1048.884416	0.028914
1049.051017	0.029323
1049.217599	0.029665
1049.384163	0.031274
1049.550709	0.028541
1049.717237	0.027819
1049.883746	0.028263
1050.050237	0.029489
1050.216710	0.028163
1050.383165	0.029711
1050.549601	0.030268
1050.716019	0.030180
1050.882420	0.030636
1051.048801	0.032261
1051.215165	0.034038
1051.381510	0.033805
1051.547837	0.034228
1051.714146	0.033435
1051.880437	0.033632
1052.046709	0.031394
1052.212964	0.030928
1052.379200	0.028751
1052.545417	0.027721
1052.711617	0.027139
1052.877798	0.029556
1053.043961	0.028361
1053.210106	0.029224
1053.376233	0.028294
1053.542341	0.028124
1053.708432	0.029821
1053.874504	0.031839
1054.040557	0.032208
1054.206593	0.031780
1054.372610	0.031004
1054.538609	0.029996
1054.704590	0.030517
1054.870553	0.031381
1055.036497	0.032143
1055.202424	0.032523
1055.368331	0.032542
1055.534221	0.032436
1055.700093	0.031679
1055.865946	0.030625
1056.031781	0.032811
1056.197598	0.032636
1056.363397	0.031525
1056.529177	0.032397
1056.694939	0.030779
1056.860683	0.030289
1057.026409	0.030879
1057.192116	0.033188
1057.357806	0.032617
1057.523477	0.032303
1057.689130	0.032951
1057.854764	0.033276
1058.020381	0.032417
1058.185979	0.033088
1058.351559	0.032684
1058.517120	0.032110
1058.682664	0.030187
1058.848189	0.030664
1059.013696	0.029476
1059.179185	0.028904
1059.344656	0.026389
1059.510108	0.026299
1059.675542	0.025692
1059.840958	0.024213
1060.006356	0.024720
1060.171735	0.026064
1060.337096	0.027288
1060.502439	0.030024
1060.667764	0.030035
1060.833071	0.031802
1060.998359	0.031542
1061.163629	0.032488
1061.328881	0.031958
1061.494115	0.033028
1061.659330	0.031430
1061.824527	0.028814
1061.989706	0.028375
1062.154867	0.027760
1062.320010	0.029035
1062.485134	0.027539
1062.650240	0.026155
1062.815328	0.027507
1062.980398	0.027402
1063.145449	0.026873
1063.310482	0.028562
1063.475497	0.027663
1063.640494	0.027589
1063.805473	0.026131
1063.970433	0.028613
1064.135375	0.028607
1064.300299	0.030011
1064.465204	0.029926
1064.630092	0.032636
1064.794961	0.032314
1064.959812	0.031976
1065.124645	0.032053
1065.289459	0.031715
1065.454256	0.029993
1065.619034	0.030865
1065.783793	0.030433
1065.948535	0.028884
1066.113258	0.026211
1066.277964	0.026086
1066.442651	0.026310
1066.607319	0.027133
1066.771970	0.026701
1066.936602	0.028787
1067.101216	0.027814
1067.265812	0.026788
1067.430389	0.027779
1067.594949	0.028368
1067.759490	0.029379
1067.924013	0.027875
1068.088518	0.026420
1068.253004	0.028198
1068.417472	0.027958
1068.581922	0.030034
1068.746354	0.030762
1068.910768	0.030262
1069.075163	0.029939
1069.239540	0.028382
1069.403899	0.030068
1069.568240	0.032596
1069.732562	0.034132
1069.896866	0.032362
1070.061152	0.031296
1070.225420	0.032255
1070.389670	0.030282
1070.553901	0.031607
1070.718114	0.030345
1070.882309	0.029941
1071.046486	0.028976
1071.210644	0.027246
1071.374784	0.028191
1071.538906	0.029587
1071.703010	0.029215
1071.867096	0.031563
1072.031163	0.029955
1072.195212	0.031983
1072.359243	0.032297
1072.523256	0.030464
1072.687250	0.030923
1072.851226	0.030766
1073.015184	0.030508
1073.179124	0.029383
1073.343045	0.027855
1073.506949	0.027425
1073.670834	0.027554
1073.834701	0.026832
1073.998549	0.026443
1074.162380	0.026077
1074.326192	0.028308
1074.489986	0.027890
1074.653761	0.027269
1074.817519	0.026128
1074.981258	0.027406
1075.144979	0.027168
1075.308682	0.027832
1075.472367	0.029403
1075.636033	0.029736
1075.799681	0.028117
1075.963311	0.027208
1076.126923	0.028485
1076.290516	0.029983
1076.454092	0.028997
1076.617649	0.029548
1076.781187	0.029396
1076.944708	0.029361
1077.108210	0.027832
1077.271695	0.027673
1077.435160	0.027777
1077.598608	0.027880
1077.762038	0.029999
1077.925449	0.032381
1078.088842	0.031010
1078.252217	0.029705
1078.415573	0.030309
1078.578912	0.031019
1078.742232	0.030553
1078.905534	0.030896
1079.068817	0.030032
1079.232083	0.028560
1079.395330	0.026645
1079.558559	0.027821
1079.721770	0.029767
1079.884962	0.028127
1080.048136	0.029283
1080.211293	0.028838
1080.374430	0.028729
1080.537550	0.026437
1080.700651	0.025534
1080.863735	0.026978
1081.026800	0.028953
1081.189846	0.027175
1081.352875	0.026973
1081.515885	0.025357
1081.678877	0.027348
1081.841851	0.028445
1082.004807	0.030633
1082.167744	0.032724
1082.330663	0.030903
1082.493564	0.026482
1082.656447	0.027396
1082.819312	0.028527
1082.982158	0.030518
1083.144986	0.027478
1083.307796	0.025623
1083.470587	0.026243
1083.633361	0.024174
1083.796116	0.025433
1083.958853	0.027793
1084.121571	0.026352
1084.284272	0.023846
1084.446954	0.021605
1084.609618	0.024062
1084.772264	0.023741
1084.934892	0.024228
1085.097501	0.024264
1085.260092	0.024486
1085.422665	0.023101
1085.585220	0.024827
1085.747756	0.028422
1085.910274	0.030342
1086.072774	0.031236
1086.235256	0.032377
1086.397720	0.031511
1086.560165	0.033306
1086.722592	0.033085
1086.885001	0.034219
1087.047392	0.035517
1087.209764	0.036296
1087.372119	0.034878
1087.534455	0.032364
1087.696772	0.031535
1087.859072	0.028964
1088.021353	0.028335
1088.183616	0.026533
1088.345861	0.025866
1088.508088	0.025950
1088.670296	0.023996
1088.832486	0.025477
1088.994658	0.027099
1089.156812	0.026328
1089.318948	0.031027
1089.481065	0.033067
1089.643164	0.034457
1089.805245	0.035420
1089.967308	0.033801
1090.129352	0.034264
1090.291378	0.032479
1090.453386	0.032778
1090.615376	0.035368
1090.777347	0.033959
1090.939301	0.030484
1091.101236	0.031798
1091.263153	0.031865
1091.425051	0.031129
1091.586932	0.032281
1091.748794	0.033418
1091.910638	0.031457
1092.072463	0.031467
1092.234271	0.031649
1092.396060	0.033529
1092.557831	0.031865
1092.719584	0.030871
1092.881319	0.033178
1093.043035	0.032142
1093.204733	0.031422
1093.366413	0.030231
1093.528075	0.028338
1093.689718	0.031051
1093.851343	0.031504
1094.012950	0.032301
1094.174539	0.034052
1094.336110	0.034710
1094.497662	0.032963
1094.659196	0.033549
1094.820712	0.037881
1094.982210	0.037547
1095.143689	0.032346
1095.305151	0.031744
1095.466594	0.032207
1095.628018	0.031758
1095.789425	0.031254
1095.950813	0.032205
1096.112183	0.031595
1096.273535	0.027814
1096.434869	0.030454
1096.596184	0.032739
1096.757482	0.033698
1096.918761	0.031478
1097.080021	0.029570
1097.241264	0.028584
1097.402488	0.029210
1097.563694	0.029899
1097.724882	0.032341
1097.886052	0.030655
1098.047203	0.031399
1098.208336	0.030607
1098.369451	0.030723
1098.530548	0.031626
1098.691627	0.032204
1098.852687	0.031980
1099.013729	0.033832
1099.174753	0.032596
1099.335758	0.032930
1099.496746	0.031522
1099.657715	0.030556
1099.818666	0.032504
1099.979599	0.032873
1100.140513	0.031845
1100.301409	0.032485
1100.462287	0.032983
1100.623147	0.036062
1100.783989	0.034825
1100.944812	0.035823
1101.105617	0.038538
1101.266404	0.037280
1101.427173	0.036716
1101.587923	0.035071
1101.748656	0.034478
1101.909370	0.036012
1102.070066	0.035174
1102.230743	0.034800
1102.391403	0.036008
1102.552044	0.034895
1102.712667	0.036097
1102.873271	0.036855
1103.033858	0.038402
1103.194426	0.039434
1103.354976	0.037190
1103.515508	0.034199
1103.676021	0.034872
1103.836517	0.033745
1103.996994	0.031786
1104.157453	0.031665
1104.317893	0.031553
1104.478316	0.033834
1104.638720	0.034896
1104.799106	0.033692
1104.959474	0.033821
1105.119823	0.035863
1105.280155	0.033069
1105.440468	0.034336
1105.600763	0.034170
1105.761039	0.036251
1105.921298	0.033990
1106.081538	0.033061
1106.241760	0.034131
1106.401964	0.036161
1106.562149	0.032246
1106.722316	0.034858
1106.882465	0.032591
1107.042596	0.032581
1107.202709	0.029634
1107.362803	0.029241
1107.522879	0.028548
1107.682937	0.029068
1107.842977	0.030985
1108.002999	0.031375
1108.163002	0.032705
1108.322987	0.035325
1108.482954	0.036374
1108.642902	0.040057
1108.802833	0.043687
1108.962745	0.041766
1109.122639	0.037521
1109.282515	0.035267
1109.442372	0.037669
1109.602211	0.033515
1109.762032	0.032608
1109.921835	0.033731
1110.081620	0.030737
1110.241386	0.026459
1110.401134	0.028412
1110.560864	0.030134
1110.720576	0.030984
1110.880269	0.031800
1111.039945	0.033536
1111.199602	0.033669
1111.359240	0.031145
1111.518861	0.032650
1111.678463	0.034220
1111.838047	0.035768
1111.997613	0.034448
1112.157161	0.035387
1112.316690	0.034893
1112.476202	0.035795
1112.635695	0.036880
1112.795169	0.036051
1112.954626	0.034227
1113.114064	0.036804
1113.273484	0.036594
1113.432886	0.038232
1113.592270	0.035726
1113.751635	0.035384
1113.910983	0.037166
1114.070312	0.033203
1114.229622	0.034417
1114.388915	0.032361
1114.548189	0.027108
1114.707445	0.022800
1114.866683	0.021362
1115.025903	0.021739
1115.185104	0.022533
1115.344287	0.021522
1115.503452	0.023592
1115.662599	0.024626
1115.821727	0.028516
1115.980838	0.030523
1116.139930	0.031655
1116.299004	0.036063
1116.458059	0.035385
1116.617097	0.034294
1116.776116	0.032928
1116.935117	0.035418
1117.094099	0.033662
1117.253064	0.034174
1117.412010	0.034057
1117.570938	0.036438
1117.729848	0.036326
1117.888740	0.035860
1118.047613	0.040275
1118.206468	0.041996
1118.365305	0.041056
1118.524124	0.042655
1118.682924	0.041481
1118.841707	0.043711
1119.000471	0.047009
1119.159216	0.042782
1119.317944	0.045061
1119.476653	0.041880
1119.635344	0.041170
1119.794017	0.039977
1119.952672	0.039621
1120.111308	0.038373
1120.269927	0.036887
1120.428527	0.035860
1120.587108	0.036162
1120.745672	0.032566
1120.904217	0.028592
1121.062744	0.029603
1121.221253	0.031086
1121.379744	0.030890
1121.538216	0.034574
1121.696671	0.036525
1121.855107	0.032764
1122.013524	0.035900
1122.171924	0.041171
1122.330305	0.044937
1122.488668	0.044097
1122.647013	0.042455
1122.805340	0.041043
1122.963648	0.035163
1123.121938	0.032953
1123.280210	0.032134
1123.438464	0.029033
1123.596700	0.032504
1123.754917	0.033342
1123.913116	0.032270
1124.071297	0.033327
1124.229459	0.035347
1124.387604	0.037221
1124.545730	0.036081
1124.703838	0.038414
1124.861928	0.039785
1125.019999	0.038308
1125.178052	0.033990
1125.336088	0.034763
1125.494104	0.031442
1125.652103	0.027495
1125.810083	0.027589
1125.968045	0.028833
1126.125989	0.031618
1126.283915	0.030743
1126.441823	0.023678
1126.599712	0.024074
1126.757583	0.022934
1126.915436	0.022904
1127.073270	0.029982
1127.231087	0.031688
1127.388885	0.034503
1127.546665	0.033636
1127.704426	0.033412
1127.862170	0.039129
1128.019895	0.040698
1128.177602	0.040845
1128.335291	0.042389
1128.492961	0.037695
1128.650614	0.039242
1128.808248	0.034889
1128.965864	0.031103
1129.123461	0.029256
1129.281041	0.028741
1129.438602	0.029579
1129.596145	0.030120
1129.753670	0.033439
1129.911176	0.033378
1130.068665	0.030921
1130.226135	0.032906
1130.383587	0.033299
1130.541020	0.038266
1130.698436	0.040328
1130.855833	0.040100
1131.013212	0.040206
1131.170573	0.033636
1131.327915	0.034656
1131.485239	0.033426
1131.642545	0.037676
1131.799833	0.043667
1131.957103	0.041478
1132.114354	0.033860
1132.271588	0.037327
1132.428803	0.038866
1132.585999	0.041600
1132.743178	0.041840
1132.900338	0.039594
1133.057480	0.039802
1133.214604	0.031970
1133.371710	0.033633
1133.528797	0.039776
1133.685866	0.036882
1133.842917	0.033837
1133.999950	0.037387
1134.156964	0.038076
1134.313960	0.036297
1134.470938	0.032990
1134.627898	0.037092
1134.784840	0.033065
1134.941763	0.031851
1135.098668	0.028263
1135.255555	0.032655
1135.412424	0.034123
1135.569274	0.031204
1135.726107	0.037732
1135.882921	0.032628
1136.039716	0.030503
1136.196494	0.032973
1136.353253	0.032318
1136.509995	0.031287
1136.666717	0.028758
1136.823422	0.026814
1136.980109	0.028511
1137.136777	0.023508
1137.293427	0.024410
1137.450059	0.024902
1137.606672	0.024425
1137.763267	0.023875
1137.919844	0.025134
1138.076403	0.025887
1138.232944	0.025268
1138.389466	0.025049
1138.545971	0.030141
1138.702457	0.035183
1138.858924	0.035651
1139.015374	0.036560
1139.171805	0.036668
1139.328218	0.038951
1139.484613	0.031913
1139.640990	0.036443
1139.797348	0.037407
1139.953688	0.034429
1140.110010	0.033898
1140.266314	0.027789
1140.422600	0.032516
1140.578867	0.028567
1140.735116	0.032105
1140.891347	0.039723
1141.047559	0.035919
1141.203754	0.037216
1141.359930	0.037746
1141.516088	0.039781
1141.672228	0.047670
1141.828349	0.040133
1141.984452	0.043644
1142.140537	0.043436
1142.296604	0.040776
1142.452653	0.033442
1142.608683	0.030894
1142.764695	0.029324
1142.920689	0.020456
1143.076665	0.019225
1143.232622	0.020431
1143.388562	0.021022
1143.544483	0.016337
1143.700385	0.020514
1143.856270	0.022478
1144.012136	0.022167
1144.167985	0.027873
1144.323814	0.035627
1144.479626	0.039359
1144.635420	0.036500
1144.791195	0.037404
1144.946952	0.044139
1145.102691	0.038266
1145.258411	0.043390
1145.414113	0.046269
1145.569798	0.036150
1145.725463	0.036156
1145.881111	0.032294
1146.036741	0.035734
1146.192352	0.028632
1146.347945	0.020534
1146.503519	0.026459
1146.659076	0.023805
1146.814614	0.026948
1146.970134	0.033573
1147.125636	0.027163
1147.281120	0.029670
1147.436585	0.031097
1147.592032	0.035003
1147.747461	0.040629
1147.902872	0.041255
1148.058265	0.043071
1148.213639	0.035132
1148.368995	0.030583
1148.524333	0.033215
1148.679653	0.026627
1148.834954	0.024507
1148.990237	0.026169
1149.145502	0.024979
1149.300749	0.020219
1149.455977	0.019048
1149.611188	0.025180
1149.766380	0.033017
1149.921553	0.030794
1150.076709	0.029959
1150.231846	0.031100
1150.386966	0.034403
1150.542066	0.033290
1150.697149	0.031882
1150.852214	0.025054
1151.007260	0.021032
1151.162288	0.016749
1151.317298	0.022943
1151.472289	0.028309
1151.627263	0.031365
1151.782218	0.024343
1151.937155	0.021356
1152.092073	0.029461
1152.246974	0.026762
1152.401856	0.033892
1152.556720	0.033195
1152.711566	0.031652
1152.866393	0.033966
1153.021203	0.032475
1153.175994	0.036137
1153.330767	0.043719
1153.485521	0.037277
1153.640258	0.047545
1153.794976	0.038131
1153.949676	0.042928
1154.104358	0.043184
1154.259021	0.037205
1154.413667	0.039771
1154.568294	0.042514
1154.722903	0.036998
1154.877493	0.044551
1155.032066	0.040924
1155.186620	0.046562
1155.341156	0.048193
1155.495674	0.046030
1155.650173	0.048311
1155.804654	0.039828
1155.959118	0.034411
1156.113562	0.036361
1156.267989	0.027445
1156.422397	0.035739
1156.576788	0.037211
1156.731160	0.040759
1156.885513	0.034069
1157.039849	0.034903
1157.194166	0.035498
1157.348465	0.033041
1157.502746	0.038033
1157.657009	0.041791
1157.811253	0.038347
1157.965479	0.033809
1158.119687	0.025769
1158.273877	0.030060
1158.428048	0.027557
1158.582201	0.025829
1158.736337	0.031566
1158.890453	0.026324
1159.044552	0.020888
1159.198632	0.023961
1159.352694	0.028984
1159.506738	0.029467
1159.660764	0.035692
1159.814771	0.041121
1159.968761	0.043511
1160.122732	0.040821
1160.276685	0.034592
1160.430619	0.029965
1160.584535	0.023718
1160.738434	0.017564
1160.892313	0.019091
1161.046175	0.016947
1161.200019	0.015593
1161.353844	0.020525
1161.507651	0.029743
1161.661440	0.036817
1161.815210	0.041313
1161.968962	0.049758
1162.122697	0.053217
1162.276412	0.058499
1162.430110	0.058981
1162.583789	0.052831
1162.737451	0.051262
1162.891094	0.046454
1163.044718	0.045629
1163.198325	0.042333
1163.351913	0.036304
1163.505483	0.029997
1163.659035	0.017326
1163.812569	0.015842
1163.966084	0.026507
1164.119581	0.028969
1164.273060	0.029419
1164.426521	0.024450
1164.579964	0.028894
1164.733388	0.028803
1164.886794	0.038165
1165.040182	0.048771
1165.193551	0.047004
1165.346903	0.039142
1165.500236	0.040456
1165.653551	0.042200
1165.806848	0.055527
1165.960126	0.055424
1166.113386	0.056875
1166.266628	0.059667
1166.419852	0.053694
1166.573058	0.050179
1166.726245	0.052985
1166.879414	0.045145
1167.032565	0.045206
1167.185698	0.044601
1167.338812	0.044929
1167.491909	0.043462
1167.644987	0.039755
1167.798046	0.038700
1167.951088	0.044514
1168.104111	0.050202
1168.257117	0.057107
1168.410103	0.060535
1168.563072	0.052991
1168.716023	0.050686
1168.868955	0.052336
1169.021869	0.045159
1169.174765	0.053597
1169.327642	0.050152
1169.480501	0.042107
1169.633343	0.034077
1169.786165	0.026518
1169.938970	0.022860
1170.091757	0.033534
1170.244525	0.022780
1170.397275	0.019793
1170.550007	0.012696
1170.702720	0.019286
1170.855415	0.017874
1171.008092	0.018601
1171.160751	0.012710
1171.313392	0.011977
1171.466014	0.015517
1171.618619	0.002706
1171.771205	0.002706
1171.923772	0.002706
