sample name	sample
index	438
start time	 03-11-2021  10:33:10 AM


Wavelength (nm)	Absorbance
494.344910	-0.016598
494.563924	-0.016598
494.782919	-0.016598
495.001897	0.505280
495.220856	-0.110181
495.439797	-0.135030
495.658719	-0.155577
495.877624	-0.148822
496.096510	-0.173515
496.315378	-0.161025
496.534227	-0.126120
496.753059	-0.122864
496.971872	-0.160139
497.190667	-0.010592
497.409444	0.003069
497.628203	0.007227
497.846943	0.009233
498.065665	0.007477
498.284369	0.009769
498.503055	0.011133
498.721723	0.011488
498.940372	0.011990
499.159003	0.011248
499.377616	0.011735
499.596210	0.011436
499.814787	0.011189
500.033345	0.012212
500.251885	0.012103
500.470406	0.011161
500.688910	0.011740
500.907395	0.011667
501.125862	0.012137
501.344311	0.011833
501.562742	0.011531
501.781154	0.011256
501.999548	0.012376
502.217924	0.012195
502.436282	0.011950
502.654621	0.011420
502.872942	0.011519
503.091245	0.011272
503.309530	0.011576
503.527797	0.011984
503.746045	0.012515
503.964275	0.012115
504.182487	0.012381
504.400681	0.013348
504.618856	0.013199
504.837013	0.013329
505.055152	0.012889
505.273273	0.012404
505.491376	0.012382
505.709460	0.011957
505.927526	0.011523
506.145574	0.010978
506.363604	0.010345
506.581615	0.010452
506.799608	0.010673
507.017583	0.011462
507.235540	0.011606
507.453478	0.012692
507.671399	0.012401
507.889301	0.011748
508.107185	0.011937
508.325050	0.012126
508.542898	0.011623
508.760727	0.011448
508.978538	0.012108
509.196330	0.012119
509.414105	0.011471
509.631861	0.011648
509.849599	0.012417
510.067319	0.012242
510.285021	0.012234
510.502704	0.013000
510.720369	0.013604
510.938016	0.012553
511.155645	0.012616
511.373255	0.012025
511.590848	0.012240
511.808422	0.012284
512.025977	0.012152
512.243515	0.012515
512.461034	0.012387
512.678536	0.011471
512.896018	0.011561
513.113483	0.011867
513.330930	0.012603
513.548358	0.012755
513.765768	0.012435
513.983160	0.012529
514.200533	0.012393
514.417889	0.012327
514.635226	0.012697
514.852545	0.013147
515.069845	0.012059
515.287128	0.011710
515.504392	0.011597
515.721638	0.011340
515.938866	0.011097
516.156075	0.011140
516.373267	0.010986
516.590440	0.010841
516.807594	0.010468
517.024731	0.011446
517.241850	0.011186
517.458950	0.011482
517.676032	0.012000
517.893095	0.012149
518.110141	0.012013
518.327168	0.011996
518.544177	0.012010
518.761168	0.012793
518.978141	0.012892
519.195095	0.013251
519.412031	0.013138
519.628949	0.012909
519.845849	0.013022
520.062731	0.013299
520.279594	0.013091
520.496439	0.013389
520.713266	0.012652
520.930074	0.012288
521.146865	0.012259
521.363637	0.011742
521.580391	0.011988
521.797127	0.011615
522.013844	0.011251
522.230543	0.011199
522.447224	0.011082
522.663887	0.011516
522.880532	0.011889
523.097158	0.012627
523.313766	0.012797
523.530356	0.012890
523.746928	0.013195
523.963481	0.013146
524.180017	0.013812
524.396534	0.014213
524.613032	0.013669
524.829513	0.013497
525.045975	0.012671
525.262420	0.012971
525.478845	0.012647
525.695253	0.012761
525.911643	0.013169
526.128014	0.013103
526.344367	0.012927
526.560702	0.013496
526.777018	0.013573
526.993316	0.013989
527.209597	0.014053
527.425858	0.014394
527.642102	0.014438
527.858328	0.014520
528.074535	0.014577
528.290724	0.014362
528.506894	0.014274
528.723047	0.014114
528.939181	0.014253
529.155297	0.014354
529.371395	0.014480
529.587475	0.014844
529.803536	0.014643
530.019579	0.014464
530.235604	0.014524
530.451611	0.014172
530.667600	0.013885
530.883570	0.013885
531.099522	0.013924
531.315456	0.013702
531.531372	0.013348
531.747269	0.013327
531.963148	0.013448
532.179009	0.013782
532.394852	0.013984
532.610676	0.014474
532.826482	0.014806
533.042271	0.014866
533.258040	0.015088
533.473792	0.015086
533.689525	0.014962
533.905240	0.015158
534.120937	0.014800
534.336616	0.014547
534.552277	0.014414
534.767919	0.014128
534.983543	0.013665
535.199149	0.013757
535.414736	0.013680
535.630306	0.014230
535.845857	0.013999
536.061390	0.014057
536.276904	0.014612
536.492401	0.014632
536.707879	0.014453
536.923339	0.014355
537.138781	0.014077
537.354204	0.014603
537.569610	0.014240
537.784997	0.014170
538.000366	0.014238
538.215716	0.014201
538.431049	0.014291
538.646363	0.014131
538.861659	0.014714
539.076937	0.014741
539.292196	0.014361
539.507438	0.014613
539.722661	0.014854
539.937866	0.015332
540.153052	0.015274
540.368221	0.015662
540.583371	0.016227
540.798503	0.016513
541.013617	0.016682
541.228712	0.016687
541.443789	0.016681
541.658848	0.016445
541.873889	0.015964
542.088912	0.015497
542.303916	0.015475
542.518902	0.014725
542.733870	0.014357
542.948820	0.014319
543.163752	0.014114
543.378665	0.013921
543.593560	0.014392
543.808437	0.014750
544.023295	0.015097
544.238136	0.014949
544.452958	0.015167
544.667762	0.015210
544.882548	0.015051
545.097315	0.015099
545.312064	0.015475
545.526795	0.015100
545.741508	0.015141
545.956203	0.015110
546.170879	0.015135
546.385537	0.015415
546.600177	0.015038
546.814799	0.014628
547.029402	0.014675
547.243988	0.014338
547.458555	0.014561
547.673103	0.014102
547.887634	0.014130
548.102146	0.014066
548.316640	0.013657
548.531116	0.014149
548.745574	0.014965
548.960013	0.015320
549.174435	0.015734
549.388838	0.015748
549.603222	0.016119
549.817589	0.016162
550.031937	0.016393
550.246267	0.017074
550.460579	0.017007
550.674873	0.017069
550.889148	0.017030
551.103405	0.016850
551.317644	0.016922
551.531865	0.016980
551.746068	0.016861
551.960252	0.016533
552.174418	0.016141
552.388566	0.016390
552.602696	0.016331
552.816807	0.016503
553.030900	0.016308
553.244975	0.016024
553.459032	0.015678
553.673070	0.016104
553.887091	0.015956
554.101093	0.016007
554.315077	0.015947
554.529042	0.015545
554.742990	0.015310
554.956919	0.015429
555.170830	0.015544
555.384722	0.015497
555.598597	0.015125
555.812453	0.015502
556.026291	0.015516
556.240111	0.015149
556.453913	0.015217
556.667696	0.015434
556.881461	0.015507
557.095208	0.015528
557.308937	0.015575
557.522647	0.015631
557.736339	0.015632
557.950013	0.015644
558.163669	0.016103
558.377307	0.016304
558.590926	0.016256
558.804527	0.016270
559.018110	0.016414
559.231675	0.016711
559.445221	0.016854
559.658749	0.016805
559.872259	0.016951
560.085751	0.016654
560.299225	0.016702
560.512680	0.016519
560.726117	0.016424
560.939536	0.016086
561.152937	0.015744
561.366319	0.015813
561.579683	0.015905
561.793029	0.015557
562.006357	0.015465
562.219667	0.015482
562.432958	0.015450
562.646231	0.015833
562.859486	0.016162
563.072723	0.016271
563.285941	0.016236
563.499141	0.016111
563.712323	0.016581
563.925487	0.016802
564.138632	0.016796
564.351760	0.016982
564.564869	0.016508
564.777960	0.016467
564.991032	0.016321
565.204087	0.016324
565.417123	0.016158
565.630141	0.016082
565.843140	0.016056
566.056122	0.016010
566.269085	0.016041
566.482030	0.016118
566.694957	0.015925
566.907866	0.016029
567.120756	0.016097
567.333628	0.016184
567.546482	0.015872
567.759318	0.015613
567.972135	0.015512
568.184935	0.015244
568.397716	0.015207
568.610478	0.015367
568.823223	0.015326
569.035949	0.015343
569.248657	0.015329
569.461347	0.015466
569.674019	0.015604
569.886672	0.015760
570.099308	0.015796
570.311925	0.015876
570.524523	0.015561
570.737104	0.015650
570.949666	0.015688
571.162210	0.015749
571.374736	0.015830
571.587244	0.015909
571.799733	0.015563
572.012205	0.015854
572.224658	0.016101
572.437092	0.016596
572.649509	0.016670
572.861907	0.016670
573.074287	0.016859
573.286649	0.016865
573.498993	0.016667
573.711318	0.017011
573.923625	0.016886
574.135914	0.016584
574.348185	0.016362
574.560438	0.016233
574.772672	0.016220
574.984888	0.015886
575.197086	0.015817
575.409266	0.016228
575.621427	0.016389
575.833570	0.016530
576.045695	0.016456
576.257802	0.016704
576.469890	0.016972
576.681961	0.017018
576.894013	0.017301
577.106046	0.017454
577.318062	0.017316
577.530059	0.017155
577.742039	0.017221
577.954000	0.017366
578.165942	0.016985
578.377867	0.016695
578.589773	0.016431
578.801661	0.016279
579.013531	0.016122
579.225382	0.016173
579.437216	0.016234
579.649031	0.015975
579.860828	0.016074
580.072606	0.016317
580.284367	0.016667
580.496109	0.016836
580.707833	0.017159
580.919539	0.017274
581.131227	0.017308
581.342896	0.017225
581.554547	0.017156
581.766180	0.017224
581.977795	0.017419
582.189391	0.017320
582.400969	0.017199
582.612529	0.017185
582.824071	0.017142
583.035595	0.016954
583.247100	0.017064
583.458587	0.017367
583.670056	0.017019
583.881506	0.016886
584.092939	0.016972
584.304353	0.017052
584.515749	0.016994
584.727127	0.017165
584.938486	0.017360
585.149828	0.017445
585.361151	0.017445
585.572456	0.017780
585.783742	0.017498
585.995011	0.017773
586.206261	0.017724
586.417493	0.017919
586.628706	0.018033
586.839902	0.018132
587.051079	0.018157
587.262238	0.018152
587.473379	0.018138
587.684502	0.018382
587.895606	0.018197
588.106692	0.018417
588.317760	0.018351
588.528810	0.018255
588.739841	0.018186
588.950855	0.018209
589.161850	0.018083
589.372827	0.018121
589.583785	0.018082
589.794726	0.018053
590.005648	0.017898
590.216552	0.018031
590.427437	0.017725
590.638305	0.017764
590.849154	0.017826
591.059985	0.017678
591.270798	0.017577
591.481592	0.017895
591.692369	0.017986
591.903127	0.018263
592.113867	0.017947
592.324588	0.018093
592.535292	0.018047
592.745977	0.018001
592.956644	0.018292
593.167293	0.018498
593.377923	0.018456
593.588536	0.018506
593.799130	0.018261
594.009706	0.018393
594.220263	0.018545
594.430803	0.018295
594.641324	0.018194
594.851827	0.017929
595.062312	0.017941
595.272778	0.017919
595.483227	0.017777
595.693657	0.017841
595.904069	0.017887
596.114462	0.017776
596.324838	0.018020
596.535195	0.017826
596.745534	0.017794
596.955855	0.017797
597.166157	0.017792
597.376441	0.017567
597.586707	0.017495
597.796955	0.017462
598.007185	0.017656
598.217396	0.017776
598.427589	0.017730
598.637764	0.018024
598.847921	0.017585
599.058060	0.017452
599.268180	0.017767
599.478282	0.017782
599.688366	0.017515
599.898431	0.017368
600.108479	0.017252
600.318508	0.017434
600.528519	0.017368
600.738511	0.017633
600.948486	0.017591
601.158442	0.017251
601.368380	0.017260
601.578300	0.017380
601.788202	0.017378
601.998085	0.017324
602.207950	0.017381
602.417797	0.017460
602.627626	0.017409
602.837436	0.017765
603.047228	0.018200
603.257002	0.018276
603.466758	0.018568
603.676496	0.018988
603.886215	0.019177
604.095916	0.019443
604.305599	0.019489
604.515264	0.019684
604.724910	0.019683
604.934538	0.019618
605.144148	0.019844
605.353740	0.019650
605.563314	0.019571
605.772869	0.019379
605.982406	0.019249
606.191925	0.019339
606.401425	0.019169
606.610908	0.018956
606.820372	0.019055
607.029818	0.019087
607.239246	0.019121
607.448655	0.018891
607.658047	0.018996
607.867420	0.018978
608.076775	0.018694
608.286111	0.018714
608.495430	0.018716
608.704730	0.018434
608.914012	0.018298
609.123275	0.018339
609.332521	0.018544
609.541748	0.018492
609.750957	0.018673
609.960148	0.018907
610.169321	0.019030
610.378475	0.019047
610.587611	0.019035
610.796729	0.019050
611.005829	0.019173
611.214910	0.018975
611.423974	0.019121
611.633019	0.018913
611.842045	0.018881
612.051054	0.018931
612.260044	0.019119
612.469017	0.019354
612.677970	0.019488
612.886906	0.019490
613.095824	0.019775
613.304723	0.019815
613.513604	0.019852
613.722467	0.020043
613.931311	0.019974
614.140138	0.019934
614.348946	0.020101
614.557736	0.019980
614.766507	0.019952
614.975261	0.019815
615.183996	0.020071
615.392713	0.019977
615.601412	0.019768
615.810092	0.019776
616.018754	0.019811
616.227399	0.019595
616.436024	0.019799
616.644632	0.019870
616.853222	0.019904
617.061793	0.019698
617.270346	0.019867
617.478880	0.019865
617.687397	0.019888
617.895895	0.019988
618.104375	0.019942
618.312837	0.019884
618.521281	0.019885
618.729706	0.020090
618.938113	0.020206
619.146502	0.020456
619.354873	0.020614
619.563226	0.020799
619.771560	0.020863
619.979876	0.020952
620.188174	0.020842
620.396453	0.020919
620.604715	0.020565
620.812958	0.020480
621.021183	0.020356
621.229390	0.020237
621.437578	0.020140
621.645748	0.020102
621.853900	0.020239
622.062034	0.020238
622.270150	0.020143
622.478247	0.020121
622.686326	0.020205
622.894387	0.020068
623.102430	0.020360
623.310454	0.020360
623.518461	0.020207
623.726449	0.020292
623.934418	0.020566
624.142370	0.020171
624.350303	0.020467
624.558218	0.020233
624.766115	0.020371
624.973994	0.020302
625.181855	0.020413
625.389697	0.020366
625.597521	0.020275
625.805327	0.020064
626.013114	0.020529
626.220883	0.020314
626.428634	0.020757
626.636367	0.020759
626.844082	0.020748
627.051778	0.020858
627.259457	0.021114
627.467117	0.021288
627.674758	0.021461
627.882382	0.021614
628.089987	0.021953
628.297574	0.021851
628.505143	0.022099
628.712694	0.022180
628.920226	0.022085
629.127740	0.021838
629.335236	0.021743
629.542714	0.021650
629.750174	0.021338
629.957615	0.021352
630.165038	0.021445
630.372443	0.021316
630.579829	0.021144
630.787198	0.021202
630.994548	0.021279
631.201880	0.021377
631.409194	0.021356
631.616489	0.021586
631.823766	0.021399
632.031025	0.021329
632.238266	0.021232
632.445489	0.021291
632.652693	0.021200
632.859879	0.021141
633.067047	0.020896
633.274197	0.020851
633.481329	0.020681
633.688442	0.020722
633.895537	0.020497
634.102614	0.020646
634.309672	0.020761
634.516713	0.020876
634.723735	0.020870
634.930739	0.020992
635.137724	0.021128
635.344692	0.021166
635.551641	0.021154
635.758572	0.021323
635.965485	0.021271
636.172379	0.021205
636.379256	0.021232
636.586114	0.021439
636.792954	0.021337
636.999775	0.021119
637.206579	0.021315
637.413364	0.021339
637.620131	0.021391
637.826880	0.021380
638.033610	0.021499
638.240323	0.021458
638.447017	0.021597
638.653692	0.021801
638.860350	0.022139
639.066990	0.022247
639.273611	0.022361
639.480214	0.022474
639.686798	0.022692
639.893365	0.022674
640.099913	0.022727
640.306443	0.022664
640.512955	0.022662
640.719449	0.022764
640.925924	0.022626
641.132381	0.022588
641.338820	0.022432
641.545241	0.022287
641.751644	0.022218
641.958028	0.022203
642.164394	0.022252
642.370742	0.022242
642.577071	0.021884
642.783383	0.022082
642.989676	0.022148
643.195951	0.022216
643.402207	0.022294
643.608446	0.022334
643.814666	0.022419
644.020868	0.022438
644.227052	0.022492
644.433218	0.022870
644.639365	0.022729
644.845494	0.022760
645.051605	0.022627
645.257698	0.022479
645.463772	0.022464
645.669828	0.022483
645.875866	0.022493
646.081886	0.022491
646.287888	0.022452
646.493871	0.022304
646.699836	0.022362
646.905783	0.022426
647.111712	0.022492
647.317622	0.022517
647.523514	0.022513
647.729388	0.022467
647.935244	0.022504
648.141082	0.022366
648.346901	0.022405
648.552702	0.022251
648.758485	0.022232
648.964250	0.022383
649.169996	0.022496
649.375724	0.022627
649.581434	0.022770
649.787126	0.022830
649.992800	0.023133
650.198455	0.023358
650.404092	0.023681
650.609711	0.023902
650.815311	0.023876
651.020894	0.023949
651.226458	0.024070
651.432004	0.024036
651.637532	0.023984
651.843041	0.023696
652.048532	0.023647
652.254006	0.023435
652.459460	0.023342
652.664897	0.023373
652.870315	0.023362
653.075716	0.023146
653.281097	0.022983
653.486461	0.023056
653.691807	0.023205
653.897134	0.023253
654.102443	0.023248
654.307734	0.023392
654.513006	0.023340
654.718261	0.023207
654.923497	0.023276
655.128715	0.023385
655.333915	0.023322
655.539096	0.023406
655.744259	0.023428
655.949404	0.023490
656.154531	0.023354
656.359640	0.023475
656.564730	0.023428
656.769802	0.023390
656.974856	0.023525
657.179892	0.023684
657.384909	0.023599
657.589908	0.023604
657.794889	0.023555
657.999852	0.023560
658.204797	0.023347
658.409723	0.023589
658.614631	0.023646
658.819521	0.023518
659.024393	0.023595
659.229246	0.023625
659.434081	0.023480
659.638898	0.023683
659.843697	0.023714
660.048478	0.023947
660.253240	0.023858
660.457984	0.023933
660.662710	0.024069
660.867417	0.024061
661.072107	0.024174
661.276778	0.024560
661.481431	0.024493
661.686066	0.024705
661.890682	0.024572
662.095281	0.024722
662.299861	0.024711
662.504422	0.024673
662.708966	0.024694
662.913491	0.024766
663.117999	0.024671
663.322488	0.024660
663.526958	0.024701
663.731411	0.024847
663.935845	0.024895
664.140261	0.024956
664.344659	0.025029
664.549038	0.024862
664.753400	0.024688
664.957743	0.024552
665.162068	0.024617
665.366375	0.024483
665.570663	0.024518
665.774933	0.024422
665.979185	0.024503
666.183419	0.024479
666.387635	0.024537
666.591832	0.024533
666.796011	0.024537
667.000172	0.024644
667.204315	0.024647
667.408439	0.024629
667.612545	0.024719
667.816634	0.024726
668.020703	0.024546
668.224755	0.024613
668.428788	0.024819
668.632803	0.024946
668.836800	0.024978
669.040779	0.025008
669.244739	0.024916
669.448681	0.024889
669.652605	0.024798
669.856511	0.025137
670.060399	0.025152
670.264268	0.025118
670.468119	0.025249
670.671952	0.025251
670.875767	0.025334
671.079563	0.025474
671.283341	0.025532
671.487101	0.025708
671.690843	0.025656
671.894567	0.025747
672.098272	0.025882
672.301959	0.025848
672.505628	0.025852
672.709278	0.025882
672.912911	0.026017
673.116525	0.026119
673.320121	0.026059
673.523699	0.025987
673.727258	0.025894
673.930799	0.025855
674.134322	0.025731
674.337827	0.025601
674.541314	0.025605
674.744782	0.025495
674.948232	0.025471
675.151664	0.025465
675.355078	0.025582
675.558474	0.025712
675.761851	0.025648
675.965210	0.025981
676.168551	0.026248
676.371873	0.026397
676.575178	0.026501
676.778464	0.026567
676.981732	0.026603
677.184981	0.026648
677.388213	0.026770
677.591426	0.026914
677.794621	0.026873
677.997798	0.026722
678.200956	0.026725
678.404097	0.026788
678.607219	0.026788
678.810323	0.026731
679.013408	0.026688
679.216476	0.026550
679.419525	0.026410
679.622556	0.026368
679.825569	0.026391
680.028563	0.026383
680.231540	0.026207
680.434498	0.026220
680.637438	0.026201
680.840359	0.026265
681.043263	0.026293
681.246148	0.026372
681.449015	0.026432
681.651864	0.026514
681.854694	0.026586
682.057506	0.026759
682.260301	0.026663
682.463076	0.026861
682.665834	0.026622
682.868573	0.026763
683.071295	0.026749
683.273998	0.026634
683.476682	0.026589
683.679349	0.026635
683.881997	0.026559
684.084627	0.026459
684.287239	0.026266
684.489833	0.026491
684.692408	0.026402
684.894965	0.026216
685.097504	0.026229
685.300025	0.026230
685.502527	0.025935
685.705012	0.025924
685.907478	0.026029
686.109925	0.026142
686.312355	0.026247
686.514766	0.026140
686.717159	0.026501
686.919534	0.026484
687.121891	0.026385
687.324230	0.026526
687.526550	0.026566
687.728852	0.026653
687.931136	0.026537
688.133401	0.026355
688.335649	0.026385
688.537878	0.026219
688.740089	0.026299
688.942281	0.026328
689.144456	0.026285
689.346612	0.026125
689.548750	0.026205
689.750870	0.026445
689.952971	0.026465
690.155055	0.026737
690.357120	0.026683
690.559167	0.026584
690.761195	0.026811
690.963206	0.026941
691.165198	0.027222
691.367172	0.027132
691.569128	0.027095
691.771065	0.027230
691.972984	0.027085
692.174885	0.027317
692.376768	0.027556
692.578633	0.027429
692.780479	0.027463
692.982308	0.027373
693.184118	0.027441
693.385909	0.027477
693.587683	0.027433
693.789438	0.027500
693.991175	0.027498
694.192894	0.027501
694.394595	0.027551
694.596277	0.027544
694.797941	0.027530
694.999587	0.027652
695.201215	0.027627
695.402824	0.027735
695.604416	0.027669
695.805989	0.027718
696.007543	0.027693
696.209080	0.027767
696.410598	0.027733
696.612099	0.027797
696.813580	0.027740
697.015044	0.027622
697.216490	0.027559
697.417917	0.027642
697.619326	0.027514
697.820717	0.027295
698.022089	0.027196
698.223444	0.027060
698.424780	0.026968
698.626098	0.026628
698.827397	0.026636
699.028679	0.026471
699.229942	0.026314
699.431187	0.026063
699.632414	0.026164
699.833622	0.026085
700.034813	0.026065
700.235985	0.025996
700.437139	0.026149
700.638274	0.026153
700.839392	0.026423
701.040491	0.026532
701.241572	0.026728
701.442635	0.026629
701.643679	0.026620
701.844706	0.026699
702.045714	0.026795
702.246704	0.026895
702.447675	0.027060
702.648629	0.027018
702.849564	0.026840
703.050481	0.026968
703.251380	0.027182
703.452260	0.027186
703.653122	0.027140
703.853966	0.027096
704.054792	0.027005
704.255600	0.027070
704.456389	0.026880
704.657160	0.026999
704.857913	0.026797
705.058648	0.026678
705.259365	0.026767
705.460063	0.026818
705.660743	0.026923
705.861405	0.026957
706.062048	0.026846
706.262674	0.026936
706.463281	0.026977
706.663870	0.027163
706.864441	0.027230
707.064993	0.027286
707.265527	0.027325
707.466043	0.027353
707.666541	0.027390
707.867021	0.027419
708.067482	0.027448
708.267925	0.027469
708.468350	0.027401
708.668757	0.027362
708.869145	0.027297
709.069516	0.027304
709.269868	0.027249
709.470201	0.027184
709.670517	0.027046
709.870814	0.027008
710.071093	0.026953
710.271354	0.027051
710.471597	0.027012
710.671821	0.027037
710.872028	0.026946
711.072216	0.027012
711.272385	0.027204
711.472537	0.027240
711.672670	0.027301
711.872785	0.027380
712.072882	0.027224
712.272961	0.027121
712.473021	0.026953
712.673063	0.026898
712.873087	0.026681
713.073093	0.026483
713.273081	0.026370
713.473050	0.026285
713.673001	0.026138
713.872934	0.026152
714.072849	0.026252
714.272745	0.026489
714.472623	0.026588
714.672483	0.026636
714.872325	0.026639
715.072148	0.026974
715.271954	0.026944
715.471741	0.026938
715.671509	0.027070
715.871260	0.027200
716.070992	0.027025
716.270707	0.026918
716.470403	0.027019
716.670080	0.027104
716.869740	0.026891
717.069381	0.026878
717.269004	0.026945
717.468609	0.026818
717.668195	0.026694
717.867764	0.026737
718.067314	0.026777
718.266846	0.026826
718.466360	0.026884
718.665855	0.026916
718.865332	0.027051
719.064791	0.027050
719.264232	0.027143
719.463655	0.027042
719.663059	0.027158
719.862445	0.027185
720.061813	0.027122
720.261163	0.027026
720.460494	0.026916
720.659807	0.026967
720.859102	0.026980
721.058379	0.027138
721.257638	0.027218
721.456878	0.027025
721.656100	0.027180
721.855304	0.027140
722.054490	0.027198
722.253657	0.027289
722.452806	0.027270
722.651937	0.027365
722.851050	0.027089
723.050145	0.027100
723.249221	0.027155
723.448279	0.027047
723.647319	0.026985
723.846340	0.026787
724.045344	0.026735
724.244329	0.026663
724.443296	0.026647
724.642245	0.026789
724.841175	0.026762
725.040088	0.026881
725.238982	0.027003
725.437857	0.027102
725.636715	0.027304
725.835554	0.027350
726.034376	0.027309
726.233179	0.027245
726.431963	0.027225
726.630730	0.027270
726.829478	0.027281
727.028208	0.027322
727.226920	0.027341
727.425614	0.027322
727.624289	0.027299
727.822946	0.027213
728.021585	0.027096
728.220206	0.026941
728.418808	0.026808
728.617392	0.026775
728.815958	0.026706
729.014506	0.026656
729.213036	0.026683
729.411547	0.026653
729.610040	0.026799
729.808515	0.026847
730.006972	0.026732
730.205410	0.026836
730.403831	0.026631
730.602233	0.026668
730.800616	0.026623
730.998982	0.026640
731.197329	0.026606
731.395658	0.026620
731.593969	0.026559
731.792262	0.026633
731.990536	0.026460
732.188793	0.026627
732.387031	0.026351
732.585250	0.026360
732.783452	0.026220
732.981635	0.026146
733.179800	0.025961
733.377947	0.026080
733.576076	0.026047
733.774186	0.026231
733.972278	0.026291
734.170352	0.026422
734.368408	0.026450
734.566446	0.026369
734.764465	0.026399
734.962466	0.026348
735.160449	0.026000
735.358413	0.026130
735.556360	0.025980
735.754288	0.025795
735.952198	0.025666
736.150090	0.025486
736.347963	0.025406
736.545818	0.025286
736.743655	0.025266
736.941474	0.025436
737.139275	0.025227
737.337057	0.025257
737.534821	0.025000
737.732567	0.024970
737.930295	0.024945
738.128005	0.024924
738.325696	0.025016
738.523369	0.024944
738.721024	0.025064
738.918660	0.025028
739.116279	0.025105
739.313879	0.025257
739.511461	0.025305
739.709024	0.025389
739.906570	0.025519
740.104097	0.025424
740.301606	0.025426
740.499097	0.025315
740.696569	0.025471
740.894024	0.025411
741.091460	0.025298
741.288878	0.025367
741.486277	0.025426
741.683659	0.025259
741.881022	0.025439
742.078367	0.025626
742.275694	0.025613
742.473002	0.025444
742.670293	0.025369
742.867565	0.025578
743.064819	0.025625
743.262054	0.025603
743.459272	0.025756
743.656471	0.025587
743.853652	0.025750
744.050815	0.025706
744.247959	0.025751
744.445085	0.025867
744.642194	0.025940
744.839283	0.025866
745.036355	0.025652
745.233408	0.025639
745.430444	0.025677
745.627461	0.025525
745.824459	0.025455
746.021440	0.025376
746.218402	0.025184
746.415346	0.024914
746.612272	0.024964
746.809180	0.025169
747.006069	0.025337
747.202940	0.025307
747.399793	0.025138
747.596628	0.025165
747.793444	0.025262
747.990243	0.025410
748.187023	0.025672
748.383784	0.025626
748.580528	0.025587
748.777253	0.025498
748.973960	0.025517
749.170649	0.025676
749.367320	0.025718
749.563973	0.025731
749.760607	0.025549
749.957223	0.025390
750.153821	0.025350
750.350400	0.025565
750.546962	0.025445
750.743505	0.025514
750.940030	0.025430
751.136536	0.025399
751.333025	0.025342
751.529495	0.025367
751.725947	0.025512
751.922381	0.025387
752.118796	0.025222
752.315194	0.025328
752.511573	0.025243
752.707934	0.025259
752.904276	0.025284
753.100601	0.025398
753.296907	0.025510
753.493195	0.025409
753.689465	0.025397
753.885716	0.025300
754.081949	0.025037
754.278164	0.024889
754.474361	0.024702
754.670540	0.024651
754.866700	0.024401
755.062843	0.024260
755.258967	0.024233
755.455072	0.024258
755.651160	0.024176
755.847229	0.024308
756.043280	0.024483
756.239313	0.024659
756.435328	0.024794
756.631324	0.024948
756.827302	0.025135
757.023262	0.025052
757.219204	0.025099
757.415127	0.025434
757.611033	0.025602
757.806920	0.025550
758.002788	0.025588
758.198639	0.025436
758.394471	0.025380
758.590286	0.025390
758.786081	0.025455
758.981859	0.025444
759.177619	0.025210
759.373360	0.024927
759.569083	0.024918
759.764788	0.024781
759.960474	0.024917
760.156143	0.025037
760.351793	0.025051
760.547425	0.025124
760.743038	0.025222
760.938634	0.025164
761.134211	0.025218
761.329770	0.025315
761.525311	0.025579
761.720833	0.025526
761.916338	0.025442
762.111824	0.025284
762.307292	0.025315
762.502741	0.025218
762.698173	0.025306
762.893586	0.025548
763.088981	0.025599
763.284358	0.025605
763.479716	0.025675
763.675057	0.025863
763.870379	0.025935
764.065683	0.025845
764.260968	0.025810
764.456236	0.026004
764.651485	0.025905
764.846716	0.025948
765.041929	0.025790
765.237123	0.025899
765.432299	0.025901
765.627457	0.025984
765.822597	0.026097
766.017719	0.026337
766.212822	0.026194
766.407907	0.026076
766.602974	0.025862
766.798023	0.025890
766.993054	0.025618
767.188066	0.025414
767.383060	0.025290
767.578036	0.025009
767.772993	0.024783
767.967933	0.024607
768.162854	0.024577
768.357757	0.024504
768.552642	0.024274
768.747508	0.024278
768.942356	0.024307
769.137186	0.024304
769.331998	0.024675
769.526792	0.024750
769.721567	0.024685
769.916324	0.024646
770.111063	0.024772
770.305784	0.024888
770.500486	0.025131
770.695171	0.025028
770.889837	0.024970
771.084484	0.024671
771.279114	0.024709
771.473725	0.024835
771.668318	0.024869
771.862893	0.024880
772.057450	0.025005
772.251988	0.024974
772.446509	0.025139
772.641011	0.025244
772.835494	0.025402
773.029960	0.025315
773.224407	0.025222
773.418836	0.025193
773.613247	0.025207
773.807640	0.025005
774.002014	0.024806
774.196370	0.024677
774.390708	0.024462
774.585028	0.024370
774.779330	0.024151
774.973613	0.024339
775.167878	0.024433
775.362125	0.024422
775.556354	0.024469
775.750564	0.024469
775.944756	0.024550
776.138930	0.024740
776.333086	0.024827
776.527223	0.024975
776.721343	0.024815
776.915444	0.024720
777.109526	0.024643
777.303591	0.024632
777.497637	0.024549
777.691666	0.024604
777.885676	0.024645
778.079667	0.024701
778.273641	0.024719
778.467596	0.024924
778.661533	0.025076
778.855452	0.025190
779.049352	0.025480
779.243235	0.025747
779.437099	0.025823
779.630945	0.025777
779.824773	0.025706
780.018582	0.025709
780.212373	0.025548
780.406146	0.025555
780.599901	0.025424
780.793638	0.025197
780.987356	0.025122
781.181056	0.025109
781.374738	0.025044
781.568402	0.024960
781.762047	0.024988
781.955674	0.025141
782.149283	0.024971
782.342874	0.025165
782.536447	0.025157
782.730001	0.025054
782.923537	0.024742
783.117055	0.024901
783.310555	0.024968
783.504036	0.025052
783.697499	0.025057
783.890944	0.024953
784.084371	0.024527
784.277780	0.024403
784.471170	0.024371
784.664542	0.024611
784.857896	0.024403
785.051231	0.024329
785.244549	0.024301
785.437848	0.024194
785.631129	0.024419
785.824392	0.024873
786.017636	0.025016
786.210863	0.025122
786.404071	0.025161
786.597260	0.025140
786.790432	0.025283
786.983585	0.025512
787.176721	0.025599
787.369838	0.025556
787.562936	0.025470
787.756017	0.025536
787.949079	0.025640
788.142123	0.025712
788.335149	0.026006
788.528156	0.025995
788.721146	0.025944
788.914117	0.025935
789.107070	0.026101
789.300005	0.026096
789.492921	0.026115
789.685819	0.025930
789.878699	0.026059
790.071561	0.025966
790.264405	0.025888
790.457230	0.025815
790.650037	0.025939
790.842826	0.025978
791.035597	0.026080
791.228349	0.026002
791.421084	0.026026
791.613800	0.025775
791.806497	0.025889
791.999177	0.025965
792.191838	0.025734
792.384481	0.025585
792.577106	0.025603
792.769713	0.025419
792.962301	0.025399
793.154871	0.025441
793.347423	0.025389
793.539957	0.025340
793.732473	0.025256
793.924970	0.025335
794.117449	0.025245
794.309910	0.025083
794.502353	0.025235
794.694777	0.025244
794.887183	0.025418
795.079571	0.025575
795.271941	0.025592
795.464293	0.025609
795.656626	0.025811
795.848941	0.025917
796.041238	0.026204
796.233516	0.026237
796.425777	0.026405
796.618019	0.026324
796.810243	0.026128
797.002449	0.026143
797.194636	0.026068
797.386805	0.025936
797.578956	0.025920
797.771089	0.025676
797.963204	0.025435
798.155300	0.025173
798.347378	0.025016
798.539438	0.025122
798.731480	0.024919
798.923503	0.024910
799.115509	0.024863
799.307496	0.024941
799.499465	0.024922
799.691415	0.025101
799.883348	0.025171
800.075262	0.025143
800.267158	0.025187
800.459035	0.025465
800.650895	0.025612
800.842736	0.025743
801.034559	0.025794
801.226364	0.025774
801.418150	0.025878
801.609919	0.026099
801.801669	0.026306
801.993401	0.026381
802.185114	0.026362
802.376810	0.026516
802.568487	0.026576
802.760146	0.026717
802.951787	0.026875
803.143409	0.026723
803.335014	0.026698
803.526600	0.026902
803.718168	0.027048
803.909717	0.027016
804.101249	0.026995
804.292762	0.026926
804.484257	0.027007
804.675734	0.027126
804.867192	0.027201
805.058632	0.027150
805.250054	0.027073
805.441458	0.027085
805.632844	0.027075
805.824211	0.027013
806.015561	0.027282
806.206891	0.027128
806.398204	0.026980
806.589499	0.027119
806.780775	0.027057
806.972033	0.027061
807.163273	0.026938
807.354495	0.026882
807.545698	0.027067
807.736883	0.027059
807.928050	0.027042
808.119199	0.027222
808.310329	0.027322
808.501441	0.027608
808.692535	0.027772
808.883611	0.027851
809.074669	0.028020
809.265708	0.027947
809.456729	0.027996
809.647732	0.028067
809.838717	0.028111
810.029683	0.028115
810.220632	0.027867
810.411562	0.027878
810.602474	0.027814
810.793367	0.027693
810.984242	0.027467
811.175100	0.027333
811.365938	0.027334
811.556759	0.027390
811.747562	0.027279
811.938346	0.027484
812.129112	0.027285
812.319860	0.027143
812.510589	0.027107
812.701300	0.027285
812.891994	0.027145
813.082668	0.027080
813.273325	0.026807
813.463964	0.026827
813.654584	0.026829
813.845186	0.026838
814.035769	0.026918
814.226335	0.026986
814.416882	0.027029
814.607411	0.027163
814.797922	0.027157
814.988415	0.027227
815.178889	0.027201
815.369345	0.027032
815.559783	0.027094
815.750203	0.027096
815.940605	0.027105
816.130988	0.027088
816.321353	0.027251
816.511700	0.027374
816.702028	0.027550
816.892339	0.027613
817.082631	0.027646
817.272905	0.027553
817.463161	0.027813
817.653398	0.027893
817.843617	0.027944
818.033819	0.027700
818.224001	0.027525
818.414166	0.027425
818.604312	0.027555
818.794440	0.027638
818.984550	0.027530
819.174642	0.027271
819.364716	0.027217
819.554771	0.026986
819.744808	0.026901
819.934827	0.026710
820.124827	0.026880
820.314810	0.026599
820.504774	0.026649
820.694720	0.026802
820.884647	0.026971
821.074557	0.026874
821.264448	0.026959
821.454321	0.027097
821.644176	0.027207
821.834012	0.026901
822.023831	0.026985
822.213631	0.026874
822.403413	0.026855
822.593176	0.026825
822.782922	0.026920
822.972649	0.027033
823.162358	0.027025
823.352049	0.027285
823.541721	0.027317
823.731376	0.027384
823.921012	0.027507
824.110629	0.027489
824.300229	0.027456
824.489811	0.027476
824.679374	0.027672
824.868919	0.027710
825.058445	0.027512
825.247954	0.027722
825.437444	0.027757
825.626916	0.027867
825.816370	0.028231
826.005806	0.028271
826.195223	0.028466
826.384622	0.028291
826.574003	0.028380
826.763366	0.028612
826.952711	0.028533
827.142037	0.028432
827.331345	0.028618
827.520635	0.028515
827.709906	0.028808
827.899160	0.028600
828.088395	0.028716
828.277612	0.028604
828.466810	0.028528
828.655991	0.028434
828.845153	0.028565
829.034297	0.028468
829.223423	0.028289
829.412531	0.028058
829.601620	0.028150
829.790691	0.027995
829.979744	0.028135
830.168779	0.028088
830.357795	0.028469
830.546793	0.028579
830.735773	0.028518
830.924735	0.028549
831.113679	0.028388
831.302604	0.028313
831.491511	0.028483
831.680400	0.028217
831.869271	0.028224
832.058123	0.027935
832.246957	0.028002
832.435773	0.027853
832.624571	0.028099
832.813351	0.028380
833.002112	0.028641
833.190855	0.028596
833.379580	0.028844
833.568287	0.029146
833.756975	0.029153
833.945645	0.029386
834.134297	0.029527
834.322931	0.029496
834.511547	0.029550
834.700144	0.029763
834.888723	0.029762
835.077284	0.029690
835.265826	0.029335
835.454351	0.029325
835.642857	0.028826
835.831345	0.028695
836.019815	0.028389
836.208266	0.028297
836.396699	0.027991
836.585114	0.028006
836.773511	0.028041
836.961890	0.028161
837.150250	0.028074
837.338592	0.028085
837.526916	0.028112
837.715222	0.028242
837.903510	0.028165
838.091779	0.028098
838.280030	0.028019
838.468263	0.028033
838.656477	0.028068
838.844674	0.028330
839.032852	0.028558
839.221012	0.028734
839.409153	0.028877
839.597277	0.029034
839.785382	0.029143
839.973469	0.029235
840.161538	0.029497
840.349589	0.029521
840.537621	0.029440
840.725635	0.029414
840.913631	0.029329
841.101609	0.029255
841.289568	0.029291
841.477509	0.029471
841.665432	0.029493
841.853337	0.029447
842.041224	0.029481
842.229092	0.029506
842.416942	0.029502
842.604774	0.029626
842.792588	0.029869
842.980383	0.029978
843.168160	0.029990
843.355919	0.030067
843.543660	0.029876
843.731382	0.029877
843.919087	0.029921
844.106773	0.029865
844.294441	0.029865
844.482090	0.029858
844.669722	0.029833
844.857335	0.029834
845.044930	0.029908
845.232507	0.029908
845.420065	0.030117
845.607605	0.030259
845.795127	0.030284
845.982631	0.030293
846.170117	0.030444
846.357584	0.030538
846.545033	0.030578
846.732464	0.030704
846.919877	0.030961
847.107272	0.031239
847.294648	0.031243
847.482006	0.031399
847.669346	0.031553
847.856667	0.031409
848.043971	0.031490
848.231256	0.031833
848.418523	0.031952
848.605771	0.032014
848.793002	0.031714
848.980214	0.031902
849.167408	0.031855
849.354584	0.031722
849.541742	0.031885
849.728881	0.031946
849.916002	0.031637
850.103105	0.031750
850.290190	0.031773
850.477256	0.031924
850.664304	0.031944
850.851334	0.032547
851.038346	0.032725
851.225340	0.032896
851.412315	0.032744
851.599272	0.033080
851.786211	0.033190
851.973132	0.033465
852.160034	0.033501
852.346918	0.033385
852.533784	0.033165
852.720632	0.033318
852.907462	0.033238
853.094273	0.033536
853.281066	0.033514
853.467841	0.033552
853.654598	0.033524
853.841336	0.033627
854.028056	0.034028
854.214758	0.034104
854.401442	0.034365
854.588107	0.034433
854.774755	0.034418
854.961384	0.034395
855.147995	0.034278
855.334587	0.034206
855.521162	0.034075
855.707718	0.033773
855.894256	0.033860
856.080775	0.033776
856.267277	0.033949
856.453760	0.033990
856.640225	0.034020
856.826672	0.034326
857.013101	0.034513
857.199511	0.034598
857.385903	0.034720
857.572277	0.034651
857.758633	0.034602
857.944970	0.034502
858.131290	0.034567
858.317591	0.034583
858.503873	0.034509
858.690138	0.034420
858.876384	0.034708
859.062612	0.035162
859.248822	0.035290
859.435014	0.035429
859.621188	0.035576
859.807343	0.035506
859.993480	0.035517
860.179599	0.035352
860.365699	0.035551
860.551781	0.035618
860.737846	0.035432
860.923891	0.035374
861.109919	0.035430
861.295929	0.035439
861.481920	0.035714
861.667893	0.036074
861.853848	0.036331
862.039784	0.036313
862.225702	0.036214
862.411603	0.036272
862.597484	0.036364
862.783348	0.036642
862.969193	0.036507
863.155021	0.036491
863.340830	0.036257
863.526620	0.036107
863.712393	0.036256
863.898147	0.036327
864.083883	0.036258
864.269601	0.036281
864.455301	0.035753
864.640982	0.035782
864.826645	0.035843
865.012290	0.035811
865.197917	0.035729
865.383526	0.035487
865.569116	0.035464
865.754688	0.035363
865.940242	0.035257
866.125777	0.035391
866.311295	0.035467
866.496794	0.035439
866.682275	0.035308
866.867737	0.035678
867.053182	0.035812
867.238608	0.035887
867.424016	0.036111
867.609406	0.036147
867.794778	0.036406
867.980131	0.036527
868.165466	0.036504
868.350783	0.036735
868.536082	0.036822
868.721362	0.036994
868.906625	0.037077
869.091869	0.037177
869.277094	0.037312
869.462302	0.037150
869.647491	0.037187
869.832662	0.037027
870.017815	0.037078
870.202950	0.037094
870.388066	0.037155
870.573165	0.037033
870.758245	0.036893
870.943306	0.036810
871.128350	0.036710
871.313375	0.036679
871.498382	0.036482
871.683371	0.036320
871.868342	0.035926
872.053294	0.035700
872.238229	0.035650
872.423144	0.035515
872.608042	0.035496
872.792922	0.035726
872.977783	0.035441
873.162626	0.035542
873.347451	0.035855
873.532258	0.035981
873.717046	0.035726
873.901816	0.035961
874.086568	0.036100
874.271302	0.036087
874.456017	0.035876
874.640715	0.035987
874.825394	0.036193
875.010055	0.035826
875.194697	0.035947
875.379322	0.036132
875.563928	0.035816
875.748516	0.035699
875.933085	0.035826
876.117637	0.036009
876.302170	0.036115
876.486685	0.036126
876.671182	0.036226
876.855661	0.035913
877.040121	0.036039
877.224563	0.036114
877.408987	0.036162
877.593393	0.036151
877.777780	0.036107
877.962150	0.036290
878.146501	0.036553
878.330833	0.036844
878.515148	0.037353
878.699444	0.037290
878.883722	0.037680
879.067982	0.037469
879.252224	0.037485
879.436447	0.037576
879.620653	0.037440
879.804840	0.037117
879.989008	0.037177
880.173159	0.036894
880.357291	0.036950
880.541405	0.036665
880.725501	0.037002
880.909579	0.036943
881.093638	0.036890
881.277680	0.037069
881.461703	0.037135
881.645707	0.037008
881.829694	0.037096
882.013662	0.036965
882.197612	0.036934
882.381544	0.036789
882.565458	0.036681
882.749353	0.036465
882.933230	0.036340
883.117089	0.036276
883.300930	0.035811
883.484753	0.035570
883.668557	0.035627
883.852343	0.035540
884.036111	0.035633
884.219861	0.035618
884.403592	0.035516
884.587305	0.035148
884.771000	0.035236
884.954677	0.035414
885.138335	0.035413
885.321976	0.035383
885.505598	0.035510
885.689201	0.035504
885.872787	0.035631
886.056354	0.036241
886.239904	0.036350
886.423434	0.036134
886.606947	0.036376
886.790442	0.036560
886.973918	0.036656
887.157376	0.036568
887.340816	0.036611
887.524237	0.036502
887.707641	0.036329
887.891026	0.036623
888.074393	0.036887
888.257741	0.036660
888.441072	0.036495
888.624384	0.036336
888.807678	0.036185
888.990954	0.036112
889.174211	0.036169
889.357451	0.035767
889.540672	0.035783
889.723875	0.035637
889.907059	0.035622
890.090226	0.035559
890.273374	0.035891
890.456504	0.036031
890.639616	0.035853
890.822709	0.035660
891.005785	0.035499
891.188842	0.035380
891.371881	0.035414
891.554901	0.035292
891.737904	0.035211
891.920888	0.034845
892.103854	0.034964
892.286802	0.035235
892.469731	0.035449
892.652643	0.035791
892.835536	0.035688
893.018410	0.035593
893.201267	0.035895
893.384106	0.035786
893.566926	0.035833
893.749728	0.035541
893.932511	0.035298
894.115277	0.035275
894.298024	0.034980
894.480753	0.034736
894.663464	0.034767
894.846157	0.034854
895.028831	0.035087
895.211487	0.035073
895.394125	0.035165
895.576745	0.034968
895.759346	0.035001
895.941930	0.035212
896.124495	0.035346
896.307041	0.035373
896.489570	0.035015
896.672080	0.034907
896.854573	0.034991
897.037046	0.034943
897.219502	0.034862
897.401940	0.034822
897.584359	0.034977
897.766760	0.035013
897.949143	0.034942
898.131507	0.034979
898.313854	0.035089
898.496182	0.035287
898.678492	0.035210
898.860783	0.035571
899.043057	0.035265
899.225312	0.035076
899.407549	0.034882
899.589768	0.034844
899.771968	0.034743
899.954151	0.034338
900.136315	0.033800
900.318461	0.033965
900.500588	0.033660
900.682698	0.033525
900.864789	0.033553
901.046862	0.033452
901.228917	0.033440
901.410953	0.033372
901.592971	0.033649
901.774972	0.033734
901.956953	0.033810
902.138917	0.033856
902.320862	0.034112
902.502790	0.033994
902.684699	0.034189
902.866589	0.033828
903.048462	0.033917
903.230316	0.033847
903.412152	0.033980
903.593970	0.033844
903.775770	0.033902
903.957551	0.033812
904.139314	0.033926
904.321059	0.033901
904.502786	0.034055
904.684494	0.034226
904.866185	0.034485
905.047857	0.034344
905.229510	0.034279
905.411146	0.034323
905.592763	0.034640
905.774363	0.034613
905.955943	0.034566
906.137506	0.034688
906.319051	0.034456
906.500577	0.033907
906.682085	0.033202
906.863575	0.032773
907.045046	0.032437
907.226500	0.032002
907.407935	0.031733
907.589352	0.031729
907.770750	0.031544
907.952131	0.031298
908.133493	0.031385
908.314837	0.032033
908.496163	0.032268
908.677470	0.031923
908.858760	0.031686
909.040031	0.031635
909.221284	0.031471
909.402518	0.031383
909.583735	0.031070
909.764933	0.030925
909.946113	0.030346
910.127275	0.029929
910.308418	0.029955
910.489544	0.030055
910.670651	0.029844
910.851740	0.029554
911.032810	0.029484
911.213863	0.029854
911.394897	0.029729
911.575913	0.029605
911.756911	0.029955
911.937890	0.030174
912.118851	0.029874
912.299794	0.029887
912.480719	0.029979
912.661626	0.030003
912.842514	0.029421
913.023384	0.029733
913.204236	0.030013
913.385070	0.029593
913.565886	0.029512
913.746683	0.029491
913.927462	0.029379
914.108223	0.028907
914.288965	0.028553
914.469690	0.028606
914.650396	0.028221
914.831084	0.028375
915.011754	0.028346
915.192405	0.027772
915.373038	0.027685
915.553653	0.027318
915.734250	0.027270
915.914829	0.027153
916.095389	0.026939
916.275931	0.026773
916.456455	0.026049
916.636961	0.025627
916.817448	0.025951
916.997917	0.025813
917.178368	0.025651
917.358801	0.025644
917.539216	0.025517
917.719612	0.025387
917.899990	0.025402
918.080350	0.025792
918.260692	0.026047
918.441015	0.025907
918.621320	0.025806
918.801607	0.026112
918.981876	0.025822
919.162127	0.026086
919.342359	0.025992
919.522573	0.025638
919.702769	0.025493
919.882947	0.025111
920.063106	0.024811
920.243247	0.025388
920.423370	0.024933
920.603475	0.024997
920.783562	0.024786
920.963630	0.024775
921.143680	0.024790
921.323712	0.024540
921.503725	0.024887
921.683721	0.024514
921.863698	0.023573
922.043657	0.023329
922.223598	0.022729
922.403520	0.021879
922.583424	0.021563
922.763311	0.021281
922.943178	0.020921
923.123028	0.020414
923.302859	0.020969
923.482673	0.020941
923.662467	0.021065
923.842244	0.021655
924.022003	0.021698
924.201743	0.022015
924.381465	0.021556
924.561169	0.021491
924.740854	0.021211
924.920522	0.020574
925.100171	0.020450
925.279802	0.020256
925.459414	0.019889
925.639009	0.019979
925.818585	0.019326
925.998143	0.019341
926.177683	0.018780
926.357205	0.019156
926.536708	0.019267
926.716193	0.018889
926.895660	0.018706
927.075109	0.018477
927.254539	0.018419
927.433951	0.018769
927.613345	0.018829
927.792721	0.018953
927.972079	0.018688
928.151418	0.018032
928.330739	0.018566
928.510042	0.018331
928.689327	0.017963
928.868593	0.017631
929.047841	0.017027
929.227071	0.017193
929.406283	0.017151
929.585476	0.016714
929.764652	0.016728
929.943809	0.016162
930.122948	0.016183
930.302068	0.015968
930.481171	0.015561
930.660255	0.015681
930.839321	0.014917
931.018369	0.014799
931.197398	0.014170
931.376409	0.014022
931.555402	0.013813
931.734377	0.013624
931.913334	0.013471
932.092272	0.013209
932.271192	0.013030
932.450094	0.012898
932.628978	0.011886
932.807844	0.011962
932.986691	0.011380
933.165520	0.011117
933.344331	0.010421
933.523123	0.010610
933.701898	0.010380
933.880654	0.009833
934.059392	0.009301
934.238111	0.009832
934.416813	0.009294
934.595496	0.009928
934.774161	0.009460
934.952808	0.009045
935.131437	0.009054
935.310047	0.009497
935.488639	0.009092
935.667213	0.009250
935.845769	0.009065
936.024306	0.008928
936.202825	0.008438
936.381326	0.007904
936.559809	0.008032
936.738274	0.007574
936.916720	0.007381
937.095148	0.007054
937.273558	0.006747
937.451950	0.006876
937.630323	0.007318
937.808678	0.006833
937.987015	0.006900
938.165334	0.006460
938.343635	0.006057
938.521917	0.004982
938.700181	0.004863
938.878427	0.004632
939.056655	0.004072
939.234864	0.003313
939.413055	0.003344
939.591228	0.002951
939.769383	0.004083
939.947519	0.003714
940.125638	0.003750
940.303738	0.003906
940.481820	0.003629
940.659883	0.002790
940.837929	0.002083
941.015956	0.001481
941.193965	0.001189
941.371955	0.000132
941.549928	0.000537
941.727882	0.000315
941.905818	-0.000143
942.083736	0.000379
942.261636	0.000491
942.439517	0.002155
942.617380	0.002553
942.795225	0.003112
942.973052	0.002475
943.150860	0.001670
943.328651	0.002563
943.506423	0.002043
943.684176	0.002135
943.861912	0.002270
944.039629	0.000846
944.217328	-0.000189
944.395009	0.000061
944.572672	0.000889
944.750317	0.001324
944.927943	-0.000423
945.105551	-0.000096
945.283141	-0.000851
945.460712	-0.000831
945.638265	-0.001111
945.815801	-0.001456
945.993317	-0.002164
946.170816	-0.003453
946.348297	-0.004768
946.525759	-0.004107
946.703203	-0.004883
946.880629	-0.005210
947.058036	-0.006632
947.235425	-0.006757
947.412797	-0.006704
947.590149	-0.006714
947.767484	-0.006349
947.944800	-0.005798
948.122099	-0.006394
948.299379	-0.005477
948.476640	-0.006002
948.653884	-0.005365
948.831109	-0.004622
949.008316	-0.003169
949.185505	-0.003142
949.362676	-0.002766
949.539828	-0.003383
949.716962	-0.002795
949.894078	-0.002286
950.071176	-0.001925
950.248256	-0.001233
950.425317	-0.001145
950.602360	-0.001399
950.779385	-0.002155
950.956391	-0.002070
951.133380	-0.000900
951.310350	-0.000758
951.487302	-0.001123
951.664235	-0.001498
951.841151	-0.002395
952.018048	-0.005239
952.194927	-0.006493
952.371788	-0.007138
952.548631	-0.008152
952.725455	-0.010568
952.902261	-0.011169
953.079049	-0.011771
953.255819	-0.010886
953.432570	-0.010040
953.609303	-0.007997
953.786018	-0.008260
953.962715	-0.007393
954.139394	-0.007655
954.316054	-0.006498
954.492696	-0.006463
954.669320	-0.006693
954.845926	-0.008399
955.022513	-0.008570
955.199083	-0.008105
955.375634	-0.008743
955.552166	-0.009555
955.728681	-0.009511
955.905177	-0.008230
956.081655	-0.008095
956.258115	-0.008400
956.434557	-0.007907
956.610980	-0.009039
956.787385	-0.010260
956.963772	-0.008738
957.140141	-0.007063
957.316492	-0.005963
957.492824	-0.006685
957.669138	-0.006955
957.845434	-0.007046
958.021712	-0.006441
958.197971	-0.006162
958.374212	-0.005596
958.550435	-0.004791
958.726640	-0.005646
958.902826	-0.006213
959.078995	-0.006345
959.255145	-0.006670
959.431277	-0.006929
959.607390	-0.006444
959.783486	-0.004104
959.959563	-0.003055
960.135622	-0.001912
960.311662	-0.002673
960.487685	-0.002259
960.663689	-0.002042
960.839675	-0.000123
961.015643	0.001770
961.191593	0.003593
961.367524	0.002474
961.543437	0.001709
961.719332	-0.000649
961.895209	0.000860
962.071067	0.000619
962.246907	0.000735
962.422730	0.000027
962.598533	-0.000356
962.774319	-0.000578
962.950086	0.000346
963.125835	0.001720
963.301566	0.002515
963.477279	0.002763
963.652973	0.003085
963.828650	0.004120
964.004308	0.004433
964.179947	0.004148
964.355569	0.002965
964.531172	0.002475
964.706757	0.001384
964.882324	0.001586
965.057873	0.002050
965.233403	0.003027
965.408916	0.001661
965.584410	0.002234
965.759885	0.001864
965.935343	0.002700
966.110782	0.002908
966.286203	0.003571
966.461606	0.004211
966.636991	0.003355
966.812357	0.002625
966.987705	0.002967
967.163035	0.002735
967.338347	0.003638
967.513641	0.000612
967.688916	-0.000407
967.864173	0.000034
968.039412	-0.000048
968.214632	0.001582
968.389835	0.002324
968.565019	0.003881
968.740185	0.003564
968.915333	0.003644
969.090462	0.007352
969.265573	0.007386
969.440667	0.007083
969.615741	0.005501
969.790798	0.005086
969.965836	0.003711
970.140856	0.002116
970.315858	0.003046
970.490842	0.003876
970.665808	0.002779
970.840755	0.002989
971.015684	0.002569
971.190595	0.004514
971.365487	0.004584
971.540362	0.005732
971.715218	0.006596
971.890056	0.005928
972.064875	0.004247
972.239677	0.003809
972.414460	0.003701
972.589225	0.003391
972.763972	0.003030
972.938700	0.003213
973.113411	0.002847
973.288103	0.004175
973.462777	0.005255
973.637432	0.007044
973.812070	0.007875
973.986689	0.008685
974.161290	0.009383
974.335873	0.009215
974.510437	0.007535
974.684984	0.006660
974.859512	0.006555
975.034022	0.006364
975.208513	0.007274
975.382987	0.007464
975.557442	0.007850
975.731879	0.010404
975.906298	0.008742
976.080698	0.010651
976.255080	0.011217
976.429445	0.009589
976.603790	0.007549
976.778118	0.007063
976.952427	0.005520
977.126719	0.005936
977.300992	0.005118
977.475246	0.009056
977.649483	0.007826
977.823701	0.009263
977.997901	0.009578
978.172083	0.011640
978.346247	0.009987
978.520392	0.010741
978.694519	0.009739
978.868628	0.008197
979.042719	0.007364
979.216791	0.006480
979.390845	0.006372
979.564882	0.006038
979.738899	0.005782
979.912899	0.007269
980.086880	0.007993
980.260843	0.010101
980.434788	0.011038
980.608715	0.009905
980.782623	0.010300
980.956514	0.009513
981.130386	0.009724
981.304240	0.009210
981.478075	0.010111
981.651892	0.009707
981.825692	0.008666
981.999472	0.008522
982.173235	0.009025
982.346980	0.009150
982.520706	0.010048
982.694414	0.012025
982.868104	0.011910
983.041775	0.010550
983.215428	0.010468
983.389064	0.010053
983.562680	0.009872
983.736279	0.008624
983.909860	0.010160
984.083422	0.009776
984.256966	0.009241
984.430491	0.009013
984.603999	0.009652
984.777488	0.009537
984.950959	0.009429
985.124412	0.009825
985.297847	0.009833
985.471263	0.008540
985.644661	0.009741
985.818041	0.009327
985.991403	0.008266
986.164747	0.007526
986.338072	0.009188
986.511379	0.010495
986.684668	0.010145
986.857938	0.011582
987.031191	0.011349
987.204425	0.011089
987.377641	0.010214
987.550839	0.011475
987.724018	0.010792
987.897179	0.008199
988.070322	0.008272
988.243447	0.006351
988.416554	0.005726
988.589642	0.007026
988.762712	0.005631
988.935764	0.007231
989.108798	0.007547
989.281813	0.007121
989.454811	0.008852
989.627790	0.008140
989.800751	0.009155
989.973693	0.009032
990.146617	0.008771
990.319524	0.008750
990.492412	0.008595
990.665281	0.009162
990.838133	0.008827
991.010966	0.006984
991.183781	0.006426
991.356578	0.005809
991.529356	0.006361
991.702117	0.005345
991.874859	0.007239
992.047583	0.005409
992.220288	0.005606
992.392976	0.007018
992.565645	0.008624
992.738296	0.008344
992.910929	0.009515
993.083543	0.008506
993.256139	0.008259
993.428718	0.006586
993.601277	0.007093
993.773819	0.006370
993.946342	0.005747
994.118848	0.005539
994.291335	0.005482
994.463803	0.005610
994.636254	0.005130
994.808686	0.006543
994.981100	0.006572
995.153496	0.007453
995.325874	0.006963
995.498233	0.007795
995.670574	0.007862
995.842897	0.007398
996.015202	0.006218
996.187488	0.006974
996.359757	0.003753
996.532007	0.004209
996.704239	0.003219
996.876452	0.005744
997.048648	0.005653
997.220825	0.005809
997.392984	0.006645
997.565124	0.007181
997.737247	0.007607
997.909351	0.009897
998.081437	0.010280
998.253505	0.010915
998.425554	0.008795
998.597586	0.008601
998.769599	0.009153
998.941594	0.008464
999.113571	0.009293
999.285529	0.008512
999.457469	0.009077
999.629391	0.008799
999.801295	0.008276
999.973181	0.007899
1000.145048	0.007506
1000.316897	0.005651
1000.488728	0.006802
1000.660541	0.005548
1000.832335	0.006833
1001.004111	0.006175
1001.175869	0.005226
1001.347609	0.005258
1001.519331	0.006012
1001.691034	0.005544
1001.862719	0.007392
1002.034386	0.007681
1002.206035	0.008636
1002.377665	0.008672
1002.549277	0.009849
1002.720871	0.010660
1002.892447	0.011375
1003.064004	0.011191
1003.235544	0.012163
1003.407065	0.010913
1003.578568	0.010183
1003.750052	0.009247
1003.921519	0.008879
1004.092967	0.007792
1004.264397	0.006127
1004.435809	0.005354
1004.607202	0.004356
1004.778577	0.003847
1004.949934	0.002919
1005.121273	0.003523
1005.292594	0.002896
1005.463896	0.002351
1005.635180	0.002118
1005.806446	0.003575
1005.977694	0.003815
1006.148923	0.003558
1006.320135	0.003251
1006.491328	0.005206
1006.662503	0.005281
1006.833659	0.006081
1007.004798	0.006270
1007.175918	0.006638
1007.347020	0.007195
1007.518103	0.007553
1007.689169	0.009627
1007.860216	0.010029
1008.031245	0.009258
1008.202256	0.008248
1008.373248	0.008689
1008.544223	0.008944
1008.715179	0.008010
1008.886117	0.008254
1009.057036	0.008218
1009.227938	0.006167
1009.398821	0.006403
1009.569686	0.006414
1009.740533	0.007093
1009.911361	0.007797
1010.082172	0.008510
1010.252964	0.008101
1010.423738	0.007402
1010.594493	0.006929
1010.765231	0.007930
1010.935950	0.008663
1011.106651	0.008934
1011.277334	0.007160
1011.447998	0.005821
1011.618645	0.004340
1011.789273	0.006596
1011.959882	0.006940
1012.130474	0.007045
1012.301048	0.006451
1012.471603	0.005610
1012.642140	0.005843
1012.812658	0.006987
1012.983159	0.008214
1013.153641	0.008785
1013.324105	0.008727
1013.494551	0.008075
1013.664979	0.008595
1013.835388	0.009236
1014.005779	0.008561
1014.176152	0.007996
1014.346507	0.008747
1014.516843	0.008355
1014.687162	0.008596
1014.857462	0.008286
1015.027744	0.009360
1015.198007	0.009328
1015.368252	0.008856
1015.538480	0.010562
1015.708689	0.010900
1015.878879	0.010625
1016.049052	0.009894
1016.219206	0.011169
1016.389342	0.010815
1016.559460	0.009107
1016.729559	0.009144
1016.899641	0.009473
1017.069704	0.007737
1017.239749	0.007048
1017.409775	0.006347
1017.579784	0.007667
1017.749774	0.007204
1017.919746	0.007173
1018.089700	0.007803
1018.259635	0.007912
1018.429553	0.008653
1018.599452	0.009328
1018.769333	0.010496
1018.939195	0.010982
1019.109040	0.010297
1019.278866	0.010584
1019.448674	0.010342
1019.618464	0.010362
1019.788235	0.009277
1019.957989	0.008081
1020.127724	0.008576
1020.297441	0.006609
1020.467139	0.007198
1020.636820	0.007041
1020.806482	0.005306
1020.976126	0.005664
1021.145752	0.006633
1021.315359	0.008445
1021.484948	0.009455
1021.654519	0.007953
1021.824072	0.009493
1021.993607	0.008873
1022.163123	0.009224
1022.332621	0.009437
1022.502101	0.009777
1022.671563	0.009409
1022.841007	0.008524
1023.010432	0.007633
1023.179839	0.008476
1023.349228	0.007872
1023.518598	0.006753
1023.687951	0.005929
1023.857285	0.006496
1024.026601	0.004962
1024.195899	0.004567
1024.365178	0.004170
1024.534439	0.003491
1024.703682	0.003789
1024.872907	0.003311
1025.042114	0.004143
1025.211302	0.004700
1025.380472	0.005096
1025.549624	0.006184
1025.718758	0.006008
1025.887873	0.005578
1026.056970	0.007723
1026.226049	0.006336
1026.395110	0.006979
1026.564153	0.007309
1026.733177	0.007026
1026.902183	0.006524
1027.071171	0.006416
1027.240141	0.006455
1027.409092	0.005867
1027.578026	0.005734
1027.746940	0.006369
1027.915837	0.006493
1028.084716	0.007042
1028.253576	0.007086
1028.422418	0.007106
1028.591242	0.008005
1028.760048	0.007880
1028.928835	0.010246
1029.097604	0.008816
1029.266355	0.010413
1029.435088	0.010949
1029.603803	0.010029
1029.772499	0.008852
1029.941177	0.008619
1030.109837	0.007465
1030.278478	0.007673
1030.447102	0.005949
1030.615707	0.006010
1030.784294	0.005569
1030.952863	0.004775
1031.121413	0.005363
1031.289945	0.008102
1031.458460	0.007470
1031.626955	0.008194
1031.795433	0.006873
1031.963892	0.006485
1032.132334	0.007468
1032.300756	0.007453
1032.469161	0.008064
1032.637548	0.007770
1032.805916	0.006763
1032.974266	0.008342
1033.142598	0.008357
1033.310911	0.010144
1033.479207	0.010722
1033.647484	0.009303
1033.815743	0.007977
1033.983983	0.006870
1034.152206	0.006198
1034.320410	0.005455
1034.488596	0.004038
1034.656764	0.003751
1034.824914	0.003695
1034.993045	0.004498
1035.161158	0.004423
1035.329253	0.006117
1035.497330	0.007454
1035.665388	0.008424
1035.833428	0.009282
1036.001450	0.009821
1036.169454	0.009326
1036.337440	0.008198
1036.505407	0.007300
1036.673356	0.008000
1036.841287	0.007206
1037.009200	0.006341
1037.177094	0.005098
1037.344970	0.004266
1037.512828	0.004326
1037.680668	0.003710
1037.848489	0.004848
1038.016293	0.004862
1038.184078	0.004438
1038.351845	0.003504
1038.519593	0.004029
1038.687324	0.004876
1038.855036	0.004199
1039.022730	0.004101
1039.190406	0.004402
1039.358063	0.003670
1039.525702	0.004954
1039.693323	0.005774
1039.860926	0.007145
1040.028511	0.006403
1040.196077	0.005921
1040.363625	0.006952
1040.531155	0.007099
1040.698667	0.007842
1040.866161	0.007601
1041.033636	0.006463
1041.201093	0.006445
1041.368532	0.005585
1041.535952	0.007403
1041.703355	0.007227
1041.870739	0.007266
1042.038105	0.007634
1042.205452	0.006849
1042.372782	0.006715
1042.540093	0.006116
1042.707386	0.006296
1042.874661	0.006731
1043.041918	0.004978
1043.209156	0.005938
1043.376376	0.006753
1043.543578	0.006711
1043.710762	0.008477
1043.877927	0.009780
1044.045074	0.011788
1044.212203	0.012288
1044.379314	0.013402
1044.546407	0.014029
1044.713481	0.013847
1044.880537	0.013066
1045.047575	0.012052
1045.214595	0.008893
1045.381596	0.008108
1045.548579	0.007134
1045.715544	0.006296
1045.882491	0.005919
1046.049420	0.006436
1046.216330	0.005830
1046.383222	0.004855
1046.550096	0.004161
1046.716951	0.004778
1046.883789	0.006175
1047.050608	0.006751
1047.217409	0.006664
1047.384192	0.004932
1047.550956	0.004265
1047.717703	0.003713
1047.884431	0.004759
1048.051140	0.004866
1048.217832	0.006162
1048.384505	0.005856
1048.551161	0.005548
1048.717798	0.005049
1048.884416	0.006634
1049.051017	0.006930
1049.217599	0.009132
1049.384163	0.009837
1049.550709	0.010368
1049.717237	0.011169
1049.883746	0.011359
1050.050237	0.010531
1050.216710	0.010185
1050.383165	0.010459
1050.549601	0.008404
1050.716019	0.007070
1050.882420	0.006047
1051.048801	0.006175
1051.215165	0.004537
1051.381510	0.003217
1051.547837	0.004075
1051.714146	0.004717
1051.880437	0.004597
1052.046709	0.004688
1052.212964	0.005332
1052.379200	0.005434
1052.545417	0.006991
1052.711617	0.008208
1052.877798	0.008578
1053.043961	0.008502
1053.210106	0.008770
1053.376233	0.008815
1053.542341	0.012486
1053.708432	0.012804
1053.874504	0.014392
1054.040557	0.013949
1054.206593	0.013790
1054.372610	0.015078
1054.538609	0.014867
1054.704590	0.015256
1054.870553	0.014743
1055.036497	0.013491
1055.202424	0.012805
1055.368331	0.010463
1055.534221	0.009530
1055.700093	0.010815
1055.865946	0.008801
1056.031781	0.008814
1056.197598	0.007377
1056.363397	0.007347
1056.529177	0.005712
1056.694939	0.005465
1056.860683	0.007630
1057.026409	0.008379
1057.192116	0.007793
1057.357806	0.009338
1057.523477	0.009214
1057.689130	0.010352
1057.854764	0.009472
1058.020381	0.010514
1058.185979	0.011468
1058.351559	0.011202
1058.517120	0.013012
1058.682664	0.012619
1058.848189	0.011638
1059.013696	0.011483
1059.179185	0.012014
1059.344656	0.013668
1059.510108	0.013604
1059.675542	0.013115
1059.840958	0.012301
1060.006356	0.009278
1060.171735	0.009629
1060.337096	0.009374
1060.502439	0.010446
1060.667764	0.009712
1060.833071	0.008521
1060.998359	0.006815
1061.163629	0.005772
1061.328881	0.004474
1061.494115	0.004478
1061.659330	0.003699
1061.824527	0.004155
1061.989706	0.003408
1062.154867	0.002359
1062.320010	0.002808
1062.485134	0.004166
1062.650240	0.003372
1062.815328	0.004216
1062.980398	0.004969
1063.145449	0.005644
1063.310482	0.004123
1063.475497	0.004289
1063.640494	0.005530
1063.805473	0.005306
1063.970433	0.004662
1064.135375	0.007085
1064.300299	0.006453
1064.465204	0.006158
1064.630092	0.006132
1064.794961	0.007655
1064.959812	0.006607
1065.124645	0.007810
1065.289459	0.008489
1065.454256	0.005686
1065.619034	0.005749
1065.783793	0.005311
1065.948535	0.005856
1066.113258	0.006129
1066.277964	0.006314
1066.442651	0.006136
1066.607319	0.005933
1066.771970	0.005494
1066.936602	0.008725
1067.101216	0.008019
1067.265812	0.008284
1067.430389	0.008624
1067.594949	0.008001
1067.759490	0.006974
1067.924013	0.008028
1068.088518	0.007467
1068.253004	0.006266
1068.417472	0.007286
1068.581922	0.005630
1068.746354	0.007103
1068.910768	0.005400
1069.075163	0.005495
1069.239540	0.006643
1069.403899	0.005782
1069.568240	0.005818
1069.732562	0.005660
1069.896866	0.004149
1070.061152	0.004431
1070.225420	0.004115
1070.389670	0.005622
1070.553901	0.005304
1070.718114	0.004375
1070.882309	0.005877
1071.046486	0.004056
1071.210644	0.005598
1071.374784	0.007335
1071.538906	0.010247
1071.703010	0.009261
1071.867096	0.009357
1072.031163	0.010727
1072.195212	0.011117
1072.359243	0.009433
1072.523256	0.011865
1072.687250	0.009916
1072.851226	0.010911
1073.015184	0.008652
1073.179124	0.008169
1073.343045	0.007778
1073.506949	0.007758
1073.670834	0.007789
1073.834701	0.009597
1073.998549	0.007881
1074.162380	0.008795
1074.326192	0.005701
1074.489986	0.004451
1074.653761	0.007372
1074.817519	0.007843
1074.981258	0.005731
1075.144979	0.003510
1075.308682	0.001423
1075.472367	0.004038
1075.636033	0.004888
1075.799681	0.005804
1075.963311	0.007719
1076.126923	0.005168
1076.290516	0.004844
1076.454092	0.006042
1076.617649	0.007249
1076.781187	0.008387
1076.944708	0.006324
1077.108210	0.006860
1077.271695	0.005780
1077.435160	0.004861
1077.598608	0.006290
1077.762038	0.004188
1077.925449	0.002922
1078.088842	0.004670
1078.252217	0.005699
1078.415573	0.004893
1078.578912	0.002896
1078.742232	0.005371
1078.905534	0.004034
1079.068817	0.005687
1079.232083	0.007913
1079.395330	0.007536
1079.558559	0.006117
1079.721770	0.004457
1079.884962	0.004192
1080.048136	0.004069
1080.211293	0.004212
1080.374430	0.004868
1080.537550	0.003289
1080.700651	0.002610
1080.863735	0.005265
1081.026800	0.007424
1081.189846	0.007702
1081.352875	0.009188
1081.515885	0.009942
1081.678877	0.010243
1081.841851	0.010644
1082.004807	0.011390
1082.167744	0.011125
1082.330663	0.009174
1082.493564	0.007608
1082.656447	0.007070
1082.819312	0.007882
1082.982158	0.008568
1083.144986	0.005976
1083.307796	0.007096
1083.470587	0.005639
1083.633361	0.005210
1083.796116	0.004583
1083.958853	0.004099
1084.121571	0.005469
1084.284272	0.003918
1084.446954	0.004992
1084.609618	0.005193
1084.772264	0.003937
1084.934892	0.005488
1085.097501	0.007282
1085.260092	0.007363
1085.422665	0.007803
1085.585220	0.007208
1085.747756	0.008924
1085.910274	0.008514
1086.072774	0.007756
1086.235256	0.007185
1086.397720	0.005200
1086.560165	0.004207
1086.722592	0.005235
1086.885001	0.005756
1087.047392	0.006473
1087.209764	0.004804
1087.372119	0.003473
1087.534455	0.002685
1087.696772	0.004354
1087.859072	0.005483
1088.021353	0.006248
1088.183616	0.007042
1088.345861	0.006551
1088.508088	0.006090
1088.670296	0.004965
1088.832486	0.004766
1088.994658	0.006722
1089.156812	0.005548
1089.318948	0.005590
1089.481065	0.003882
1089.643164	0.002969
1089.805245	-0.000529
1089.967308	-0.002035
1090.129352	-0.000850
1090.291378	0.000027
1090.453386	0.001902
1090.615376	0.002142
1090.777347	0.000578
1090.939301	0.004303
1091.101236	0.003801
1091.263153	0.008055
1091.425051	0.007440
1091.586932	0.008059
1091.748794	0.006700
1091.910638	0.005537
1092.072463	0.007326
1092.234271	0.008787
1092.396060	0.005773
1092.557831	0.006312
1092.719584	0.004913
1092.881319	0.006969
1093.043035	0.006112
1093.204733	0.007286
1093.366413	0.005492
1093.528075	0.005956
1093.689718	0.004361
1093.851343	0.003158
1094.012950	0.002760
1094.174539	0.005649
1094.336110	0.006531
1094.497662	0.007627
1094.659196	0.007884
1094.820712	0.008207
1094.982210	0.007146
1095.143689	0.009296
1095.305151	0.008908
1095.466594	0.007824
1095.628018	0.005621
1095.789425	0.005601
1095.950813	0.005610
1096.112183	0.005340
1096.273535	0.006900
1096.434869	0.004961
1096.596184	0.001463
1096.757482	0.000173
1096.918761	0.002198
1097.080021	0.001011
1097.241264	-0.000484
1097.402488	-0.001567
1097.563694	0.001184
1097.724882	0.003731
1097.886052	0.004836
1098.047203	0.007274
1098.208336	0.010299
1098.369451	0.011112
1098.530548	0.012484
1098.691627	0.009680
1098.852687	0.008683
1099.013729	0.004145
1099.174753	0.002045
1099.335758	-0.000590
1099.496746	-0.001800
1099.657715	-0.000258
1099.818666	-0.001901
1099.979599	-0.001933
1100.140513	0.000141
1100.301409	0.002803
1100.462287	0.003012
1100.623147	0.002896
1100.783989	0.004876
1100.944812	0.006925
1101.105617	0.003880
1101.266404	0.004848
1101.427173	0.002596
1101.587923	0.003202
1101.748656	0.001602
1101.909370	0.003310
1102.070066	0.001678
1102.230743	0.002045
1102.391403	0.001474
1102.552044	0.003249
1102.712667	0.000888
1102.873271	0.002393
1103.033858	0.002540
1103.194426	0.002491
1103.354976	0.003000
1103.515508	0.002422
1103.676021	0.004911
1103.836517	0.003910
1103.996994	0.002677
1104.157453	0.003718
1104.317893	0.002073
1104.478316	0.001707
1104.638720	-0.000334
1104.799106	-0.002773
1104.959474	-0.001749
1105.119823	-0.002888
1105.280155	-0.003232
1105.440468	-0.003523
1105.600763	-0.002744
1105.761039	0.000404
1105.921298	0.002200
1106.081538	0.003183
1106.241760	0.004355
1106.401964	0.005485
1106.562149	0.004980
1106.722316	0.005953
1106.882465	0.008032
1107.042596	0.009885
1107.202709	0.011708
1107.362803	0.009993
1107.522879	0.009738
1107.682937	0.010319
1107.842977	0.007300
1108.002999	0.008693
1108.163002	0.009951
1108.322987	0.009892
1108.482954	0.006753
1108.642902	0.003781
1108.802833	0.003244
1108.962745	0.006789
1109.122639	0.006709
1109.282515	0.010791
1109.442372	0.005079
1109.602211	0.004571
1109.762032	0.003435
1109.921835	0.004222
1110.081620	0.002695
1110.241386	0.003860
1110.401134	0.002485
1110.560864	0.000979
1110.720576	-0.001315
1110.880269	0.003194
1111.039945	0.003376
1111.199602	0.003525
1111.359240	0.000559
1111.518861	0.002294
1111.678463	0.000273
1111.838047	0.000335
1111.997613	0.000285
1112.157161	0.000850
1112.316690	0.001896
1112.476202	0.003042
1112.635695	0.003917
1112.795169	0.008623
1112.954626	0.008784
1113.114064	0.011716
1113.273484	0.009491
1113.432886	0.009452
1113.592270	0.009309
1113.751635	0.009572
1113.910983	0.004188
1114.070312	0.004493
1114.229622	0.002192
1114.388915	0.000736
1114.548189	-0.001395
1114.707445	0.000204
1114.866683	0.002649
1115.025903	0.000868
1115.185104	-0.002528
1115.344287	-0.001829
1115.503452	-0.003922
1115.662599	-0.002194
1115.821727	0.000549
1115.980838	0.001730
1116.139930	0.001762
1116.299004	0.001380
1116.458059	0.003704
1116.617097	0.007619
1116.776116	0.013797
1116.935117	0.017744
1117.094099	0.015632
1117.253064	0.016263
1117.412010	0.015926
1117.570938	0.011492
1117.729848	0.013064
1117.888740	0.013710
1118.047613	0.009576
1118.206468	0.005562
1118.365305	0.003126
1118.524124	0.006196
1118.682924	0.003770
1118.841707	0.004777
1119.000471	0.008950
1119.159216	0.010040
1119.317944	0.011346
1119.476653	0.011224
1119.635344	0.012531
1119.794017	0.013000
1119.952672	0.008492
1120.111308	0.011149
1120.269927	0.011581
1120.428527	0.012563
1120.587108	0.008110
1120.745672	0.007525
1120.904217	0.009268
1121.062744	0.008068
1121.221253	0.006869
1121.379744	0.005492
1121.538216	0.003533
1121.696671	0.000479
1121.855107	0.000161
1122.013524	0.004103
1122.171924	0.000916
1122.330305	0.001955
1122.488668	0.003270
1122.647013	0.005233
1122.805340	0.011399
1122.963648	0.009630
1123.121938	0.011239
1123.280210	0.011605
1123.438464	0.011307
1123.596700	0.015366
1123.754917	0.014788
1123.913116	0.016634
1124.071297	0.013222
1124.229459	0.012318
1124.387604	0.015165
1124.545730	0.015516
1124.703838	0.012822
1124.861928	0.010085
1125.019999	0.008413
1125.178052	0.008077
1125.336088	0.006500
1125.494104	0.007881
1125.652103	0.007394
1125.810083	0.005725
1125.968045	0.005795
1126.125989	0.009010
1126.283915	0.011314
1126.441823	0.011035
1126.599712	0.010097
1126.757583	0.010728
1126.915436	0.008532
1127.073270	0.010568
1127.231087	0.009480
1127.388885	0.007775
1127.546665	0.004373
1127.704426	0.001870
1127.862170	0.005498
1128.019895	0.006770
1128.177602	0.003528
1128.335291	0.006311
1128.492961	0.006010
1128.650614	0.010815
1128.808248	0.009626
1128.965864	0.010121
1129.123461	0.011226
1129.281041	0.005344
1129.438602	0.008468
1129.596145	0.013177
1129.753670	0.012621
1129.911176	0.009269
1130.068665	0.007681
1130.226135	0.009805
1130.383587	0.015996
1130.541020	0.017679
1130.698436	0.017216
1130.855833	0.014742
1131.013212	0.013360
1131.170573	0.019426
1131.327915	0.019624
1131.485239	0.020338
1131.642545	0.020796
1131.799833	0.012513
1131.957103	0.011807
1132.114354	0.012724
1132.271588	0.015750
1132.428803	0.015248
1132.585999	0.007942
1132.743178	0.006863
1132.900338	0.003239
1133.057480	0.005246
1133.214604	0.010238
1133.371710	0.005215
1133.528797	0.001483
1133.685866	-0.002925
1133.842917	-0.003234
1133.999950	-0.001081
1134.156964	-0.000101
1134.313960	-0.000776
1134.470938	-0.007535
1134.627898	-0.006050
1134.784840	-0.008421
1134.941763	-0.004476
1135.098668	-0.000601
1135.255555	-0.000737
1135.412424	0.000744
1135.569274	0.005340
1135.726107	0.002407
1135.882921	0.006035
1136.039716	0.005342
1136.196494	0.009274
1136.353253	0.010915
1136.509995	0.006881
1136.666717	0.006322
1136.823422	0.004238
1136.980109	-0.003993
1137.136777	0.002266
1137.293427	0.000857
1137.450059	0.002226
1137.606672	0.005419
1137.763267	0.003884
1137.919844	0.008944
1138.076403	0.011053
1138.232944	0.011773
1138.389466	0.010854
1138.545971	0.011830
1138.702457	0.017190
1138.858924	0.012028
1139.015374	0.005684
1139.171805	0.008927
1139.328218	0.008043
1139.484613	0.005259
1139.640990	0.005840
1139.797348	0.008455
1139.953688	0.007080
1140.110010	0.006646
1140.266314	0.012497
1140.422600	0.016224
1140.578867	0.013326
1140.735116	0.007828
1140.891347	0.007236
1141.047559	0.003879
1141.203754	0.003665
1141.359930	0.003171
1141.516088	0.004331
1141.672228	-0.003911
1141.828349	0.000528
1141.984452	0.002082
1142.140537	0.003151
1142.296604	0.002908
1142.452653	0.007233
1142.608683	0.010416
1142.764695	0.010989
1142.920689	0.008853
1143.076665	0.013028
1143.232622	0.010153
1143.388562	0.007920
1143.544483	0.007543
1143.700385	0.009517
1143.856270	0.007620
1144.012136	0.001785
1144.167985	0.000067
1144.323814	0.005864
1144.479626	0.003507
1144.635420	0.000826
1144.791195	0.000843
1144.946952	0.002573
1145.102691	-0.000292
1145.258411	0.002208
1145.414113	0.010214
1145.569798	0.010939
1145.725463	0.003903
1145.881111	0.008321
1146.036741	0.012616
1146.192352	0.012644
1146.347945	0.008283
1146.503519	0.012221
1146.659076	0.014194
1146.814614	0.012209
1146.970134	0.008994
1147.125636	0.009791
1147.281120	0.010542
1147.436585	0.002984
1147.592032	0.007198
1147.747461	0.008721
1147.902872	0.001812
1148.058265	-0.002204
1148.213639	-0.001440
1148.368995	-0.000546
1148.524333	-0.002356
1148.679653	-0.008821
1148.834954	-0.009579
1148.990237	-0.011498
1149.145502	-0.006952
1149.300749	-0.006462
1149.455977	-0.009569
1149.611188	-0.008007
1149.766380	-0.010232
1149.921553	-0.009030
1150.076709	-0.011492
1150.231846	-0.007416
1150.386966	-0.012952
1150.542066	-0.018376
1150.697149	-0.009731
1150.852214	-0.006462
1151.007260	-0.010170
1151.162288	-0.007490
1151.317298	-0.009584
1151.472289	-0.002472
1151.627263	0.005413
1151.782218	0.010196
1151.937155	0.019562
1152.092073	0.017965
1152.246974	0.019371
1152.401856	0.019122
1152.556720	0.022327
1152.711566	0.027633
1152.866393	0.022391
1153.021203	0.011735
1153.175994	0.004406
1153.330767	0.006681
1153.485521	0.001357
1153.640258	0.003164
1153.794976	0.006040
1153.949676	0.006467
1154.104358	0.000228
1154.259021	-0.000694
1154.413667	0.009091
1154.568294	0.015660
1154.722903	0.004343
1154.877493	0.007240
1155.032066	-0.002898
1155.186620	-0.002295
1155.341156	-0.006008
1155.495674	-0.001578
1155.650173	0.007612
1155.804654	0.008521
1155.959118	0.010370
1156.113562	0.009879
1156.267989	0.010263
1156.422397	0.014507
1156.576788	0.018433
1156.731160	0.022965
1156.885513	0.028303
1157.039849	0.026529
1157.194166	0.026396
1157.348465	0.025157
1157.502746	0.026994
1157.657009	0.026854
1157.811253	0.022145
1157.965479	0.015240
1158.119687	0.009975
1158.273877	0.008118
1158.428048	0.006952
1158.582201	-0.002845
1158.736337	-0.005519
1158.890453	-0.005961
1159.044552	-0.010483
1159.198632	-0.004137
1159.352694	-0.005270
1159.506738	-0.008004
1159.660764	-0.014511
1159.814771	-0.014230
1159.968761	-0.008774
1160.122732	-0.004606
1160.276685	0.001031
1160.430619	-0.001863
1160.584535	-0.008598
1160.738434	-0.015814
1160.892313	-0.012020
1161.046175	-0.010100
1161.200019	-0.011969
1161.353844	-0.009327
1161.507651	-0.008312
1161.661440	-0.016289
1161.815210	-0.008160
1161.968962	-0.008586
1162.122697	-0.001318
1162.276412	-0.001232
1162.430110	-0.002417
1162.583789	-0.001460
1162.737451	-0.004715
1162.891094	-0.010119
1163.044718	-0.003544
1163.198325	-0.007895
1163.351913	0.003602
1163.505483	0.010752
1163.659035	0.016168
1163.812569	0.015908
1163.966084	0.017810
1164.119581	0.017870
1164.273060	0.019996
1164.426521	0.022707
1164.579964	0.028775
1164.733388	0.026797
1164.886794	0.020922
1165.040182	0.014565
1165.193551	0.031127
1165.346903	0.022838
1165.500236	0.022223
1165.653551	0.017349
1165.806848	0.007826
1165.960126	0.006039
1166.113386	0.015688
1166.266628	0.027659
1166.419852	0.025962
1166.573058	0.004011
1166.726245	0.007287
1166.879414	0.005184
1167.032565	0.016107
1167.185698	0.022250
1167.338812	0.020103
1167.491909	0.014264
1167.644987	-0.000827
1167.798046	0.007910
1167.951088	0.013682
1168.104111	0.009750
1168.257117	0.011579
1168.410103	0.007887
1168.563072	0.005204
1168.716023	0.004785
1168.868955	-0.007070
1169.021869	0.000932
1169.174765	-0.003480
1169.327642	0.001749
1169.480501	0.007162
1169.633343	0.006708
1169.786165	-0.003322
1169.938970	-0.008689
1170.091757	-0.008376
1170.244525	-0.001470
1170.397275	-0.010441
1170.550007	-0.018989
1170.702720	-0.021867
1170.855415	-0.018341
1171.008092	-0.014879
1171.160751	-0.002590
1171.313392	0.008719
1171.466014	0.039514
1171.618619	0.040576
1171.771205	0.040576
1171.923772	0.040576
