sample name	sample
index	369
start time	 03-04-2021  12:36:18 PM
880	-0.058663
Peak Time (s)	92.536
Peak Height 	-0.05866
calc peak height	90,93
Baseline Time (s)	11.537
Baseline Value 	-0.005415
subtract baseline	10,4
Abs	-0.010634
Peak Time (s)	92.036
Peak Height 	-0.01063
calc peak height	90,93
Baseline Time (s)	9.038
Baseline Value 	0.005161
subtract baseline	10,3
PK_550	-0.003239
Peak Time (s)	92.536
Peak Height 	-0.003239
calc peak height	90,93
Baseline Time (s)	9.038
Baseline Value 	3.8575E-4
subtract baseline	10,2
PK_880	-0.007452
Peak Time (s)	91.535
Peak Height 	-0.007452
calc peak height	90,93
Baseline Time (s)	11.037
Baseline Value 	0.002198
subtract baseline	10,1


Time (s)	A880-A510	A880-A775	A880-A975	A880	I510	I775	I975	I880	
0.035500	0.000569	0.000722	-0.002415	0.002832	6867.294878	47290.320701	3974.677802	24947.467741
0.535500	-0.003218	-0.000729	-0.004051	0.004684	6815.743038	46953.965587	3965.630262	24853.494477
1.036000	-0.004276	-0.000197	-0.009551	0.007041	6784.837458	46769.168471	3945.506608	24734.448647
1.538500	-0.001430	-0.000316	0.000483	0.000963	6866.101614	47375.352910	3987.166788	25042.716757
2.039500	0.000671	-0.000424	-0.001393	0.000793	6887.053861	47381.736855	3982.683702	25051.432799
2.537000	0.000931	0.000255	-0.002262	0.001037	6887.201098	47426.290215	3979.767432	25038.966603
3.036500	-0.000591	0.000396	0.000274	0.000346	6879.523964	47511.671187	3988.241254	25074.267364
3.534500	-0.000253	0.000031	-0.000182	0.000656	6879.775848	47442.372007	3986.224093	25058.406600
4.037000	0.000248	-0.000386	-0.003962	0.000324	6887.475414	47433.679214	3977.185194	25075.402034
4.535500	0.000045	0.000252	-0.000821	0.000386	6885.030832	47492.812982	3985.255405	25072.239024
5.035500	-0.000597	-0.000281	-0.001830	0.000057	6882.135744	47471.862014	3983.466808	25089.067904
5.535000	-0.000407	0.000484	-0.003000	0.000693	6878.009101	47485.013714	3978.735415	25056.513566
6.036000	-0.001715	-0.000327	-0.004678	-0.000056	6872.861975	47478.703012	3976.309374	25094.846605
6.536500	-0.001798	0.000202	0.000387	0.000156	6870.140310	47511.273900	3989.041643	25083.997035
7.036500	0.000131	0.000138	0.000108	0.000776	6882.220430	47441.087714	3986.673613	25052.303299
7.537000	0.001403	0.000381	0.001699	0.000900	6892.841468	47453.316025	3990.542718	25045.971145
8.037000	0.000068	-0.000344	-0.001438	0.000163	6887.300360	47454.479907	3984.216709	25083.628062
8.540000	0.000191	-0.000724	-0.004380	-0.000507	6894.642703	47484.297071	3978.265307	25117.959866
9.038000	0.001040	0.000000	0.000000	-0.000297	6900.569741	47537.081190	3989.215278	25107.187751
9.535500	0.000251	-0.000226	-0.004707	-0.000070	6891.146956	47490.489193	3976.268286	25095.564206
10.035500	-0.001681	0.000050	-0.002272	0.000039	6872.303808	47507.696744	3982.353646	25089.990866
10.536000	-0.000295	0.000430	0.001142	0.000436	6881.423620	47505.937051	3990.295907	25069.662919
11.036500	0.000000	0.000147	0.001493	0.000504	6883.523133	47469.925403	3991.043708	25066.211137
11.536500	-0.000576	-0.000167	0.000418	0.000000	6882.855921	47489.398883	3989.535420	25091.974084
12.036500	-0.000406	0.000342	0.002375	-0.000089	6885.253911	47550.919045	3994.949391	25096.547842
12.537000	0.000134	0.000082	0.000335	-0.000192	6891.197402	47534.767196	3989.822425	25101.824017
13.037500	0.001393	0.000479	-0.000692	-0.000405	6904.843522	47597.451918	3987.675059	25112.692749
13.540500	0.000732	0.000437	0.002256	0.000132	6893.734724	47537.866626	3994.046305	25085.199565
14.035000	-0.000071	-0.000241	-0.001855	0.001880	6870.166448	47289.186483	3978.623766	24995.916411
14.535500	-0.002041	-0.000713	-0.002025	0.001739	6853.363127	47255.400443	3978.549833	25003.128123
15.036500	-0.002075	-0.000242	-0.000337	0.003503	6836.907494	47123.483541	3978.352528	24913.387955
15.536000	-0.000512	0.000047	-0.006099	-0.000180	6885.108700	47529.855631	3972.929090	25101.194699
16.036500	0.000436	-0.000184	-0.002117	-0.000553	6897.344999	47544.490826	3984.316256	25120.313013
16.536500	0.000309	0.000609	-0.003227	0.000306	6888.204337	47537.675133	3979.151196	25076.289504
17.036000	-0.000177	0.000176	0.000645	0.000764	6879.482016	47446.122748	3988.116609	25052.891167
17.540000	0.000335	-0.000049	0.000609	0.000420	6887.395866	47458.406705	3988.931199	25070.497238
18.040000	-0.001662	-0.000236	-0.003793	0.001088	6862.816594	47370.790750	3975.633028	25036.352685
18.535000	-0.002256	0.000303	-0.000549	0.000851	6859.532168	47450.310382	3984.743915	25048.437939
19.035500	-0.001186	-0.000157	-0.000034	0.001131	6866.800941	47374.479894	3985.363077	25034.153101
19.535000	-0.001926	0.000076	0.002509	0.001157	6859.758359	47395.596262	3992.000362	25032.809702
20.036000	-0.001848	-0.000075	0.000067	0.000746	6864.251021	47422.287354	3986.642818	25053.829863
20.539000	-0.001641	-0.000363	-0.004553	0.000234	6870.873977	47445.302650	3975.877223	25079.999078
21.036500	0.000061	-0.000032	-0.004637	0.001778	6872.325399	47320.909898	3971.639589	25001.118524
21.536500	-0.001554	0.000569	-0.004549	0.001413	6860.823457	47419.905024	3972.817372	25019.762618
22.037000	-0.002484	0.000014	-0.005471	0.000747	6858.401801	47431.279709	3972.152438	25053.775055
22.535000	-0.000516	0.000101	-0.002408	0.000861	6875.459822	47428.592819	3979.844067	25047.945433
23.037500	-0.002151	0.000250	-0.005024	0.001687	6852.821067	47359.065305	3970.870908	25005.753108
23.535000	0.000659	0.000470	0.001295	0.001010	6884.930187	47451.012633	3989.182744	25040.304831
24.035500	0.000039	-0.000522	-0.001720	0.000590	6883.091402	47392.506903	3982.356727	25061.814617
24.536000	-0.000011	-0.000317	-0.000824	0.000772	6880.937540	47394.816758	3984.230979	25052.472564
25.036000	-0.000898	-0.000363	0.001771	0.001063	6870.079439	47360.340168	3990.301088	25037.621639
25.536000	-0.001705	0.000076	0.000458	0.001239	6861.034827	47387.261040	3986.375488	25028.640227
26.039500	0.001065	0.001148	0.000935	0.002011	6879.434880	47417.888653	3985.597873	24989.239715
26.537000	-0.001896	0.000076	0.000000	0.003006	6843.083353	47206.507306	3980.531602	24938.602467
27.036500	0.000126	-0.000184	0.000013	0.000066	6888.736812	47480.883374	3988.293705	25088.608424
27.540000	0.000299	-0.000398	-0.001906	-0.002657	6915.614862	47739.190430	3990.414544	25228.410153
28.035000	0.000117	0.001224	-0.001154	0.000114	6888.211649	47620.747587	3985.093131	25086.152459
28.538000	-0.002830	-0.000620	-0.005602	0.003981	6825.660450	47036.420531	3963.439310	24889.123565
29.035500	-0.001246	0.000055	-0.000282	-0.000840	6884.418760	47598.594760	3989.904018	25134.997835
29.535500	0.001034	0.000362	-0.001869	0.000010	6897.658397	47542.711119	3983.487844	25091.458742
30.036000	0.001740	0.000505	-0.001080	-0.000124	6905.452778	47571.135353	3985.911853	25098.298265
30.536000	-0.000119	0.000202	-0.002718	0.004549	6845.222640	47062.179279	3969.429341	24860.312943
31.037000	0.000360	0.000633	-0.002651	0.002613	6867.394485	47303.581294	3974.635577	24958.610267
31.536500	0.001630	-0.000136	0.001436	-0.000679	6909.594491	47562.339599	3994.021431	25126.767927
32.038000	-0.000474	0.000361	0.000894	-0.000302	6886.592732	47574.749588	3991.589091	25107.441121
32.534000	-0.001006	-0.000053	0.002284	0.003368	6847.917574	47156.542610	3985.578336	24920.238880
33.035000	-0.002067	0.000095	-0.000487	0.002283	6848.133094	47282.266969	3981.149646	24975.393903
33.535500	0.001056	0.000320	0.001635	0.000562	6892.750409	47481.734857	3991.265868	25063.230871
34.036000	0.001210	0.000366	0.000801	0.001918	6881.633507	47347.406933	3985.492009	24994.021575
34.536000	-0.003177	0.000429	-0.003267	0.003053	6830.962768	47237.858502	3971.887226	24936.250557
35.036500	0.001538	0.000653	0.000138	0.002390	6880.305111	47328.491984	3982.509464	24969.974064
35.536500	-0.000833	0.000714	0.003573	0.002132	6860.836897	47361.028485	3992.235985	24983.073787
36.036500	-0.000843	0.000310	-0.001078	0.002201	6860.112964	47312.717774	3979.818522	24979.577637
36.537000	-0.000350	0.000865	0.000642	0.003894	6849.108318	47196.431251	3979.887790	24893.524781
37.034000	-0.002187	-0.000029	-0.000352	0.001567	6853.593766	47342.905051	3983.380860	25011.886127
37.535000	-0.001034	0.000809	-0.007471	0.002293	6857.518032	47354.312586	3962.972215	24974.884427
38.035000	-0.001103	0.000280	-0.003492	0.001675	6862.561647	47363.449559	3974.888240	25006.401741
38.535000	-0.000546	0.000451	0.000566	0.001953	6865.121005	47352.467638	3984.779599	24992.205155
39.036000	-0.002005	0.000130	-0.000400	0.001587	6855.084814	47357.116591	3983.205572	25010.889438
39.536000	-0.001228	0.000562	-0.004607	0.001823	6860.046608	47377.163506	3971.600221	24998.833299
40.036000	-0.002299	0.000589	-0.002274	0.002427	6844.692734	47318.090072	3976.101639	24968.051343
40.536500	-0.000064	0.000157	0.002403	0.001839	6870.610531	47334.044166	3989.918443	24998.005242
41.037000	-0.000082	0.000131	-0.007822	0.001888	6869.997224	47326.374098	3963.110166	24995.524249
41.544000	-0.002579	0.000523	-0.000338	0.001869	6847.235936	47368.481004	3982.626449	24996.475554
42.037500	-0.001444	-0.000411	-0.000636	0.001508	6860.955427	47309.825126	3982.790015	25014.888266
42.535500	-0.001850	0.000304	-0.000558	0.002999	6843.565579	47230.533846	3979.090035	24938.955073
43.035000	-0.000731	0.001320	-0.000222	0.002593	6857.548171	47375.977707	3981.033040	24959.635353
43.535500	0.001337	0.000707	0.003546	-0.002747	6926.132291	47862.732486	4005.145933	25233.028675
44.036000	0.000867	0.000749	0.003800	-0.000084	6896.988122	47592.220172	3998.717520	25096.262645
44.535500	-0.002977	0.000131	-0.001220	0.005270	6812.596263	46981.631209	3971.444763	24823.793285
45.036500	-0.001046	-0.000916	-0.008556	0.001446	6865.191906	47264.560287	3962.359663	25018.086677
45.537000	-0.000490	0.000891	0.007655	0.000138	6882.369347	47583.958394	4008.425845	25084.893617
46.037000	-0.001331	0.000391	0.002078	-0.000225	6877.962953	47569.857780	3994.520458	25103.504563
46.537500	-0.003819	0.000149	-0.008124	0.005156	6805.998159	46995.101753	3953.942336	24829.572735
47.037000	-0.001299	0.000494	-0.004321	0.003525	6843.800368	47196.258655	3967.928266	24912.243357
47.535000	-0.001361	0.000152	-0.002875	0.001603	6860.850286	47357.724067	3976.685496	25010.068263
48.035500	0.000693	0.000448	0.000253	-0.000016	6894.751945	47554.341476	3989.143445	25092.818447
48.536000	-0.002533	0.000732	-0.000493	0.005463	6814.889161	47023.196559	3972.834500	24814.075796
49.036000	-0.001038	0.000373	0.000232	0.002887	6852.036263	47249.086738	3981.454157	24944.690668
49.536500	0.000577	0.000620	-0.000103	-0.002504	6916.786583	47828.698757	3994.782005	25220.537847
50.036500	0.001917	0.000820	-0.000949	-0.000024	6906.171128	47593.370834	3985.995769	25093.201764
50.536500	0.000390	0.000793	0.002362	0.009992	6800.328836	46571.434403	3968.488006	24586.307602
51.040000	-0.010139	-0.009251	0.001793	0.217055	5251.565471	29386.350411	3540.851180	16346.844534
51.534500	-0.023044	-0.028493	-0.014235	-0.071249	7359.832666	52122.608309	4149.089438	29055.696788
52.035000	-0.013721	-0.176786	-0.004005	-0.324175	11082.265047	65535.000000	5236.834549	49758.938738
52.535000	-0.031395	-0.178892	-0.014408	-0.326281	10793.118040	65535.000000	5191.538993	49986.957714
53.035000	-0.076615	-0.302715	-0.061026	-0.450104	12365.003326	65535.000000	5648.408776	65535.000000
53.535500	-0.079076	-0.302715	-0.067368	-0.450104	12311.353652	65535.000000	5607.737923	65535.000000
54.036000	-0.001889	-0.175176	0.002664	-0.322565	11277.831902	65535.000000	5264.879205	49585.394149
54.536000	-0.012115	-0.103175	-0.005204	-0.250564	9827.627776	65535.000000	4858.078306	42446.805833
55.036500	-0.016591	-0.090795	-0.010832	-0.238143	9562.141736	65529.110883	4776.059599	41330.637999
55.537000	-0.007771	-0.080815	-0.007179	-0.228204	9544.919679	65535.000000	4748.285268	40460.197310
56.037000	0.000128	-0.062878	-0.007547	-0.209153	9375.720435	65374.546674	4664.979763	38846.405558
56.535000	-0.006587	-0.053143	-0.012732	-0.195395	9076.158917	64798.401654	4587.224683	37724.223585
57.035000	0.001726	-0.054556	-0.008858	-0.197818	9231.488122	64942.621227	4612.696948	37919.312788
57.535500	-0.000938	-0.043489	-0.011216	-0.180905	8951.111906	64112.842200	4535.896957	36580.161347
58.035000	-0.003135	-0.031800	-0.009703	-0.160430	8641.811883	62886.743152	4463.580276	35027.230653
58.536000	-0.006120	-0.020775	-0.016961	-0.135196	8278.733281	60955.473675	4346.777447	33211.440261
59.036000	-0.004414	-0.017712	-0.012231	-0.126730	8195.192334	60237.641412	4333.897243	32625.484524
59.536000	-0.004361	-0.015505	-0.011638	-0.116924	8076.955734	59242.979396	4302.612112	31960.937882
60.037000	-0.003472	-0.011883	-0.008777	-0.115253	8067.574057	59496.531553	4306.611714	31849.136576
60.539500	-0.007491	-0.015192	-0.016114	-0.116221	8031.204841	59192.350095	4285.310811	31913.867951
61.037500	-0.006662	-0.014670	-0.009884	-0.095790	7803.443192	56669.575502	4238.918479	30578.631147
61.535000	-0.010553	-0.009864	-0.016072	-0.108958	7909.948298	58942.084027	4261.532397	31432.005562
62.037500	-0.011484	-0.010855	-0.011462	-0.111098	7924.004410	59090.604742	4283.748730	31573.146878
62.535500	-0.014812	-0.008788	-0.020237	-0.103716	7800.896730	58406.968788	4231.139318	31089.199898
63.045000	-0.012944	-0.007559	-0.018573	-0.101403	7795.849904	58268.506166	4229.065214	30939.210010
63.536000	-0.014224	-0.007712	-0.017471	-0.098785	7751.834977	57916.324235	4224.238318	30770.468636
64.036500	-0.012438	-0.007534	-0.017132	-0.096410	7745.210341	57638.614635	4217.777060	30618.210304
64.536500	-0.018153	-0.007324	-0.019343	-0.089497	7605.514712	56800.058898	4189.201067	30179.848682
65.037500	-0.014598	-0.007446	-0.016886	-0.090801	7658.797824	56947.006340	4200.908599	30262.044450
65.537000	-0.015669	-0.008563	-0.017144	-0.090380	7642.371787	56755.955560	4198.788207	30235.489091
66.034500	-0.016381	-0.008284	-0.014556	-0.087469	7602.725259	56430.404973	4197.778878	30052.580345
66.535000	-0.016806	-0.007695	-0.017213	-0.080208	7519.706263	55614.166016	4167.196912	29601.708946
67.035500	-0.017663	-0.008636	-0.017717	-0.079727	7505.399107	55441.732654	4164.194693	29572.082412
67.535500	-0.014546	-0.008217	-0.014271	-0.080498	7547.090947	55586.012908	4177.085706	29619.569136
68.036000	-0.015263	-0.008509	-0.014509	-0.078902	7522.242349	55357.417492	4171.465565	29521.407838
68.536500	-0.017357	-0.008710	-0.020298	-0.074172	7449.732580	54765.076713	4139.680512	29232.625474
69.037000	-0.018663	-0.009382	-0.019084	-0.073451	7428.400283	54598.924408	4141.154234	29188.855755
69.537000	-0.013992	-0.008682	-0.011180	-0.074380	7487.554058	54793.284313	4167.822168	29245.225016
70.040500	-0.015068	-0.008877	-0.012649	-0.073508	7466.898806	54665.941363	4160.703430	29192.337798
70.537500	-0.016019	-0.008180	-0.011774	-0.068505	7404.308524	54155.119395	4148.237356	28890.714619
71.035000	-0.015399	-0.008192	-0.010878	-0.067546	7400.771818	54040.647387	4148.050277	28833.295123
71.535000	-0.013682	-0.007681	-0.012385	-0.070274	7447.379453	54423.568388	4151.723729	28996.961565
72.035500	-0.012009	-0.007823	-0.014915	-0.070064	7462.817618	54381.719808	4143.491761	28984.313172
72.535500	-0.013866	-0.008456	-0.011885	-0.068470	7426.464213	54118.368509	4147.797682	28888.578595
73.036000	-0.010348	-0.007747	-0.013455	-0.068240	7461.093461	54174.861767	4142.402714	28874.807745
73.536000	-0.009781	-0.007860	-0.011413	-0.070104	7486.862686	54382.112353	4154.142626	28986.743268
74.036500	-0.011952	-0.006934	-0.011631	-0.069646	7458.997801	54437.647029	4152.101950	28959.179062
74.539500	-0.013995	-0.006600	-0.010221	-0.065971	7398.988865	54042.607710	4145.293061	28739.257428
75.037000	-0.014188	-0.007308	-0.016193	-0.067921	7417.342474	54189.124009	4133.291156	28855.720142
75.537500	-0.012025	-0.005887	-0.009165	-0.068904	7450.405572	54473.913965	4157.309012	28914.633773
76.035000	-0.011014	-0.006796	-0.009642	-0.069480	7467.163091	54434.367110	4157.606845	28949.208898
76.535500	-0.011689	-0.006887	-0.007321	-0.069527	7460.514394	54429.027973	4164.791098	28952.000322
77.035500	-0.011554	-0.006548	-0.015152	-0.067794	7443.664382	54263.856755	4136.006525	28848.111037
77.536000	-0.009666	-0.006174	-0.012340	-0.069931	7486.256889	54561.853506	4150.824328	28976.340844
78.039000	-0.010967	-0.005413	-0.012020	-0.069739	7470.406361	54629.578846	4151.210364	28964.774903
78.536500	-0.009521	-0.006062	-0.011306	-0.068738	7475.119236	54433.340632	4150.344907	28904.650555
79.037000	-0.011205	-0.006333	-0.014633	-0.069370	7463.977284	54476.211478	4142.260116	28942.586138
79.537000	-0.008230	-0.006305	-0.012368	-0.070240	7504.827154	54583.038192	4151.670694	28994.893309
80.037500	-0.008747	-0.005623	-0.008532	-0.070046	7497.250171	54641.152074	4162.690536	28983.229278
80.537500	-0.008998	-0.005801	-0.011111	-0.069093	7484.442512	54506.475990	4152.002627	28925.950406
81.035000	-0.007726	-0.005375	-0.007646	-0.069621	7503.601429	54619.952721	4164.089586	28957.655660
81.535500	-0.009116	-0.005725	-0.008304	-0.069699	7489.634154	54587.676012	4162.328772	28962.387853
82.036000	-0.008266	-0.005805	-0.006752	-0.069655	7498.211560	54572.934378	4166.916069	28959.723793
82.536000	-0.009108	-0.005403	-0.008811	-0.067461	7465.972941	54360.081768	4154.014899	28828.184516
83.036500	-0.008289	-0.004421	-0.015108	-0.067963	7479.968230	54536.183638	4136.640801	28858.206093
83.536500	-0.007905	-0.005098	-0.009751	-0.068433	7489.046095	54511.658718	4154.115428	28886.404130
84.040000	-0.010651	-0.005114	-0.013025	-0.068238	7457.867286	54486.510264	4143.683574	28874.669618
84.537000	-0.008972	-0.004690	-0.011565	-0.066143	7453.476209	54288.359976	4141.781590	28749.478191
85.034500	-0.007411	-0.004209	-0.010014	-0.066960	7478.644281	54442.229807	4148.883423	28798.240545
85.535000	-0.007869	-0.004947	-0.016681	-0.066594	7469.912474	54311.465269	4127.913024	28776.432059
86.035500	-0.009498	-0.004129	-0.009065	-0.065588	7442.080644	54289.101522	4147.610603	28716.411881
86.535500	-0.010361	-0.004238	-0.010084	-0.064155	7417.982709	54106.949567	4140.269395	28631.270255
87.035500	-0.010750	-0.005556	-0.014396	-0.066092	7434.226874	54180.094666	4133.197169	28746.488180
87.536000	-0.010470	-0.004622	-0.011495	-0.065231	7428.113517	54188.529535	4139.267054	28695.167769
88.035500	-0.009089	-0.004210	-0.016888	-0.064425	7434.155528	54142.151992	4120.903146	28647.305158
88.536500	-0.010554	-0.004349	-0.013500	-0.062820	7402.013057	53936.684299	4126.157925	28552.173067
89.037000	-0.009656	-0.003786	-0.017227	-0.060899	7391.347156	53777.328589	4109.578793	28438.739712
89.537500	-0.009416	-0.004564	-0.018327	-0.063689	7422.998161	54013.707637	4114.517940	28603.637806
90.035000	-0.008231	-0.003502	-0.012686	-0.062320	7421.077012	53977.602806	4127.084903	28522.618639
90.535000	-0.009157	-0.003271	-0.011400	-0.060626	7393.699986	53805.601064	4125.878356	28422.669073
91.035000	-0.012391	-0.004674	-0.012767	-0.060030	7353.984978	53571.910609	4120.095769	28387.645572
91.535500	-0.007452	-0.004270	-0.013251	-0.061409	7419.679197	53780.301383	4122.728942	28468.790441
92.036000	-0.008603	-0.003910	-0.010634	-0.060310	7396.181575	53693.939013	4127.211803	28404.114476
92.536000	-0.010592	-0.003239	-0.012639	-0.058663	7358.451008	53579.866819	4116.458758	28307.417106
93.036500	-0.009195	-0.003582	-0.013361	-0.057043	7356.133110	53351.192575	4109.607419	28212.622217
93.534000	-0.009113	-0.004010	-0.012882	-0.059228	7379.618577	53555.753688	4117.402348	28340.515334
94.037000	-0.008969	-0.003565	-0.013238	-0.058374	7372.249109	53508.029340	4113.857361	28290.473501
94.535000	-0.008855	-0.003706	-0.011555	-0.057467	7364.036535	53386.031863	4116.130732	28237.421111
95.034500	-0.009553	-0.003030	-0.011897	-0.054455	7325.818653	53115.182322	4106.336975	28062.035617
95.535500	-0.010624	-0.003389	-0.014714	-0.056530	7336.125206	53313.996281	4104.178420	28182.699845
96.035500	-0.006488	-0.003808	-0.015224	-0.056550	7379.070539	53267.815597	4102.758783	28183.903491
