sample name	sample
index	830
start time	 04-05-2021  10:02:26 AM
880	-0.047906
Peak Time (s)	92.035
Peak Height 	-0.04791
calc peak height	90,93
Baseline Time (s)	9.037
Baseline Value 	-0.004329
subtract baseline	10,4
Abs	-0.003144
Peak Time (s)	92.035
Peak Height 	-0.003144
calc peak height	90,93
Baseline Time (s)	8.537
Baseline Value 	0.002765
subtract baseline	10,3
PK_550	-0.001934
Peak Time (s)	92.535
Peak Height 	-0.001934
calc peak height	90,93
Baseline Time (s)	8.537
Baseline Value 	8.5248E-4
subtract baseline	10,2
PK_880	-0.012905
Peak Time (s)	90.538
Peak Height 	-0.0129
calc peak height	90,93
Baseline Time (s)	8.537
Baseline Value 	0.001764
subtract baseline	10,1


Time (s)	A880-A510	A880-A775	A880-A975	A880	I510	I775	I975	I880	
0.048000	-0.002133	-0.001313	-0.006668	0.004321	6488.418565	39489.312401	3716.768693	21287.588255
0.535000	-0.001356	0.000085	-0.004488	0.005695	6483.309187	39491.303852	3718.595694	21229.048884
1.035000	-0.001684	-0.000328	-0.002197	0.005483	6482.320425	39474.388484	3724.292023	21238.067117
1.568500	-0.002127	-0.000291	-0.003411	0.003616	6494.504846	39635.504418	3725.782805	21317.681877
2.039000	-0.002678	-0.001254	-0.002841	-0.000087	6521.625047	39868.620228	3735.595944	21476.636488
2.535500	0.000750	-0.000501	-0.001641	0.000380	6547.275296	39893.000384	3737.289056	21456.489567
3.036500	-0.002629	-0.001100	-0.000360	0.003415	6491.924885	39583.886213	3733.242048	21326.265444
3.536500	-0.000162	-0.000003	-0.003205	0.000964	6534.293967	39885.651906	3732.335123	21431.371069
4.037000	-0.002500	-0.000311	0.005382	0.000862	6514.971556	39868.030185	3752.527374	21435.753756
4.540000	-0.001905	-0.000210	-0.000311	0.000489	6523.331713	39908.639314	3740.117726	21451.834530
5.034500	-0.001416	-0.000256	-0.002299	0.000424	6528.113760	39910.143152	3735.668672	21454.604715
5.535500	0.000634	-0.000337	0.002945	0.000197	6547.868544	39922.700890	3748.378321	21464.409044
6.035000	0.000334	0.000675	0.002502	0.001185	6536.686077	39924.740773	3745.037783	21421.897235
6.535500	0.000173	-0.000535	-0.002629	0.000203	6543.807218	39905.312026	3735.417506	21464.148608
7.036000	-0.000648	-0.000683	-0.003223	-0.000192	6540.103017	39926.344459	3734.957623	21481.145577
7.536000	-0.000544	0.000150	0.004122	0.000197	6537.633089	39964.265489	3751.130132	21464.372375
8.039000	0.001454	-0.001273	0.001339	-0.000598	6561.929398	39910.585868	3746.481605	21498.657644
8.537000	0.000000	0.000000	0.000000	0.000168	6542.606395	39953.946452	3741.582515	21465.627429
9.037000	0.000325	0.000021	0.002536	0.000000	6546.895098	39970.122050	3747.880723	21472.880980
9.537500	0.001224	0.000340	0.002127	0.000857	6547.253013	39924.116379	3744.925979	21435.966426
10.035000	-0.001754	-0.000778	-0.000886	-0.000770	6535.529425	39967.673216	3741.703545	21506.088701
10.535500	0.000923	0.000103	0.003875	0.000157	6550.729985	39963.777729	3750.647251	21466.134950
11.035500	-0.000159	-0.000058	-0.001823	-0.000510	6547.120599	40007.017243	3738.928151	21494.864354
11.535500	-0.000798	-0.000671	-0.001109	-0.000678	6543.030715	39968.981533	3740.974989	21502.145102
12.036000	0.000868	-0.000486	0.002273	-0.000209	6553.431837	39944.614249	3747.753599	21481.869373
12.536500	-0.001605	-0.000453	-0.002476	-0.000457	6534.107944	39968.658386	3737.293790	21492.574438
13.036500	0.001104	-0.000451	-0.000552	-0.000642	6559.263368	39984.669682	3742.182449	21500.549203
13.536000	0.001637	-0.000669	0.000264	-0.001151	6568.373002	40009.625215	3745.266038	21522.570146
14.040000	-0.000051	-0.000386	-0.000053	0.002813	6519.273995	39695.626175	3735.339889	21352.059285
14.537000	0.001140	0.000106	0.000228	0.001348	6542.263550	39862.225626	3739.375864	21414.889051
15.035000	0.000849	-0.000796	0.003733	-0.001592	6565.336457	40036.544255	3754.419356	21541.617896
15.535500	0.001776	-0.000307	-0.000696	-0.000513	6564.002626	39985.960256	3741.547278	21494.998875
16.035500	0.001555	-0.000250	0.003816	-0.000552	6562.413206	39994.158313	3752.169138	21496.675267
16.536000	0.001471	0.000003	0.001806	-0.000332	6559.764962	39997.057515	3746.953882	21487.211033
17.036000	0.002011	-0.000192	0.001644	-0.002790	6586.010782	40191.413850	3752.325043	21593.521235
17.536500	-0.000232	-0.000565	0.002662	0.000980	6533.554470	39836.346046	3745.888728	21430.702707
18.037000	0.000251	0.000543	0.000377	0.001312	6534.866709	39902.614607	3739.804797	21416.439949
18.537500	-0.000257	0.000705	-0.003630	0.001825	6526.019879	39872.611242	3729.380982	21394.383750
19.037500	-0.001566	-0.000934	0.000836	0.000484	6526.296468	39847.138067	3742.789888	21452.013541
19.537500	-0.000553	-0.000202	-0.000694	0.001064	6530.050917	39860.163094	3737.899284	21427.085845
20.035500	-0.000340	0.000581	0.000774	0.001908	6524.597212	39854.976704	3739.342659	21390.849337
20.535000	0.000375	-0.000634	-0.005055	0.000450	6543.411160	39875.641806	3729.265202	21453.478950
21.036000	-0.001405	-0.000303	0.003433	0.000834	6524.661147	39871.149922	3748.028435	21436.955086
21.536500	-0.001563	0.000069	0.000064	0.001695	6515.874792	39829.449238	3738.191626	21399.983647
22.036500	0.002551	0.000633	0.000067	0.001982	6549.011460	39853.076751	3737.535265	21387.646558
22.537000	-0.000343	0.000191	0.003574	0.001120	6531.378621	39888.884491	3747.689289	21424.664801
23.037000	0.000806	-0.000526	0.001714	0.000565	6546.163359	39875.139013	3744.645739	21448.549302
23.540000	-0.000795	-0.000359	0.000409	0.001064	6527.953331	39846.787729	3740.452964	21427.090084
24.034500	-0.001396	-0.000855	-0.000565	0.000559	6527.119563	39847.528249	3739.365794	21448.789047
24.535000	-0.000855	-0.000637	0.002332	0.000663	6530.897482	39857.217912	3745.857778	21444.313319
25.035000	-0.000265	-0.000996	0.000851	0.000572	6536.806831	39834.359539	3742.622571	21448.240948
25.535500	-0.001896	-0.001045	0.001737	0.000573	6522.681696	39830.198071	3744.681131	21448.223381
26.036000	0.000556	-0.000597	0.000462	0.000974	6540.437315	39834.095481	3740.783176	21430.929636
26.535500	0.001069	-0.000430	0.001973	0.001110	6543.706820	39836.815825	3743.978792	21425.097633
27.036000	0.002169	0.000298	0.006028	-0.001676	6577.615890	40137.648003	3760.027103	21545.249529
27.536500	0.001284	-0.000068	0.003060	-0.000875	6562.865195	40037.442102	3751.154472	21510.623294
28.037000	0.000422	-0.000564	0.003730	0.000122	6546.673748	39909.673355	3750.387599	21467.615910
28.534500	0.001374	-0.000772	0.002384	-0.000920	6564.049614	39981.028659	3749.679097	21512.594177
29.035000	-0.001124	0.000311	0.001874	-0.000314	6537.046265	40021.875388	3747.068991	21486.436815
29.534500	-0.000638	-0.001011	0.001330	-0.001856	6554.670408	40040.752049	3749.401852	21553.056296
30.035500	0.001160	-0.000629	0.004550	-0.001401	6566.379173	40034.488039	3755.892786	21533.362357
30.536000	-0.003121	0.000450	0.001110	0.002781	6493.143841	39769.408633	3738.099291	21353.419105
31.035500	-0.003355	-0.000563	0.001367	0.004359	6477.643125	39549.471988	3735.045672	21285.941161
31.536000	0.000137	0.000069	0.002281	-0.000780	6552.035801	40041.041193	3749.106584	21506.506854
32.037000	0.000176	-0.000500	0.000737	-0.001287	6556.802135	40035.740966	3746.684986	21528.434786
32.536500	0.001389	0.000322	0.001411	-0.000633	6561.675785	40050.226873	3746.734355	21500.201141
33.040000	-0.002951	-0.000708	-0.000003	0.004208	6482.382631	39549.951178	3732.237744	21292.380914
33.537500	-0.000373	0.000282	0.001194	0.000915	6532.900549	39914.247234	3742.622726	21433.499936
34.035000	-0.001989	-0.000781	-0.000958	0.001152	6516.886628	39803.303914	3737.084178	21423.315628
34.535000	-0.000369	-0.001212	0.000759	0.000854	6533.463361	39792.004028	3741.753809	21436.132804
35.035500	-0.001091	-0.000043	0.001079	0.002751	6510.837156	39729.942621	3738.096279	21354.676389
35.536000	-0.000020	0.000177	-0.001118	0.001454	6531.282620	39859.200611	3736.016459	21410.325069
36.036000	-0.002450	-0.000316	0.000992	0.001459	6510.262634	39816.743439	3740.889712	21410.101600
36.536500	-0.000870	-0.000022	0.000954	0.001950	6519.652217	39800.008743	3739.664298	21389.043625
37.036500	-0.001513	-0.000200	0.000803	0.001405	6518.809605	39831.229585	3740.576783	21412.434141
37.540000	-0.000601	-0.000007	0.005896	0.001864	6522.720729	39808.589896	3751.383777	21392.723658
38.037500	-0.002354	-0.000764	-0.001631	0.001109	6514.112096	39808.443520	3735.630578	21425.167631
38.537500	0.001509	0.000122	0.005314	0.001698	6542.427586	39833.649542	3750.406603	21399.828855
39.035000	-0.001653	-0.000382	0.002205	0.001199	6519.371181	39833.274173	3744.311396	21421.263045
39.535500	-0.000419	-0.000232	0.001803	0.001538	6527.111509	39817.223930	3742.589055	21406.726912
40.035500	-0.000842	-0.000712	0.005758	0.001488	6523.885286	39780.580362	3751.941641	21408.867030
40.535500	-0.000058	0.000474	-0.003342	0.001860	6527.446943	39849.894886	3729.961310	21392.886034
41.036500	0.000437	-0.000108	0.002227	0.002123	6529.449320	39777.917514	3742.215052	21381.614883
41.536500	-0.000559	0.000254	0.006314	0.001846	6523.234033	39832.391013	3752.404605	21393.498534
42.037000	-0.002267	-0.000505	0.005140	0.001318	6513.056682	39812.665487	3750.890086	21416.176290
42.534000	0.000242	0.000800	0.001610	0.002612	6523.533448	39813.542605	3739.647171	21360.631779
43.037500	0.000501	-0.000252	0.004847	0.001359	6536.616856	39830.706852	3750.107651	21414.387244
43.538000	0.000704	0.000264	0.002712	-0.002802	6574.649357	40231.671689	3754.864074	21594.042472
44.035000	0.000238	-0.001262	-0.001876	-0.000700	6552.220391	39920.269360	3739.245659	21503.065810
44.535000	0.002601	-0.000523	0.000131	-0.000856	6574.220245	39996.842841	3744.268655	21509.803508
45.036000	-0.001600	-0.000261	-0.004191	0.003809	6497.370932	39621.665811	3723.561815	21309.441620
45.536000	-0.000294	-0.000565	-0.003963	-0.001258	6552.453549	40027.767673	3735.711208	21527.186262
46.036500	0.000424	0.000050	0.003146	0.000441	6543.921846	39934.928908	3748.276898	21453.891742
46.537000	0.001645	0.000432	0.004005	-0.000186	6560.005434	40021.303417	3751.755164	21480.902074
47.039500	-0.001072	-0.001351	0.003936	0.002042	6517.114401	39679.131111	3746.383487	21385.098460
47.537500	-0.000658	-0.000203	-0.003635	0.002081	6520.352680	39773.392268	3728.783302	21383.403990
48.035000	0.001334	-0.000419	0.002931	0.000270	6553.323484	39909.468660	3748.175320	21461.268083
48.535000	0.001524	-0.001152	-0.001476	-0.000943	6565.561068	39950.422726	3740.734788	21513.555196
49.036000	-0.002636	-0.000485	-0.000288	0.003306	6492.806184	39645.316726	3733.659997	21330.953331
49.536000	0.003612	0.000167	0.005448	-0.002251	6595.348040	40175.928747	3760.017188	21570.166815
50.036000	0.001943	0.000101	0.002384	-0.000074	6561.628402	39983.348494	3747.698223	21476.068836
50.536500	0.003444	0.000527	0.005601	0.002228	6554.639083	39823.003567	3749.838445	21377.087240
51.036500	-0.045698	-0.014819	0.008449	0.157040	5136.838403	27821.824139	3449.674266	15793.423338
51.536500	-0.046359	-0.013635	-0.005464	0.002798	6140.322878	38588.246406	3722.962999	21352.660955
52.037000	-0.042055	-0.023147	-0.010595	-0.162107	7745.340088	53983.627093	4163.104510	29941.784791
52.534500	-0.045782	-0.064910	-0.011508	-0.282716	9281.414176	64172.704587	4616.867793	38644.203544
53.035000	-0.028934	-0.105288	-0.002145	-0.332628	10363.157587	65535.000000	4892.337029	43015.103257
53.535500	-0.022535	-0.089260	-0.002326	-0.316601	10196.701649	65535.000000	4813.239104	41556.433392
54.035500	-0.014319	-0.051554	-0.002280	-0.267754	9533.529252	63946.215594	4592.165551	37428.886956
54.535500	-0.014903	-0.037594	-0.004387	-0.243928	9163.949386	62572.826803	4484.408765	35577.919624
55.036000	-0.008214	-0.029285	-0.008694	-0.232304	9091.710919	62118.293252	4421.330077	34711.030397
55.536500	-0.006743	-0.018872	-0.015122	-0.206913	8753.008272	60107.444725	4302.067331	32896.335096
56.037000	-0.000355	-0.015122	-0.016106	-0.199003	8732.087351	59561.084916	4270.266337	32352.330672
56.540000	0.004855	-0.012266	-0.008202	-0.193392	8726.582261	59202.157587	4278.403045	31972.426692
57.035000	0.004380	-0.009555	-0.008768	-0.176797	8497.067106	57427.654251	4218.537187	30877.117124
57.534500	0.004580	-0.006455	-0.012928	-0.164069	8334.259141	56229.910332	4161.887445	30064.908286
58.035000	0.002658	-0.006689	-0.012378	-0.148195	8110.915942	54284.512372	4112.354272	29084.747697
58.538000	0.001647	-0.005365	-0.013662	-0.135895	7949.733565	52999.624711	4069.880621	28349.483060
59.035000	-0.000786	-0.004966	-0.011578	-0.126603	7811.809525	51982.204334	4047.881939	27807.737749
59.535500	-0.002248	-0.002869	-0.008826	-0.106863	7571.652382	50024.346580	3997.447178	26694.547019
60.036500	-0.002128	-0.002310	-0.015598	-0.097876	7474.634143	49116.721407	3952.392270	26204.246596
60.536500	-0.007514	-0.002105	-0.017955	-0.091716	7351.244044	48485.939849	3928.716348	25874.009555
61.037000	-0.010075	-0.005363	-0.015003	-0.093915	7347.421905	48374.632037	3942.981313	25991.367378
61.537000	-0.013636	-0.005398	-0.016347	-0.089558	7264.756625	47916.085847	3927.204377	25759.417343
62.037000	-0.010109	-0.004359	-0.016094	-0.117718	7604.853379	51053.669373	4007.932912	27300.426518
62.535000	-0.016926	-0.006720	-0.015210	-0.112809	7476.094361	50252.582540	3996.170897	27024.525348
63.049500	-0.011507	-0.005201	-0.013063	-0.115514	7564.931647	50716.353883	4010.361568	27176.152042
63.534500	-0.008716	-0.006090	-0.012805	-0.121927	7667.606462	51329.718544	4030.132030	27539.445593
64.035500	-0.007309	-0.004072	-0.018318	-0.122038	7684.748181	51568.251385	4014.100915	27545.782437
64.536000	-0.005970	-0.003861	-0.018427	-0.125771	7742.463182	52013.130209	4024.833149	27759.787938
65.036500	-0.003447	-0.004047	-0.016963	-0.126750	7782.715308	52103.101779	4032.119583	27816.218804
65.535500	-0.000676	-0.002138	-0.014952	-0.124749	7791.604136	52092.572900	4032.149415	27701.012313
66.034000	-0.002832	-0.002553	-0.012839	-0.121300	7727.236238	51656.068684	4028.158970	27503.697985
66.537000	0.000850	-0.001886	-0.012236	-0.120326	7758.226059	51621.479502	4027.053778	27448.255597
67.034500	-0.000192	-0.001548	-0.018586	-0.116849	7706.613743	51269.865476	3998.106689	27251.352228
67.535000	0.000328	-0.001288	-0.016488	-0.115005	7691.581271	51093.433154	3998.845470	27147.558030
68.034500	-0.000263	-0.000114	-0.016252	-0.108840	7615.636824	50541.657651	3981.683909	26803.778659
68.535500	0.001533	0.000079	-0.014306	-0.107425	7619.889508	50407.473411	3983.211959	26725.550197
69.035500	-0.001207	-0.000089	-0.020396	-0.104415	7556.122960	50060.384522	3957.291671	26559.997733
69.536000	0.000388	-0.000024	-0.015439	-0.102082	7547.993985	49814.274594	3964.710410	26432.466517
70.036500	-0.000038	0.000013	-0.010879	-0.096518	7482.568400	49219.771946	3961.867091	26131.055558
70.539500	0.000275	0.000690	-0.013384	-0.096355	7484.192455	49274.742306	3954.341592	26122.284379
71.037500	0.000333	0.000897	-0.009289	-0.092996	7448.499444	48938.524339	3956.410515	25942.225501
71.537000	0.001382	0.001669	-0.016259	-0.091439	7443.032102	48855.277165	3932.629107	25859.244447
72.037500	0.000431	0.001250	-0.015063	-0.087606	7391.862980	48406.539749	3925.367461	25656.258024
72.537500	0.000704	0.001759	-0.015206	-0.088191	7401.007397	48521.625274	3926.583786	25687.136871
73.035000	0.000452	0.001276	-0.018380	-0.087811	7394.265219	48430.840345	3916.856974	25667.065243
73.535000	-0.002000	0.000766	-0.017008	-0.087113	7360.856558	48304.106884	3918.695008	25630.269416
74.036000	-0.002625	0.000528	-0.010720	-0.084214	7323.774576	47976.596084	3927.981699	25478.098618
74.535500	-0.003168	0.000356	-0.012469	-0.085634	7332.974232	48106.676975	3927.078613	25552.527777
75.036500	-0.001224	-0.000459	-0.016429	-0.086098	7358.329464	48069.947786	3917.505141	25576.864298
75.536500	-0.001312	0.002200	-0.013373	-0.083916	7334.423431	48119.773120	3919.890745	25462.504009
76.034000	-0.002806	-0.000336	-0.017453	-0.083143	7310.669626	47775.851392	3906.705738	25422.152169
76.535000	-0.003453	0.000674	-0.017205	-0.084079	7313.692336	47977.817754	3909.909685	25471.046456
77.035000	-0.002774	0.000587	-0.013816	-0.083308	7312.728180	47888.557628	3917.023310	25430.749996
77.535500	-0.002897	0.001019	-0.014832	-0.080745	7284.723667	47667.922614	3907.308375	25297.339614
78.035500	-0.004917	0.000998	-0.014499	-0.079645	7252.418988	47552.201672	3905.235166	25240.296729
78.536000	-0.003459	0.000950	-0.014498	-0.077953	7250.000741	47373.280141	3900.678973	25152.861126
79.036500	-0.004737	0.000385	-0.016753	-0.076876	7225.776468	47205.073177	3891.756078	25097.374638
79.536000	-0.004743	0.000160	-0.015636	-0.075966	7216.401314	47089.182733	3892.310327	25050.646490
80.039500	-0.005453	0.000505	-0.012070	-0.074392	7193.074892	46963.994089	3897.638058	24969.961943
80.537000	-0.004025	0.000977	-0.014826	-0.072648	7189.862305	46834.909336	3885.634053	24880.937604
81.034500	-0.005303	-0.000140	-0.013416	-0.071456	7164.813998	46601.360204	3886.214381	24820.310853
81.537500	-0.005815	-0.000796	-0.013079	-0.071350	7158.554096	46524.608541	3886.825951	24814.897635
82.035000	-0.005859	0.000627	-0.014444	-0.068612	7130.550423	46392.439153	3875.980037	24676.293197
82.535500	-0.006480	-0.000608	-0.009674	-0.067826	7116.447126	46189.962473	3886.510320	24636.638054
83.036000	-0.006252	-0.000737	-0.005056	-0.066828	7108.758281	46077.563344	3896.165007	24586.439687
83.536000	-0.007982	-0.000828	-0.016707	-0.064567	7069.071288	45843.765131	3859.499557	24473.049493
84.036000	-0.006987	-0.000687	-0.012709	-0.063832	7071.642356	45784.978057	3867.993743	24436.322915
84.536500	-0.009854	-0.001149	-0.012577	-0.061839	7023.801782	45542.749132	3863.144917	24337.099704
85.037000	-0.009030	-0.000776	-0.011665	-0.059936	7013.237860	45392.417437	3860.566742	24242.705462
85.537500	-0.009768	-0.001578	-0.010942	-0.060007	7006.733682	45320.815232	3862.629881	24246.237829
86.034500	-0.010946	-0.001252	-0.013643	-0.056163	6958.043678	44977.767693	3845.736924	24056.858320
86.535000	-0.011149	-0.001671	-0.011948	-0.057628	6970.220193	45079.368356	3853.861083	24128.810038
87.035000	-0.009941	-0.001595	-0.012449	-0.056006	6966.219838	44929.157657	3848.396314	24049.162581
87.535500	-0.010818	-0.002998	-0.009957	-0.057042	6967.758565	44893.620512	3857.493894	24100.030249
88.035000	-0.012379	-0.002746	-0.009700	-0.053229	6916.157860	44549.891633	3848.325617	23913.443029
88.535500	-0.012070	-0.001361	-0.010324	-0.053775	6924.318506	44735.901813	3848.124113	23940.049316
89.036500	-0.011611	-0.001620	-0.012596	-0.053305	6924.217565	44665.574013	3841.106575	23917.133953
89.539000	-0.012396	-0.002443	-0.008043	-0.053246	6916.148720	44580.599886	3852.629662	23914.258308
90.037000	-0.013059	-0.002655	-0.012731	-0.050248	6881.367640	44272.994441	3832.995636	23768.723986
90.537500	-0.012905	-0.002159	-0.012088	-0.052137	6900.741880	44501.371741	3839.425186	23860.309543
91.034500	-0.013381	-0.002761	-0.011681	-0.051933	6894.276932	44424.054334	3839.941495	23850.407604
91.535000	-0.013276	-0.002274	-0.010415	-0.051104	6887.405748	44391.237533	3841.056087	23810.158094
92.035000	-0.014483	-0.002949	-0.003144	-0.047906	6845.873893	44021.995799	3851.493656	23655.685291
92.535500	-0.014412	-0.001934	-0.013684	-0.049494	6861.466854	44269.795529	3828.678216	23732.246533
93.036000	-0.016374	-0.003171	-0.005036	-0.050277	6850.379400	44226.449081	3852.728606	23770.105138
93.751000	-0.013064	-0.002763	-0.006821	-0.049062	6870.096386	44149.595959	3845.019781	23711.381104
94.512000	-0.017809	-0.004357	-0.014448	-0.046267	6799.559595	43733.797550	3818.658235	23576.966211
95.901000	-0.013560	-0.003592	-0.011073	-0.048479	6859.929905	44015.375336	3832.712091	23683.285799
96.004000	-0.013096	-0.002883	-0.011413	-0.048271	6862.345781	44062.953491	3831.324988	23673.263026
96.106500	-0.014894	-0.003949	-0.006267	-0.048783	6850.252815	44010.360480	3845.725580	23697.948120
96.194000	-0.013103	-0.002910	-0.010912	-0.047890	6858.693854	44024.208425	3831.629276	23654.936643
96.535000	-0.015099	-0.003583	-0.008964	-0.047214	6833.618620	43896.315789	3834.851642	23622.419936
97.035000	-0.014029	-0.003480	-0.008285	-0.048037	6851.363419	43984.100679	3838.668606	23661.991753
97.535500	-0.013213	-0.003543	-0.006254	-0.048121	6859.834893	43986.130674	3844.065363	23666.053270
98.036000	-0.013173	-0.002243	-0.007427	-0.046689	6846.750399	43973.561272	3837.423362	23597.235319
98.536000	-0.014251	-0.002418	-0.010532	-0.044914	6820.059656	43789.075913	3825.082672	23512.186016
