sample name	sample
index	300
start time	 02-25-2021  02:04:31 PM
880	-0.019718
Peak Time (s)	92.537
Peak Height 	-0.01972
calc peak height	90,93
Baseline Time (s)	11.537
Baseline Value 	-0.004981
subtract baseline	10,4
Abs	-0.006389
Peak Time (s)	90.035
Peak Height 	-0.006389
calc peak height	90,93
Baseline Time (s)	9.536
Baseline Value 	0.001533
subtract baseline	10,3
PK_550	-0.003250
Peak Time (s)	91.535
Peak Height 	-0.00325
calc peak height	90,93
Baseline Time (s)	11.537
Baseline Value 	-2.1687E-4
subtract baseline	10,2
PK_880	-0.009355
Peak Time (s)	90.035
Peak Height 	-0.009355
calc peak height	90,93
Baseline Time (s)	10.536
Baseline Value 	0.002359
subtract baseline	10,1


Time (s)	A880-A510	A880-A775	A880-A975	A880	I510	I775	I975	I880	
0.035500	-0.002770	0.000247	0.003551	0.002185	6823.556935	45547.193097	4002.230867	24086.112001
0.536000	-0.003901	-0.000425	0.001413	0.003201	6804.390260	45381.917233	3994.371921	24036.650276
1.036000	-0.004061	0.000134	-0.005352	0.006445	6774.223287	45120.463890	3969.808525	23879.588911
1.537000	-0.001903	-0.000310	0.003745	0.001532	6837.178153	45556.607459	4004.350210	24117.945399
2.036500	-0.000927	-0.000352	-0.002371	0.001630	6845.067151	45542.821770	3988.893707	24113.164745
2.537000	-0.002345	-0.000782	0.001657	0.000802	6839.766069	45581.941052	4000.955568	24153.607549
3.037000	-0.004640	-0.000330	-0.000696	0.005626	6776.343898	45154.987209	3983.174914	23919.138106
3.535000	-0.002492	0.000233	-0.002028	0.000399	6842.052445	45721.227599	3992.785276	24173.277149
4.037500	-0.000307	-0.000023	0.001217	-0.000263	6867.729672	45761.288269	4002.516375	24205.715920
4.534500	-0.002190	0.000896	-0.001049	0.004384	6809.093302	45395.406654	3985.359996	23979.233125
5.035500	0.000920	0.000159	-0.002867	-0.000110	6877.462001	45764.238449	3991.970239	24198.234295
5.536000	0.000756	0.000935	0.001282	0.000836	6867.403922	45747.345695	3999.932416	24151.911179
6.036000	0.000491	0.000679	0.000126	0.000375	6869.182034	45767.637515	3998.200831	24174.475141
6.536500	-0.003734	0.000393	-0.001576	0.003707	6801.383805	45412.471585	3985.732881	24012.105776
7.036500	-0.000602	0.000172	-0.000336	0.000035	6862.369794	45751.073419	3997.895115	24191.091528
7.540000	-0.001582	0.000544	0.000216	0.000796	6846.675199	45712.925080	3997.376258	24153.910519
8.037500	0.000136	-0.000409	-0.000255	-0.000632	6875.091680	45759.622400	3999.762843	24223.820064
8.535000	-0.000934	-0.000243	-0.000297	-0.000360	6862.943278	45749.228545	3998.977172	24210.465107
9.035000	-0.001195	0.000723	-0.002556	0.000246	6855.118016	45784.675967	3991.859193	24180.791562
9.535500	-0.001326	-0.000072	0.000000	-0.000144	6857.452417	45744.760520	3999.179589	24199.877058
10.035500	0.000587	0.000393	0.002232	0.000210	6871.536445	45755.638253	4003.871391	24182.527360
10.536000	0.000000	0.000771	0.004882	0.000892	6860.068200	45725.744221	4008.814360	24149.203202
11.036000	0.001514	-0.000812	-0.001701	-0.000902	6890.045148	45746.475901	3996.829961	24237.038307
11.536500	0.000216	0.000000	0.000243	0.000000	6870.087740	45737.652461	3999.427519	24192.828264
12.039500	-0.000450	0.000034	0.002321	-0.000496	6868.545109	45789.948344	4005.866984	24217.133172
12.537000	-0.002931	0.000638	-0.000090	0.004631	6800.308628	45346.126375	3987.116524	23967.291145
13.034500	-0.003491	-0.000026	-0.000564	0.003633	6804.201026	45378.793431	3988.408727	24015.693974
13.535000	-0.000590	-0.000428	0.000552	0.000033	6862.498700	45692.285136	4000.114985	24191.203427
14.038000	-0.000500	0.000583	0.001224	0.000634	6857.880245	45732.637990	4000.293578	24161.816248
14.535000	-0.002927	0.000742	-0.005385	0.004597	6800.644852	45359.606917	3974.221672	23968.939865
15.035500	0.001052	0.000508	0.000495	0.001074	6867.933927	45681.934440	3997.378513	24140.316031
15.546500	-0.001410	-0.000259	-0.001269	0.000163	6853.918972	45696.099068	3995.257586	24184.840806
16.036000	-0.000335	0.000368	0.005102	0.000587	6859.788844	45716.022972	4010.132487	24164.083907
16.539500	-0.001728	0.000210	-0.000149	0.003795	6818.472855	45385.969075	3989.031883	24007.798624
17.037000	-0.000602	0.000608	0.001473	0.001086	6852.889251	45690.559556	3999.787476	24139.724795
17.537500	-0.001743	-0.000008	-0.001771	0.000579	6847.174521	45679.874067	3992.978965	24164.506719
18.037500	0.002092	0.001144	0.002040	-0.002448	6909.423044	46093.019937	4010.068400	24313.056683
18.535000	-0.001276	0.000330	-0.002007	0.002484	6834.261029	45526.019507	3987.683253	24071.546388
19.038500	-0.001527	-0.000148	0.003266	0.002135	6835.139215	45513.359010	4001.643327	24088.537614
19.538500	-0.001184	0.000455	-0.003859	0.001665	6842.432594	45618.575098	3985.138059	24111.446447
20.036000	-0.001847	0.000320	0.001988	0.001440	6838.500966	45627.461197	4000.187111	24122.411260
20.536500	-0.002911	-0.000079	-0.002633	0.002098	6823.064975	45523.737356	3987.089549	24090.323139
21.036500	-0.000360	0.000012	-0.002462	0.001252	6853.578894	45615.682541	3989.604085	24131.631448
21.537000	-0.001943	0.000098	0.000715	0.000834	6843.081475	45665.171050	3998.524347	24152.031953
22.037000	-0.000645	-0.000136	0.002287	0.000973	6853.518369	45628.513676	4002.100594	24145.232107
22.537500	-0.000592	0.001196	-0.002633	0.004193	6825.077381	45443.444207	3981.938983	23988.520937
23.035000	-0.001227	0.000692	0.000899	0.001021	6847.841881	45705.266931	3998.515258	24142.885277
23.535500	-0.000765	0.000604	0.000188	0.001791	6845.075946	45620.926262	3994.832406	24105.323119
24.035500	-0.001529	-0.000193	-0.001434	0.000900	6846.218961	45630.121317	3993.020072	24148.825873
24.536000	0.000397	0.000425	0.000839	0.001315	6859.833757	45650.065491	3997.635084	24128.522442
25.036000	-0.002701	0.000316	0.001054	0.001250	6832.548977	45645.779346	3998.331639	24131.719617
25.536500	-0.001546	-0.000014	0.000983	0.000691	6847.942822	45668.301462	3999.549616	24159.019805
26.037000	-0.002678	0.000809	0.007205	0.001378	6831.606906	45681.620375	4013.445759	24125.467390
26.536500	-0.002590	-0.000026	-0.001056	0.002735	6820.248594	45466.491876	3989.410172	24059.321387
27.038000	-0.000445	0.000216	-0.000695	0.001019	6854.908179	45658.652851	3994.556453	24143.003584
27.534500	-0.001260	-0.000668	-0.002900	0.000252	6854.469778	45647.104819	3990.991704	24180.491778
28.035000	0.000783	0.000407	0.002712	-0.000949	6883.827341	45871.400211	4007.984071	24239.326748
28.535500	0.000396	0.000922	-0.000075	0.000401	6868.077458	45788.938473	3997.634189	24173.185192
29.035500	-0.001448	0.000134	0.003788	0.000219	6853.075175	45729.268312	4007.753114	24182.083705
29.536000	0.000095	-0.000669	-0.002987	-0.000343	6872.091944	45705.554116	3992.249739	24209.618308
30.039000	-0.000603	-0.000105	0.000857	0.000187	6860.992484	45708.960781	4000.493722	24183.682521
30.539000	-0.001625	-0.000226	0.000333	0.000056	6852.946070	45709.829257	3999.511522	24190.066680
31.037000	-0.002992	-0.000408	-0.002583	0.003313	6811.499741	45372.710148	3984.222562	24031.231704
31.559000	-0.002357	0.001250	0.000741	0.000684	6840.710561	45793.420305	3998.962300	24159.365760
32.037000	-0.002348	-0.000274	0.003586	0.002100	6828.087542	45504.378776	4002.531850	24090.237560
32.537500	-0.002643	-0.000035	0.001776	0.000741	6837.630932	45661.282979	4001.404710	24156.575243
33.049500	-0.001265	-0.000284	0.000386	0.001489	6843.288151	45563.400446	3996.074432	24120.045175
33.535500	-0.000239	0.000702	0.003373	0.000547	6861.026279	45752.949971	4005.887348	24166.051842
34.035500	-0.000920	0.000510	0.000799	0.000285	6857.244754	45759.874849	4000.102281	24178.881590
34.536500	-0.003294	-0.000288	-0.001836	0.004206	6800.855382	45297.232707	3983.864189	23987.884225
35.039000	-0.001955	-0.000072	0.005651	0.003637	6817.867502	45373.888861	4003.853059	24015.501940
35.536500	-0.001922	-0.000156	0.001203	0.001479	6837.481225	45576.962250	3998.133129	24120.543103
36.037000	-0.002017	0.000161	0.005880	0.001402	6837.315114	45615.535214	4010.041581	24124.273369
36.534500	-0.001087	-0.000301	0.000137	0.001141	6848.021283	45595.819172	3996.321466	24137.024487
37.034500	-0.000338	-0.000046	-0.001858	0.002361	6843.791425	45501.183617	3988.355760	24077.548711
37.535000	0.000512	0.000244	0.002552	0.001537	6858.862831	45610.441421	4001.353240	24117.677112
38.035000	-0.000408	-0.000323	-0.000094	0.001027	6855.166783	45604.936938	3996.029727	24142.612537
38.535500	-0.002424	-0.000016	-0.000907	0.001664	6831.319744	45572.509551	3992.431774	24111.503904
39.036000	0.000239	-0.000202	-0.001867	0.001898	6853.146125	45531.256032	3989.474862	24100.092634
39.536500	-0.002733	0.000600	0.008806	0.001991	6825.626457	45600.901210	4015.943614	24095.575157
40.036500	-0.002617	0.000161	0.001846	0.001241	6833.379780	45631.435639	4000.328815	24132.148721
40.536500	-0.001373	-0.000143	0.001470	0.001566	6841.626544	45569.647134	3998.580705	24116.287987
41.037000	-0.003019	-0.000199	0.001936	0.001144	6830.639587	45605.478715	4000.795910	24136.865120
41.537500	-0.000592	0.000162	0.000383	0.001278	6851.242615	45627.844476	3996.590741	24130.325230
42.035000	-0.001331	0.000051	0.003885	0.001657	6841.187946	45579.787111	4004.388751	24111.850431
42.535500	-0.002462	0.000291	0.003360	0.003375	6815.667986	45434.845402	3998.782054	24028.186008
43.035500	-0.001358	-0.000414	0.000119	0.001044	6846.461754	45594.259231	3996.516808	24141.775690
43.535500	-0.002339	-0.000107	0.001631	0.001340	6834.979082	45595.322367	3999.546759	24127.302339
44.036000	-0.002335	0.000202	0.002594	0.001599	6832.697647	45600.289560	4001.305007	24114.693800
44.536000	-0.001310	-0.000083	0.000467	0.002581	6833.081649	45476.012129	3993.564475	24066.826323
45.036500	-0.000661	0.000138	-0.001168	0.001511	6848.525793	45602.577552	3992.162430	24118.952467
45.537000	0.000081	0.000383	0.005458	0.000136	6867.637328	45762.058892	4012.170460	24186.188145
46.037500	-0.000849	-0.000939	0.001171	-0.000673	6866.531814	45711.391286	4003.425779	24225.783906
46.561000	-0.003254	0.000354	-0.002689	0.003902	6803.916729	45389.567984	3982.515559	24002.638892
47.035000	-0.000435	-0.000299	0.002775	0.000026	6863.960944	45705.630838	4005.693951	24191.539971
47.535500	-0.001524	-0.000146	0.002491	-0.000120	6855.453154	45735.114948	4005.349245	24198.729122
48.035500	0.000770	0.000564	0.005191	0.000765	6868.175139	45717.836901	4009.910997	24155.403119
48.535500	-0.003411	-0.000440	0.001983	0.003292	6807.947817	45371.592464	3995.561874	24032.233899
49.039000	-0.001015	0.000188	-0.001817	0.001858	6842.219594	45573.466540	3989.697849	24102.057742
49.536000	-0.003046	0.000121	0.001976	0.001937	6823.306138	45559.117688	3998.917148	24098.195331
50.036500	-0.001033	-0.000309	0.003130	0.000415	6855.046967	45666.324220	4005.609500	24172.507505
50.537000	-0.002183	0.000329	0.000974	0.004868	6804.848721	45292.861326	3989.156217	23955.787924
51.034500	-0.001648	-0.000518	-0.002665	0.000754	6846.457110	45612.527007	3990.329491	24155.924418
51.535000	-0.000494	0.000412	0.005455	-0.000630	6869.366821	45840.483967	4014.098505	24223.721699
52.035500	0.001153	0.000084	0.001261	-0.002149	6898.111473	45958.193724	4007.354081	24298.301473
52.535000	-0.004629	-0.000299	0.003907	0.006481	6768.883913	45074.963484	3992.422393	23877.831210
53.036000	-0.011957	-0.015350	0.006447	0.039311	6430.619520	40678.256867	3919.920645	22352.490668
53.538500	-0.037937	-0.034053	0.007984	-0.079458	7262.328397	50452.603593	4240.292568	28462.221070
54.036500	-0.026987	-0.024806	0.011374	-0.074180	7319.160617	50888.624719	4234.546646	28153.760324
54.536500	-0.022583	-0.015769	-0.007437	-0.074353	7365.574669	51916.000172	4179.168538	28163.816251
55.036500	-0.028095	-0.016948	-0.003496	-0.091114	7481.717784	53704.487502	4240.827813	29156.789356
55.537500	-0.020615	-0.013437	-0.010284	-0.098308	7637.840537	54970.904723	4242.067050	29594.891741
56.037500	-0.010637	-0.016175	-0.008630	-0.137352	8199.340717	59506.112048	4372.323197	32103.480681
56.535000	-0.007642	-0.013491	-0.005840	-0.130799	8156.414555	59004.547336	4359.760210	31666.524934
57.035000	-0.003189	-0.011342	-0.007277	-0.116006	8033.657032	57396.268814	4306.808416	30704.080635
57.535500	-0.002037	-0.010127	-0.003962	-0.106746	7939.431310	56397.209361	4287.902740	30118.122333
58.038500	-0.005245	-0.009902	-0.003311	-0.092190	7739.013088	54662.366112	4244.678138	29221.851830
58.536000	-0.005539	-0.008938	-0.004314	-0.072428	7522.389932	52472.157585	4182.657545	28052.207405
59.036000	-0.006991	-0.008006	-0.004633	-0.059299	7371.050262	51100.829588	4144.039623	27303.986861
59.536500	-0.008482	-0.008848	-0.003145	-0.046724	7229.804196	49636.264495	4113.092519	26608.298469
60.037000	-0.009674	-0.007447	-0.003228	-0.038619	7138.922833	48921.160835	4090.737495	26170.438892
60.534500	-0.009124	-0.003287	-0.004936	-0.024836	7012.882020	47913.914475	4049.583176	25444.388645
61.034500	-0.008272	-0.005222	-0.004962	-0.031325	7082.327032	48387.846304	4066.573201	25783.330150
61.535000	-0.004368	-0.007089	-0.004268	-0.048312	7286.515464	49997.339172	4114.374428	26695.034695
62.035500	-0.009442	-0.007446	-0.013252	-0.023356	6996.058541	47334.016498	4024.303620	25367.805201
62.536000	-0.007288	-0.006810	-0.007281	-0.040621	7181.576112	49201.340326	4085.204732	26277.864035
63.036000	-0.010771	-0.005408	-0.006128	-0.029855	7044.639500	48214.897662	4059.613898	25706.109536
63.536500	-0.008102	-0.007772	-0.006287	-0.033690	7106.585940	48368.527971	4069.333274	25908.168513
64.040500	-0.006756	-0.001723	-0.011307	-0.040042	7181.111870	49683.868102	4072.873751	26246.724477
64.556500	-0.007205	-0.001741	-0.009877	-0.042866	7204.375840	49986.728957	4084.259713	26398.847143
65.037000	-0.009645	-0.002616	-0.013961	-0.039896	7151.578462	49572.270157	4065.440880	26238.903000
65.534500	-0.009273	-0.003719	-0.012093	-0.039740	7153.671997	49437.239964	4069.980615	26230.523441
66.035000	-0.009897	-0.003490	-0.012097	-0.038116	7131.914442	49288.185420	4065.662524	26143.541154
66.535000	-0.012890	-0.003555	-0.009263	-0.032557	7050.159956	48692.170311	4058.474140	25848.291402
67.035500	-0.009508	-0.003121	-0.008224	-0.036421	7119.318350	49146.993463	4071.441428	26053.098332
67.536000	-0.008882	-0.003353	-0.009231	-0.037131	7132.194538	49197.839929	4070.650954	26090.940033
68.036000	-0.009284	-0.003573	-0.011985	-0.038373	7140.318473	49306.833747	4066.640972	26157.288455
68.536000	-0.010073	-0.002777	-0.011598	-0.034171	7092.308873	48944.661236	4056.577424	25933.607793
69.037000	-0.008301	-0.003211	-0.009603	-0.040218	7167.768821	49542.944471	4077.893355	26256.200869
69.537000	-0.008312	-0.003190	-0.009919	-0.042119	7186.212255	49749.597176	4082.140526	26358.547017
70.037000	-0.009284	-0.002999	-0.013252	-0.042851	7183.867429	49849.230558	4075.180310	26398.085893
70.537500	-0.013969	-0.003485	-0.009850	-0.039397	7105.056798	49425.646814	4075.040792	26212.151247
71.035000	-0.008803	-0.002191	-0.014294	-0.043392	7193.864933	49994.971326	4073.840786	26427.309374
71.535500	-0.004474	-0.001998	-0.008843	-0.043772	7240.252206	50057.071425	4089.489394	26447.889157
72.038500	-0.006470	-0.002558	-0.007730	-0.044884	7231.511011	50117.031352	4095.515177	26508.185687
72.536000	-0.007924	-0.002949	-0.012612	-0.040843	7177.529511	49638.119697	4071.531507	26289.764680
73.036500	-0.008373	-0.002698	-0.004826	-0.044393	7207.906222	50048.553279	4102.085965	26481.527572
73.536500	-0.007844	-0.001354	-0.007691	-0.042835	7197.814891	50025.436944	4090.071443	26397.213943
74.037000	-0.005903	-0.002652	-0.008228	-0.043512	7223.559956	49958.172502	4090.448304	26433.826076
74.537000	-0.010148	-0.002382	-0.010707	-0.037456	7123.126259	49336.079655	4067.597713	26108.310063
75.037500	-0.009140	-0.003320	-0.005528	-0.041749	7174.503885	49695.644707	4092.983738	26338.552154
75.534000	-0.007034	-0.003294	-0.010168	-0.040800	7185.808885	49596.478998	4077.935959	26287.453044
76.035500	-0.007170	-0.003766	-0.006043	-0.040337	7179.956800	49496.245319	4087.775694	26262.610599
76.538000	-0.009855	-0.001845	-0.008859	-0.033478	7087.776241	48969.995891	4061.965024	25896.941102
77.036000	-0.009579	-0.003800	-0.008753	-0.038343	7137.173280	49279.372106	4075.153714	26155.665963
77.536000	-0.006237	-0.002232	-0.003716	-0.035759	7144.507223	49171.123678	4081.717445	26017.895272
78.036000	-0.009906	-0.004683	-0.012641	-0.036589	7117.107470	48998.875016	4060.195276	26062.048193
78.536500	-0.012342	-0.003175	-0.007000	-0.029269	7024.291173	48386.819771	4055.778980	25675.382747
79.037000	-0.007319	-0.002886	-0.004657	-0.033085	7108.298980	48818.382887	4072.055477	25876.155234
79.537500	-0.009009	-0.003497	-0.011151	-0.032792	7089.299751	48722.972918	4054.134635	25860.693374
80.035000	-0.010077	-0.004175	-0.014141	-0.032689	7078.127857	48640.758485	4046.058777	25855.248415
80.535000	-0.009345	-0.003425	-0.002730	-0.030396	7063.273453	48478.688876	4070.030656	25734.498973
81.036000	-0.006643	-0.003673	-0.005287	-0.030350	7088.572755	48447.861915	4063.135061	25732.077661
81.535500	-0.009950	-0.004384	-0.005445	-0.030752	7060.919338	48415.646638	4063.782333	25753.235894
82.036000	-0.008840	-0.004622	-0.003556	-0.030337	7067.517343	48347.323766	4067.681854	25731.424436
82.536000	-0.009892	-0.005321	-0.009122	-0.030327	7057.430756	48273.322880	4052.994498	25730.909453
83.036500	-0.009112	-0.004584	-0.006377	-0.029110	7053.293489	48223.248265	4057.001536	25667.099055
83.537000	-0.009483	-0.004697	-0.011520	-0.029111	7049.783464	48211.449523	4043.573023	25667.126038
84.037000	-0.007132	-0.004249	-0.006817	-0.028162	7063.076956	48159.327664	4053.357313	25617.472273
84.537000	-0.007198	-0.004153	-0.009555	-0.027807	7059.079120	48132.350029	4045.289425	25598.946188
85.037500	-0.010927	-0.004865	-0.007177	-0.028260	7028.118747	48105.423481	4052.672928	25622.600721
85.535000	-0.008399	-0.003941	-0.005643	-0.027347	7043.360266	48106.658719	4054.301350	25574.972860
86.035500	-0.010460	-0.005204	-0.007383	-0.027863	7028.781413	48029.044313	4051.098229	25601.889158
86.536000	-0.013089	-0.004731	-0.005709	-0.025304	6980.216610	47813.098151	4048.785938	25468.683113
87.036000	-0.010501	-0.004783	-0.006913	-0.026891	7019.251560	47971.851678	4049.786178	25551.178123
87.535500	-0.011392	-0.004656	-0.007644	-0.026953	7011.469136	47991.457946	4048.039050	25554.407489
88.039000	-0.009509	-0.005056	-0.007606	-0.026798	7027.700455	47933.978420	4047.736793	25546.349338
88.537000	-0.011419	-0.004067	-0.012149	-0.023590	6979.800047	47704.742550	4027.719296	25379.876226
89.037500	-0.009720	-0.004801	-0.009401	-0.026082	7018.987472	47886.154682	4041.211983	25509.076372
89.535000	-0.009273	-0.003189	-0.009867	-0.025313	7015.965997	47973.494933	4038.018243	25469.131885
90.035000	-0.009355	-0.003836	-0.006389	-0.025488	7016.835141	47924.591908	4047.492237	25478.205017
90.538000	-0.012772	-0.005639	-0.009945	-0.023046	6962.189541	47487.238315	4031.977656	25351.780318
91.035500	-0.011056	-0.004099	-0.014152	-0.024888	6995.288856	47835.373549	4025.917617	25447.079719
91.535500	-0.012389	-0.003250	-0.011805	-0.024196	6976.421695	47851.640591	4030.155612	25411.243851
92.036000	-0.012167	-0.003721	-0.011263	-0.024586	6982.111671	47843.213083	4032.548069	25431.426630
92.536500	-0.013902	-0.003413	-0.010758	-0.019718	6921.101127	47374.298032	4021.386970	25180.569805
93.036500	-0.013385	-0.003383	-0.011939	-0.023973	6965.094610	47814.727544	4029.238325	25399.675535
93.537000	-0.012208	-0.003281	-0.010868	-0.023798	6974.400445	47807.241480	4031.537758	25390.641781
94.037500	-0.011541	-0.003212	-0.015319	-0.023205	6975.086481	47753.076278	4018.657400	25359.965920
94.535000	-0.012681	-0.003865	-0.012334	-0.020309	6937.749453	47388.550405	4018.884983	25210.900675
95.038000	-0.011225	-0.002869	-0.003665	-0.022551	6971.949341	47721.078624	4046.938728	25326.237954
95.535000	-0.009996	-0.003525	-0.012573	-0.022760	6985.318527	47675.035910	4024.515194	25336.997765
96.064500	-0.010323	-0.003491	-0.008850	-0.022664	6981.381760	47668.608477	4033.809838	25332.048206
96.536000	-0.012265	-0.003775	-0.010209	-0.020246	6941.012091	47391.423130	4024.133823	25207.682559
97.035500	-0.007393	-0.002074	-0.008160	-0.021416	6997.074231	47686.060037	4032.376980	25267.784223
97.536500	-0.010714	-0.002497	-0.004876	-0.021231	6964.443604	47623.502355	4040.368387	25258.270475
98.036000	-0.009222	-0.002364	-0.010336	-0.021214	6978.141999	47635.421819	4026.281258	25257.394737
98.537000	-0.011909	-0.002596	-0.009476	-0.017756	6921.385818	47257.331487	4019.659293	25080.265471
99.040500	-0.008361	-0.002948	-0.006838	-0.020820	6982.481691	47534.845438	4034.241783	25237.102855
99.538000	-0.011295	-0.002416	-0.004443	-0.020227	6949.771517	47528.587104	4038.890689	25206.661439
