sample name	sample
index	1311
start time	 04-29-2021  04:21:18 PM


Wavelength (nm)	Absorbance
494.344910	-0.390012
494.563924	-0.390012
494.782919	-0.390012
495.001897	NaN
495.220856	-0.104342
495.439797	-0.100044
495.658719	-0.133554
495.877624	-0.212871
496.096510	-0.265400
496.315378	-0.300221
496.534227	-0.282931
496.753059	-0.262902
496.971872	-0.220446
497.190667	-0.008901
497.409444	0.019606
497.628203	0.027879
497.846943	0.029682
498.065665	0.030147
498.284369	0.029465
498.503055	0.029594
498.721723	0.029793
498.940372	0.030549
499.159003	0.030197
499.377616	0.029012
499.596210	0.028870
499.814787	0.029406
500.033345	0.028357
500.251885	0.028698
500.470406	0.029441
500.688910	0.029956
500.907395	0.029057
501.125862	0.029708
501.344311	0.031202
501.562742	0.031122
501.781154	0.030459
501.999548	0.032423
502.217924	0.032630
502.436282	0.031487
502.654621	0.031835
502.872942	0.032266
503.091245	0.032025
503.309530	0.031566
503.527797	0.031619
503.746045	0.032137
503.964275	0.031238
504.182487	0.030605
504.400681	0.031120
504.618856	0.030904
504.837013	0.030941
505.055152	0.031376
505.273273	0.031585
505.491376	0.030955
505.709460	0.031085
505.927526	0.031482
506.145574	0.031681
506.363604	0.031179
506.581615	0.031095
506.799608	0.030878
507.017583	0.030534
507.235540	0.029725
507.453478	0.029377
507.671399	0.030095
507.889301	0.029728
508.107185	0.030458
508.325050	0.030739
508.542898	0.030149
508.760727	0.030877
508.978538	0.031573
509.196330	0.032050
509.414105	0.032955
509.631861	0.032385
509.849599	0.032481
510.067319	0.032315
510.285021	0.032437
510.502704	0.032670
510.720369	0.032483
510.938016	0.032177
511.155645	0.032127
511.373255	0.031640
511.590848	0.030823
511.808422	0.030690
512.025977	0.031066
512.243515	0.031086
512.461034	0.031526
512.678536	0.031079
512.896018	0.031520
513.113483	0.031947
513.330930	0.032321
513.548358	0.033193
513.765768	0.033017
513.983160	0.032575
514.200533	0.033041
514.417889	0.032924
514.635226	0.033592
514.852545	0.033084
515.069845	0.032723
515.287128	0.032450
515.504392	0.032368
515.721638	0.032218
515.938866	0.032539
516.156075	0.031995
516.373267	0.031957
516.590440	0.030817
516.807594	0.031288
517.024731	0.031130
517.241850	0.031447
517.458950	0.030985
517.676032	0.031753
517.893095	0.031854
518.110141	0.032128
518.327168	0.032361
518.544177	0.033326
518.761168	0.032472
518.978141	0.032398
519.195095	0.032644
519.412031	0.033197
519.628949	0.033200
519.845849	0.033227
520.062731	0.033162
520.279594	0.032769
520.496439	0.033240
520.713266	0.033876
520.930074	0.034208
521.146865	0.033958
521.363637	0.033815
521.580391	0.032977
521.797127	0.032783
522.013844	0.033284
522.230543	0.034488
522.447224	0.034503
522.663887	0.034593
522.880532	0.035249
523.097158	0.035950
523.313766	0.036385
523.530356	0.037254
523.746928	0.037252
523.963481	0.037239
524.180017	0.036353
524.396534	0.035819
524.613032	0.036085
524.829513	0.035966
525.045975	0.035341
525.262420	0.035542
525.478845	0.035299
525.695253	0.036032
525.911643	0.036447
526.128014	0.036503
526.344367	0.036921
526.560702	0.036944
526.777018	0.036859
526.993316	0.037284
527.209597	0.037598
527.425858	0.038309
527.642102	0.038260
527.858328	0.037872
528.074535	0.038328
528.290724	0.038645
528.506894	0.039235
528.723047	0.039359
528.939181	0.039271
529.155297	0.039348
529.371395	0.039590
529.587475	0.039310
529.803536	0.039421
530.019579	0.039842
530.235604	0.039339
530.451611	0.039424
530.667600	0.040003
530.883570	0.040912
531.099522	0.040961
531.315456	0.041006
531.531372	0.041237
531.747269	0.041550
531.963148	0.041385
532.179009	0.042019
532.394852	0.041932
532.610676	0.041852
532.826482	0.041852
533.042271	0.042152
533.258040	0.042391
533.473792	0.042862
533.689525	0.042983
533.905240	0.043514
534.120937	0.043682
534.336616	0.043846
534.552277	0.044174
534.767919	0.043603
534.983543	0.043701
535.199149	0.044152
535.414736	0.044191
535.630306	0.044597
535.845857	0.044330
536.061390	0.044215
536.276904	0.044392
536.492401	0.044190
536.707879	0.044646
536.923339	0.045032
537.138781	0.044441
537.354204	0.044282
537.569610	0.044099
537.784997	0.044319
538.000366	0.044640
538.215716	0.045119
538.431049	0.045084
538.646363	0.045436
538.861659	0.044734
539.076937	0.044945
539.292196	0.045087
539.507438	0.045068
539.722661	0.045265
539.937866	0.045505
540.153052	0.044862
540.368221	0.045447
540.583371	0.045252
540.798503	0.045691
541.013617	0.045843
541.228712	0.046442
541.443789	0.046795
541.658848	0.047327
541.873889	0.047933
542.088912	0.048619
542.303916	0.048327
542.518902	0.048828
542.733870	0.048375
542.948820	0.048716
543.163752	0.048330
543.378665	0.048213
543.593560	0.047491
543.808437	0.046849
544.023295	0.046615
544.238136	0.046603
544.452958	0.046871
544.667762	0.047183
544.882548	0.046835
545.097315	0.047181
545.312064	0.047687
545.526795	0.047956
545.741508	0.048258
545.956203	0.048419
546.170879	0.048639
546.385537	0.048679
546.600177	0.049141
546.814799	0.049648
547.029402	0.049403
547.243988	0.049347
547.458555	0.049795
547.673103	0.049797
547.887634	0.049789
548.102146	0.049671
548.316640	0.049641
548.531116	0.049711
548.745574	0.049768
548.960013	0.050199
549.174435	0.050113
549.388838	0.050192
549.603222	0.050489
549.817589	0.050772
550.031937	0.051190
550.246267	0.051202
550.460579	0.051283
550.674873	0.051248
550.889148	0.051591
551.103405	0.052109
551.317644	0.052243
551.531865	0.052223
551.746068	0.052191
551.960252	0.052706
552.174418	0.052755
552.388566	0.052543
552.602696	0.052829
552.816807	0.052780
553.030900	0.052973
553.244975	0.052908
553.459032	0.052901
553.673070	0.053176
553.887091	0.053115
554.101093	0.053159
554.315077	0.053344
554.529042	0.053294
554.742990	0.053163
554.956919	0.052903
555.170830	0.053639
555.384722	0.053888
555.598597	0.053488
555.812453	0.053431
556.026291	0.053721
556.240111	0.054152
556.453913	0.054249
556.667696	0.054351
556.881461	0.054146
557.095208	0.053593
557.308937	0.053345
557.522647	0.054036
557.736339	0.054101
557.950013	0.053933
558.163669	0.053756
558.377307	0.053540
558.590926	0.053704
558.804527	0.054106
559.018110	0.054118
559.231675	0.054798
559.445221	0.054771
559.658749	0.054783
559.872259	0.055068
560.085751	0.055119
560.299225	0.055082
560.512680	0.055426
560.726117	0.055403
560.939536	0.055400
561.152937	0.055161
561.366319	0.054827
561.579683	0.054659
561.793029	0.054697
562.006357	0.055047
562.219667	0.055414
562.432958	0.054864
562.646231	0.054976
562.859486	0.055421
563.072723	0.055347
563.285941	0.055747
563.499141	0.055855
563.712323	0.055896
563.925487	0.055897
564.138632	0.055821
564.351760	0.056017
564.564869	0.055778
564.777960	0.055799
564.991032	0.055928
565.204087	0.056104
565.417123	0.056339
565.630141	0.056072
565.843140	0.056086
566.056122	0.056391
566.269085	0.056573
566.482030	0.056924
566.694957	0.056488
566.907866	0.056687
567.120756	0.056358
567.333628	0.056166
567.546482	0.056342
567.759318	0.056038
567.972135	0.056008
568.184935	0.056213
568.397716	0.056261
568.610478	0.056669
568.823223	0.056333
569.035949	0.056224
569.248657	0.056303
569.461347	0.056093
569.674019	0.056279
569.886672	0.055896
570.099308	0.055437
570.311925	0.055147
570.524523	0.055233
570.737104	0.055263
570.949666	0.055057
571.162210	0.054953
571.374736	0.055435
571.587244	0.055559
571.799733	0.055886
572.012205	0.055889
572.224658	0.056310
572.437092	0.055942
572.649509	0.055912
572.861907	0.056277
573.074287	0.056591
573.286649	0.056202
573.498993	0.056179
573.711318	0.056327
573.923625	0.056525
574.135914	0.056566
574.348185	0.056616
574.560438	0.056706
574.772672	0.056426
574.984888	0.056375
575.197086	0.056355
575.409266	0.055995
575.621427	0.055907
575.833570	0.055875
576.045695	0.055833
576.257802	0.056260
576.469890	0.056234
576.681961	0.056409
576.894013	0.056274
577.106046	0.056469
577.318062	0.056897
577.530059	0.056703
577.742039	0.056802
577.954000	0.056461
578.165942	0.055937
578.377867	0.055974
578.589773	0.056215
578.801661	0.056440
579.013531	0.056266
579.225382	0.056149
579.437216	0.056198
579.649031	0.056244
579.860828	0.056302
580.072606	0.056484
580.284367	0.056515
580.496109	0.056602
580.707833	0.056708
580.919539	0.056788
581.131227	0.057116
581.342896	0.057300
581.554547	0.057290
581.766180	0.057543
581.977795	0.057684
582.189391	0.057928
582.400969	0.057948
582.612529	0.057914
582.824071	0.058165
583.035595	0.057923
583.247100	0.057784
583.458587	0.057605
583.670056	0.057369
583.881506	0.057065
584.092939	0.057022
584.304353	0.057250
584.515749	0.057277
584.727127	0.057446
584.938486	0.057611
585.149828	0.057973
585.361151	0.058492
585.572456	0.058803
585.783742	0.059169
585.995011	0.059400
586.206261	0.059368
586.417493	0.059291
586.628706	0.059182
586.839902	0.059111
587.051079	0.058967
587.262238	0.058633
587.473379	0.058369
587.684502	0.058383
587.895606	0.058189
588.106692	0.058057
588.317760	0.058147
588.528810	0.057848
588.739841	0.057789
588.950855	0.058078
589.161850	0.058403
589.372827	0.058610
589.583785	0.058493
589.794726	0.058556
590.005648	0.058662
590.216552	0.058504
590.427437	0.058846
590.638305	0.058872
590.849154	0.058685
591.059985	0.058467
591.270798	0.058644
591.481592	0.059059
591.692369	0.058972
591.903127	0.059190
592.113867	0.059492
592.324588	0.059708
592.535292	0.060042
592.745977	0.060047
592.956644	0.060255
593.167293	0.060254
593.377923	0.060085
593.588536	0.060123
593.799130	0.060098
594.009706	0.060066
594.220263	0.059949
594.430803	0.059791
594.641324	0.060133
594.851827	0.060426
595.062312	0.060359
595.272778	0.060321
595.483227	0.060585
595.693657	0.060557
595.904069	0.060582
596.114462	0.060787
596.324838	0.061176
596.535195	0.060896
596.745534	0.060656
596.955855	0.061091
597.166157	0.061483
597.376441	0.061493
597.586707	0.061491
597.796955	0.061777
598.007185	0.061692
598.217396	0.061674
598.427589	0.061887
598.637764	0.062020
598.847921	0.061807
599.058060	0.061761
599.268180	0.061975
599.478282	0.062033
599.688366	0.061983
599.898431	0.062202
600.108479	0.062099
600.318508	0.061982
600.528519	0.062120
600.738511	0.062233
600.948486	0.062265
601.158442	0.062308
601.368380	0.062562
601.578300	0.062644
601.788202	0.062588
601.998085	0.062681
602.207950	0.062868
602.417797	0.062876
602.627626	0.062955
602.837436	0.063098
603.047228	0.062794
603.257002	0.062778
603.466758	0.062473
603.676496	0.062470
603.886215	0.062551
604.095916	0.062792
604.305599	0.063105
604.515264	0.063072
604.724910	0.062822
604.934538	0.062812
605.144148	0.062597
605.353740	0.062968
605.563314	0.063057
605.772869	0.063160
605.982406	0.063170
606.191925	0.063100
606.401425	0.063127
606.610908	0.063433
606.820372	0.063889
607.029818	0.064007
607.239246	0.063893
607.448655	0.064014
607.658047	0.064148
607.867420	0.064336
608.076775	0.064182
608.286111	0.064340
608.495430	0.064342
608.704730	0.064342
608.914012	0.064590
609.123275	0.064837
609.332521	0.064864
609.541748	0.064800
609.750957	0.064615
609.960148	0.065019
610.169321	0.064933
610.378475	0.064881
610.587611	0.064735
610.796729	0.064956
611.005829	0.064824
611.214910	0.064812
611.423974	0.064964
611.633019	0.065270
611.842045	0.064894
612.051054	0.065087
612.260044	0.065237
612.469017	0.065794
612.677970	0.065849
612.886906	0.066099
613.095824	0.066145
613.304723	0.066296
613.513604	0.066034
613.722467	0.065953
613.931311	0.065996
614.140138	0.066034
614.348946	0.065635
614.557736	0.065332
614.766507	0.065399
614.975261	0.065417
615.183996	0.065089
615.392713	0.065096
615.601412	0.065550
615.810092	0.065662
616.018754	0.065547
616.227399	0.065659
616.436024	0.065782
616.644632	0.066024
616.853222	0.066044
617.061793	0.066324
617.270346	0.066572
617.478880	0.066440
617.687397	0.066489
617.895895	0.066572
618.104375	0.066573
618.312837	0.066597
618.521281	0.066421
618.729706	0.066527
618.938113	0.066515
619.146502	0.066441
619.354873	0.066448
619.563226	0.066097
619.771560	0.066120
619.979876	0.066219
620.188174	0.066228
620.396453	0.066200
620.604715	0.065952
620.812958	0.065700
621.021183	0.065756
621.229390	0.065890
621.437578	0.066059
621.645748	0.065966
621.853900	0.065909
622.062034	0.065784
622.270150	0.065768
622.478247	0.065961
622.686326	0.066151
622.894387	0.065971
623.102430	0.066050
623.310454	0.065908
623.518461	0.066068
623.726449	0.066074
623.934418	0.066187
624.142370	0.066186
624.350303	0.066358
624.558218	0.066339
624.766115	0.066419
624.973994	0.066122
625.181855	0.066359
625.389697	0.066492
625.597521	0.066644
625.805327	0.066829
626.013114	0.066688
626.220883	0.066903
626.428634	0.067309
626.636367	0.067559
626.844082	0.067880
627.051778	0.067932
627.259457	0.067838
627.467117	0.067852
627.674758	0.068025
627.882382	0.068349
628.089987	0.068189
628.297574	0.067835
628.505143	0.067607
628.712694	0.067699
628.920226	0.067752
629.127740	0.068134
629.335236	0.068132
629.542714	0.068093
629.750174	0.067985
629.957615	0.067872
630.165038	0.067892
630.372443	0.068148
630.579829	0.067831
630.787198	0.067988
630.994548	0.067918
631.201880	0.068005
631.409194	0.067896
631.616489	0.067909
631.823766	0.068104
632.031025	0.068200
632.238266	0.068046
632.445489	0.068267
632.652693	0.068252
632.859879	0.068451
633.067047	0.068642
633.274197	0.068822
633.481329	0.068996
633.688442	0.068969
633.895537	0.069260
634.102614	0.069751
634.309672	0.069983
634.516713	0.070106
634.723735	0.069966
634.930739	0.070270
635.137724	0.070277
635.344692	0.070415
635.551641	0.070650
635.758572	0.070849
635.965485	0.071021
636.172379	0.071038
636.379256	0.071193
636.586114	0.071142
636.792954	0.070743
636.999775	0.070846
637.206579	0.070775
637.413364	0.070919
637.620131	0.070818
637.826880	0.070517
638.033610	0.070540
638.240323	0.070704
638.447017	0.070865
638.653692	0.071226
638.860350	0.071331
639.066990	0.071522
639.273611	0.071727
639.480214	0.071827
639.686798	0.072048
639.893365	0.072160
640.099913	0.072005
640.306443	0.072070
640.512955	0.072096
640.719449	0.072217
640.925924	0.072198
641.132381	0.072265
641.338820	0.072321
641.545241	0.072209
641.751644	0.072260
641.958028	0.072246
642.164394	0.072381
642.370742	0.072448
642.577071	0.072349
642.783383	0.072696
642.989676	0.072553
643.195951	0.072717
643.402207	0.072817
643.608446	0.073023
643.814666	0.073161
644.020868	0.073054
644.227052	0.072959
644.433218	0.073019
644.639365	0.072643
644.845494	0.072692
645.051605	0.072693
645.257698	0.072724
645.463772	0.072794
645.669828	0.073051
645.875866	0.073151
646.081886	0.073286
646.287888	0.073431
646.493871	0.073796
646.699836	0.073749
646.905783	0.073714
647.111712	0.073849
647.317622	0.073783
647.523514	0.073656
647.729388	0.073804
647.935244	0.073822
648.141082	0.073776
648.346901	0.073779
648.552702	0.073968
648.758485	0.073949
648.964250	0.073945
649.169996	0.074006
649.375724	0.074068
649.581434	0.074185
649.787126	0.074298
649.992800	0.074422
650.198455	0.074475
650.404092	0.074440
650.609711	0.074820
650.815311	0.074888
651.020894	0.075086
651.226458	0.075099
651.432004	0.075176
651.637532	0.075312
651.843041	0.075500
652.048532	0.075549
652.254006	0.075759
652.459460	0.075431
652.664897	0.075581
652.870315	0.075632
653.075716	0.075811
653.281097	0.075447
653.486461	0.075323
653.691807	0.075383
653.897134	0.075484
654.102443	0.075524
654.307734	0.075851
654.513006	0.075853
654.718261	0.075846
654.923497	0.075915
655.128715	0.076486
655.333915	0.076612
655.539096	0.076841
655.744259	0.076877
655.949404	0.076875
656.154531	0.076856
656.359640	0.077128
656.564730	0.077402
656.769802	0.077490
656.974856	0.077661
657.179892	0.077818
657.384909	0.077779
657.589908	0.078055
657.794889	0.078162
657.999852	0.078357
658.204797	0.078490
658.409723	0.078490
658.614631	0.078764
658.819521	0.078634
659.024393	0.078809
659.229246	0.078844
659.434081	0.078849
659.638898	0.079088
659.843697	0.079215
660.048478	0.079113
660.253240	0.079059
660.457984	0.079013
660.662710	0.079287
660.867417	0.079487
661.072107	0.079696
661.276778	0.079674
661.481431	0.079669
661.686066	0.079744
661.890682	0.080016
662.095281	0.080011
662.299861	0.080142
662.504422	0.080172
662.708966	0.080235
662.913491	0.080146
663.117999	0.080367
663.322488	0.080554
663.526958	0.080589
663.731411	0.080736
663.935845	0.081109
664.140261	0.081143
664.344659	0.081125
664.549038	0.080933
664.753400	0.081211
664.957743	0.081328
665.162068	0.081385
665.366375	0.081578
665.570663	0.081747
665.774933	0.081810
665.979185	0.081924
666.183419	0.081966
666.387635	0.082194
666.591832	0.082260
666.796011	0.082302
667.000172	0.082445
667.204315	0.082346
667.408439	0.082073
667.612545	0.082044
667.816634	0.082128
668.020703	0.082095
668.224755	0.082036
668.428788	0.081832
668.632803	0.081799
668.836800	0.081619
669.040779	0.081752
669.244739	0.081835
669.448681	0.081729
669.652605	0.081693
669.856511	0.081964
670.060399	0.082023
670.264268	0.082366
670.468119	0.082453
670.671952	0.082748
670.875767	0.082736
671.079563	0.082993
671.283341	0.083400
671.487101	0.083750
671.690843	0.083798
671.894567	0.084233
672.098272	0.084214
672.301959	0.084409
672.505628	0.084458
672.709278	0.084774
672.912911	0.084757
673.116525	0.084545
673.320121	0.084517
673.523699	0.084549
673.727258	0.084507
673.930799	0.084450
674.134322	0.084396
674.337827	0.084271
674.541314	0.084132
674.744782	0.084218
674.948232	0.084523
675.151664	0.084727
675.355078	0.084811
675.558474	0.084747
675.761851	0.084901
675.965210	0.084985
676.168551	0.085228
676.371873	0.085452
676.575178	0.085481
676.778464	0.085445
676.981732	0.085092
677.184981	0.085228
677.388213	0.085480
677.591426	0.085585
677.794621	0.085702
677.997798	0.085827
678.200956	0.085751
678.404097	0.086034
678.607219	0.086161
678.810323	0.086443
679.013408	0.086359
679.216476	0.086474
679.419525	0.086390
679.622556	0.086583
679.825569	0.086608
680.028563	0.086959
680.231540	0.086866
680.434498	0.087071
680.637438	0.087311
680.840359	0.087541
681.043263	0.087596
681.246148	0.087833
681.449015	0.088011
681.651864	0.088128
681.854694	0.087999
682.057506	0.088031
682.260301	0.088060
682.463076	0.087832
682.665834	0.087854
682.868573	0.087900
683.071295	0.088138
683.273998	0.087950
683.476682	0.087782
683.679349	0.087986
683.881997	0.088180
684.084627	0.088234
684.287239	0.088379
684.489833	0.088536
684.692408	0.088393
684.894965	0.088279
685.097504	0.088407
685.300025	0.088416
685.502527	0.088296
685.705012	0.088209
685.907478	0.088260
686.109925	0.088362
686.312355	0.088404
686.514766	0.088636
686.717159	0.088813
686.919534	0.089140
687.121891	0.089516
687.324230	0.089673
687.526550	0.089743
687.728852	0.089771
687.931136	0.089886
688.133401	0.089973
688.335649	0.090015
688.537878	0.090061
688.740089	0.090006
688.942281	0.090214
689.144456	0.090371
689.346612	0.090529
689.548750	0.090654
689.750870	0.090881
689.952971	0.090907
690.155055	0.091030
690.357120	0.091262
690.559167	0.091221
690.761195	0.091188
690.963206	0.091233
691.165198	0.091450
691.367172	0.091453
691.569128	0.091353
691.771065	0.091513
691.972984	0.091499
692.174885	0.091658
692.376768	0.091695
692.578633	0.091631
692.780479	0.091699
692.982308	0.091713
693.184118	0.091628
693.385909	0.091679
693.587683	0.091643
693.789438	0.091706
693.991175	0.091415
694.192894	0.091532
694.394595	0.091719
694.596277	0.091734
694.797941	0.091687
694.999587	0.091887
695.201215	0.092016
695.402824	0.092188
695.604416	0.092190
695.805989	0.092323
696.007543	0.092386
696.209080	0.092295
696.410598	0.092321
696.612099	0.092324
696.813580	0.092388
697.015044	0.092452
697.216490	0.092501
697.417917	0.092634
697.619326	0.092882
697.820717	0.093049
698.022089	0.093246
698.223444	0.093279
698.424780	0.093424
698.626098	0.093451
698.827397	0.093491
699.028679	0.093386
699.229942	0.093434
699.431187	0.093262
699.632414	0.093219
699.833622	0.093240
700.034813	0.093307
700.235985	0.093350
700.437139	0.093473
700.638274	0.093405
700.839392	0.093513
701.040491	0.093616
701.241572	0.093598
701.442635	0.093360
701.643679	0.093236
701.844706	0.093217
702.045714	0.093132
702.246704	0.093120
702.447675	0.093105
702.648629	0.093093
702.849564	0.093073
703.050481	0.093231
703.251380	0.093564
703.452260	0.093775
703.653122	0.093845
703.853966	0.093958
704.054792	0.094003
704.255600	0.094120
704.456389	0.094186
704.657160	0.094286
704.857913	0.094328
705.058648	0.094319
705.259365	0.094353
705.460063	0.094601
705.660743	0.094810
705.861405	0.094730
706.062048	0.094678
706.262674	0.094814
706.463281	0.094769
706.663870	0.095066
706.864441	0.095068
707.064993	0.095055
707.265527	0.094865
707.466043	0.094985
707.666541	0.095173
707.867021	0.095413
708.067482	0.095369
708.267925	0.095278
708.468350	0.095126
708.668757	0.095317
708.869145	0.095312
709.069516	0.095509
709.269868	0.095388
709.470201	0.095459
709.670517	0.095383
709.870814	0.095395
710.071093	0.095673
710.271354	0.095764
710.471597	0.095721
710.671821	0.095781
710.872028	0.095582
711.072216	0.095498
711.272385	0.095273
711.472537	0.095129
711.672670	0.095082
711.872785	0.094946
712.072882	0.094781
712.272961	0.094683
712.473021	0.094552
712.673063	0.094533
712.873087	0.094514
713.073093	0.094395
713.273081	0.094365
713.473050	0.094212
713.673001	0.094084
713.872934	0.093835
714.072849	0.093834
714.272745	0.093684
714.472623	0.093584
714.672483	0.093668
714.872325	0.093927
715.072148	0.094001
715.271954	0.094061
715.471741	0.094178
715.671509	0.094283
715.871260	0.094161
716.070992	0.094316
716.270707	0.094316
716.470403	0.093971
716.670080	0.093729
716.869740	0.093710
717.069381	0.093854
717.269004	0.093755
717.468609	0.093671
717.668195	0.093651
717.867764	0.093453
718.067314	0.093439
718.266846	0.093385
718.466360	0.093270
718.665855	0.093337
718.865332	0.093021
719.064791	0.092991
719.264232	0.092913
719.463655	0.092707
719.663059	0.092658
719.862445	0.092638
720.061813	0.092542
720.261163	0.092715
720.460494	0.092558
720.659807	0.092388
720.859102	0.092267
721.058379	0.092265
721.257638	0.092443
721.456878	0.092635
721.656100	0.092575
721.855304	0.092611
722.054490	0.092471
722.253657	0.092138
722.452806	0.092438
722.651937	0.092481
722.851050	0.092521
723.050145	0.092221
723.249221	0.092082
723.448279	0.092078
723.647319	0.091968
723.846340	0.091995
724.045344	0.092295
724.244329	0.092275
724.443296	0.092240
724.642245	0.092209
724.841175	0.092188
725.040088	0.092306
725.238982	0.092262
725.437857	0.092222
725.636715	0.092131
725.835554	0.092176
726.034376	0.092086
726.233179	0.091875
726.431963	0.091686
726.630730	0.091603
726.829478	0.091102
727.028208	0.090798
727.226920	0.090744
727.425614	0.090592
727.624289	0.090233
727.822946	0.089829
728.021585	0.089657
728.220206	0.089466
728.418808	0.089475
728.617392	0.089547
728.815958	0.089726
729.014506	0.089816
729.213036	0.089602
729.411547	0.089507
729.610040	0.089642
729.808515	0.089829
730.006972	0.089817
730.205410	0.089857
730.403831	0.089887
730.602233	0.089890
730.800616	0.089964
730.998982	0.090048
731.197329	0.090163
731.395658	0.090176
731.593969	0.089948
731.792262	0.090070
731.990536	0.089993
732.188793	0.089903
732.387031	0.089766
732.585250	0.089642
732.783452	0.089850
732.981635	0.089793
733.179800	0.089684
733.377947	0.089733
733.576076	0.089614
733.774186	0.089641
733.972278	0.089677
734.170352	0.089684
734.368408	0.089532
734.566446	0.089371
734.764465	0.089410
734.962466	0.089341
735.160449	0.089156
735.358413	0.089189
735.556360	0.089174
735.754288	0.089031
735.952198	0.088946
736.150090	0.088832
736.347963	0.088632
736.545818	0.088388
736.743655	0.088253
736.941474	0.088441
737.139275	0.088446
737.337057	0.088174
737.534821	0.088054
737.732567	0.088008
737.930295	0.087920
738.128005	0.087999
738.325696	0.087962
738.523369	0.088168
738.721024	0.087994
738.918660	0.087907
739.116279	0.087920
739.313879	0.087851
739.511461	0.087888
739.709024	0.087956
739.906570	0.087796
740.104097	0.087795
740.301606	0.087362
740.499097	0.087359
740.696569	0.087177
740.894024	0.087192
741.091460	0.087151
741.288878	0.086865
741.486277	0.086521
741.683659	0.086493
741.881022	0.086470
742.078367	0.086692
742.275694	0.086571
742.473002	0.086475
742.670293	0.086403
742.867565	0.086297
743.064819	0.086283
743.262054	0.086385
743.459272	0.086377
743.656471	0.086221
743.853652	0.086063
744.050815	0.085894
744.247959	0.085871
744.445085	0.085505
744.642194	0.085369
744.839283	0.085195
745.036355	0.084982
745.233408	0.084913
745.430444	0.084792
745.627461	0.084605
745.824459	0.084523
746.021440	0.084296
746.218402	0.084319
746.415346	0.084287
746.612272	0.084176
746.809180	0.084235
747.006069	0.084079
747.202940	0.083886
747.399793	0.083892
747.596628	0.083839
747.793444	0.083811
747.990243	0.083789
748.187023	0.083902
748.383784	0.083910
748.580528	0.083944
748.777253	0.083833
748.973960	0.084053
749.170649	0.084157
749.367320	0.084299
749.563973	0.084202
749.760607	0.084242
749.957223	0.084022
750.153821	0.083867
750.350400	0.083850
750.546962	0.083884
750.743505	0.083604
750.940030	0.083583
751.136536	0.083341
751.333025	0.083377
751.529495	0.083206
751.725947	0.083457
751.922381	0.083523
752.118796	0.083550
752.315194	0.083356
752.511573	0.083137
752.707934	0.083086
752.904276	0.082802
753.100601	0.082816
753.296907	0.082809
753.493195	0.082394
753.689465	0.082395
753.885716	0.082164
754.081949	0.082197
754.278164	0.082497
754.474361	0.082270
754.670540	0.082395
754.866700	0.082342
755.062843	0.082231
755.258967	0.082297
755.455072	0.082245
755.651160	0.082413
755.847229	0.082294
756.043280	0.082207
756.239313	0.081956
756.435328	0.082092
756.631324	0.081983
756.827302	0.082073
757.023262	0.081971
757.219204	0.081751
757.415127	0.081228
757.611033	0.081250
757.806920	0.080980
758.002788	0.080919
758.198639	0.080733
758.394471	0.080630
758.590286	0.080415
758.786081	0.080181
758.981859	0.080069
759.177619	0.080101
759.373360	0.079829
759.569083	0.079548
759.764788	0.079601
759.960474	0.079544
760.156143	0.079382
760.351793	0.079272
760.547425	0.079464
760.743038	0.079414
760.938634	0.079448
761.134211	0.079510
761.329770	0.079735
761.525311	0.079727
761.720833	0.079558
761.916338	0.079469
762.111824	0.079539
762.307292	0.079572
762.502741	0.079471
762.698173	0.079336
762.893586	0.079349
763.088981	0.079297
763.284358	0.079188
763.479716	0.079166
763.675057	0.079385
763.870379	0.079308
764.065683	0.079135
764.260968	0.079145
764.456236	0.079260
764.651485	0.079351
764.846716	0.079408
765.041929	0.079447
765.237123	0.079481
765.432299	0.079316
765.627457	0.079504
765.822597	0.079720
766.017719	0.079734
766.212822	0.079752
766.407907	0.079364
766.602974	0.079212
766.798023	0.079226
766.993054	0.079087
767.188066	0.078886
767.383060	0.078405
767.578036	0.077904
767.772993	0.077755
767.967933	0.077533
768.162854	0.077618
768.357757	0.077440
768.552642	0.077191
768.747508	0.077091
768.942356	0.076943
769.137186	0.076975
769.331998	0.076868
769.526792	0.076885
769.721567	0.076773
769.916324	0.076673
770.111063	0.076702
770.305784	0.076941
770.500486	0.076977
770.695171	0.077329
770.889837	0.077548
771.084484	0.077692
771.279114	0.077605
771.473725	0.077696
771.668318	0.077729
771.862893	0.077895
772.057450	0.077741
772.251988	0.077668
772.446509	0.077359
772.641011	0.077283
772.835494	0.077226
773.029960	0.077218
773.224407	0.077128
773.418836	0.077063
773.613247	0.076933
773.807640	0.076732
774.002014	0.076420
774.196370	0.076440
774.390708	0.076146
774.585028	0.076087
774.779330	0.075799
774.973613	0.075633
775.167878	0.075648
775.362125	0.075498
775.556354	0.075494
775.750564	0.075627
775.944756	0.075454
776.138930	0.075424
776.333086	0.075443
776.527223	0.075663
776.721343	0.075703
776.915444	0.075517
777.109526	0.075661
777.303591	0.075606
777.497637	0.075612
777.691666	0.075780
777.885676	0.075995
778.079667	0.075970
778.273641	0.076104
778.467596	0.076235
778.661533	0.076388
778.855452	0.076183
779.049352	0.076055
779.243235	0.076145
779.437099	0.076085
779.630945	0.076024
779.824773	0.076079
780.018582	0.076111
780.212373	0.076096
780.406146	0.076074
780.599901	0.076172
780.793638	0.076382
780.987356	0.076375
781.181056	0.076477
781.374738	0.076533
781.568402	0.076507
781.762047	0.076677
781.955674	0.076678
782.149283	0.076625
782.342874	0.076715
782.536447	0.076649
782.730001	0.076738
782.923537	0.076624
783.117055	0.076792
783.310555	0.076794
783.504036	0.076663
783.697499	0.076870
783.890944	0.077025
784.084371	0.076940
784.277780	0.077065
784.471170	0.077200
784.664542	0.077455
784.857896	0.077385
785.051231	0.077666
785.244549	0.077743
785.437848	0.077670
785.631129	0.077722
785.824392	0.077998
786.017636	0.078186
786.210863	0.078119
786.404071	0.078177
786.597260	0.078230
786.790432	0.078144
786.983585	0.078190
787.176721	0.078309
787.369838	0.078354
787.562936	0.078281
787.756017	0.078285
787.949079	0.078348
788.142123	0.078199
788.335149	0.077976
788.528156	0.078028
788.721146	0.077994
788.914117	0.078002
789.107070	0.078055
789.300005	0.078192
789.492921	0.078159
789.685819	0.077920
789.878699	0.077935
790.071561	0.078187
790.264405	0.078105
790.457230	0.078037
790.650037	0.077958
790.842826	0.078099
791.035597	0.077887
791.228349	0.077705
791.421084	0.077957
791.613800	0.077975
791.806497	0.077689
791.999177	0.077730
792.191838	0.077705
792.384481	0.077793
792.577106	0.077632
792.769713	0.077736
792.962301	0.077837
793.154871	0.077818
793.347423	0.077825
793.539957	0.078076
793.732473	0.077916
793.924970	0.077891
794.117449	0.077905
794.309910	0.077882
794.502353	0.077886
794.694777	0.077942
794.887183	0.078050
795.079571	0.078266
795.271941	0.078090
795.464293	0.078392
795.656626	0.078609
795.848941	0.078683
796.041238	0.078961
796.233516	0.079162
796.425777	0.079168
796.618019	0.079143
796.810243	0.078948
797.002449	0.079221
797.194636	0.079353
797.386805	0.079180
797.578956	0.079098
797.771089	0.079090
797.963204	0.079119
798.155300	0.079372
798.347378	0.079741
798.539438	0.080019
798.731480	0.080380
798.923503	0.080362
799.115509	0.080652
799.307496	0.080535
799.499465	0.080552
799.691415	0.080647
799.883348	0.080823
800.075262	0.080501
800.267158	0.080650
800.459035	0.080440
800.650895	0.080512
800.842736	0.080670
801.034559	0.080913
801.226364	0.081101
801.418150	0.081286
801.609919	0.081199
801.801669	0.081625
801.993401	0.081744
802.185114	0.081817
802.376810	0.081839
802.568487	0.081909
802.760146	0.082131
802.951787	0.082113
803.143409	0.082149
803.335014	0.082032
803.526600	0.082201
803.718168	0.082109
803.909717	0.082298
804.101249	0.082496
804.292762	0.082468
804.484257	0.082428
804.675734	0.082528
804.867192	0.082467
805.058632	0.082999
805.250054	0.082969
805.441458	0.083319
805.632844	0.083440
805.824211	0.083502
806.015561	0.083463
806.206891	0.083733
806.398204	0.083724
806.589499	0.083948
806.780775	0.083798
806.972033	0.083996
807.163273	0.084138
807.354495	0.084203
807.545698	0.084307
807.736883	0.084615
807.928050	0.084629
808.119199	0.084693
808.310329	0.084865
808.501441	0.084850
808.692535	0.084365
808.883611	0.084141
809.074669	0.084078
809.265708	0.084002
809.456729	0.083889
809.647732	0.083777
809.838717	0.083730
810.029683	0.083603
810.220632	0.083753
810.411562	0.083964
810.602474	0.083948
810.793367	0.084019
810.984242	0.084248
811.175100	0.084625
811.365938	0.084784
811.556759	0.084896
811.747562	0.085059
811.938346	0.085138
812.129112	0.085413
812.319860	0.085510
812.510589	0.085398
812.701300	0.085289
812.891994	0.085280
813.082668	0.085566
813.273325	0.085786
813.463964	0.085646
813.654584	0.085755
813.845186	0.085889
814.035769	0.085889
814.226335	0.086321
814.416882	0.086549
814.607411	0.086760
814.797922	0.086520
814.988415	0.086609
815.178889	0.087024
815.369345	0.087170
815.559783	0.087300
815.750203	0.087612
815.940605	0.087818
816.130988	0.088013
816.321353	0.087958
816.511700	0.088365
816.702028	0.088622
816.892339	0.088657
817.082631	0.088828
817.272905	0.089004
817.463161	0.089171
817.653398	0.089097
817.843617	0.089099
818.033819	0.088977
818.224001	0.089128
818.414166	0.089137
818.604312	0.089020
818.794440	0.088961
818.984550	0.088839
819.174642	0.088882
819.364716	0.089001
819.554771	0.089123
819.744808	0.089482
819.934827	0.089586
820.124827	0.089618
820.314810	0.089851
820.504774	0.089957
820.694720	0.090223
820.884647	0.090302
821.074557	0.090391
821.264448	0.090611
821.454321	0.090508
821.644176	0.090393
821.834012	0.090572
822.023831	0.090713
822.213631	0.090874
822.403413	0.090792
822.593176	0.090752
822.782922	0.090717
822.972649	0.090808
823.162358	0.091104
823.352049	0.091222
823.541721	0.091315
823.731376	0.091514
823.921012	0.091778
824.110629	0.091969
824.300229	0.092323
824.489811	0.092722
824.679374	0.092759
824.868919	0.092859
825.058445	0.093161
825.247954	0.093172
825.437444	0.093128
825.626916	0.093080
825.816370	0.093268
826.005806	0.093421
826.195223	0.093489
826.384622	0.093701
826.574003	0.093919
826.763366	0.094244
826.952711	0.094438
827.142037	0.094764
827.331345	0.094820
827.520635	0.095042
827.709906	0.095219
827.899160	0.095385
828.088395	0.095321
828.277612	0.095443
828.466810	0.095384
828.655991	0.095424
828.845153	0.095531
829.034297	0.095770
829.223423	0.095730
829.412531	0.095815
829.601620	0.095769
829.790691	0.096089
829.979744	0.096462
830.168779	0.096647
830.357795	0.097104
830.546793	0.097355
830.735773	0.097705
830.924735	0.097945
831.113679	0.097792
831.302604	0.098079
831.491511	0.098524
831.680400	0.098374
831.869271	0.098714
832.058123	0.099014
832.246957	0.099102
832.435773	0.099111
832.624571	0.099258
832.813351	0.099770
833.002112	0.100028
833.190855	0.099893
833.379580	0.100422
833.568287	0.100254
833.756975	0.100206
833.945645	0.100177
834.134297	0.100293
834.322931	0.100294
834.511547	0.100633
834.700144	0.100685
834.888723	0.101132
835.077284	0.101026
835.265826	0.101213
835.454351	0.101314
835.642857	0.101830
835.831345	0.102111
836.019815	0.102690
836.208266	0.102901
836.396699	0.103195
836.585114	0.102969
836.773511	0.103294
836.961890	0.103713
837.150250	0.103773
837.338592	0.103586
837.526916	0.103898
837.715222	0.103944
837.903510	0.103744
838.091779	0.103784
838.280030	0.104071
838.468263	0.104064
838.656477	0.103876
838.844674	0.104329
839.032852	0.104733
839.221012	0.104706
839.409153	0.104850
839.597277	0.105215
839.785382	0.105048
839.973469	0.105372
840.161538	0.105522
840.349589	0.105752
840.537621	0.105557
840.725635	0.105725
840.913631	0.105876
841.101609	0.106334
841.289568	0.106518
841.477509	0.107026
841.665432	0.107151
841.853337	0.107313
842.041224	0.107636
842.229092	0.108072
842.416942	0.108135
842.604774	0.108418
842.792588	0.108007
842.980383	0.108220
843.168160	0.108406
843.355919	0.108484
843.543660	0.108760
843.731382	0.108881
843.919087	0.109255
844.106773	0.109277
844.294441	0.109325
844.482090	0.109911
844.669722	0.109840
844.857335	0.110265
845.044930	0.110631
845.232507	0.110808
845.420065	0.110928
845.607605	0.110852
845.795127	0.111079
845.982631	0.111341
846.170117	0.111432
846.357584	0.111838
846.545033	0.111586
846.732464	0.111584
846.919877	0.112023
847.107272	0.112250
847.294648	0.112738
847.482006	0.113141
847.669346	0.113481
847.856667	0.113621
848.043971	0.113694
848.231256	0.114030
848.418523	0.114047
848.605771	0.113570
848.793002	0.113907
848.980214	0.113950
849.167408	0.114053
849.354584	0.114089
849.541742	0.114518
849.728881	0.114970
849.916002	0.115265
850.103105	0.115728
850.290190	0.116524
850.477256	0.116600
850.664304	0.116732
850.851334	0.117036
851.038346	0.117262
851.225340	0.117158
851.412315	0.117398
851.599272	0.117664
851.786211	0.117852
851.973132	0.117905
852.160034	0.118274
852.346918	0.118601
852.533784	0.118575
852.720632	0.118611
852.907462	0.118900
853.094273	0.118880
853.281066	0.118810
853.467841	0.118729
853.654598	0.118806
853.841336	0.118693
854.028056	0.118752
854.214758	0.119189
854.401442	0.119532
854.588107	0.119713
854.774755	0.120036
854.961384	0.120293
855.147995	0.120820
855.334587	0.120928
855.521162	0.121355
855.707718	0.121500
855.894256	0.121670
856.080775	0.122008
856.267277	0.122263
856.453760	0.122436
856.640225	0.122852
856.826672	0.122823
857.013101	0.122940
857.199511	0.123298
857.385903	0.123656
857.572277	0.123653
857.758633	0.123586
857.944970	0.123555
858.131290	0.123565
858.317591	0.123711
858.503873	0.123834
858.690138	0.124035
858.876384	0.123991
859.062612	0.123889
859.248822	0.124488
859.435014	0.124802
859.621188	0.124895
859.807343	0.125076
859.993480	0.124715
860.179599	0.124927
860.365699	0.125401
860.551781	0.125343
860.737846	0.125812
860.923891	0.125597
861.109919	0.125752
861.295929	0.126194
861.481920	0.126100
861.667893	0.126556
861.853848	0.126757
862.039784	0.126592
862.225702	0.126934
862.411603	0.126632
862.597484	0.126652
862.783348	0.126854
862.969193	0.126477
863.155021	0.126576
863.340830	0.126433
863.526620	0.126462
863.712393	0.126242
863.898147	0.126103
864.083883	0.126139
864.269601	0.126319
864.455301	0.126134
864.640982	0.126400
864.826645	0.126393
865.012290	0.126409
865.197917	0.126397
865.383526	0.126763
865.569116	0.126981
865.754688	0.127238
865.940242	0.127242
866.125777	0.127591
866.311295	0.127715
866.496794	0.127778
866.682275	0.128192
866.867737	0.128050
867.053182	0.128021
867.238608	0.127809
867.424016	0.128248
867.609406	0.128318
867.794778	0.128368
867.980131	0.128816
868.165466	0.129269
868.350783	0.130017
868.536082	0.130343
868.721362	0.130642
868.906625	0.131260
869.091869	0.131008
869.277094	0.131208
869.462302	0.131071
869.647491	0.131095
869.832662	0.131269
870.017815	0.130979
870.202950	0.131517
870.388066	0.131717
870.573165	0.131711
870.758245	0.131817
870.943306	0.132062
871.128350	0.132566
871.313375	0.132404
871.498382	0.132475
871.683371	0.132271
871.868342	0.132151
872.053294	0.132275
872.238229	0.132749
872.423144	0.132685
872.608042	0.132822
872.792922	0.132470
872.977783	0.132622
873.162626	0.132564
873.347451	0.132989
873.532258	0.132953
873.717046	0.132703
873.901816	0.132432
874.086568	0.132838
874.271302	0.132552
874.456017	0.132904
874.640715	0.133249
874.825394	0.133579
875.010055	0.133678
875.194697	0.133989
875.379322	0.134448
875.563928	0.134582
875.748516	0.134635
875.933085	0.134924
876.117637	0.134899
876.302170	0.134861
876.486685	0.134739
876.671182	0.134637
876.855661	0.134472
877.040121	0.134482
877.224563	0.134433
877.408987	0.134462
877.593393	0.134618
877.777780	0.134760
877.962150	0.134783
878.146501	0.134888
878.330833	0.135205
878.515148	0.135362
878.699444	0.135550
878.883722	0.135834
879.067982	0.136017
879.252224	0.136018
879.436447	0.136304
879.620653	0.136391
879.804840	0.136668
879.989008	0.136663
880.173159	0.136866
880.357291	0.137090
880.541405	0.136890
880.725501	0.136923
880.909579	0.137158
881.093638	0.137017
881.277680	0.137089
881.461703	0.136789
881.645707	0.136791
881.829694	0.136479
882.013662	0.136344
882.197612	0.136550
882.381544	0.136513
882.565458	0.136256
882.749353	0.136565
882.933230	0.136266
883.117089	0.136664
883.300930	0.136786
883.484753	0.136996
883.668557	0.136961
883.852343	0.136965
884.036111	0.136964
884.219861	0.137107
884.403592	0.137020
884.587305	0.137204
884.771000	0.137224
884.954677	0.136941
885.138335	0.136716
885.321976	0.136682
885.505598	0.136562
885.689201	0.136809
885.872787	0.136941
886.056354	0.136693
886.239904	0.136843
886.423434	0.136862
886.606947	0.137069
886.790442	0.137662
886.973918	0.137859
887.157376	0.138085
887.340816	0.137967
887.524237	0.137819
887.707641	0.138142
887.891026	0.138474
888.074393	0.138253
888.257741	0.138431
888.441072	0.138389
888.624384	0.138330
888.807678	0.138349
888.990954	0.138264
889.174211	0.138101
889.357451	0.137748
889.540672	0.137385
889.723875	0.137333
889.907059	0.136930
890.090226	0.136715
890.273374	0.136806
890.456504	0.136666
890.639616	0.137001
890.822709	0.137137
891.005785	0.137013
891.188842	0.136789
891.371881	0.136804
891.554901	0.137155
891.737904	0.136917
891.920888	0.136357
892.103854	0.136225
892.286802	0.135866
892.469731	0.135403
892.652643	0.135559
892.835536	0.135608
893.018410	0.135458
893.201267	0.135285
893.384106	0.135386
893.566926	0.135337
893.749728	0.135117
893.932511	0.135400
894.115277	0.135928
894.298024	0.135910
894.480753	0.136305
894.663464	0.136247
894.846157	0.135831
895.028831	0.135785
895.211487	0.135475
895.394125	0.135258
895.576745	0.134759
895.759346	0.134503
895.941930	0.134202
896.124495	0.133541
896.307041	0.133603
896.489570	0.133604
896.672080	0.132974
896.854573	0.133279
897.037046	0.133535
897.219502	0.133426
897.401940	0.133211
897.584359	0.133112
897.766760	0.133379
897.949143	0.132631
898.131507	0.132793
898.313854	0.133568
898.496182	0.133196
898.678492	0.133133
898.860783	0.133505
899.043057	0.133692
899.225312	0.133577
899.407549	0.133235
899.589768	0.133839
899.771968	0.133269
899.954151	0.133153
900.136315	0.133289
900.318461	0.132893
900.500588	0.132088
900.682698	0.131520
900.864789	0.131594
901.046862	0.131707
901.228917	0.131159
901.410953	0.131062
901.592971	0.130333
901.774972	0.130631
901.956953	0.130564
902.138917	0.130446
902.320862	0.130673
902.502790	0.130533
902.684699	0.130265
902.866589	0.130024
903.048462	0.129943
903.230316	0.130179
903.412152	0.129504
903.593970	0.129374
903.775770	0.129303
903.957551	0.128960
904.139314	0.128657
904.321059	0.128429
904.502786	0.128729
904.684494	0.128848
904.866185	0.128342
905.047857	0.128641
905.229510	0.128698
905.411146	0.128543
905.592763	0.128476
905.774363	0.128643
905.955943	0.128476
906.137506	0.127877
906.319051	0.127938
906.500577	0.128058
906.682085	0.128385
906.863575	0.128103
907.045046	0.128230
907.226500	0.128283
907.407935	0.127649
907.589352	0.127868
907.770750	0.127947
907.952131	0.127808
908.133493	0.127514
908.314837	0.126233
908.496163	0.125850
908.677470	0.125600
908.858760	0.125263
909.040031	0.125496
909.221284	0.124762
909.402518	0.124631
909.583735	0.124205
909.764933	0.123983
909.946113	0.124665
910.127275	0.124457
910.308418	0.124126
910.489544	0.123837
910.670651	0.123159
910.851740	0.123009
911.032810	0.122894
911.213863	0.122599
911.394897	0.122170
911.575913	0.121452
911.756911	0.121363
911.937890	0.121264
912.118851	0.120838
912.299794	0.120950
912.480719	0.120908
912.661626	0.120155
912.842514	0.119606
913.023384	0.119768
913.204236	0.119695
913.385070	0.119854
913.565886	0.119623
913.746683	0.119500
913.927462	0.118938
914.108223	0.118678
914.288965	0.118525
914.469690	0.118117
914.650396	0.117479
914.831084	0.116292
915.011754	0.115314
915.192405	0.114854
915.373038	0.114380
915.553653	0.113862
915.734250	0.113271
915.914829	0.113170
916.095389	0.113157
916.275931	0.113011
916.456455	0.112828
916.636961	0.112910
916.817448	0.112172
916.997917	0.112106
917.178368	0.111914
917.358801	0.111219
917.539216	0.110966
917.719612	0.110349
917.899990	0.110063
918.080350	0.110050
918.260692	0.109836
918.441015	0.109954
918.621320	0.109850
918.801607	0.109770
918.981876	0.109760
919.162127	0.109566
919.342359	0.109538
919.522573	0.108341
919.702769	0.108202
919.882947	0.107490
920.063106	0.106641
920.243247	0.105665
920.423370	0.105044
920.603475	0.104882
920.783562	0.103764
920.963630	0.103103
921.143680	0.103199
921.323712	0.102926
921.503725	0.102788
921.683721	0.102992
921.863698	0.102254
922.043657	0.102086
922.223598	0.101688
922.403520	0.101978
922.583424	0.101445
922.763311	0.101691
922.943178	0.101398
923.123028	0.100772
923.302859	0.100194
923.482673	0.100376
923.662467	0.099698
923.842244	0.099656
924.022003	0.099020
924.201743	0.098866
924.381465	0.097764
924.561169	0.097349
924.740854	0.097061
924.920522	0.096899
925.100171	0.096627
925.279802	0.096290
925.459414	0.095900
925.639009	0.095385
925.818585	0.094585
925.998143	0.094680
926.177683	0.094470
926.357205	0.093975
926.536708	0.093529
926.716193	0.092422
926.895660	0.091493
927.075109	0.089720
927.254539	0.089179
927.433951	0.089080
927.613345	0.088769
927.792721	0.087595
927.972079	0.087345
928.151418	0.086369
928.330739	0.085736
928.510042	0.086144
928.689327	0.086595
928.868593	0.086436
929.047841	0.085841
929.227071	0.084882
929.406283	0.084804
929.585476	0.083653
929.764652	0.083317
929.943809	0.083282
930.122948	0.082367
930.302068	0.082023
930.481171	0.081008
930.660255	0.080811
930.839321	0.080232
931.018369	0.079301
931.197398	0.079022
931.376409	0.078693
931.555402	0.078764
931.734377	0.078372
931.913334	0.077502
932.092272	0.077312
932.271192	0.076876
932.450094	0.076500
932.628978	0.075960
932.807844	0.075971
932.986691	0.074836
933.165520	0.074337
933.344331	0.073320
933.523123	0.073159
933.701898	0.073039
933.880654	0.071979
934.059392	0.071708
934.238111	0.071614
934.416813	0.071352
934.595496	0.071199
934.774161	0.070494
934.952808	0.070843
935.131437	0.070219
935.310047	0.068940
935.488639	0.068711
935.667213	0.068137
935.845769	0.067627
936.024306	0.066315
936.202825	0.065383
936.381326	0.064173
936.559809	0.063433
936.738274	0.062854
936.916720	0.063129
937.095148	0.062594
937.273558	0.062262
937.451950	0.062287
937.630323	0.061978
937.808678	0.062016
937.987015	0.062981
938.165334	0.062153
938.343635	0.061492
938.521917	0.060658
938.700181	0.060848
938.878427	0.060534
939.056655	0.059770
939.234864	0.058886
939.413055	0.059009
939.591228	0.056961
939.769383	0.056726
939.947519	0.055339
940.125638	0.054125
940.303738	0.053205
940.481820	0.050288
940.659883	0.048542
940.837929	0.048574
941.015956	0.047393
941.193965	0.047036
941.371955	0.046374
941.549928	0.046710
941.727882	0.047124
941.905818	0.045324
942.083736	0.047663
942.261636	0.047304
942.439517	0.046432
942.617380	0.045712
942.795225	0.044471
942.973052	0.043900
943.150860	0.043436
943.328651	0.042911
943.506423	0.043626
943.684176	0.041387
943.861912	0.041119
944.039629	0.040498
944.217328	0.040064
944.395009	0.040340
944.572672	0.038797
944.750317	0.038698
944.927943	0.037888
945.105551	0.037822
945.283141	0.038577
945.460712	0.038995
945.638265	0.038519
945.815801	0.037964
945.993317	0.038157
946.170816	0.038266
946.348297	0.036953
946.525759	0.037298
946.703203	0.035971
946.880629	0.034770
947.058036	0.032595
947.235425	0.032475
947.412797	0.032508
947.590149	0.031679
947.767484	0.031285
947.944800	0.031069
948.122099	0.029950
948.299379	0.029216
948.476640	0.030152
948.653884	0.029777
948.831109	0.028661
949.008316	0.026965
949.185505	0.026760
949.362676	0.026742
949.539828	0.026176
949.716962	0.025064
949.894078	0.024488
950.071176	0.022847
950.248256	0.023422
950.425317	0.022326
950.602360	0.024211
950.779385	0.022566
950.956391	0.021289
951.133380	0.021049
951.310350	0.020425
951.487302	0.021191
951.664235	0.019355
951.841151	0.019064
952.018048	0.021051
952.194927	0.018807
952.371788	0.019455
952.548631	0.020074
952.725455	0.019440
952.902261	0.021381
953.079049	0.021392
953.255819	0.022648
953.432570	0.023823
953.609303	0.021441
953.786018	0.021198
953.962715	0.021354
954.139394	0.020075
954.316054	0.020939
954.492696	0.018668
954.669320	0.018592
954.845926	0.016812
955.022513	0.013607
955.199083	0.014203
955.375634	0.014828
955.552166	0.015874
955.728681	0.015839
955.905177	0.016202
956.081655	0.017414
956.258115	0.016589
956.434557	0.016930
956.610980	0.017512
956.787385	0.018518
956.963772	0.017597
957.140141	0.017067
957.316492	0.017271
957.492824	0.015707
957.669138	0.014091
957.845434	0.015141
958.021712	0.014575
958.197971	0.017761
958.374212	0.017076
958.550435	0.016919
958.726640	0.016041
958.902826	0.016577
959.078995	0.017927
959.255145	0.018486
959.431277	0.016870
959.607390	0.018851
959.783486	0.016139
959.959563	0.016384
960.135622	0.016676
960.311662	0.017764
960.487685	0.016678
960.663689	0.013728
960.839675	0.013235
961.015643	0.012940
961.191593	0.011597
961.367524	0.010740
961.543437	0.009984
961.719332	0.010394
961.895209	0.007510
962.071067	0.008037
962.246907	0.011965
962.422730	0.013754
962.598533	0.015080
962.774319	0.015410
962.950086	0.015455
963.125835	0.016795
963.301566	0.014602
963.477279	0.016423
963.652973	0.015636
963.828650	0.015312
964.004308	0.015523
964.179947	0.014967
964.355569	0.015223
964.531172	0.016527
964.706757	0.015343
964.882324	0.015286
965.057873	0.015760
965.233403	0.017102
965.408916	0.017046
965.584410	0.016076
965.759885	0.016698
965.935343	0.017705
966.110782	0.017293
966.286203	0.018104
966.461606	0.020038
966.636991	0.019230
966.812357	0.017049
966.987705	0.013603
967.163035	0.015091
967.338347	0.014403
967.513641	0.015170
967.688916	0.018141
967.864173	0.018997
968.039412	0.020332
968.214632	0.021105
968.389835	0.023557
968.565019	0.023855
968.740185	0.022104
968.915333	0.023595
969.090462	0.020484
969.265573	0.018739
969.440667	0.018183
969.615741	0.018892
969.790798	0.019095
969.965836	0.019340
970.140856	0.020332
970.315858	0.019426
970.490842	0.018851
970.665808	0.019608
970.840755	0.018597
971.015684	0.017823
971.190595	0.015165
971.365487	0.014721
971.540362	0.013319
971.715218	0.014742
971.890056	0.016354
972.064875	0.015185
972.239677	0.017288
972.414460	0.019183
972.589225	0.019430
972.763972	0.020530
972.938700	0.021830
973.113411	0.023175
973.288103	0.023360
973.462777	0.021932
973.637432	0.024969
973.812070	0.022796
973.986689	0.021206
974.161290	0.021523
974.335873	0.020692
974.510437	0.018857
974.684984	0.019511
974.859512	0.019506
975.034022	0.018328
975.208513	0.015779
975.382987	0.016172
975.557442	0.015650
975.731879	0.015131
975.906298	0.017635
976.080698	0.017148
976.255080	0.017847
976.429445	0.018684
976.603790	0.021341
976.778118	0.021813
976.952427	0.022363
977.126719	0.023168
977.300992	0.024143
977.475246	0.022021
977.649483	0.022483
977.823701	0.021490
977.997901	0.020631
978.172083	0.020391
978.346247	0.020353
978.520392	0.020340
978.694519	0.020314
978.868628	0.019074
979.042719	0.018570
979.216791	0.020212
979.390845	0.021886
979.564882	0.019156
979.738899	0.018384
979.912899	0.019458
980.086880	0.018975
980.260843	0.019161
980.434788	0.018545
980.608715	0.018954
980.782623	0.018343
980.956514	0.016335
981.130386	0.017852
981.304240	0.016595
981.478075	0.014580
981.651892	0.013592
981.825692	0.011843
981.999472	0.012877
982.173235	0.013329
982.346980	0.013952
982.520706	0.014272
982.694414	0.014377
982.868104	0.015826
983.041775	0.016913
983.215428	0.018679
983.389064	0.018195
983.562680	0.019576
983.736279	0.021011
983.909860	0.018878
984.083422	0.018378
984.256966	0.018443
984.430491	0.017965
984.603999	0.017691
984.777488	0.017249
984.950959	0.017890
985.124412	0.016326
985.297847	0.015044
985.471263	0.016820
985.644661	0.018112
985.818041	0.016425
985.991403	0.016869
986.164747	0.015776
986.338072	0.016956
986.511379	0.016817
986.684668	0.016456
986.857938	0.013925
987.031191	0.012859
987.204425	0.013613
987.377641	0.017392
987.550839	0.016368
987.724018	0.016474
987.897179	0.015546
988.070322	0.015824
988.243447	0.016014
988.416554	0.017941
988.589642	0.018122
988.762712	0.015210
988.935764	0.011987
989.108798	0.012015
989.281813	0.012952
989.454811	0.012599
989.627790	0.011958
989.800751	0.011787
989.973693	0.012227
990.146617	0.011631
990.319524	0.012275
990.492412	0.013610
990.665281	0.013872
990.838133	0.013743
991.010966	0.013069
991.183781	0.014086
991.356578	0.013276
991.529356	0.013303
991.702117	0.013439
991.874859	0.014341
992.047583	0.013581
992.220288	0.013701
992.392976	0.012817
992.565645	0.013278
992.738296	0.014419
992.910929	0.015798
993.083543	0.016475
993.256139	0.016510
993.428718	0.015964
993.601277	0.015580
993.773819	0.015501
993.946342	0.018749
994.118848	0.018818
994.291335	0.017568
994.463803	0.017978
994.636254	0.017026
994.808686	0.017944
994.981100	0.019595
995.153496	0.019851
995.325874	0.021220
995.498233	0.018825
995.670574	0.018904
995.842897	0.019604
996.015202	0.018485
996.187488	0.016740
996.359757	0.015635
996.532007	0.013563
996.704239	0.015677
996.876452	0.014422
997.048648	0.012367
997.220825	0.012621
997.392984	0.012054
997.565124	0.013044
997.737247	0.013698
997.909351	0.015929
998.081437	0.015188
998.253505	0.014480
998.425554	0.014813
998.597586	0.016069
998.769599	0.015063
998.941594	0.014993
999.113571	0.014433
999.285529	0.014519
999.457469	0.011251
999.629391	0.011834
999.801295	0.009720
999.973181	0.010275
1000.145048	0.010236
1000.316897	0.011109
1000.488728	0.010914
1000.660541	0.010407
1000.832335	0.012061
1001.004111	0.014034
1001.175869	0.015114
1001.347609	0.015980
1001.519331	0.016158
1001.691034	0.017204
1001.862719	0.016789
1002.034386	0.015880
1002.206035	0.015793
1002.377665	0.015588
1002.549277	0.015029
1002.720871	0.014724
1002.892447	0.014804
1003.064004	0.013811
1003.235544	0.013616
1003.407065	0.014279
1003.578568	0.014188
1003.750052	0.013595
1003.921519	0.012001
1004.092967	0.011397
1004.264397	0.011411
1004.435809	0.011364
1004.607202	0.010985
1004.778577	0.010296
1004.949934	0.009536
1005.121273	0.010676
1005.292594	0.010728
1005.463896	0.012199
1005.635180	0.014446
1005.806446	0.012988
1005.977694	0.012700
1006.148923	0.013645
1006.320135	0.014485
1006.491328	0.014907
1006.662503	0.016270
1006.833659	0.015813
1007.004798	0.015135
1007.175918	0.013360
1007.347020	0.013249
1007.518103	0.013268
1007.689169	0.011811
1007.860216	0.010734
1008.031245	0.009854
1008.202256	0.009359
1008.373248	0.010875
1008.544223	0.009880
1008.715179	0.009023
1008.886117	0.010377
1009.057036	0.009306
1009.227938	0.010420
1009.398821	0.010101
1009.569686	0.011585
1009.740533	0.009861
1009.911361	0.010110
1010.082172	0.011859
1010.252964	0.012887
1010.423738	0.013197
1010.594493	0.014206
1010.765231	0.014690
1010.935950	0.014922
1011.106651	0.014070
1011.277334	0.014808
1011.447998	0.013106
1011.618645	0.012732
1011.789273	0.012364
1011.959882	0.011904
1012.130474	0.012668
1012.301048	0.010938
1012.471603	0.010929
1012.642140	0.009990
1012.812658	0.010172
1012.983159	0.010827
1013.153641	0.010337
1013.324105	0.009826
1013.494551	0.008749
1013.664979	0.008612
1013.835388	0.010082
1014.005779	0.009977
1014.176152	0.010884
1014.346507	0.009062
1014.516843	0.009670
1014.687162	0.009023
1014.857462	0.008526
1015.027744	0.009670
1015.198007	0.010176
1015.368252	0.009506
1015.538480	0.009406
1015.708689	0.007941
1015.878879	0.009499
1016.049052	0.008961
1016.219206	0.009876
1016.389342	0.010838
1016.559460	0.009979
1016.729559	0.008990
1016.899641	0.010006
1017.069704	0.010621
1017.239749	0.011913
1017.409775	0.011133
1017.579784	0.011826
1017.749774	0.012103
1017.919746	0.012234
1018.089700	0.012087
1018.259635	0.012396
1018.429553	0.011417
1018.599452	0.011264
1018.769333	0.010312
1018.939195	0.010495
1019.109040	0.010590
1019.278866	0.010358
1019.448674	0.009481
1019.618464	0.009022
1019.788235	0.008446
1019.957989	0.008332
1020.127724	0.006328
1020.297441	0.006167
1020.467139	0.006182
1020.636820	0.005081
1020.806482	0.004213
1020.976126	0.003324
1021.145752	0.003290
1021.315359	0.002060
1021.484948	0.002329
1021.654519	0.002936
1021.824072	0.003218
1021.993607	0.002325
1022.163123	0.001178
1022.332621	-0.000081
1022.502101	0.001278
1022.671563	0.002348
1022.841007	0.003684
1023.010432	0.003383
1023.179839	0.003649
1023.349228	0.003293
1023.518598	0.004531
1023.687951	0.005512
1023.857285	0.006999
1024.026601	0.007196
1024.195899	0.007770
1024.365178	0.006826
1024.534439	0.006845
1024.703682	0.008162
1024.872907	0.009175
1025.042114	0.008210
1025.211302	0.007741
1025.380472	0.007425
1025.549624	0.006990
1025.718758	0.005482
1025.887873	0.006516
1026.056970	0.003951
1026.226049	0.002972
1026.395110	0.003008
1026.564153	0.003179
1026.733177	0.003557
1026.902183	0.004454
1027.071171	0.004385
1027.240141	0.003672
1027.409092	0.002632
1027.578026	0.006666
1027.746940	0.008450
1027.915837	0.008620
1028.084716	0.010066
1028.253576	0.010677
1028.422418	0.010161
1028.591242	0.010005
1028.760048	0.011659
1028.928835	0.012080
1029.097604	0.008985
1029.266355	0.006962
1029.435088	0.006194
1029.603803	0.005444
1029.772499	0.006169
1029.941177	0.005445
1030.109837	0.005608
1030.278478	0.006236
1030.447102	0.004400
1030.615707	0.007436
1030.784294	0.008173
1030.952863	0.009659
1031.121413	0.008868
1031.289945	0.008352
1031.458460	0.009595
1031.626955	0.008288
1031.795433	0.006487
1031.963892	0.007154
1032.132334	0.004202
1032.300756	0.004895
1032.469161	0.002726
1032.637548	0.003524
1032.805916	0.002029
1032.974266	0.001380
1033.142598	0.002789
1033.310911	0.003133
1033.479207	0.004065
1033.647484	0.005820
1033.815743	0.004872
1033.983983	0.005852
1034.152206	0.004521
1034.320410	0.005941
1034.488596	0.004922
1034.656764	0.006330
1034.824914	0.007775
1034.993045	0.008371
1035.161158	0.007464
1035.329253	0.007061
1035.497330	0.007339
1035.665388	0.007682
1035.833428	0.007391
1036.001450	0.006879
1036.169454	0.005582
1036.337440	0.004265
1036.505407	0.003376
1036.673356	0.003034
1036.841287	0.002977
1037.009200	0.002357
1037.177094	0.002599
1037.344970	0.002009
1037.512828	0.004671
1037.680668	0.004318
1037.848489	0.003982
1038.016293	0.004788
1038.184078	0.004290
1038.351845	0.004554
1038.519593	0.004610
1038.687324	0.004160
1038.855036	0.005250
1039.022730	0.003133
1039.190406	0.002707
1039.358063	0.002792
1039.525702	0.000901
1039.693323	0.002192
1039.860926	0.000865
1040.028511	0.002000
1040.196077	0.003065
1040.363625	0.002334
1040.531155	0.003679
1040.698667	0.005109
1040.866161	0.004370
1041.033636	0.005231
1041.201093	0.004439
1041.368532	0.005130
1041.535952	0.003879
1041.703355	0.003709
1041.870739	0.003247
1042.038105	0.004008
1042.205452	0.001883
1042.372782	0.002141
1042.540093	0.003367
1042.707386	0.003657
1042.874661	0.002854
1043.041918	0.003486
1043.209156	0.001986
1043.376376	0.003088
1043.543578	0.002425
1043.710762	0.004443
1043.877927	0.004920
1044.045074	0.004390
1044.212203	0.004052
1044.379314	0.005464
1044.546407	0.006131
1044.713481	0.008154
1044.880537	0.006734
1045.047575	0.005196
1045.214595	0.003741
1045.381596	0.004176
1045.548579	0.002342
1045.715544	0.001872
1045.882491	0.000064
1046.049420	-0.002027
1046.216330	-0.003108
1046.383222	-0.004092
1046.550096	-0.003145
1046.716951	-0.001693
1046.883789	-0.001685
1047.050608	0.000479
1047.217409	0.000296
1047.384192	0.001714
1047.550956	0.001790
1047.717703	0.001597
1047.884431	0.003291
1048.051140	0.001845
1048.217832	0.000395
1048.384505	0.001083
1048.551161	0.001435
1048.717798	0.002991
1048.884416	0.004157
1049.051017	0.004086
1049.217599	0.004978
1049.384163	0.004765
1049.550709	0.005829
1049.717237	0.006050
1049.883746	0.005095
1050.050237	0.005141
1050.216710	0.003334
1050.383165	0.002295
1050.549601	0.003349
1050.716019	0.003070
1050.882420	0.001581
1051.048801	0.000973
1051.215165	0.000998
1051.381510	0.001167
1051.547837	-0.001825
1051.714146	-0.001489
1051.880437	-0.002285
1052.046709	-0.002333
1052.212964	-0.002728
1052.379200	-0.003287
1052.545417	-0.002220
1052.711617	-0.002450
1052.877798	-0.003606
1053.043961	-0.001116
1053.210106	0.001013
1053.376233	0.003282
1053.542341	0.002278
1053.708432	0.002571
1053.874504	0.004829
1054.040557	0.004499
1054.206593	0.003801
1054.372610	0.005784
1054.538609	0.005745
1054.704590	0.005128
1054.870553	0.003036
1055.036497	0.003142
1055.202424	0.002887
1055.368331	0.002735
1055.534221	0.001851
1055.700093	0.002977
1055.865946	0.001646
1056.031781	0.001127
1056.197598	0.000013
1056.363397	0.001112
1056.529177	0.002026
1056.694939	-0.000691
1056.860683	-0.002040
1057.026409	-0.001511
1057.192116	-0.001891
1057.357806	-0.002699
1057.523477	-0.002824
1057.689130	-0.002873
1057.854764	-0.004127
1058.020381	-0.004953
1058.185979	-0.002984
1058.351559	-0.000763
1058.517120	-0.001102
1058.682664	-0.000095
1058.848189	-0.000332
1059.013696	0.000654
1059.179185	0.001277
1059.344656	0.001749
1059.510108	0.002257
1059.675542	0.003579
1059.840958	0.000889
1060.006356	0.000901
1060.171735	0.000461
1060.337096	0.002785
1060.502439	0.000302
1060.667764	0.000158
1060.833071	0.001418
1060.998359	0.002028
1061.163629	0.002081
1061.328881	0.005064
1061.494115	0.004460
1061.659330	0.003955
1061.824527	0.003393
1061.989706	0.004405
1062.154867	0.005285
1062.320010	0.003697
1062.485134	0.003012
1062.650240	0.002457
1062.815328	0.000754
1062.980398	0.001634
1063.145449	0.003051
1063.310482	0.002481
1063.475497	0.001477
1063.640494	-0.002053
1063.805473	0.000853
1063.970433	0.001263
1064.135375	0.000487
1064.300299	0.000807
1064.465204	0.001325
1064.630092	-0.001695
1064.794961	-0.001342
1064.959812	0.001572
1065.124645	0.003443
1065.289459	0.001535
1065.454256	-0.000483
1065.619034	0.000201
1065.783793	-0.001200
1065.948535	-0.003160
1066.113258	-0.003819
1066.277964	-0.003803
1066.442651	-0.005630
1066.607319	-0.004498
1066.771970	-0.003156
1066.936602	-0.002163
1067.101216	-0.001961
1067.265812	-0.000115
1067.430389	0.000947
1067.594949	0.002821
1067.759490	0.003709
1067.924013	0.004107
1068.088518	0.003901
1068.253004	0.000748
1068.417472	0.001506
1068.581922	0.002335
1068.746354	0.001456
1068.910768	0.001564
1069.075163	-0.000710
1069.239540	0.000902
1069.403899	0.001619
1069.568240	0.001266
1069.732562	0.002045
1069.896866	0.001838
1070.061152	-0.001052
1070.225420	0.001088
1070.389670	0.001952
1070.553901	0.004542
1070.718114	0.001141
1070.882309	0.001345
1071.046486	0.002018
1071.210644	0.001983
1071.374784	0.002889
1071.538906	0.004016
1071.703010	0.004063
1071.867096	0.004012
1072.031163	0.004451
1072.195212	0.003244
1072.359243	0.004133
1072.523256	0.003549
1072.687250	0.004987
1072.851226	0.004101
1073.015184	0.004162
1073.179124	0.002597
1073.343045	0.002460
1073.506949	0.001205
1073.670834	0.002723
1073.834701	0.001703
1073.998549	0.002340
1074.162380	0.004028
1074.326192	0.005723
1074.489986	0.007434
1074.653761	0.007639
1074.817519	0.006001
1074.981258	0.009780
1075.144979	0.010934
1075.308682	0.012245
1075.472367	0.013301
1075.636033	0.011037
1075.799681	0.012095
1075.963311	0.011876
1076.126923	0.015178
1076.290516	0.016264
1076.454092	0.012427
1076.617649	0.012429
1076.781187	0.011599
1076.944708	0.010432
1077.108210	0.011355
1077.271695	0.008069
1077.435160	0.009884
1077.598608	0.007178
1077.762038	0.006977
1077.925449	0.008939
1078.088842	0.007285
1078.252217	0.006253
1078.415573	0.007244
1078.578912	0.009799
1078.742232	0.009657
1078.905534	0.008924
1079.068817	0.007663
1079.232083	0.007882
1079.395330	0.007417
1079.558559	0.008868
1079.721770	0.010102
1079.884962	0.012113
1080.048136	0.007486
1080.211293	0.008036
1080.374430	0.008053
1080.537550	0.009522
1080.700651	0.010664
1080.863735	0.013541
1081.026800	0.013817
1081.189846	0.015088
1081.352875	0.014099
1081.515885	0.013894
1081.678877	0.011894
1081.841851	0.011308
1082.004807	0.010071
1082.167744	0.010460
1082.330663	0.008300
1082.493564	0.009844
1082.656447	0.008639
1082.819312	0.008324
1082.982158	0.011085
1083.144986	0.016010
1083.307796	0.016405
1083.470587	0.018593
1083.633361	0.019335
1083.796116	0.018642
1083.958853	0.016295
1084.121571	0.017062
1084.284272	0.014935
1084.446954	0.014242
1084.609618	0.012811
1084.772264	0.012042
1084.934892	0.010215
1085.097501	0.009224
1085.260092	0.010019
1085.422665	0.013186
1085.585220	0.011415
1085.747756	0.012905
1085.910274	0.012968
1086.072774	0.012165
1086.235256	0.012188
1086.397720	0.012378
1086.560165	0.013464
1086.722592	0.011838
1086.885001	0.008605
1087.047392	0.009326
1087.209764	0.009409
1087.372119	0.007474
1087.534455	0.007606
1087.696772	0.007013
1087.859072	0.009652
1088.021353	0.009164
1088.183616	0.010704
1088.345861	0.010550
1088.508088	0.009774
1088.670296	0.010568
1088.832486	0.011542
1088.994658	0.012021
1089.156812	0.009806
1089.318948	0.005896
1089.481065	0.006410
1089.643164	0.003931
1089.805245	0.006771
1089.967308	0.004098
1090.129352	0.002004
1090.291378	0.004442
1090.453386	0.003925
1090.615376	0.007661
1090.777347	0.008188
1090.939301	0.006430
1091.101236	0.007503
1091.263153	0.005930
1091.425051	0.010131
1091.586932	0.012168
1091.748794	0.011816
1091.910638	0.013368
1092.072463	0.015565
1092.234271	0.019623
1092.396060	0.022644
1092.557831	0.025521
1092.719584	0.024804
1092.881319	0.023438
1093.043035	0.023661
1093.204733	0.022227
1093.366413	0.021379
1093.528075	0.019480
1093.689718	0.017122
1093.851343	0.018599
1094.012950	0.018353
1094.174539	0.020010
1094.336110	0.021053
1094.497662	0.017883
1094.659196	0.015147
1094.820712	0.016443
1094.982210	0.014571
1095.143689	0.011290
1095.305151	0.002107
1095.466594	0.001837
1095.628018	0.000459
1095.789425	0.001401
1095.950813	0.001227
1096.112183	0.005853
1096.273535	0.004458
1096.434869	0.007259
1096.596184	0.011541
1096.757482	0.017160
1096.918761	0.017589
1097.080021	0.019759
1097.241264	0.020479
1097.402488	0.022526
1097.563694	0.016966
1097.724882	0.017467
1097.886052	0.015266
1098.047203	0.016489
1098.208336	0.018917
1098.369451	0.019472
1098.530548	0.018047
1098.691627	0.017256
1098.852687	0.018800
1099.013729	0.021626
1099.174753	0.021132
1099.335758	0.022513
1099.496746	0.018492
1099.657715	0.014609
1099.818666	0.012459
1099.979599	0.012542
1100.140513	0.011563
1100.301409	0.012872
1100.462287	0.015408
1100.623147	0.014041
1100.783989	0.014960
1100.944812	0.018029
1101.105617	0.020625
1101.266404	0.020532
1101.427173	0.020354
1101.587923	0.019709
1101.748656	0.017288
1101.909370	0.016968
1102.070066	0.021408
1102.230743	0.016051
1102.391403	0.015419
1102.552044	0.010248
1102.712667	0.013626
1102.873271	0.015881
1103.033858	0.015890
1103.194426	0.016738
1103.354976	0.017134
1103.515508	0.015696
1103.676021	0.019276
1103.836517	0.021102
1103.996994	0.024862
1104.157453	0.025290
1104.317893	0.021292
1104.478316	0.022480
1104.638720	0.020956
1104.799106	0.020107
1104.959474	0.016800
1105.119823	0.014628
1105.280155	0.008531
1105.440468	0.008659
1105.600763	0.004116
1105.761039	0.005781
1105.921298	0.001515
1106.081538	0.002870
1106.241760	0.004726
1106.401964	0.006312
1106.562149	0.004290
1106.722316	0.010298
1106.882465	0.011857
1107.042596	0.014479
1107.202709	0.012727
1107.362803	0.020019
1107.522879	0.019762
1107.682937	0.014364
1107.842977	0.015680
1108.002999	0.019436
1108.163002	0.018017
1108.322987	0.020612
1108.482954	0.018358
1108.642902	0.021494
1108.802833	0.015222
1108.962745	0.018342
1109.122639	0.024465
1109.282515	0.027553
1109.442372	0.028918
1109.602211	0.029267
1109.762032	0.027923
1109.921835	0.026123
1110.081620	0.027581
1110.241386	0.026962
1110.401134	0.024100
1110.560864	0.022729
1110.720576	0.019647
1110.880269	0.018882
1111.039945	0.016741
1111.199602	0.014528
1111.359240	0.017224
1111.518861	0.010980
1111.678463	0.015676
1111.838047	0.015567
1111.997613	0.013797
1112.157161	0.012059
1112.316690	0.008156
1112.476202	0.011967
1112.635695	0.008405
1112.795169	0.007472
1112.954626	0.010562
1113.114064	0.011694
1113.273484	0.009896
1113.432886	0.010536
1113.592270	0.016790
1113.751635	0.025457
1113.910983	0.021860
1114.070312	0.025991
1114.229622	0.028218
1114.388915	0.026886
1114.548189	0.027326
1114.707445	0.027003
1114.866683	0.022160
1115.025903	0.012888
1115.185104	0.008298
1115.344287	0.006754
1115.503452	0.006617
1115.662599	0.004211
1115.821727	0.003227
1115.980838	-0.000360
1116.139930	0.001437
1116.299004	0.003224
1116.458059	0.004631
1116.617097	0.003831
1116.776116	0.005019
1116.935117	0.004207
1117.094099	0.004750
1117.253064	0.005022
1117.412010	0.008826
1117.570938	0.008964
1117.729848	0.014522
1117.888740	0.016131
1118.047613	0.013654
1118.206468	0.010307
1118.365305	0.008546
1118.524124	0.011250
1118.682924	0.013789
1118.841707	0.011482
1119.000471	0.009495
1119.159216	0.005148
1119.317944	0.006714
1119.476653	0.010094
1119.635344	0.018859
1119.794017	0.024611
1119.952672	0.023759
1120.111308	0.024118
1120.269927	0.023942
1120.428527	0.028228
1120.587108	0.031081
1120.745672	0.027441
1120.904217	0.029155
1121.062744	0.027632
1121.221253	0.023469
1121.379744	0.019344
1121.538216	0.018279
1121.696671	0.011324
1121.855107	0.008259
1122.013524	0.006589
1122.171924	0.010432
1122.330305	0.008139
1122.488668	0.006098
1122.647013	0.007615
1122.805340	0.008964
1122.963648	0.011645
1123.121938	0.014088
1123.280210	0.011737
1123.438464	0.010305
1123.596700	0.011031
1123.754917	0.009144
1123.913116	0.008662
1124.071297	0.012375
1124.229459	0.014753
1124.387604	0.011538
1124.545730	0.015727
1124.703838	0.012156
1124.861928	0.013470
1125.019999	0.005438
1125.178052	0.005641
1125.336088	0.007159
1125.494104	0.001919
1125.652103	0.002224
1125.810083	0.004979
1125.968045	0.009608
1126.125989	0.014211
1126.283915	0.016410
1126.441823	0.022117
1126.599712	0.025034
1126.757583	0.020800
1126.915436	0.023010
1127.073270	0.021907
1127.231087	0.020948
1127.388885	0.014671
1127.546665	0.015357
1127.704426	0.008355
1127.862170	0.008563
1128.019895	0.006715
1128.177602	0.006171
1128.335291	0.006988
1128.492961	0.007552
1128.650614	0.006135
1128.808248	0.005434
1128.965864	0.003795
1129.123461	0.008653
1129.281041	0.015252
1129.438602	0.014079
1129.596145	0.015706
1129.753670	0.014325
1129.911176	0.007916
1130.068665	0.006096
1130.226135	0.001149
1130.383587	0.003053
1130.541020	0.009032
1130.698436	0.002313
1130.855833	0.008854
1131.013212	0.011015
1131.170573	0.007590
1131.327915	0.011465
1131.485239	0.016461
1131.642545	0.024114
1131.799833	0.030942
1131.957103	0.026680
1132.114354	0.029656
1132.271588	0.021834
1132.428803	0.018096
1132.585999	0.016060
1132.743178	0.022169
1132.900338	0.019919
1133.057480	0.024217
1133.214604	0.019476
1133.371710	0.017044
1133.528797	0.011037
1133.685866	0.011527
1133.842917	0.012378
1133.999950	0.018082
1134.156964	0.015776
1134.313960	0.017464
1134.470938	0.009351
1134.627898	0.008254
1134.784840	0.009004
1134.941763	0.012566
1135.098668	0.015413
1135.255555	0.018760
1135.412424	0.020061
1135.569274	0.016957
1135.726107	0.013288
1135.882921	0.010549
1136.039716	0.005808
1136.196494	0.003067
1136.353253	0.006916
1136.509995	0.002008
1136.666717	-0.000307
1136.823422	-0.007206
1136.980109	-0.004256
1137.136777	-0.005443
1137.293427	-0.005618
1137.450059	-0.001821
1137.606672	-0.001183
1137.763267	-0.005615
1137.919844	-0.000457
1138.076403	-0.002513
1138.232944	-0.004996
1138.389466	-0.010236
1138.545971	-0.006635
1138.702457	-0.005064
1138.858924	-0.010914
1139.015374	-0.010597
1139.171805	-0.013832
1139.328218	-0.019293
1139.484613	-0.005954
1139.640990	-0.001673
1139.797348	0.001021
1139.953688	-0.005614
1140.110010	0.006271
1140.266314	0.014237
1140.422600	0.018604
1140.578867	0.021450
1140.735116	0.034915
1140.891347	0.017535
1141.047559	0.022668
1141.203754	0.019956
1141.359930	0.029633
1141.516088	0.025809
1141.672228	0.025672
1141.828349	0.031391
1141.984452	0.025976
1142.140537	0.019345
1142.296604	0.023081
1142.452653	0.024306
1142.608683	0.029745
1142.764695	0.024377
1142.920689	0.023028
1143.076665	0.018715
1143.232622	0.005101
1143.388562	0.010708
1143.544483	0.015270
1143.700385	0.012754
1143.856270	0.011394
1144.012136	0.009783
1144.167985	0.003866
1144.323814	-0.002700
1144.479626	0.001370
1144.635420	0.007749
1144.791195	0.011019
1144.946952	0.005311
1145.102691	0.013345
1145.258411	0.016548
1145.414113	0.013570
1145.569798	0.019311
1145.725463	0.022888
1145.881111	0.019724
1146.036741	0.013607
1146.192352	0.013457
1146.347945	0.010311
1146.503519	0.009237
1146.659076	0.008307
1146.814614	0.014929
1146.970134	0.015541
1147.125636	0.001094
1147.281120	-0.003617
1147.436585	0.007796
1147.592032	0.003475
1147.747461	0.000443
1147.902872	-0.002024
1148.058265	-0.009606
1148.213639	-0.007385
1148.368995	-0.002567
1148.524333	0.012432
1148.679653	0.015230
1148.834954	0.006629
1148.990237	0.010878
1149.145502	0.017047
1149.300749	0.012572
1149.455977	0.024076
1149.611188	0.012745
1149.766380	0.007068
1149.921553	0.007755
1150.076709	0.010628
1150.231846	0.007970
1150.386966	0.012264
1150.542066	0.010264
1150.697149	0.020032
1150.852214	0.008045
1151.007260	0.016866
1151.162288	0.013387
1151.317298	0.012217
1151.472289	0.002607
1151.627263	0.001378
1151.782218	-0.014515
1151.937155	-0.019310
1152.092073	-0.025426
1152.246974	-0.021646
1152.401856	-0.029972
1152.556720	-0.024254
1152.711566	-0.024954
1152.866393	-0.013102
1153.021203	-0.002693
1153.175994	-0.005867
1153.330767	0.013094
1153.485521	0.018279
1153.640258	0.020496
1153.794976	0.021532
1153.949676	0.013229
1154.104358	0.022111
1154.259021	0.025340
1154.413667	0.008538
1154.568294	0.026663
1154.722903	0.020807
1154.877493	0.021168
1155.032066	0.009561
1155.186620	0.009072
1155.341156	0.018324
1155.495674	0.017988
1155.650173	0.010946
1155.804654	0.020841
1155.959118	0.012985
1156.113562	0.011371
1156.267989	-0.003160
1156.422397	-0.000753
1156.576788	0.005066
1156.731160	0.007015
1156.885513	0.000184
1157.039849	-0.008843
1157.194166	-0.003457
1157.348465	-0.001477
1157.502746	-0.010329
1157.657009	-0.009351
1157.811253	-0.000165
1157.965479	-0.001898
1158.119687	-0.015097
1158.273877	-0.016349
1158.428048	0.000676
1158.582201	0.001314
1158.736337	0.006892
1158.890453	0.007342
1159.044552	0.017855
1159.198632	0.006063
1159.352694	0.007422
1159.506738	0.022899
1159.660764	0.018403
1159.814771	-0.001246
1159.968761	-0.012491
1160.122732	-0.010069
1160.276685	-0.003851
1160.430619	0.004011
1160.584535	0.020324
1160.738434	0.012169
1160.892313	-0.002112
1161.046175	0.012568
1161.200019	0.029482
1161.353844	0.035175
1161.507651	0.026228
1161.661440	0.039383
1161.815210	0.033369
1161.968962	0.018036
1162.122697	0.033413
1162.276412	0.046561
1162.430110	0.033764
1162.583789	0.031391
1162.737451	0.032559
1162.891094	0.055788
1163.044718	0.033256
1163.198325	0.029819
1163.351913	0.029115
1163.505483	0.019532
1163.659035	0.006054
1163.812569	0.013626
1163.966084	0.018970
1164.119581	0.015706
1164.273060	0.000027
1164.426521	0.018968
1164.579964	0.026902
1164.733388	0.033617
1164.886794	0.032971
1165.040182	0.047300
1165.193551	0.043377
1165.346903	0.031354
1165.500236	0.022938
1165.653551	-0.005886
1165.806848	-0.019722
1165.960126	-0.022875
1166.113386	-0.028744
1166.266628	-0.032284
1166.419852	-0.031919
1166.573058	-0.037991
1166.726245	-0.031879
1166.879414	-0.013119
1167.032565	-0.000803
1167.185698	-0.000771
1167.338812	-0.012298
1167.491909	0.003009
1167.644987	-0.002953
1167.798046	-0.008816
1167.951088	0.003842
1168.104111	0.006719
1168.257117	-0.005644
1168.410103	0.005106
1168.563072	0.008631
1168.716023	0.008469
1168.868955	-0.000456
1169.021869	-0.006753
1169.174765	0.014621
1169.327642	-0.003164
1169.480501	-0.028562
1169.633343	-0.019196
1169.786165	-0.027858
1169.938970	-0.036556
1170.091757	-0.026221
1170.244525	-0.021322
1170.397275	-0.000343
1170.550007	-0.016944
1170.702720	-0.013063
1170.855415	-0.005098
1171.008092	0.006881
1171.160751	0.032999
1171.313392	0.057909
1171.466014	-0.075556
1171.618619	0.169817
1171.771205	0.169817
1171.923772	0.169817
