sample name	sample
index	625
start time	 03-19-2021  02:45:18 PM


Wavelength (nm)	Absorbance
494.344910	-0.322374
494.563924	-0.322374
494.782919	-0.322374
495.001897	0.114167
495.220856	0.151878
495.439797	0.497325
495.658719	0.805637
495.877624	0.661052
496.096510	0.413473
496.315378	0.281481
496.534227	0.339378
496.753059	0.855422
496.971872	0.213985
497.190667	0.019190
497.409444	0.023858
497.628203	0.026007
497.846943	0.028422
498.065665	0.029388
498.284369	0.027719
498.503055	0.027170
498.721723	0.027651
498.940372	0.028203
499.159003	0.028270
499.377616	0.027530
499.596210	0.027639
499.814787	0.028129
500.033345	0.027024
500.251885	0.027708
500.470406	0.027859
500.688910	0.027689
500.907395	0.027021
501.125862	0.028128
501.344311	0.028187
501.562742	0.027637
501.781154	0.027072
501.999548	0.027869
502.217924	0.028340
502.436282	0.028541
502.654621	0.028134
502.872942	0.028889
503.091245	0.029180
503.309530	0.030176
503.527797	0.030209
503.746045	0.029819
503.964275	0.029407
504.182487	0.029801
504.400681	0.029373
504.618856	0.029355
504.837013	0.029605
505.055152	0.029209
505.273273	0.028342
505.491376	0.028810
505.709460	0.029526
505.927526	0.030161
506.145574	0.030513
506.363604	0.030705
506.581615	0.031323
506.799608	0.031054
507.017583	0.031162
507.235540	0.031761
507.453478	0.031477
507.671399	0.030835
507.889301	0.030721
508.107185	0.029638
508.325050	0.029701
508.542898	0.029182
508.760727	0.028712
508.978538	0.028533
509.196330	0.028041
509.414105	0.028081
509.631861	0.028682
509.849599	0.028705
510.067319	0.029379
510.285021	0.028542
510.502704	0.027809
510.720369	0.027895
510.938016	0.027581
511.155645	0.028036
511.373255	0.027686
511.590848	0.027633
511.808422	0.027331
512.025977	0.027224
512.243515	0.027693
512.461034	0.028335
512.678536	0.028022
512.896018	0.028169
513.113483	0.027997
513.330930	0.028015
513.548358	0.027937
513.765768	0.028286
513.983160	0.028121
514.200533	0.028550
514.417889	0.029745
514.635226	0.030219
514.852545	0.029745
515.069845	0.029998
515.287128	0.029735
515.504392	0.029765
515.721638	0.029017
515.938866	0.029160
516.156075	0.029183
516.373267	0.028370
516.590440	0.028706
516.807594	0.028678
517.024731	0.028167
517.241850	0.028315
517.458950	0.028178
517.676032	0.029166
517.893095	0.029130
518.110141	0.029465
518.327168	0.029554
518.544177	0.029069
518.761168	0.029697
518.978141	0.029729
519.195095	0.029940
519.412031	0.029712
519.628949	0.029817
519.845849	0.030176
520.062731	0.030006
520.279594	0.030258
520.496439	0.030761
520.713266	0.030774
520.930074	0.031059
521.146865	0.031346
521.363637	0.031743
521.580391	0.031642
521.797127	0.031790
522.013844	0.031707
522.230543	0.031199
522.447224	0.030817
522.663887	0.030665
522.880532	0.031092
523.097158	0.031329
523.313766	0.031651
523.530356	0.031330
523.746928	0.031104
523.963481	0.031483
524.180017	0.031954
524.396534	0.032235
524.613032	0.032170
524.829513	0.032168
525.045975	0.032136
525.262420	0.031426
525.478845	0.031492
525.695253	0.031628
525.911643	0.031424
526.128014	0.031480
526.344367	0.031233
526.560702	0.031471
526.777018	0.031195
526.993316	0.031179
527.209597	0.031112
527.425858	0.031800
527.642102	0.031503
527.858328	0.031799
528.074535	0.031987
528.290724	0.031953
528.506894	0.032249
528.723047	0.032031
528.939181	0.031880
529.155297	0.032324
529.371395	0.032131
529.587475	0.032269
529.803536	0.031989
530.019579	0.031926
530.235604	0.032465
530.451611	0.032379
530.667600	0.033007
530.883570	0.033720
531.099522	0.033994
531.315456	0.034181
531.531372	0.034012
531.747269	0.034513
531.963148	0.034339
532.179009	0.034029
532.394852	0.033966
532.610676	0.034012
532.826482	0.033359
533.042271	0.032632
533.258040	0.032312
533.473792	0.032673
533.689525	0.032205
533.905240	0.032257
534.120937	0.032558
534.336616	0.032298
534.552277	0.032002
534.767919	0.032222
534.983543	0.032708
535.199149	0.032827
535.414736	0.033041
535.630306	0.033266
535.845857	0.033447
536.061390	0.033511
536.276904	0.033803
536.492401	0.033617
536.707879	0.034018
536.923339	0.033999
537.138781	0.034267
537.354204	0.034161
537.569610	0.033906
537.784997	0.034046
538.000366	0.034255
538.215716	0.034185
538.431049	0.034235
538.646363	0.033783
538.861659	0.034363
539.076937	0.034315
539.292196	0.033952
539.507438	0.034214
539.722661	0.033845
539.937866	0.033858
540.153052	0.034139
540.368221	0.034547
540.583371	0.035021
540.798503	0.034402
541.013617	0.034157
541.228712	0.034178
541.443789	0.034132
541.658848	0.034466
541.873889	0.034236
542.088912	0.034595
542.303916	0.034716
542.518902	0.034433
542.733870	0.034735
542.948820	0.034749
543.163752	0.035195
543.378665	0.035430
543.593560	0.035144
543.808437	0.035271
544.023295	0.034920
544.238136	0.034761
544.452958	0.034898
544.667762	0.034965
544.882548	0.035325
545.097315	0.035014
545.312064	0.034658
545.526795	0.034980
545.741508	0.034878
545.956203	0.035243
546.170879	0.035233
546.385537	0.035132
546.600177	0.035194
546.814799	0.035156
547.029402	0.035289
547.243988	0.035328
547.458555	0.035732
547.673103	0.035709
547.887634	0.035425
548.102146	0.035494
548.316640	0.035469
548.531116	0.035687
548.745574	0.035533
548.960013	0.035982
549.174435	0.036178
549.388838	0.035795
549.603222	0.036140
549.817589	0.036454
550.031937	0.036413
550.246267	0.036579
550.460579	0.036651
550.674873	0.036540
550.889148	0.035763
551.103405	0.035841
551.317644	0.035499
551.531865	0.035408
551.746068	0.034884
551.960252	0.034883
552.174418	0.035044
552.388566	0.035497
552.602696	0.035731
552.816807	0.036525
553.030900	0.036504
553.244975	0.036982
553.459032	0.036976
553.673070	0.037317
553.887091	0.037856
554.101093	0.037904
554.315077	0.037333
554.529042	0.037795
554.742990	0.037763
554.956919	0.038056
555.170830	0.038456
555.384722	0.038437
555.598597	0.038720
555.812453	0.038544
556.026291	0.038402
556.240111	0.038821
556.453913	0.038501
556.667696	0.038447
556.881461	0.038566
557.095208	0.038355
557.308937	0.038650
557.522647	0.038607
557.736339	0.038620
557.950013	0.038915
558.163669	0.038697
558.377307	0.038882
558.590926	0.038878
558.804527	0.039070
559.018110	0.039369
559.231675	0.039313
559.445221	0.039375
559.658749	0.039315
559.872259	0.039014
560.085751	0.039066
560.299225	0.038907
560.512680	0.039059
560.726117	0.038845
560.939536	0.038630
561.152937	0.038518
561.366319	0.038432
561.579683	0.038397
561.793029	0.038330
562.006357	0.038146
562.219667	0.038004
562.432958	0.038145
562.646231	0.038144
562.859486	0.038274
563.072723	0.038225
563.285941	0.038147
563.499141	0.038180
563.712323	0.038362
563.925487	0.038505
564.138632	0.038830
564.351760	0.038901
564.564869	0.038932
564.777960	0.038910
564.991032	0.039079
565.204087	0.039108
565.417123	0.039242
565.630141	0.039425
565.843140	0.039583
566.056122	0.039383
566.269085	0.039291
566.482030	0.039178
566.694957	0.039053
566.907866	0.038865
567.120756	0.038834
567.333628	0.038955
567.546482	0.039123
567.759318	0.038776
567.972135	0.039043
568.184935	0.038787
568.397716	0.038983
568.610478	0.038904
568.823223	0.039268
569.035949	0.039121
569.248657	0.039003
569.461347	0.038998
569.674019	0.039259
569.886672	0.039068
570.099308	0.039040
570.311925	0.038909
570.524523	0.039074
570.737104	0.038926
570.949666	0.039124
571.162210	0.039202
571.374736	0.038964
571.587244	0.039112
571.799733	0.039199
572.012205	0.039531
572.224658	0.039781
572.437092	0.039689
572.649509	0.039732
572.861907	0.039653
573.074287	0.039532
573.286649	0.039910
573.498993	0.039646
573.711318	0.039867
573.923625	0.039421
574.135914	0.039272
574.348185	0.039377
574.560438	0.039562
574.772672	0.039777
574.984888	0.040100
575.197086	0.040024
575.409266	0.040412
575.621427	0.040369
575.833570	0.040803
576.045695	0.040706
576.257802	0.040690
576.469890	0.040712
576.681961	0.040788
576.894013	0.040713
577.106046	0.040558
577.318062	0.040533
577.530059	0.040357
577.742039	0.040449
577.954000	0.040672
578.165942	0.040866
578.377867	0.040732
578.589773	0.040469
578.801661	0.040368
579.013531	0.040887
579.225382	0.040952
579.437216	0.041011
579.649031	0.040992
579.860828	0.041007
580.072606	0.040998
580.284367	0.041377
580.496109	0.041648
580.707833	0.041748
580.919539	0.041234
581.131227	0.041063
581.342896	0.041455
581.554547	0.041443
581.766180	0.041673
581.977795	0.041675
582.189391	0.041239
582.400969	0.041168
582.612529	0.041179
582.824071	0.041239
583.035595	0.041140
583.247100	0.040868
583.458587	0.041100
583.670056	0.040801
583.881506	0.040599
584.092939	0.040853
584.304353	0.040887
584.515749	0.041011
584.727127	0.041180
584.938486	0.041465
585.149828	0.041238
585.361151	0.041040
585.572456	0.041264
585.783742	0.042004
585.995011	0.041806
586.206261	0.041969
586.417493	0.041934
586.628706	0.041750
586.839902	0.041673
587.051079	0.042034
587.262238	0.042133
587.473379	0.042176
587.684502	0.041743
587.895606	0.041808
588.106692	0.041904
588.317760	0.041889
588.528810	0.042267
588.739841	0.042259
588.950855	0.042451
589.161850	0.042491
589.372827	0.042474
589.583785	0.042441
589.794726	0.042728
590.005648	0.042700
590.216552	0.042518
590.427437	0.042483
590.638305	0.042575
590.849154	0.042464
591.059985	0.042486
591.270798	0.042442
591.481592	0.042680
591.692369	0.042758
591.903127	0.042657
592.113867	0.043001
592.324588	0.042819
592.535292	0.043017
592.745977	0.043331
592.956644	0.043419
593.167293	0.043289
593.377923	0.043033
593.588536	0.043060
593.799130	0.043073
594.009706	0.043243
594.220263	0.043329
594.430803	0.043261
594.641324	0.043034
594.851827	0.043099
595.062312	0.043191
595.272778	0.043244
595.483227	0.043385
595.693657	0.043580
595.904069	0.043461
596.114462	0.043579
596.324838	0.043755
596.535195	0.043436
596.745534	0.043155
596.955855	0.043200
597.166157	0.043140
597.376441	0.043095
597.586707	0.043221
597.796955	0.043114
598.007185	0.043172
598.217396	0.043125
598.427589	0.043419
598.637764	0.043843
598.847921	0.044019
599.058060	0.044328
599.268180	0.044098
599.478282	0.044086
599.688366	0.044276
599.898431	0.044282
600.108479	0.043890
600.318508	0.043848
600.528519	0.043414
600.738511	0.043337
600.948486	0.043248
601.158442	0.043017
601.368380	0.042839
601.578300	0.042646
601.788202	0.042714
601.998085	0.043030
602.207950	0.043085
602.417797	0.043208
602.627626	0.043266
602.837436	0.043076
603.047228	0.043683
603.257002	0.043950
603.466758	0.043946
603.676496	0.043880
603.886215	0.043712
604.095916	0.043601
604.305599	0.043739
604.515264	0.043825
604.724910	0.043902
604.934538	0.043431
605.144148	0.043219
605.353740	0.043436
605.563314	0.043365
605.772869	0.043498
605.982406	0.043593
606.191925	0.043595
606.401425	0.043479
606.610908	0.043571
606.820372	0.043770
607.029818	0.044073
607.239246	0.044156
607.448655	0.044332
607.658047	0.044433
607.867420	0.044406
608.076775	0.044441
608.286111	0.044625
608.495430	0.044635
608.704730	0.044492
608.914012	0.044280
609.123275	0.044347
609.332521	0.044306
609.541748	0.044482
609.750957	0.044718
609.960148	0.044904
610.169321	0.044999
610.378475	0.045094
610.587611	0.045189
610.796729	0.045168
611.005829	0.044878
611.214910	0.044883
611.423974	0.044602
611.633019	0.044681
611.842045	0.044614
612.051054	0.044562
612.260044	0.044632
612.469017	0.044842
612.677970	0.045043
612.886906	0.045221
613.095824	0.045153
613.304723	0.045204
613.513604	0.045112
613.722467	0.044972
613.931311	0.044976
614.140138	0.044987
614.348946	0.045005
614.557736	0.044973
614.766507	0.045055
614.975261	0.045182
615.183996	0.045287
615.392713	0.045427
615.601412	0.045562
615.810092	0.045453
616.018754	0.045372
616.227399	0.045573
616.436024	0.045312
616.644632	0.045276
616.853222	0.045346
617.061793	0.045395
617.270346	0.045308
617.478880	0.045298
617.687397	0.045403
617.895895	0.045460
618.104375	0.045147
618.312837	0.045351
618.521281	0.045253
618.729706	0.045220
618.938113	0.045204
619.146502	0.045305
619.354873	0.045306
619.563226	0.045204
619.771560	0.045274
619.979876	0.045383
620.188174	0.045534
620.396453	0.045758
620.604715	0.045712
620.812958	0.045671
621.021183	0.045565
621.229390	0.045852
621.437578	0.046072
621.645748	0.046025
621.853900	0.045945
622.062034	0.045870
622.270150	0.045655
622.478247	0.045617
622.686326	0.045713
622.894387	0.045546
623.102430	0.045264
623.310454	0.045288
623.518461	0.045253
623.726449	0.045538
623.934418	0.045639
624.142370	0.045766
624.350303	0.045966
624.558218	0.045915
624.766115	0.046211
624.973994	0.046227
625.181855	0.046100
625.389697	0.046166
625.597521	0.046156
625.805327	0.046198
626.013114	0.046127
626.220883	0.045911
626.428634	0.046046
626.636367	0.046181
626.844082	0.046247
627.051778	0.046318
627.259457	0.046437
627.467117	0.046331
627.674758	0.046434
627.882382	0.046660
628.089987	0.047071
628.297574	0.047125
628.505143	0.047049
628.712694	0.047107
628.920226	0.047340
629.127740	0.047291
629.335236	0.047349
629.542714	0.047243
629.750174	0.047272
629.957615	0.047065
630.165038	0.047136
630.372443	0.047228
630.579829	0.047335
630.787198	0.047256
630.994548	0.047407
631.201880	0.047361
631.409194	0.047469
631.616489	0.047314
631.823766	0.047374
632.031025	0.047408
632.238266	0.047255
632.445489	0.047264
632.652693	0.047281
632.859879	0.047165
633.067047	0.047329
633.274197	0.047397
633.481329	0.047499
633.688442	0.047601
633.895537	0.047607
634.102614	0.047645
634.309672	0.047567
634.516713	0.047629
634.723735	0.047557
634.930739	0.047735
635.137724	0.047567
635.344692	0.047508
635.551641	0.047534
635.758572	0.047532
635.965485	0.047638
636.172379	0.047978
636.379256	0.048033
636.586114	0.048316
636.792954	0.048223
636.999775	0.048088
637.206579	0.048198
637.413364	0.048120
637.620131	0.048066
637.826880	0.047723
638.033610	0.047628
638.240323	0.047529
638.447017	0.047653
638.653692	0.047479
638.860350	0.047818
639.066990	0.047914
639.273611	0.048083
639.480214	0.048263
639.686798	0.048712
639.893365	0.048541
640.099913	0.048488
640.306443	0.048279
640.512955	0.048366
640.719449	0.048468
640.925924	0.048466
641.132381	0.048346
641.338820	0.048283
641.545241	0.048031
641.751644	0.048029
641.958028	0.048103
642.164394	0.048219
642.370742	0.048414
642.577071	0.048342
642.783383	0.048349
642.989676	0.048548
643.195951	0.048655
643.402207	0.048926
643.608446	0.049195
643.814666	0.049223
644.020868	0.049209
644.227052	0.048868
644.433218	0.048791
644.639365	0.048830
644.845494	0.048692
645.051605	0.048707
645.257698	0.048524
645.463772	0.048390
645.669828	0.048213
645.875866	0.048262
646.081886	0.048493
646.287888	0.048657
646.493871	0.048757
646.699836	0.049066
646.905783	0.048939
647.111712	0.049175
647.317622	0.049170
647.523514	0.049601
647.729388	0.049595
647.935244	0.049731
648.141082	0.049747
648.346901	0.049610
648.552702	0.049502
648.758485	0.049523
648.964250	0.049426
649.169996	0.049617
649.375724	0.049575
649.581434	0.049648
649.787126	0.049660
649.992800	0.049590
650.198455	0.049757
650.404092	0.049774
650.609711	0.049881
650.815311	0.049988
651.020894	0.049796
651.226458	0.049779
651.432004	0.049762
651.637532	0.049610
651.843041	0.049732
652.048532	0.049898
652.254006	0.049810
652.459460	0.049975
652.664897	0.049937
652.870315	0.050081
653.075716	0.049999
653.281097	0.049948
653.486461	0.050117
653.691807	0.050121
653.897134	0.050046
654.102443	0.050043
654.307734	0.049960
654.513006	0.050019
654.718261	0.050153
654.923497	0.050086
655.128715	0.050381
655.333915	0.050369
655.539096	0.050354
655.744259	0.050282
655.949404	0.050605
656.154531	0.050497
656.359640	0.050514
656.564730	0.050457
656.769802	0.050709
656.974856	0.050558
657.179892	0.050675
657.384909	0.050861
657.589908	0.050910
657.794889	0.050604
657.999852	0.050857
658.204797	0.050724
658.409723	0.050904
658.614631	0.050962
658.819521	0.050942
659.024393	0.050976
659.229246	0.050825
659.434081	0.050847
659.638898	0.051075
659.843697	0.050931
660.048478	0.051254
660.253240	0.051135
660.457984	0.051148
660.662710	0.051127
660.867417	0.051089
661.072107	0.051154
661.276778	0.051349
661.481431	0.051352
661.686066	0.051269
661.890682	0.051266
662.095281	0.051382
662.299861	0.051230
662.504422	0.051441
662.708966	0.051388
662.913491	0.051394
663.117999	0.051362
663.322488	0.051298
663.526958	0.051590
663.731411	0.051523
663.935845	0.051504
664.140261	0.051727
664.344659	0.051820
664.549038	0.051823
664.753400	0.051915
664.957743	0.051923
665.162068	0.052044
665.366375	0.052002
665.570663	0.052050
665.774933	0.052060
665.979185	0.052088
666.183419	0.052025
666.387635	0.052201
666.591832	0.052146
666.796011	0.052249
667.000172	0.052170
667.204315	0.052205
667.408439	0.052332
667.612545	0.052348
667.816634	0.052283
668.020703	0.052296
668.224755	0.052469
668.428788	0.052572
668.632803	0.052700
668.836800	0.052900
669.040779	0.053087
669.244739	0.053009
669.448681	0.053034
669.652605	0.053139
669.856511	0.053227
670.060399	0.053118
670.264268	0.053340
670.468119	0.053128
670.671952	0.053149
670.875767	0.053080
671.079563	0.053290
671.283341	0.053421
671.487101	0.053515
671.690843	0.053540
671.894567	0.053500
672.098272	0.053356
672.301959	0.053564
672.505628	0.053477
672.709278	0.053446
672.912911	0.053533
673.116525	0.053526
673.320121	0.053589
673.523699	0.053490
673.727258	0.053477
673.930799	0.053449
674.134322	0.053321
674.337827	0.053523
674.541314	0.053546
674.744782	0.053332
674.948232	0.053172
675.151664	0.053023
675.355078	0.053075
675.558474	0.053166
675.761851	0.053359
675.965210	0.053311
676.168551	0.053209
676.371873	0.053265
676.575178	0.053312
676.778464	0.053570
676.981732	0.053735
677.184981	0.053791
677.388213	0.053915
677.591426	0.053856
677.794621	0.053997
677.997798	0.054047
678.200956	0.054148
678.404097	0.054362
678.607219	0.054428
678.810323	0.054271
679.013408	0.054339
679.216476	0.054270
679.419525	0.054413
679.622556	0.054560
679.825569	0.054569
680.028563	0.054486
680.231540	0.054453
680.434498	0.054299
680.637438	0.054413
680.840359	0.054429
681.043263	0.054466
681.246148	0.054300
681.449015	0.054171
681.651864	0.054137
681.854694	0.054265
682.057506	0.054369
682.260301	0.054389
682.463076	0.054396
682.665834	0.054289
682.868573	0.054525
683.071295	0.054613
683.273998	0.054865
683.476682	0.054819
683.679349	0.054771
683.881997	0.054642
684.084627	0.054621
684.287239	0.054708
684.489833	0.054945
684.692408	0.054716
684.894965	0.054716
685.097504	0.054519
685.300025	0.054630
685.502527	0.054590
685.705012	0.054616
685.907478	0.054627
686.109925	0.054580
686.312355	0.054340
686.514766	0.054435
686.717159	0.054470
686.919534	0.054323
687.121891	0.054162
687.324230	0.054331
687.526550	0.054389
687.728852	0.054461
687.931136	0.054341
688.133401	0.054563
688.335649	0.054457
688.537878	0.054394
688.740089	0.054726
688.942281	0.054942
689.144456	0.054790
689.346612	0.054699
689.548750	0.054797
689.750870	0.055000
689.952971	0.055030
690.155055	0.055307
690.357120	0.055357
690.559167	0.055086
690.761195	0.055095
690.963206	0.055205
691.165198	0.055236
691.367172	0.055392
691.569128	0.055330
691.771065	0.055308
691.972984	0.055164
692.174885	0.055265
692.376768	0.055233
692.578633	0.055349
692.780479	0.055341
692.982308	0.055317
693.184118	0.055208
693.385909	0.055221
693.587683	0.055182
693.789438	0.055373
693.991175	0.055260
694.192894	0.055384
694.394595	0.055398
694.596277	0.055456
694.797941	0.055583
694.999587	0.055550
695.201215	0.055618
695.402824	0.055724
695.604416	0.055567
695.805989	0.055736
696.007543	0.055912
696.209080	0.055814
696.410598	0.055811
696.612099	0.055753
696.813580	0.055761
697.015044	0.055719
697.216490	0.055564
697.417917	0.055500
697.619326	0.055370
697.820717	0.055218
698.022089	0.055187
698.223444	0.055221
698.424780	0.055354
698.626098	0.055442
698.827397	0.055763
699.028679	0.055989
699.229942	0.056264
699.431187	0.056278
699.632414	0.056273
699.833622	0.056338
700.034813	0.056386
700.235985	0.056397
700.437139	0.056258
700.638274	0.056016
700.839392	0.055977
701.040491	0.056013
701.241572	0.056090
701.442635	0.056343
701.643679	0.056406
701.844706	0.056368
702.045714	0.056237
702.246704	0.056226
702.447675	0.056302
702.648629	0.056268
702.849564	0.056063
703.050481	0.056136
703.251380	0.056053
703.452260	0.056116
703.653122	0.056145
703.853966	0.056120
704.054792	0.056198
704.255600	0.056118
704.456389	0.056095
704.657160	0.056166
704.857913	0.056132
705.058648	0.056093
705.259365	0.055859
705.460063	0.055670
705.660743	0.055802
705.861405	0.055760
706.062048	0.055694
706.262674	0.055568
706.463281	0.055568
706.663870	0.055646
706.864441	0.055600
707.064993	0.055857
707.265527	0.056010
707.466043	0.056095
707.666541	0.056207
707.867021	0.056478
708.067482	0.056667
708.267925	0.056648
708.468350	0.056436
708.668757	0.056500
708.869145	0.056604
709.069516	0.056560
709.269868	0.056479
709.470201	0.056528
709.670517	0.056610
709.870814	0.056593
710.071093	0.056654
710.271354	0.056789
710.471597	0.056887
710.671821	0.056738
710.872028	0.056767
711.072216	0.056839
711.272385	0.056972
711.472537	0.056981
711.672670	0.056946
711.872785	0.056991
712.072882	0.056959
712.272961	0.056858
712.473021	0.056884
712.673063	0.056812
712.873087	0.056790
713.073093	0.056566
713.273081	0.056171
713.473050	0.056209
713.673001	0.055951
713.872934	0.056010
714.072849	0.056071
714.272745	0.056054
714.472623	0.056224
714.672483	0.056192
714.872325	0.056264
715.072148	0.056436
715.271954	0.056410
715.471741	0.056567
715.671509	0.056554
715.871260	0.056635
716.070992	0.056549
716.270707	0.056474
716.470403	0.056653
716.670080	0.056398
716.869740	0.056447
717.069381	0.056477
717.269004	0.056423
717.468609	0.056324
717.668195	0.056150
717.867764	0.056314
718.067314	0.056274
718.266846	0.056146
718.466360	0.056398
718.665855	0.056453
718.865332	0.056403
719.064791	0.056485
719.264232	0.056534
719.463655	0.056725
719.663059	0.056590
719.862445	0.056699
720.061813	0.056605
720.261163	0.056447
720.460494	0.056453
720.659807	0.056353
720.859102	0.056440
721.058379	0.056538
721.257638	0.056286
721.456878	0.056147
721.656100	0.056101
721.855304	0.056063
722.054490	0.056013
722.253657	0.055895
722.452806	0.056136
722.651937	0.056022
722.851050	0.055865
723.050145	0.055959
723.249221	0.056070
723.448279	0.056088
723.647319	0.056123
723.846340	0.056253
724.045344	0.056283
724.244329	0.056121
724.443296	0.056125
724.642245	0.056292
724.841175	0.056264
725.040088	0.056312
725.238982	0.056409
725.437857	0.056458
725.636715	0.056387
725.835554	0.056296
726.034376	0.056462
726.233179	0.056445
726.431963	0.056250
726.630730	0.056395
726.829478	0.056454
727.028208	0.056394
727.226920	0.056332
727.425614	0.056389
727.624289	0.056343
727.822946	0.056306
728.021585	0.056466
728.220206	0.056587
728.418808	0.056455
728.617392	0.056391
728.815958	0.056236
729.014506	0.056163
729.213036	0.056158
729.411547	0.056240
729.610040	0.056147
729.808515	0.055912
730.006972	0.055738
730.205410	0.055572
730.403831	0.055439
730.602233	0.055439
730.800616	0.055339
730.998982	0.055196
731.197329	0.054982
731.395658	0.054970
731.593969	0.054912
731.792262	0.054949
731.990536	0.055017
732.188793	0.055016
732.387031	0.054895
732.585250	0.054986
732.783452	0.055052
732.981635	0.055069
733.179800	0.054810
733.377947	0.054899
733.576076	0.054907
733.774186	0.054770
733.972278	0.054668
734.170352	0.054736
734.368408	0.054787
734.566446	0.054761
734.764465	0.054963
734.962466	0.055123
735.160449	0.055032
735.358413	0.054895
735.556360	0.054857
735.754288	0.054786
735.952198	0.054723
736.150090	0.054606
736.347963	0.054522
736.545818	0.054332
736.743655	0.054197
736.941474	0.054170
737.139275	0.054307
737.337057	0.054440
737.534821	0.054612
737.732567	0.054543
737.930295	0.054439
738.128005	0.054428
738.325696	0.054402
738.523369	0.054471
738.721024	0.054340
738.918660	0.054330
739.116279	0.054312
739.313879	0.054181
739.511461	0.054131
739.709024	0.054089
739.906570	0.054229
740.104097	0.054228
740.301606	0.054221
740.499097	0.054243
740.696569	0.054021
740.894024	0.053943
741.091460	0.053924
741.288878	0.053990
741.486277	0.054108
741.683659	0.054034
741.881022	0.053971
742.078367	0.054045
742.275694	0.053935
742.473002	0.053953
742.670293	0.054010
742.867565	0.054027
743.064819	0.054030
743.262054	0.053857
743.459272	0.053844
743.656471	0.053902
743.853652	0.053910
744.050815	0.054062
744.247959	0.054180
744.445085	0.054074
744.642194	0.053967
744.839283	0.053896
745.036355	0.053965
745.233408	0.053876
745.430444	0.053780
745.627461	0.053602
745.824459	0.053510
746.021440	0.053415
746.218402	0.053434
746.415346	0.053490
746.612272	0.053331
746.809180	0.053287
747.006069	0.053211
747.202940	0.053379
747.399793	0.053253
747.596628	0.053183
747.793444	0.053259
747.990243	0.053240
748.187023	0.053027
748.383784	0.053168
748.580528	0.053302
748.777253	0.053175
748.973960	0.053037
749.170649	0.053183
749.367320	0.053281
749.563973	0.053209
749.760607	0.053065
749.957223	0.053135
750.153821	0.053105
750.350400	0.052977
750.546962	0.053097
750.743505	0.052860
750.940030	0.052762
751.136536	0.052772
751.333025	0.052688
751.529495	0.052702
751.725947	0.052852
751.922381	0.052891
752.118796	0.052881
752.315194	0.052873
752.511573	0.052962
752.707934	0.052907
752.904276	0.052741
753.100601	0.052701
753.296907	0.052645
753.493195	0.052615
753.689465	0.052424
753.885716	0.052360
754.081949	0.052220
754.278164	0.052016
754.474361	0.051938
754.670540	0.051690
754.866700	0.051841
755.062843	0.051975
755.258967	0.051985
755.455072	0.052160
755.651160	0.052181
755.847229	0.052304
756.043280	0.052593
756.239313	0.052793
756.435328	0.053144
756.631324	0.053011
756.827302	0.053104
757.023262	0.052972
757.219204	0.052934
757.415127	0.052825
757.611033	0.052779
757.806920	0.052744
758.002788	0.052624
758.198639	0.052518
758.394471	0.052519
758.590286	0.052385
758.786081	0.052380
758.981859	0.052447
759.177619	0.052394
759.373360	0.052467
759.569083	0.052404
759.764788	0.052348
759.960474	0.052488
760.156143	0.052426
760.351793	0.052178
760.547425	0.052246
760.743038	0.052113
760.938634	0.052082
761.134211	0.052029
761.329770	0.052036
761.525311	0.052019
761.720833	0.051817
761.916338	0.051905
762.111824	0.052095
762.307292	0.052010
762.502741	0.052107
762.698173	0.052280
762.893586	0.052030
763.088981	0.051924
763.284358	0.052089
763.479716	0.052129
763.675057	0.052104
763.870379	0.052157
764.065683	0.051997
764.260968	0.051843
764.456236	0.051697
764.651485	0.051801
764.846716	0.051895
765.041929	0.051757
765.237123	0.051734
765.432299	0.051457
765.627457	0.051363
765.822597	0.051551
766.017719	0.051459
766.212822	0.051335
766.407907	0.051301
766.602974	0.051280
766.798023	0.051187
766.993054	0.051109
767.188066	0.051305
767.383060	0.051377
767.578036	0.051279
767.772993	0.051358
767.967933	0.051645
768.162854	0.051615
768.357757	0.051526
768.552642	0.051448
768.747508	0.051477
768.942356	0.051447
769.137186	0.051287
769.331998	0.051292
769.526792	0.051392
769.721567	0.051300
769.916324	0.051397
770.111063	0.051348
770.305784	0.051451
770.500486	0.051453
770.695171	0.051464
770.889837	0.051620
771.084484	0.051661
771.279114	0.051445
771.473725	0.051538
771.668318	0.051401
771.862893	0.051622
772.057450	0.051558
772.251988	0.051524
772.446509	0.051458
772.641011	0.051363
772.835494	0.051388
773.029960	0.051573
773.224407	0.051445
773.418836	0.051653
773.613247	0.051609
773.807640	0.051759
774.002014	0.051821
774.196370	0.051860
774.390708	0.051841
774.585028	0.051723
774.779330	0.051642
774.973613	0.051527
775.167878	0.051581
775.362125	0.051470
775.556354	0.051392
775.750564	0.051266
775.944756	0.051245
776.138930	0.051343
776.333086	0.051561
776.527223	0.051589
776.721343	0.051846
776.915444	0.051594
777.109526	0.051807
777.303591	0.051898
777.497637	0.052075
777.691666	0.052206
777.885676	0.052177
778.079667	0.052100
778.273641	0.052062
778.467596	0.051960
778.661533	0.052168
778.855452	0.052070
779.049352	0.052090
779.243235	0.052211
779.437099	0.052107
779.630945	0.052036
779.824773	0.051938
780.018582	0.052205
780.212373	0.052112
780.406146	0.051959
780.599901	0.051931
780.793638	0.052015
780.987356	0.051795
781.181056	0.051931
781.374738	0.051871
781.568402	0.051930
781.762047	0.051738
781.955674	0.051860
782.149283	0.051928
782.342874	0.051865
782.536447	0.051845
782.730001	0.051897
782.923537	0.051959
783.117055	0.052111
783.310555	0.052164
783.504036	0.052102
783.697499	0.052120
783.890944	0.052326
784.084371	0.052373
784.277780	0.052367
784.471170	0.052597
784.664542	0.052529
784.857896	0.052662
785.051231	0.052895
785.244549	0.053019
785.437848	0.053042
785.631129	0.053081
785.824392	0.053262
786.017636	0.053328
786.210863	0.053296
786.404071	0.053350
786.597260	0.053319
786.790432	0.053146
786.983585	0.053170
787.176721	0.053003
787.369838	0.053108
787.562936	0.053028
787.756017	0.053019
787.949079	0.052900
788.142123	0.052913
788.335149	0.052936
788.528156	0.053009
788.721146	0.053032
788.914117	0.053219
789.107070	0.053115
789.300005	0.053265
789.492921	0.053140
789.685819	0.053274
789.878699	0.053281
790.071561	0.053206
790.264405	0.053351
790.457230	0.053326
790.650037	0.053334
790.842826	0.053379
791.035597	0.053192
791.228349	0.053324
791.421084	0.053247
791.613800	0.053158
791.806497	0.053147
791.999177	0.053026
792.191838	0.052996
792.384481	0.053063
792.577106	0.053083
792.769713	0.053184
792.962301	0.053094
793.154871	0.053201
793.347423	0.053579
793.539957	0.053643
793.732473	0.053716
793.924970	0.053750
794.117449	0.053731
794.309910	0.053644
794.502353	0.053738
794.694777	0.053901
794.887183	0.053850
795.079571	0.053589
795.271941	0.053817
795.464293	0.053961
795.656626	0.054105
795.848941	0.054259
796.041238	0.054403
796.233516	0.054575
796.425777	0.054593
796.618019	0.054758
796.810243	0.054804
797.002449	0.054879
797.194636	0.054810
797.386805	0.054840
797.578956	0.054733
797.771089	0.054696
797.963204	0.054499
798.155300	0.054507
798.347378	0.054583
798.539438	0.054658
798.731480	0.054606
798.923503	0.054747
799.115509	0.054842
799.307496	0.055031
799.499465	0.054928
799.691415	0.055173
799.883348	0.055381
800.075262	0.055372
800.267158	0.055306
800.459035	0.055254
800.650895	0.055261
800.842736	0.055187
801.034559	0.055252
801.226364	0.055750
801.418150	0.055799
801.609919	0.055618
801.801669	0.055790
801.993401	0.055948
802.185114	0.056142
802.376810	0.056177
802.568487	0.056353
802.760146	0.056374
802.951787	0.056038
803.143409	0.055932
803.335014	0.056109
803.526600	0.055993
803.718168	0.055983
803.909717	0.055816
804.101249	0.055821
804.292762	0.055812
804.484257	0.055808
804.675734	0.056116
804.867192	0.056392
805.058632	0.056408
805.250054	0.056474
805.441458	0.056738
805.632844	0.056906
805.824211	0.056951
806.015561	0.057132
806.206891	0.057180
806.398204	0.057041
806.589499	0.057066
806.780775	0.057140
806.972033	0.057200
807.163273	0.057266
807.354495	0.057304
807.545698	0.057356
807.736883	0.057281
807.928050	0.057532
808.119199	0.057655
808.310329	0.057571
808.501441	0.057634
808.692535	0.057717
808.883611	0.057778
809.074669	0.057993
809.265708	0.058048
809.456729	0.058194
809.647732	0.058091
809.838717	0.058125
810.029683	0.058238
810.220632	0.058305
810.411562	0.058498
810.602474	0.058313
810.793367	0.058378
810.984242	0.058426
811.175100	0.058392
811.365938	0.058552
811.556759	0.058703
811.747562	0.058755
811.938346	0.058771
812.129112	0.058743
812.319860	0.058890
812.510589	0.058761
812.701300	0.058960
812.891994	0.059095
813.082668	0.058936
813.273325	0.058959
813.463964	0.058969
813.654584	0.059278
813.845186	0.059381
814.035769	0.059575
814.226335	0.059694
814.416882	0.059766
814.607411	0.059916
814.797922	0.060215
814.988415	0.060386
815.178889	0.060590
815.369345	0.060499
815.559783	0.060580
815.750203	0.060753
815.940605	0.060885
816.130988	0.060934
816.321353	0.060924
816.511700	0.060833
816.702028	0.060850
816.892339	0.060952
817.082631	0.061088
817.272905	0.060962
817.463161	0.060806
817.653398	0.060987
817.843617	0.061037
818.033819	0.061114
818.224001	0.061214
818.414166	0.061259
818.604312	0.061195
818.794440	0.061263
818.984550	0.061381
819.174642	0.061508
819.364716	0.061330
819.554771	0.061307
819.744808	0.061452
819.934827	0.061707
820.124827	0.061840
820.314810	0.061836
820.504774	0.062019
820.694720	0.062129
820.884647	0.062150
821.074557	0.062338
821.264448	0.062568
821.454321	0.062505
821.644176	0.062376
821.834012	0.062352
822.023831	0.062595
822.213631	0.062603
822.403413	0.062688
822.593176	0.062789
822.782922	0.063093
822.972649	0.063061
823.162358	0.063087
823.352049	0.063329
823.541721	0.063337
823.731376	0.063114
823.921012	0.063164
824.110629	0.063241
824.300229	0.063355
824.489811	0.063118
824.679374	0.063226
824.868919	0.063444
825.058445	0.063489
825.247954	0.063808
825.437444	0.063949
825.626916	0.063874
825.816370	0.063862
826.005806	0.063916
826.195223	0.063976
826.384622	0.063851
826.574003	0.063859
826.763366	0.063712
826.952711	0.063478
827.142037	0.063654
827.331345	0.063694
827.520635	0.063839
827.709906	0.064012
827.899160	0.064039
828.088395	0.064333
828.277612	0.064572
828.466810	0.064867
828.655991	0.065137
828.845153	0.065282
829.034297	0.065529
829.223423	0.065669
829.412531	0.065533
829.601620	0.065830
829.790691	0.065984
829.979744	0.065955
830.168779	0.065889
830.357795	0.065880
830.546793	0.065916
830.735773	0.065842
830.924735	0.065844
831.113679	0.066127
831.302604	0.066285
831.491511	0.066028
831.680400	0.066032
831.869271	0.066131
832.058123	0.066150
832.246957	0.066274
832.435773	0.066558
832.624571	0.066675
832.813351	0.066633
833.002112	0.066651
833.190855	0.066810
833.379580	0.066805
833.568287	0.066949
833.756975	0.067198
833.945645	0.067270
834.134297	0.067304
834.322931	0.067385
834.511547	0.067385
834.700144	0.067391
834.888723	0.067385
835.077284	0.067746
835.265826	0.067880
835.454351	0.067945
835.642857	0.068050
835.831345	0.067974
836.019815	0.068112
836.208266	0.068351
836.396699	0.068303
836.585114	0.068487
836.773511	0.068473
836.961890	0.068471
837.150250	0.068580
837.338592	0.068651
837.526916	0.068814
837.715222	0.068852
837.903510	0.068915
838.091779	0.069054
838.280030	0.069046
838.468263	0.069083
838.656477	0.069180
838.844674	0.069219
839.032852	0.069187
839.221012	0.069414
839.409153	0.069633
839.597277	0.069756
839.785382	0.069800
839.973469	0.070068
840.161538	0.070090
840.349589	0.070041
840.537621	0.070185
840.725635	0.070294
840.913631	0.070188
841.101609	0.070176
841.289568	0.070371
841.477509	0.070789
841.665432	0.070735
841.853337	0.070818
842.041224	0.071146
842.229092	0.071132
842.416942	0.071296
842.604774	0.071530
842.792588	0.071430
842.980383	0.071373
843.168160	0.071278
843.355919	0.071380
843.543660	0.071484
843.731382	0.071708
843.919087	0.071849
844.106773	0.071902
844.294441	0.071927
844.482090	0.072398
844.669722	0.072358
844.857335	0.072262
845.044930	0.072386
845.232507	0.072639
845.420065	0.072704
845.607605	0.072819
845.795127	0.073004
845.982631	0.073112
846.170117	0.072950
846.357584	0.073256
846.545033	0.073612
846.732464	0.073775
846.919877	0.073669
847.107272	0.073430
847.294648	0.073320
847.482006	0.073284
847.669346	0.073371
847.856667	0.073334
848.043971	0.073086
848.231256	0.073016
848.418523	0.073510
848.605771	0.073995
848.793002	0.073909
848.980214	0.074142
849.167408	0.074308
849.354584	0.074365
849.541742	0.074522
849.728881	0.074857
849.916002	0.075006
850.103105	0.074658
850.290190	0.074519
850.477256	0.074968
850.664304	0.075198
850.851334	0.075071
851.038346	0.075196
851.225340	0.075240
851.412315	0.075354
851.599272	0.075456
851.786211	0.075520
851.973132	0.075323
852.160034	0.075523
852.346918	0.075757
852.533784	0.076135
852.720632	0.076370
852.907462	0.076510
853.094273	0.076690
853.281066	0.077151
853.467841	0.077362
853.654598	0.077853
853.841336	0.077953
854.028056	0.077682
854.214758	0.077722
854.401442	0.077792
854.588107	0.077934
854.774755	0.077908
854.961384	0.077554
855.147995	0.077589
855.334587	0.077332
855.521162	0.077339
855.707718	0.077627
855.894256	0.077909
856.080775	0.077881
856.267277	0.077918
856.453760	0.077888
856.640225	0.078371
856.826672	0.078584
857.013101	0.078856
857.199511	0.078966
857.385903	0.079035
857.572277	0.078999
857.758633	0.079052
857.944970	0.079193
858.131290	0.079575
858.317591	0.079485
858.503873	0.079201
858.690138	0.079344
858.876384	0.079300
859.062612	0.079276
859.248822	0.079344
859.435014	0.079475
859.621188	0.079674
859.807343	0.079600
859.993480	0.079344
860.179599	0.079705
860.365699	0.079785
860.551781	0.080200
860.737846	0.080561
860.923891	0.080414
861.109919	0.080528
861.295929	0.080516
861.481920	0.080418
861.667893	0.080870
861.853848	0.080932
862.039784	0.080862
862.225702	0.080700
862.411603	0.080765
862.597484	0.081029
862.783348	0.081015
862.969193	0.081243
863.155021	0.081273
863.340830	0.081214
863.526620	0.081581
863.712393	0.082167
863.898147	0.082447
864.083883	0.082413
864.269601	0.082553
864.455301	0.082941
864.640982	0.082817
864.826645	0.083254
865.012290	0.083572
865.197917	0.083508
865.383526	0.083109
865.569116	0.083197
865.754688	0.083160
865.940242	0.083026
866.125777	0.083010
866.311295	0.083460
866.496794	0.083524
866.682275	0.083412
866.867737	0.083510
867.053182	0.083592
867.238608	0.083642
867.424016	0.083578
867.609406	0.083659
867.794778	0.083738
867.980131	0.083475
868.165466	0.083602
868.350783	0.083811
868.536082	0.084050
868.721362	0.084476
868.906625	0.084453
869.091869	0.084738
869.277094	0.084890
869.462302	0.084888
869.647491	0.085038
869.832662	0.085121
870.017815	0.085110
870.202950	0.084878
870.388066	0.084662
870.573165	0.084607
870.758245	0.084878
870.943306	0.085131
871.128350	0.085267
871.313375	0.085438
871.498382	0.085160
871.683371	0.085085
871.868342	0.085217
872.053294	0.085504
872.238229	0.085613
872.423144	0.085554
872.608042	0.085487
872.792922	0.085443
872.977783	0.085329
873.162626	0.085913
873.347451	0.086154
873.532258	0.086136
873.717046	0.086116
873.901816	0.086512
874.086568	0.086582
874.271302	0.086988
874.456017	0.086907
874.640715	0.087111
874.825394	0.086846
875.010055	0.087150
875.194697	0.087090
875.379322	0.087041
875.563928	0.086823
875.748516	0.086973
875.933085	0.086916
876.117637	0.087361
876.302170	0.087476
876.486685	0.087846
876.671182	0.087457
876.855661	0.087759
877.040121	0.087751
877.224563	0.087783
877.408987	0.087786
877.593393	0.087868
877.777780	0.087620
877.962150	0.087673
878.146501	0.087290
878.330833	0.087700
878.515148	0.087650
878.699444	0.087722
878.883722	0.087770
879.067982	0.087636
879.252224	0.087305
879.436447	0.087375
879.620653	0.087268
879.804840	0.087573
879.989008	0.087626
880.173159	0.087763
880.357291	0.087894
880.541405	0.087831
880.725501	0.088074
880.909579	0.088220
881.093638	0.088342
881.277680	0.088663
881.461703	0.088355
881.645707	0.088115
881.829694	0.088107
882.013662	0.088282
882.197612	0.088567
882.381544	0.088520
882.565458	0.088736
882.749353	0.088735
882.933230	0.088534
883.117089	0.088675
883.300930	0.088743
883.484753	0.088888
883.668557	0.088762
883.852343	0.088794
884.036111	0.088838
884.219861	0.089023
884.403592	0.088976
884.587305	0.089149
884.771000	0.089282
884.954677	0.089267
885.138335	0.089374
885.321976	0.089257
885.505598	0.089078
885.689201	0.088963
885.872787	0.088849
886.056354	0.088819
886.239904	0.088497
886.423434	0.088242
886.606947	0.088018
886.790442	0.087915
886.973918	0.088187
887.157376	0.088296
887.340816	0.088294
887.524237	0.088114
887.707641	0.088192
887.891026	0.088454
888.074393	0.088908
888.257741	0.088756
888.441072	0.088760
888.624384	0.088743
888.807678	0.088779
888.990954	0.089048
889.174211	0.088590
889.357451	0.088780
889.540672	0.088847
889.723875	0.088306
889.907059	0.088776
890.090226	0.088879
890.273374	0.088696
890.456504	0.088924
890.639616	0.088920
890.822709	0.089454
891.005785	0.089325
891.188842	0.089562
891.371881	0.090113
891.554901	0.089996
891.737904	0.089667
891.920888	0.089530
892.103854	0.089155
892.286802	0.088848
892.469731	0.088788
892.652643	0.088439
892.835536	0.088239
893.018410	0.087807
893.201267	0.087719
893.384106	0.087711
893.566926	0.087992
893.749728	0.088044
893.932511	0.087817
894.115277	0.087696
894.298024	0.087836
894.480753	0.087460
894.663464	0.087598
894.846157	0.087447
895.028831	0.087206
895.211487	0.086918
895.394125	0.086780
895.576745	0.087044
895.759346	0.087080
895.941930	0.087400
896.124495	0.087324
896.307041	0.087530
896.489570	0.087653
896.672080	0.087930
896.854573	0.088174
897.037046	0.088274
897.219502	0.088520
897.401940	0.088540
897.584359	0.088346
897.766760	0.088551
897.949143	0.088460
898.131507	0.088152
898.313854	0.088009
898.496182	0.087961
898.678492	0.087646
898.860783	0.087437
899.043057	0.087463
899.225312	0.087406
899.407549	0.087590
899.589768	0.087702
899.771968	0.087997
899.954151	0.088172
900.136315	0.087852
900.318461	0.087983
900.500588	0.088201
900.682698	0.088008
900.864789	0.088217
901.046862	0.088161
901.228917	0.088061
901.410953	0.087832
901.592971	0.087486
901.774972	0.087706
901.956953	0.087633
902.138917	0.086942
902.320862	0.087051
902.502790	0.086916
902.684699	0.086874
902.866589	0.086800
903.048462	0.086962
903.230316	0.087133
903.412152	0.087232
903.593970	0.087393
903.775770	0.087621
903.957551	0.087458
904.139314	0.087239
904.321059	0.086872
904.502786	0.086410
904.684494	0.086007
904.866185	0.085966
905.047857	0.085796
905.229510	0.085547
905.411146	0.085179
905.592763	0.084879
905.774363	0.084690
905.955943	0.084519
906.137506	0.084797
906.319051	0.085059
906.500577	0.085108
906.682085	0.084648
906.863575	0.084580
907.045046	0.084795
907.226500	0.084645
907.407935	0.084551
907.589352	0.084463
907.770750	0.084421
907.952131	0.084411
908.133493	0.083926
908.314837	0.083923
908.496163	0.083540
908.677470	0.083271
908.858760	0.083592
909.040031	0.083357
909.221284	0.083579
909.402518	0.083552
909.583735	0.083384
909.764933	0.083508
909.946113	0.083402
910.127275	0.083663
910.308418	0.083638
910.489544	0.083228
910.670651	0.083098
910.851740	0.082963
911.032810	0.082378
911.213863	0.082479
911.394897	0.082150
911.575913	0.082465
911.756911	0.081864
911.937890	0.081882
912.118851	0.081748
912.299794	0.081764
912.480719	0.081542
912.661626	0.081693
912.842514	0.081606
913.023384	0.081554
913.204236	0.081188
913.385070	0.081328
913.565886	0.081097
913.746683	0.080792
913.927462	0.080676
914.108223	0.081035
914.288965	0.080618
914.469690	0.080000
914.650396	0.079673
914.831084	0.079101
915.011754	0.079064
915.192405	0.079064
915.373038	0.079430
915.553653	0.079219
915.734250	0.078656
915.914829	0.078769
916.095389	0.078766
916.275931	0.078836
916.456455	0.079064
916.636961	0.079283
916.817448	0.078824
916.997917	0.078379
917.178368	0.078582
917.358801	0.078359
917.539216	0.077802
917.719612	0.077747
917.899990	0.077713
918.080350	0.077300
918.260692	0.076280
918.441015	0.076267
918.621320	0.076222
918.801607	0.075677
918.981876	0.075393
919.162127	0.075496
919.342359	0.075180
919.522573	0.075186
919.702769	0.075103
919.882947	0.075602
920.063106	0.075349
920.243247	0.074943
920.423370	0.074926
920.603475	0.074852
920.783562	0.074484
920.963630	0.074200
921.143680	0.073475
921.323712	0.073659
921.503725	0.073447
921.683721	0.073491
921.863698	0.073106
922.043657	0.072839
922.223598	0.072329
922.403520	0.072098
922.583424	0.071604
922.763311	0.071765
922.943178	0.070924
923.123028	0.070445
923.302859	0.069751
923.482673	0.069934
923.662467	0.069798
923.842244	0.069502
924.022003	0.069299
924.201743	0.069504
924.381465	0.068918
924.561169	0.069005
924.740854	0.068750
924.920522	0.068162
925.100171	0.067958
925.279802	0.067926
925.459414	0.067786
925.639009	0.067658
925.818585	0.067699
925.998143	0.067876
926.177683	0.067649
926.357205	0.067506
926.536708	0.068004
926.716193	0.067852
926.895660	0.067035
927.075109	0.066916
927.254539	0.067165
927.433951	0.066664
927.613345	0.066134
927.792721	0.065961
927.972079	0.065694
928.151418	0.065433
928.330739	0.065255
928.510042	0.065313
928.689327	0.065112
928.868593	0.064340
929.047841	0.063855
929.227071	0.064002
929.406283	0.063779
929.585476	0.063927
929.764652	0.063890
929.943809	0.063706
930.122948	0.063728
930.302068	0.063894
930.481171	0.064332
930.660255	0.063991
930.839321	0.063620
931.018369	0.062986
931.197398	0.062306
931.376409	0.061746
931.555402	0.061612
931.734377	0.060987
931.913334	0.060488
932.092272	0.060048
932.271192	0.059753
932.450094	0.059734
932.628978	0.059805
932.807844	0.060307
932.986691	0.059841
933.165520	0.059098
933.344331	0.058539
933.523123	0.057952
933.701898	0.057260
933.880654	0.057399
934.059392	0.056681
934.238111	0.056408
934.416813	0.055258
934.595496	0.055503
934.774161	0.054731
934.952808	0.054461
935.131437	0.054689
935.310047	0.054253
935.488639	0.053962
935.667213	0.053486
935.845769	0.052891
936.024306	0.053023
936.202825	0.051769
936.381326	0.052474
936.559809	0.052642
936.738274	0.052066
936.916720	0.052144
937.095148	0.052131
937.273558	0.052130
937.451950	0.052326
937.630323	0.052103
937.808678	0.052679
937.987015	0.052106
938.165334	0.051796
938.343635	0.051731
938.521917	0.051631
938.700181	0.050678
938.878427	0.049994
939.056655	0.049704
939.234864	0.049664
939.413055	0.049804
939.591228	0.049208
939.769383	0.048947
939.947519	0.048587
940.125638	0.048498
940.303738	0.048414
940.481820	0.047861
940.659883	0.047379
940.837929	0.046931
941.015956	0.046056
941.193965	0.046229
941.371955	0.046300
941.549928	0.045359
941.727882	0.044209
941.905818	0.043958
942.083736	0.044701
942.261636	0.044642
942.439517	0.044100
942.617380	0.043918
942.795225	0.043547
942.973052	0.042854
943.150860	0.042857
943.328651	0.042518
943.506423	0.042591
943.684176	0.041298
943.861912	0.041109
944.039629	0.040365
944.217328	0.040006
944.395009	0.039229
944.572672	0.038836
944.750317	0.038144
944.927943	0.037484
945.105551	0.037024
945.283141	0.037199
945.460712	0.036061
945.638265	0.036038
945.815801	0.036324
945.993317	0.036252
946.170816	0.036502
946.348297	0.037638
946.525759	0.038134
946.703203	0.038234
946.880629	0.038285
947.058036	0.038826
947.235425	0.038319
947.412797	0.037377
947.590149	0.036638
947.767484	0.036069
947.944800	0.034534
948.122099	0.034855
948.299379	0.033559
948.476640	0.033070
948.653884	0.032944
948.831109	0.032436
949.008316	0.032264
949.185505	0.034091
949.362676	0.033690
949.539828	0.034487
949.716962	0.034145
949.894078	0.034777
950.071176	0.034592
950.248256	0.034547
950.425317	0.035121
950.602360	0.034274
950.779385	0.032590
950.956391	0.032309
951.133380	0.032245
951.310350	0.032569
951.487302	0.032153
951.664235	0.033400
951.841151	0.033267
952.018048	0.032884
952.194927	0.033158
952.371788	0.033445
952.548631	0.034146
952.725455	0.034321
952.902261	0.033118
953.079049	0.033981
953.255819	0.031979
953.432570	0.031244
953.609303	0.030528
953.786018	0.030205
953.962715	0.028856
954.139394	0.028132
954.316054	0.027610
954.492696	0.028609
954.669320	0.028998
954.845926	0.029715
955.022513	0.029355
955.199083	0.028080
955.375634	0.029118
955.552166	0.029651
955.728681	0.028922
955.905177	0.027649
956.081655	0.027943
956.258115	0.026946
956.434557	0.027632
956.610980	0.027971
956.787385	0.030354
956.963772	0.029796
957.140141	0.028978
957.316492	0.028955
957.492824	0.028897
957.669138	0.027416
957.845434	0.026809
958.021712	0.026296
958.197971	0.024894
958.374212	0.025139
958.550435	0.024108
958.726640	0.024325
958.902826	0.024780
959.078995	0.025576
959.255145	0.026194
959.431277	0.025793
959.607390	0.024470
959.783486	0.027188
959.959563	0.025457
960.135622	0.026980
960.311662	0.027913
960.487685	0.027456
960.663689	0.027190
960.839675	0.025845
961.015643	0.026367
961.191593	0.025622
961.367524	0.023778
961.543437	0.023109
961.719332	0.022333
961.895209	0.023666
962.071067	0.025081
962.246907	0.025088
962.422730	0.023975
962.598533	0.024283
962.774319	0.025249
962.950086	0.026524
963.125835	0.027772
963.301566	0.027772
963.477279	0.027286
963.652973	0.026199
963.828650	0.025923
964.004308	0.027697
964.179947	0.028385
964.355569	0.028375
964.531172	0.027359
964.706757	0.028721
964.882324	0.028381
965.057873	0.026579
965.233403	0.026503
965.408916	0.026155
965.584410	0.024770
965.759885	0.023038
965.935343	0.023371
966.110782	0.023549
966.286203	0.022044
966.461606	0.022332
966.636991	0.022865
966.812357	0.023610
966.987705	0.024153
967.163035	0.026054
967.338347	0.027252
967.513641	0.027592
967.688916	0.027673
967.864173	0.029008
968.039412	0.029010
968.214632	0.029050
968.389835	0.028683
968.565019	0.028511
968.740185	0.029389
968.915333	0.031140
969.090462	0.030852
969.265573	0.031078
969.440667	0.029887
969.615741	0.030533
969.790798	0.030355
969.965836	0.030001
970.140856	0.030627
970.315858	0.029376
970.490842	0.026980
970.665808	0.027610
970.840755	0.028306
971.015684	0.028082
971.190595	0.027669
971.365487	0.028430
971.540362	0.028132
971.715218	0.025246
971.890056	0.025396
972.064875	0.025888
972.239677	0.026192
972.414460	0.024438
972.589225	0.026016
972.763972	0.025717
972.938700	0.025907
973.113411	0.026302
973.288103	0.029112
973.462777	0.029221
973.637432	0.029054
973.812070	0.028192
973.986689	0.029223
974.161290	0.027488
974.335873	0.028593
974.510437	0.028419
974.684984	0.029368
974.859512	0.026625
975.034022	0.028204
975.208513	0.029254
975.382987	0.029083
975.557442	0.030294
975.731879	0.031487
975.906298	0.030716
976.080698	0.030184
976.255080	0.027225
976.429445	0.029352
976.603790	0.028686
976.778118	0.028163
976.952427	0.029210
977.126719	0.027852
977.300992	0.026503
977.475246	0.027560
977.649483	0.027976
977.823701	0.030085
977.997901	0.030162
978.172083	0.028813
978.346247	0.028240
978.520392	0.027701
978.694519	0.027656
978.868628	0.030143
979.042719	0.029266
979.216791	0.030282
979.390845	0.029963
979.564882	0.031235
979.738899	0.031597
979.912899	0.031282
980.086880	0.032025
980.260843	0.032766
980.434788	0.032518
980.608715	0.033118
980.782623	0.032731
980.956514	0.032948
981.130386	0.031064
981.304240	0.031137
981.478075	0.032536
981.651892	0.031927
981.825692	0.029393
981.999472	0.027681
982.173235	0.027380
982.346980	0.026605
982.520706	0.027419
982.694414	0.029634
982.868104	0.031672
983.041775	0.030669
983.215428	0.031482
983.389064	0.031332
983.562680	0.032354
983.736279	0.033704
983.909860	0.033311
984.083422	0.031778
984.256966	0.029316
984.430491	0.027739
984.603999	0.027347
984.777488	0.026478
984.950959	0.028099
985.124412	0.026955
985.297847	0.025196
985.471263	0.025600
985.644661	0.026527
985.818041	0.026954
985.991403	0.027833
986.164747	0.027494
986.338072	0.026332
986.511379	0.028422
986.684668	0.028698
986.857938	0.028652
987.031191	0.028934
987.204425	0.028634
987.377641	0.028857
987.550839	0.027705
987.724018	0.028397
987.897179	0.028612
988.070322	0.026980
988.243447	0.027983
988.416554	0.027798
988.589642	0.027489
988.762712	0.026722
988.935764	0.026279
989.108798	0.025353
989.281813	0.025556
989.454811	0.025874
989.627790	0.025580
989.800751	0.023179
989.973693	0.023161
990.146617	0.023100
990.319524	0.024661
990.492412	0.026004
990.665281	0.026050
990.838133	0.026481
991.010966	0.026673
991.183781	0.027542
991.356578	0.028659
991.529356	0.029221
991.702117	0.030332
991.874859	0.031145
992.047583	0.030799
992.220288	0.030544
992.392976	0.031076
992.565645	0.031095
992.738296	0.031249
992.910929	0.030836
993.083543	0.031694
993.256139	0.030963
993.428718	0.028549
993.601277	0.027546
993.773819	0.028571
993.946342	0.025759
994.118848	0.025988
994.291335	0.027361
994.463803	0.028997
994.636254	0.029569
994.808686	0.029798
994.981100	0.030662
995.153496	0.031548
995.325874	0.031345
995.498233	0.032582
995.670574	0.033713
995.842897	0.030981
996.015202	0.031133
996.187488	0.031197
996.359757	0.030453
996.532007	0.030310
996.704239	0.029443
996.876452	0.028907
997.048648	0.029116
997.220825	0.028254
997.392984	0.028948
997.565124	0.027990
997.737247	0.026102
997.909351	0.027045
998.081437	0.027486
998.253505	0.028363
998.425554	0.028846
998.597586	0.028522
998.769599	0.028169
998.941594	0.027478
999.113571	0.026676
999.285529	0.027579
999.457469	0.027122
999.629391	0.026900
999.801295	0.027730
999.973181	0.027780
1000.145048	0.028208
1000.316897	0.027935
1000.488728	0.028492
1000.660541	0.029613
1000.832335	0.028658
1001.004111	0.029605
1001.175869	0.029044
1001.347609	0.028042
1001.519331	0.027862
1001.691034	0.027372
1001.862719	0.027756
1002.034386	0.027758
1002.206035	0.027843
1002.377665	0.028280
1002.549277	0.026421
1002.720871	0.027017
1002.892447	0.027669
1003.064004	0.028327
1003.235544	0.027849
1003.407065	0.027613
1003.578568	0.027733
1003.750052	0.028005
1003.921519	0.028580
1004.092967	0.029142
1004.264397	0.028810
1004.435809	0.027539
1004.607202	0.025916
1004.778577	0.028214
1004.949934	0.028382
1005.121273	0.027102
1005.292594	0.026227
1005.463896	0.025340
1005.635180	0.025575
1005.806446	0.023754
1005.977694	0.024657
1006.148923	0.025052
1006.320135	0.024075
1006.491328	0.022717
1006.662503	0.023300
1006.833659	0.024204
1007.004798	0.024524
1007.175918	0.024010
1007.347020	0.026690
1007.518103	0.026315
1007.689169	0.026370
1007.860216	0.027331
1008.031245	0.028991
1008.202256	0.029126
1008.373248	0.028201
1008.544223	0.027111
1008.715179	0.027912
1008.886117	0.026938
1009.057036	0.026447
1009.227938	0.027786
1009.398821	0.025796
1009.569686	0.024766
1009.740533	0.026518
1009.911361	0.025061
1010.082172	0.024145
1010.252964	0.024928
1010.423738	0.024542
1010.594493	0.025250
1010.765231	0.023420
1010.935950	0.023760
1011.106651	0.024922
1011.277334	0.023568
1011.447998	0.025816
1011.618645	0.027600
1011.789273	0.026034
1011.959882	0.026752
1012.130474	0.026084
1012.301048	0.028610
1012.471603	0.030278
1012.642140	0.030835
1012.812658	0.031441
1012.983159	0.030482
1013.153641	0.029960
1013.324105	0.030283
1013.494551	0.028841
1013.664979	0.029965
1013.835388	0.028293
1014.005779	0.027977
1014.176152	0.027630
1014.346507	0.027109
1014.516843	0.028560
1014.687162	0.028805
1014.857462	0.027797
1015.027744	0.028554
1015.198007	0.027508
1015.368252	0.028198
1015.538480	0.025492
1015.708689	0.025013
1015.878879	0.023216
1016.049052	0.022782
1016.219206	0.022525
1016.389342	0.024167
1016.559460	0.025146
1016.729559	0.025615
1016.899641	0.024735
1017.069704	0.027258
1017.239749	0.026269
1017.409775	0.028871
1017.579784	0.028790
1017.749774	0.028815
1017.919746	0.027156
1018.089700	0.026666
1018.259635	0.027344
1018.429553	0.027661
1018.599452	0.028479
1018.769333	0.029655
1018.939195	0.028552
1019.109040	0.027019
1019.278866	0.027063
1019.448674	0.029089
1019.618464	0.029296
1019.788235	0.029302
1019.957989	0.029750
1020.127724	0.028850
1020.297441	0.029643
1020.467139	0.029228
1020.636820	0.030503
1020.806482	0.030502
1020.976126	0.028543
1021.145752	0.028442
1021.315359	0.028266
1021.484948	0.028104
1021.654519	0.027827
1021.824072	0.026364
1021.993607	0.027567
1022.163123	0.027792
1022.332621	0.029152
1022.502101	0.029416
1022.671563	0.029338
1022.841007	0.028735
1023.010432	0.027436
1023.179839	0.026969
1023.349228	0.026906
1023.518598	0.026782
1023.687951	0.027160
1023.857285	0.027302
1024.026601	0.027991
1024.195899	0.029353
1024.365178	0.030343
1024.534439	0.031728
1024.703682	0.032480
1024.872907	0.032833
1025.042114	0.033086
1025.211302	0.033102
1025.380472	0.032761
1025.549624	0.032869
1025.718758	0.032149
1025.887873	0.030384
1026.056970	0.031287
1026.226049	0.029569
1026.395110	0.029044
1026.564153	0.028707
1026.733177	0.027012
1026.902183	0.025292
1027.071171	0.026273
1027.240141	0.025663
1027.409092	0.026029
1027.578026	0.024922
1027.746940	0.025826
1027.915837	0.026369
1028.084716	0.026569
1028.253576	0.026380
1028.422418	0.027531
1028.591242	0.026679
1028.760048	0.027581
1028.928835	0.028731
1029.097604	0.028355
1029.266355	0.029508
1029.435088	0.031053
1029.603803	0.033107
1029.772499	0.033783
1029.941177	0.033913
1030.109837	0.032707
1030.278478	0.032332
1030.447102	0.031255
1030.615707	0.032006
1030.784294	0.031424
1030.952863	0.028335
1031.121413	0.025530
1031.289945	0.026368
1031.458460	0.025824
1031.626955	0.027313
1031.795433	0.027616
1031.963892	0.027960
1032.132334	0.027473
1032.300756	0.027781
1032.469161	0.029215
1032.637548	0.029523
1032.805916	0.029266
1032.974266	0.029681
1033.142598	0.028069
1033.310911	0.024967
1033.479207	0.025777
1033.647484	0.026684
1033.815743	0.027073
1033.983983	0.027194
1034.152206	0.028020
1034.320410	0.027392
1034.488596	0.027625
1034.656764	0.029079
1034.824914	0.032126
1034.993045	0.032194
1035.161158	0.032127
1035.329253	0.031485
1035.497330	0.031943
1035.665388	0.031069
1035.833428	0.030059
1036.001450	0.031329
1036.169454	0.031283
1036.337440	0.030948
1036.505407	0.029339
1036.673356	0.028095
1036.841287	0.026131
1037.009200	0.025533
1037.177094	0.024999
1037.344970	0.024701
1037.512828	0.022552
1037.680668	0.021754
1037.848489	0.021255
1038.016293	0.023514
1038.184078	0.024755
1038.351845	0.027179
1038.519593	0.028536
1038.687324	0.029087
1038.855036	0.030393
1039.022730	0.030926
1039.190406	0.031811
1039.358063	0.032619
1039.525702	0.031417
1039.693323	0.029623
1039.860926	0.027997
1040.028511	0.028093
1040.196077	0.027579
1040.363625	0.027801
1040.531155	0.028080
1040.698667	0.028593
1040.866161	0.029796
1041.033636	0.029780
1041.201093	0.029163
1041.368532	0.029325
1041.535952	0.027173
1041.703355	0.027405
1041.870739	0.027593
1042.038105	0.029300
1042.205452	0.029086
1042.372782	0.027705
1042.540093	0.027350
1042.707386	0.029316
1042.874661	0.029987
1043.041918	0.031945
1043.209156	0.033173
1043.376376	0.034278
1043.543578	0.032996
1043.710762	0.032812
1043.877927	0.030497
1044.045074	0.030050
1044.212203	0.029109
1044.379314	0.029182
1044.546407	0.028986
1044.713481	0.027191
1044.880537	0.025057
1045.047575	0.023432
1045.214595	0.023296
1045.381596	0.024714
1045.548579	0.024885
1045.715544	0.025495
1045.882491	0.025665
1046.049420	0.024925
1046.216330	0.025870
1046.383222	0.026532
1046.550096	0.028138
1046.716951	0.028309
1046.883789	0.027456
1047.050608	0.027140
1047.217409	0.026661
1047.384192	0.026699
1047.550956	0.026403
1047.717703	0.026073
1047.884431	0.026243
1048.051140	0.026167
1048.217832	0.024602
1048.384505	0.025791
1048.551161	0.026239
1048.717798	0.026798
1048.884416	0.026185
1049.051017	0.026164
1049.217599	0.026890
1049.384163	0.027376
1049.550709	0.027716
1049.717237	0.028741
1049.883746	0.030296
1050.050237	0.030004
1050.216710	0.029340
1050.383165	0.029987
1050.549601	0.031028
1050.716019	0.031460
1050.882420	0.032137
1051.048801	0.030173
1051.215165	0.029485
1051.381510	0.029416
1051.547837	0.030312
1051.714146	0.031107
1051.880437	0.031165
1052.046709	0.030272
1052.212964	0.028626
1052.379200	0.027255
1052.545417	0.029387
1052.711617	0.030249
1052.877798	0.028382
1053.043961	0.028147
1053.210106	0.026285
1053.376233	0.026662
1053.542341	0.027314
1053.708432	0.028286
1053.874504	0.027300
1054.040557	0.026648
1054.206593	0.026246
1054.372610	0.025709
1054.538609	0.025651
1054.704590	0.026225
1054.870553	0.025576
1055.036497	0.026208
1055.202424	0.026853
1055.368331	0.029654
1055.534221	0.028290
1055.700093	0.031026
1055.865946	0.032739
1056.031781	0.033102
1056.197598	0.034130
1056.363397	0.034197
1056.529177	0.033249
1056.694939	0.033323
1056.860683	0.032042
1057.026409	0.033609
1057.192116	0.030208
1057.357806	0.029931
1057.523477	0.029664
1057.689130	0.030114
1057.854764	0.028940
1058.020381	0.030284
1058.185979	0.029131
1058.351559	0.030264
1058.517120	0.030157
1058.682664	0.031991
1058.848189	0.031020
1059.013696	0.030464
1059.179185	0.030174
1059.344656	0.030827
1059.510108	0.029992
1059.675542	0.028925
1059.840958	0.027122
1060.006356	0.027967
1060.171735	0.027670
1060.337096	0.026677
1060.502439	0.027613
1060.667764	0.027594
1060.833071	0.026211
1060.998359	0.025622
1061.163629	0.026305
1061.328881	0.028350
1061.494115	0.026579
1061.659330	0.026418
1061.824527	0.028496
1061.989706	0.028654
1062.154867	0.027446
1062.320010	0.029711
1062.485134	0.028318
1062.650240	0.029212
1062.815328	0.026915
1062.980398	0.027852
1063.145449	0.027842
1063.310482	0.026261
1063.475497	0.025656
1063.640494	0.028000
1063.805473	0.027435
1063.970433	0.029255
1064.135375	0.029055
1064.300299	0.029567
1064.465204	0.029326
1064.630092	0.029797
1064.794961	0.032014
1064.959812	0.031606
1065.124645	0.030857
1065.289459	0.031333
1065.454256	0.031019
1065.619034	0.031104
1065.783793	0.031287
1065.948535	0.031173
1066.113258	0.028318
1066.277964	0.027918
1066.442651	0.028684
1066.607319	0.029247
1066.771970	0.028416
1066.936602	0.029534
1067.101216	0.028367
1067.265812	0.028541
1067.430389	0.029050
1067.594949	0.030516
1067.759490	0.028501
1067.924013	0.029751
1068.088518	0.028676
1068.253004	0.029100
1068.417472	0.027701
1068.581922	0.028545
1068.746354	0.028543
1068.910768	0.029115
1069.075163	0.028209
1069.239540	0.030848
1069.403899	0.030035
1069.568240	0.030755
1069.732562	0.030658
1069.896866	0.032349
1070.061152	0.032354
1070.225420	0.032090
1070.389670	0.032099
1070.553901	0.034991
1070.718114	0.034473
1070.882309	0.033184
1071.046486	0.032868
1071.210644	0.034219
1071.374784	0.032719
1071.538906	0.032962
1071.703010	0.033238
1071.867096	0.030301
1072.031163	0.029985
1072.195212	0.027721
1072.359243	0.027601
1072.523256	0.027424
1072.687250	0.026367
1072.851226	0.025200
1073.015184	0.025900
1073.179124	0.026160
1073.343045	0.028689
1073.506949	0.027099
1073.670834	0.026797
1073.834701	0.026291
1073.998549	0.027065
1074.162380	0.026709
1074.326192	0.027166
1074.489986	0.026485
1074.653761	0.026621
1074.817519	0.025303
1074.981258	0.025901
1075.144979	0.028973
1075.308682	0.029929
1075.472367	0.028774
1075.636033	0.029265
1075.799681	0.030410
1075.963311	0.031208
1076.126923	0.034450
1076.290516	0.034866
1076.454092	0.035845
1076.617649	0.034371
1076.781187	0.035983
1076.944708	0.036252
1077.108210	0.037094
1077.271695	0.039127
1077.435160	0.038357
1077.598608	0.035849
1077.762038	0.039434
1077.925449	0.039477
1078.088842	0.038637
1078.252217	0.036929
1078.415573	0.038777
1078.578912	0.037960
1078.742232	0.035532
1078.905534	0.033367
1079.068817	0.031623
1079.232083	0.025984
1079.395330	0.024893
1079.558559	0.024284
1079.721770	0.026596
1079.884962	0.025763
1080.048136	0.025894
1080.211293	0.026192
1080.374430	0.029450
1080.537550	0.029335
1080.700651	0.032966
1080.863735	0.033943
1081.026800	0.035596
1081.189846	0.033110
1081.352875	0.032439
1081.515885	0.031860
1081.678877	0.031372
1081.841851	0.030938
1082.004807	0.031113
1082.167744	0.029146
1082.330663	0.029270
1082.493564	0.029109
1082.656447	0.028252
1082.819312	0.029625
1082.982158	0.028845
1083.144986	0.029772
1083.307796	0.027803
1083.470587	0.027467
1083.633361	0.028157
1083.796116	0.029425
1083.958853	0.030359
1084.121571	0.032420
1084.284272	0.032283
1084.446954	0.032214
1084.609618	0.032022
1084.772264	0.033322
1084.934892	0.034096
1085.097501	0.032190
1085.260092	0.030003
1085.422665	0.029279
1085.585220	0.029154
1085.747756	0.027376
1085.910274	0.026824
1086.072774	0.024073
1086.235256	0.025878
1086.397720	0.025742
1086.560165	0.028302
1086.722592	0.027868
1086.885001	0.028287
1087.047392	0.027649
1087.209764	0.028762
1087.372119	0.029736
1087.534455	0.030596
1087.696772	0.028519
1087.859072	0.028869
1088.021353	0.027822
1088.183616	0.027859
1088.345861	0.027475
1088.508088	0.027266
1088.670296	0.027271
1088.832486	0.028771
1088.994658	0.031093
1089.156812	0.031158
1089.318948	0.032337
1089.481065	0.034437
1089.643164	0.034297
1089.805245	0.033258
1089.967308	0.035136
1090.129352	0.034153
1090.291378	0.032176
1090.453386	0.029595
1090.615376	0.028678
1090.777347	0.026940
1090.939301	0.026358
1091.101236	0.028074
1091.263153	0.029901
1091.425051	0.027523
1091.586932	0.027556
1091.748794	0.030101
1091.910638	0.033844
1092.072463	0.035959
1092.234271	0.039657
1092.396060	0.038857
1092.557831	0.038586
1092.719584	0.038351
1092.881319	0.040554
1093.043035	0.042443
1093.204733	0.038889
1093.366413	0.037769
1093.528075	0.036956
1093.689718	0.033494
1093.851343	0.033478
1094.012950	0.032431
1094.174539	0.031828
1094.336110	0.032342
1094.497662	0.030159
1094.659196	0.032729
1094.820712	0.033042
1094.982210	0.033347
1095.143689	0.032090
1095.305151	0.032429
1095.466594	0.033829
1095.628018	0.036253
1095.789425	0.035142
1095.950813	0.038445
1096.112183	0.040210
1096.273535	0.038795
1096.434869	0.036843
1096.596184	0.039433
1096.757482	0.039704
1096.918761	0.039613
1097.080021	0.035846
1097.241264	0.034590
1097.402488	0.032136
1097.563694	0.032035
1097.724882	0.032167
1097.886052	0.032309
1098.047203	0.029716
1098.208336	0.030655
1098.369451	0.030651
1098.530548	0.034634
1098.691627	0.038003
1098.852687	0.038522
1099.013729	0.035599
1099.174753	0.036015
1099.335758	0.036519
1099.496746	0.038016
1099.657715	0.037892
1099.818666	0.036436
1099.979599	0.033651
1100.140513	0.029944
1100.301409	0.031295
1100.462287	0.032397
1100.623147	0.031869
1100.783989	0.034372
1100.944812	0.035705
1101.105617	0.035467
1101.266404	0.036224
1101.427173	0.037123
1101.587923	0.038620
1101.748656	0.036887
1101.909370	0.037674
1102.070066	0.036607
1102.230743	0.034056
1102.391403	0.033587
1102.552044	0.034001
1102.712667	0.032494
1102.873271	0.032279
1103.033858	0.031302
1103.194426	0.030220
1103.354976	0.029386
1103.515508	0.031551
1103.676021	0.032817
1103.836517	0.032524
1103.996994	0.030031
1104.157453	0.028840
1104.317893	0.027232
1104.478316	0.028435
1104.638720	0.031467
1104.799106	0.031334
1104.959474	0.030993
1105.119823	0.029566
1105.280155	0.030030
1105.440468	0.028715
1105.600763	0.032697
1105.761039	0.035235
1105.921298	0.032974
1106.081538	0.031891
1106.241760	0.035349
1106.401964	0.032496
1106.562149	0.032800
1106.722316	0.033683
1106.882465	0.034251
1107.042596	0.033830
1107.202709	0.030938
1107.362803	0.034251
1107.522879	0.034451
1107.682937	0.029043
1107.842977	0.030809
1108.002999	0.033205
1108.163002	0.034218
1108.322987	0.036315
1108.482954	0.031577
1108.642902	0.033390
1108.802833	0.034830
1108.962745	0.035562
1109.122639	0.036908
1109.282515	0.037549
1109.442372	0.034596
1109.602211	0.032852
1109.762032	0.031318
1109.921835	0.032787
1110.081620	0.033124
1110.241386	0.029397
1110.401134	0.029782
1110.560864	0.029997
1110.720576	0.031253
1110.880269	0.031700
1111.039945	0.032600
1111.199602	0.031974
1111.359240	0.034601
1111.518861	0.034254
1111.678463	0.035564
1111.838047	0.036275
1111.997613	0.035433
1112.157161	0.035208
1112.316690	0.031915
1112.476202	0.033586
1112.635695	0.034708
1112.795169	0.035823
1112.954626	0.038576
1113.114064	0.036072
1113.273484	0.032051
1113.432886	0.031679
1113.592270	0.032572
1113.751635	0.036063
1113.910983	0.034459
1114.070312	0.035448
1114.229622	0.034428
1114.388915	0.034151
1114.548189	0.037252
1114.707445	0.038281
1114.866683	0.040511
1115.025903	0.035541
1115.185104	0.037306
1115.344287	0.038155
1115.503452	0.036020
1115.662599	0.035593
1115.821727	0.031641
1115.980838	0.032476
1116.139930	0.032275
1116.299004	0.030823
1116.458059	0.031961
1116.617097	0.032869
1116.776116	0.030349
1116.935117	0.033601
1117.094099	0.033831
1117.253064	0.038436
1117.412010	0.038434
1117.570938	0.040538
1117.729848	0.040521
1117.888740	0.041518
1118.047613	0.037871
1118.206468	0.040582
1118.365305	0.041997
1118.524124	0.041738
1118.682924	0.039278
1118.841707	0.038239
1119.000471	0.040943
1119.159216	0.043429
1119.317944	0.045939
1119.476653	0.045719
1119.635344	0.044485
1119.794017	0.042347
1119.952672	0.042797
1120.111308	0.042196
1120.269927	0.043924
1120.428527	0.039721
1120.587108	0.040535
1120.745672	0.040156
1120.904217	0.045737
1121.062744	0.045755
1121.221253	0.048732
1121.379744	0.044471
1121.538216	0.045283
1121.696671	0.040843
1121.855107	0.039939
1122.013524	0.041603
1122.171924	0.043014
1122.330305	0.039068
1122.488668	0.037385
1122.647013	0.031522
1122.805340	0.037624
1122.963648	0.038326
1123.121938	0.039474
1123.280210	0.041645
1123.438464	0.033464
1123.596700	0.033794
1123.754917	0.032679
1123.913116	0.032742
1124.071297	0.034334
1124.229459	0.030621
1124.387604	0.030435
1124.545730	0.033677
1124.703838	0.029853
1124.861928	0.034170
1125.019999	0.033548
1125.178052	0.039021
1125.336088	0.040124
1125.494104	0.044314
1125.652103	0.047968
1125.810083	0.046694
1125.968045	0.040952
1126.125989	0.040882
1126.283915	0.040759
1126.441823	0.042025
1126.599712	0.039408
1126.757583	0.035942
1126.915436	0.028510
1127.073270	0.025663
1127.231087	0.026083
1127.388885	0.028431
1127.546665	0.029672
1127.704426	0.027232
1127.862170	0.027031
1128.019895	0.021568
1128.177602	0.024174
1128.335291	0.032037
1128.492961	0.031501
1128.650614	0.031281
1128.808248	0.026039
1128.965864	0.027443
1129.123461	0.032831
1129.281041	0.032010
1129.438602	0.032342
1129.596145	0.031788
1129.753670	0.025981
1129.911176	0.026449
1130.068665	0.027480
1130.226135	0.029243
1130.383587	0.027539
1130.541020	0.022799
1130.698436	0.020764
1130.855833	0.025374
1131.013212	0.027205
1131.170573	0.028518
1131.327915	0.028448
1131.485239	0.027552
1131.642545	0.034808
1131.799833	0.037103
1131.957103	0.039205
1132.114354	0.038482
1132.271588	0.038621
1132.428803	0.037305
1132.585999	0.039852
1132.743178	0.042725
1132.900338	0.040619
1133.057480	0.040085
1133.214604	0.038741
1133.371710	0.040372
1133.528797	0.040218
1133.685866	0.040746
1133.842917	0.039446
1133.999950	0.038316
1134.156964	0.035971
1134.313960	0.036204
1134.470938	0.038105
1134.627898	0.041243
1134.784840	0.037185
1134.941763	0.040411
1135.098668	0.040186
1135.255555	0.042947
1135.412424	0.040368
1135.569274	0.039373
1135.726107	0.043076
1135.882921	0.039334
1136.039716	0.037138
1136.196494	0.038432
1136.353253	0.038558
1136.509995	0.042514
1136.666717	0.042754
1136.823422	0.046831
1136.980109	0.044238
1137.136777	0.045799
1137.293427	0.045893
1137.450059	0.047233
1137.606672	0.049061
1137.763267	0.043225
1137.919844	0.036879
1138.076403	0.041264
1138.232944	0.039247
1138.389466	0.041511
1138.545971	0.036058
1138.702457	0.033888
1138.858924	0.031159
1139.015374	0.036235
1139.171805	0.042575
1139.328218	0.043898
1139.484613	0.036319
1139.640990	0.031270
1139.797348	0.032774
1139.953688	0.035776
1140.110010	0.040196
1140.266314	0.048434
1140.422600	0.038340
1140.578867	0.037628
1140.735116	0.036873
1140.891347	0.043485
1141.047559	0.043246
1141.203754	0.042786
1141.359930	0.040503
1141.516088	0.036888
1141.672228	0.027769
1141.828349	0.027864
1141.984452	0.028632
1142.140537	0.027731
1142.296604	0.020421
1142.452653	0.023827
1142.608683	0.026980
1142.764695	0.026297
1142.920689	0.029632
1143.076665	0.032407
1143.232622	0.043782
1143.388562	0.044564
1143.544483	0.051698
1143.700385	0.054729
1143.856270	0.057181
1144.012136	0.054228
1144.167985	0.055777
1144.323814	0.059041
1144.479626	0.062115
1144.635420	0.052563
1144.791195	0.049627
1144.946952	0.040906
1145.102691	0.043826
1145.258411	0.046278
1145.414113	0.047933
1145.569798	0.050921
1145.725463	0.045796
1145.881111	0.041834
1146.036741	0.040513
1146.192352	0.039853
1146.347945	0.044288
1146.503519	0.039394
1146.659076	0.038862
1146.814614	0.044252
1146.970134	0.037075
1147.125636	0.038686
1147.281120	0.036495
1147.436585	0.036522
1147.592032	0.033112
1147.747461	0.034719
1147.902872	0.034356
1148.058265	0.025109
1148.213639	0.021701
1148.368995	0.029990
1148.524333	0.030412
1148.679653	0.035197
1148.834954	0.036022
1148.990237	0.047034
1149.145502	0.043423
1149.300749	0.046024
1149.455977	0.057089
1149.611188	0.051136
1149.766380	0.041996
1149.921553	0.039171
1150.076709	0.036127
1150.231846	0.039641
1150.386966	0.033808
1150.542066	0.034568
1150.697149	0.036402
1150.852214	0.035444
1151.007260	0.032866
1151.162288	0.035230
1151.317298	0.037059
1151.472289	0.035479
1151.627263	0.030623
1151.782218	0.033333
1151.937155	0.040946
1152.092073	0.039346
1152.246974	0.035976
1152.401856	0.042171
1152.556720	0.039140
1152.711566	0.040999
1152.866393	0.048873
1153.021203	0.053322
1153.175994	0.046142
1153.330767	0.034571
1153.485521	0.033979
1153.640258	0.035604
1153.794976	0.034663
1153.949676	0.049601
1154.104358	0.047882
1154.259021	0.045008
1154.413667	0.045662
1154.568294	0.051743
1154.722903	0.058884
1154.877493	0.057094
1155.032066	0.051353
1155.186620	0.046182
1155.341156	0.031353
1155.495674	0.030548
1155.650173	0.032045
1155.804654	0.030692
1155.959118	0.021706
1156.113562	0.017576
1156.267989	0.020526
1156.422397	0.032828
1156.576788	0.038794
1156.731160	0.051478
1156.885513	0.061306
1157.039849	0.054468
1157.194166	0.056823
1157.348465	0.070549
1157.502746	0.071374
1157.657009	0.066409
1157.811253	0.055702
1157.965479	0.065835
1158.119687	0.055846
1158.273877	0.037953
1158.428048	0.039770
1158.582201	0.041192
1158.736337	0.030053
1158.890453	0.028961
1159.044552	0.031513
1159.198632	0.034790
1159.352694	0.023378
1159.506738	0.033418
1159.660764	0.034852
1159.814771	0.035149
1159.968761	0.040286
1160.122732	0.035167
1160.276685	0.038928
1160.430619	0.040407
1160.584535	0.033973
1160.738434	0.045631
1160.892313	0.035974
1161.046175	0.038429
1161.200019	0.048890
1161.353844	0.040026
1161.507651	0.041347
1161.661440	0.041446
1161.815210	0.043182
1161.968962	0.046739
1162.122697	0.037298
1162.276412	0.042294
1162.430110	0.041780
1162.583789	0.027488
1162.737451	0.019621
1162.891094	0.037024
1163.044718	0.033263
1163.198325	0.030405
1163.351913	0.030076
1163.505483	0.022895
1163.659035	0.017034
1163.812569	0.018996
1163.966084	0.023558
1164.119581	0.034358
1164.273060	0.018265
1164.426521	0.023093
1164.579964	0.026756
1164.733388	0.024909
1164.886794	0.027226
1165.040182	0.018999
1165.193551	0.016882
1165.346903	0.011644
1165.500236	0.017322
1165.653551	0.019716
1165.806848	0.023361
1165.960126	0.020493
1166.113386	0.030264
1166.266628	0.032360
1166.419852	0.051926
1166.573058	0.059585
1166.726245	0.070266
1166.879414	0.056685
1167.032565	0.074577
1167.185698	0.068909
1167.338812	0.068378
1167.491909	0.058295
1167.644987	0.068664
1167.798046	0.066143
1167.951088	0.061191
1168.104111	0.056340
1168.257117	0.056979
1168.410103	0.039053
1168.563072	0.040353
1168.716023	0.041695
1168.868955	0.055289
1169.021869	0.045080
1169.174765	0.035981
1169.327642	0.034864
1169.480501	0.032642
1169.633343	0.036192
1169.786165	0.036023
1169.938970	0.039551
1170.091757	0.038157
1170.244525	0.027104
1170.397275	0.026845
1170.550007	0.031016
1170.702720	0.026078
1170.855415	0.028889
1171.008092	0.028262
1171.160751	0.032405
1171.313392	0.025757
1171.466014	0.048052
1171.618619	0.035017
1171.771205	0.035017
1171.923772	0.035017
