sample name	sample
index	13
start time	 02-11-2021  11:44:02 AM
880	-0.040436
Peak Time (s)	82.037
Peak Height 	-0.04044
calc peak height	80,83
Baseline Time (s)	11.535
Baseline Value 	-0.006237
subtract baseline	10,4
Abs	-0.002963
Peak Time (s)	82.037
Peak Height 	-0.002963
calc peak height	80,83
Baseline Time (s)	10.537
Baseline Value 	0.007494
subtract baseline	10,3
PK_550	0.001078
Peak Time (s)	81.037
Peak Height 	0.001078
calc peak height	80,83
Baseline Time (s)	10.037
Baseline Value 	6.5865E-4
subtract baseline	10,2
PK_880	-0.013062
Peak Time (s)	80.036
Peak Height 	-0.01306
calc peak height	80,83
Baseline Time (s)	8.539
Baseline Value 	1.9326E-4
subtract baseline	10,1


Time (s)	A880-A510	A880-A775	A880-A975	A880	I510	I775	I975	I880	
0.039000	0.001079	0.000925	-0.012747	0.004715	4373.955203	18170.738216	3188.304863	9828.677501
0.537000	-0.000755	-0.000361	-0.012210	0.005593	4364.924425	18095.295218	3188.047534	9814.689590
1.065500	0.000197	-0.001459	-0.014825	0.002790	4377.438549	18154.686105	3188.189083	9859.421949
1.540500	-0.001275	-0.001097	-0.008567	0.007347	4357.401989	18008.953448	3189.474074	9786.843739
2.037500	-0.001408	-0.001362	-0.008425	0.000721	4378.994124	18230.526866	3194.635916	9892.639537
2.541000	-0.000302	-0.000849	-0.004142	0.003408	4373.707173	18154.402326	3195.864548	9849.539441
3.037000	0.001693	0.000161	-0.011805	0.004385	4377.106672	18155.573422	3189.264754	9833.932376
3.536000	-0.003440	-0.000326	0.007163	0.003788	4362.008289	18159.402478	3204.398791	9843.463995
4.036500	-0.003040	0.000352	-0.007267	0.003890	4362.996656	18179.545909	3193.093510	9841.844634
4.536500	-0.002380	-0.000859	0.001336	0.001669	4372.573101	18214.887221	3201.478079	9877.393381
5.036000	-0.000750	0.000694	-0.000031	0.003445	4372.086922	18207.072223	3199.021244	9848.940353
5.537500	0.000111	-0.000783	0.003197	-0.001653	4392.095714	18334.485230	3205.568518	9930.939964
6.034000	-0.000233	0.000438	-0.008599	-0.000154	4385.875981	18324.648697	3195.174758	9906.722920
6.535000	-0.001192	-0.000605	-0.005777	0.001584	4376.826674	18226.807436	3196.010383	9878.771011
7.038500	-0.002061	0.000531	0.001528	0.002230	4371.766953	18243.961630	3201.188819	9868.392263
7.536000	0.001464	0.000369	-0.004893	-0.000664	4393.325836	18340.241594	3198.436337	9914.955240
8.052000	0.002729	-0.000150	-0.005802	-0.000665	4397.611970	18321.920461	3197.730917	9914.961556
8.539000	0.000000	-0.002078	-0.007660	-0.002694	4395.241995	18325.487967	3197.863911	9947.795224
9.036000	0.003348	0.001010	0.013513	0.000005	4397.441462	18339.235368	3212.509799	9904.166100
9.537000	-0.000639	-0.001245	-0.016050	-0.002796	4393.422183	18358.512447	3191.492509	9949.440003
10.036500	0.002225	0.000000	0.012009	-0.002459	4401.999935	18390.720052	3213.287568	9943.989782
10.537000	0.004910	-0.000093	0.000000	0.000078	4402.505383	18297.742894	3201.678688	9902.994097
11.035000	-0.000077	0.000331	-0.008109	0.000183	4385.270233	18309.006598	3195.292638	9901.303568
11.535000	-0.000950	0.000645	0.002212	0.000000	4382.947739	18326.534019	3203.480436	9904.244431
12.035500	-0.001762	-0.000913	0.000804	-0.001046	4383.732346	18308.459439	3203.194860	9921.116594
12.538500	-0.001230	-0.001463	-0.002198	-0.002031	4388.843897	18323.790567	3201.608731	9937.049611
13.035500	0.003302	-0.000366	-0.000102	-0.001870	4403.657539	18356.886148	3203.130170	9934.437953
13.536000	0.000634	-0.001557	0.006164	-0.002800	4397.750561	18347.657804	3208.849187	9949.511896
14.035500	-0.001364	-0.001313	0.004150	-0.001956	4388.139777	18326.449699	3206.566211	9935.840069
14.537000	0.002079	0.000393	-0.001128	-0.000759	4395.726840	18344.429137	3201.449452	9916.480597
15.034000	0.001084	-0.001422	0.007016	-0.002643	4398.744906	18346.862333	3209.405691	9946.958950
15.535000	-0.000933	-0.000465	-0.008785	-0.001261	4387.248449	18331.870850	3195.885136	9924.601706
16.035000	-0.001197	-0.001290	-0.010080	-0.002226	4389.609135	18336.800322	3195.629907	9940.203716
16.538000	-0.001339	0.000657	-0.002684	-0.000442	4383.127438	18342.569065	3199.984371	9911.373298
17.035500	-0.001143	0.000124	0.005753	-0.000910	4385.357538	18340.263915	3207.010016	9918.921852
17.536000	-0.002871	-0.000820	-0.001234	-0.001506	4381.557237	18327.970528	3201.953523	9928.562873
18.036500	-0.005281	-0.000936	-0.004927	-0.002410	4376.508583	18355.828083	3199.769337	9943.188343
18.536500	0.000390	-0.000345	0.011150	-0.001342	4391.984743	18338.951736	3211.687393	9925.896377
19.037000	0.000884	0.000036	-0.003717	-0.001906	4395.566115	18372.388334	3200.321417	9935.028945
19.536500	0.001469	-0.001239	-0.011268	-0.001797	4397.181820	18323.477399	3194.385713	9933.267906
20.036500	-0.000229	-0.000490	0.004913	-0.004898	4401.946327	18459.953551	3209.528012	9983.620439
20.535000	-0.000403	-0.000809	-0.001676	-0.004679	4400.611459	18440.828615	3204.105245	9980.060065
21.035000	0.003307	-0.000708	-0.004223	-0.003364	4408.776996	18397.693307	3201.066050	9958.664797
21.536500	-0.000893	-0.000181	0.004378	-0.002792	4392.550865	18396.082352	3207.414454	9949.382187
22.035500	0.000223	-0.000138	-0.012676	-0.001387	4391.576184	18347.885259	3192.992603	9926.637563
22.537500	0.002930	-0.000548	0.000066	-0.003746	4408.793844	18416.930891	3204.744770	9964.874283
23.035500	-0.000595	-0.001384	-0.000540	0.001392	4379.468890	18206.210944	3200.226293	9881.849764
23.536500	0.001992	-0.000823	0.002257	-0.004882	4409.468121	18447.533344	3207.389287	9983.355008
24.036500	0.000521	-0.001711	-0.001934	-0.001432	4392.731453	18293.926803	3201.345687	9927.353240
24.553500	-0.000589	-0.000120	-0.007955	-0.003661	4396.524293	18429.146182	3198.385849	9963.497432
25.037500	0.000279	-0.000790	0.002285	0.001570	4381.802847	18220.775020	3202.301379	9878.990119
25.535000	0.001582	0.000210	0.003930	-0.003888	4404.676243	18448.944237	3207.931745	9967.182880
26.038000	-0.004730	-0.001723	-0.000095	-0.001435	4375.091598	18293.608197	3202.793125	9927.407146
26.535500	0.002445	-0.000448	-0.013617	-0.005031	4411.529689	18466.215199	3195.066346	9985.790847
27.036000	0.000003	0.000416	0.010821	0.000820	4383.393552	18289.516236	3209.680973	9891.037262
27.536000	-0.001208	-0.000071	-0.010061	-0.001025	4385.528837	18337.435446	3194.720280	9920.788474
28.036000	0.001442	0.000617	0.000848	-0.001010	4394.423001	18361.262107	3203.201694	9920.546567
28.536500	0.000571	-0.001068	-0.003756	-0.001818	4394.206641	18330.196301	3200.221715	9933.594850
29.036000	-0.006081	-0.001447	-0.014816	-0.001179	4369.730089	18294.325646	3191.201596	9923.267931
29.537000	0.000055	-0.000513	-0.003965	-0.001824	4392.484756	18350.074594	3200.063107	9933.702961
30.037000	0.000165	-0.001188	-0.008284	-0.002721	4395.890926	18357.907316	3197.400568	9948.229439
30.535000	0.000333	-0.000950	0.009758	-0.003234	4398.202055	18384.518390	3212.091899	9956.562645
31.035500	0.003532	0.001434	0.007225	-0.000029	4398.181304	18355.415965	3207.481175	9904.709838
31.535500	-0.001970	-0.000914	-0.000456	-0.002204	4386.929023	18349.308438	3203.114540	9939.846718
32.035500	0.001605	-0.000202	-0.018944	-0.001974	4398.241928	18366.378477	3188.676164	9936.126015
32.536500	-0.001151	-0.001119	-0.001860	-0.002536	4390.813466	18353.811272	3202.270274	9945.231813
33.036000	-0.000359	0.000041	0.004813	-0.000414	4386.328611	18319.796568	3205.867625	9910.918057
33.536500	-0.001505	-0.001311	-0.010641	-0.003224	4391.942746	18371.339645	3195.966953	9956.389050
34.034000	-0.002233	0.000311	-0.002037	-0.001579	4383.942233	18370.545547	3201.380632	9929.739900
34.537500	0.005116	0.001678	-0.010471	-0.000255	4404.338289	18372.086318	3193.814337	9908.360122
35.037000	-0.003062	-0.000407	0.009129	-0.000214	4376.585956	18296.977581	3209.153320	9907.697924
35.538000	0.002063	-0.001102	-0.010105	-0.002072	4400.132394	18337.983741	3195.492111	9937.712710
36.035000	0.001176	0.001082	0.003088	-0.000436	4391.579594	18357.382037	3204.516963	9911.276017
36.536000	-0.003642	-0.001804	0.000028	-0.002926	4383.735162	18343.363144	3204.066324	9951.553046
37.036000	0.002783	-0.000135	0.009645	-0.006004	4416.028576	18512.098902	3214.247391	10001.676335
37.536500	0.002878	0.000837	-0.004561	-0.003896	4409.130662	18471.556112	3201.217824	9967.313338
38.043500	0.002549	-0.000689	-0.001345	-0.001220	4398.886955	18322.494683	3201.641197	9923.927357
38.537000	0.001701	-0.000624	0.000236	-0.004932	4408.645915	18456.399283	3205.820442	9984.170043
39.037000	-0.000113	0.000106	-0.004245	-0.003938	4399.079401	18447.032090	3201.499045	9967.999992
39.537500	0.004141	0.000180	0.011818	-0.003654	4412.622554	18439.528959	3214.103587	9963.375696
40.039500	0.003128	-0.000966	0.004506	-0.003940	4410.134098	18408.992607	3208.434301	9968.030191
40.535500	0.002021	-0.000127	0.014087	-0.003745	4405.686349	18431.839830	3216.027880	9964.855541
41.035500	-0.002905	0.000931	-0.002807	0.000357	4375.200000	18323.989732	3199.264526	9898.488261
41.535500	0.003125	0.000467	0.001979	-0.001125	4400.521387	18359.988251	3204.184806	9922.391383
42.125500	-0.000013	0.000629	0.006038	-0.001595	4391.478553	18382.364651	3207.784189	9929.990079
42.536500	0.001481	-0.000724	0.006307	-0.004491	4406.390172	18437.167212	3210.321636	9976.995572
43.037000	-0.003820	-0.001434	0.002116	0.000672	4371.097517	18229.705687	3202.874942	9893.426084
43.537500	0.002365	0.001461	-0.001954	-0.005253	4412.017252	18542.298411	3204.338904	9989.409244
44.034500	-0.001371	0.000175	0.005511	-0.008047	4408.794635	18596.416042	3212.549924	10035.134327
44.537000	0.004384	-0.000759	0.009167	-0.017189	4460.609130	18894.090819	3223.068398	10186.792700
45.035000	-0.037068	-0.021061	0.008010	0.161529	3849.521492	13048.343672	3100.230696	7730.454985
45.535500	-0.044017	-0.028196	-0.006323	0.199180	3759.189205	12062.999978	3073.224823	7329.786559
46.035500	-0.021666	-0.024022	-0.005474	-0.015583	4365.805230	18009.110975	3209.767611	10159.922518
46.536000	-0.017281	-0.017779	-0.002626	-0.200881	5155.483868	26333.285296	3398.963757	14020.250794
47.035000	-0.015215	-0.014264	-0.005501	-0.149293	4914.999098	23887.448053	3335.538865	12775.374241
47.536000	-0.019547	-0.012166	-0.015494	-0.144485	4873.531819	23757.467468	3319.634203	12666.714079
48.036500	-0.024007	-0.012063	-0.007098	-0.145130	4856.484371	23793.300221	3329.285430	12681.221242
48.537000	-0.025653	-0.012272	-0.012380	-0.128655	4777.507975	23009.363846	3306.394938	12317.331466
49.036500	-0.024176	-0.010265	-0.022851	-0.122514	4757.707982	22819.704366	3289.674859	12185.181101
49.538000	-0.018924	-0.008294	-0.009695	-0.121408	4775.295415	22859.223424	3301.739422	12161.572020
50.035000	-0.009546	-0.005684	-0.011876	-0.115185	4788.794644	22694.658930	3293.289406	12029.894913
50.535000	-0.017536	-0.005868	-0.009562	-0.107834	4724.069572	22355.723310	3288.302336	11876.746315
51.034500	-0.016249	-0.005576	-0.021856	-0.097307	4686.179811	21904.750838	3266.421105	11661.916546
51.536000	-0.025736	-0.006295	-0.007828	-0.089830	4618.668349	21551.164881	3272.584529	11512.438418
52.036500	-0.022506	-0.009418	-0.023571	-0.077921	4585.140021	20919.805365	3247.185888	11279.638093
52.539000	-0.021380	-0.006692	-0.019256	-0.073882	4574.034730	20865.666018	3247.431270	11202.116495
53.037000	-0.026631	-0.006063	-0.015669	-0.069497	4537.827376	20711.754823	3246.721787	11118.769301
53.558000	-0.020819	-0.004837	-0.016821	-0.070014	4561.516753	20783.043989	3246.158294	11128.561058
54.034500	-0.016588	-0.003176	-0.011995	-0.068820	4573.007380	20802.174180	3249.393502	11105.978176
54.535000	-0.016642	-0.001552	-0.011620	-0.069674	4576.049508	20904.076419	3250.494494	11122.118089
55.035500	-0.019036	-0.003075	-0.029334	-0.064142	4546.172464	20615.439885	3230.186464	11018.116722
55.535000	-0.015051	-0.001363	-0.013042	-0.069258	4580.527840	20894.737369	3248.849926	11114.259493
56.035500	-0.013756	-0.001003	-0.023755	-0.068189	4581.390710	20865.507685	3238.464652	11094.080083
56.536000	-0.016333	-0.001653	-0.021861	-0.067621	4569.430109	20815.461873	3239.619730	11083.369968
57.036500	-0.020517	-0.001507	-0.024936	-0.061666	4531.456255	20578.649374	3231.824957	10971.999722
57.536500	-0.016638	-0.002760	-0.006552	-0.066964	4565.788410	20743.213667	3252.616539	11071.006949
58.037000	-0.020300	-0.001139	-0.010447	-0.063841	4540.338166	20681.913910	3246.336508	11012.502596
58.534500	-0.017956	-0.000224	-0.010842	-0.062194	4542.930973	20652.102917	3244.527617	10981.809764
59.037500	-0.020402	-0.002505	-0.017041	-0.058130	4518.846280	20395.988455	3235.567006	10906.594929
59.535000	-0.014897	-0.001302	-0.014002	-0.060880	4549.453877	20555.148662	3240.596456	10957.429236
60.035500	-0.019709	0.000539	-0.011721	-0.057734	4519.938404	20502.444030	3239.839946	10899.304588
60.536000	-0.020686	-0.001671	-0.011926	-0.058385	4518.740842	20439.716919	3240.229511	10911.297556
61.036500	-0.021745	-0.000721	-0.017026	-0.051887	4491.228190	20218.238625	3230.232218	10792.404837
61.536000	-0.015779	-0.000358	-0.016949	-0.054951	4524.157738	20354.679656	3232.912798	10848.238242
62.036000	-0.019228	-0.000516	-0.013468	-0.051714	4499.711374	20219.477599	3233.122272	10789.260539
62.537000	-0.019752	0.000361	-0.015449	-0.052869	4502.001407	20300.294781	3232.415044	10810.259674
63.036500	-0.021657	-0.000854	-0.017888	-0.049039	4481.303218	20100.383573	3227.090326	10740.855274
63.535000	-0.019440	0.000041	-0.009538	-0.052892	4503.222092	20288.479669	3237.527138	10810.682218
64.035000	-0.017415	-0.000766	-0.010609	-0.051492	4505.493201	20200.775896	3235.389773	10785.232353
64.535000	-0.018157	-0.000260	-0.018582	-0.052899	4507.921675	20276.776509	3229.770304	10810.811623
65.035000	-0.021107	0.001479	-0.014757	-0.050416	4488.225935	20247.161715	3230.911267	10765.739443
65.536000	-0.015624	0.001227	-0.012736	-0.051503	4512.070553	20280.378072	3233.569004	10785.425921
66.036000	-0.016844	-0.000784	-0.024220	-0.051988	4509.386142	20219.732007	3224.247834	10794.235784
66.536500	-0.018890	0.001018	-0.002438	-0.052091	4502.306553	20295.463746	3243.030225	10796.106950
67.036500	-0.017523	0.000666	-0.010064	-0.051605	4505.515336	20262.146991	3235.958068	10787.290527
67.537000	-0.017441	-0.001395	-0.018352	-0.052576	4509.354224	20218.819751	3229.690810	10804.928186
68.034500	-0.016679	-0.001206	-0.014116	-0.048894	4498.731654	20080.855710	3230.161521	10738.246290
68.537500	-0.015730	0.001168	-0.010127	-0.050380	4507.582734	20233.369764	3234.846782	10765.082301
69.035000	-0.019278	0.001434	-0.022976	-0.047620	4484.744072	20134.628698	3221.643287	10715.285926
69.535500	-0.018008	-0.000364	-0.006621	-0.050952	4501.374710	20195.333046	3238.375536	10775.442673
70.036000	-0.013673	-0.000309	-0.011361	-0.051168	4517.988549	20206.052044	3234.462485	10779.354568
70.536000	-0.018922	0.000684	-0.013563	-0.049600	4493.166286	20183.283833	3231.233664	10750.989106
71.036000	-0.019560	0.000257	-0.013583	-0.047427	4483.039382	20080.649569	3229.367674	10711.820610
71.536500	-0.012384	0.001489	-0.002184	-0.048584	4513.244646	20174.946028	3240.178265	10732.646752
72.036500	-0.015232	-0.000893	-0.016903	-0.050561	4510.062000	20158.917721	3229.210719	10768.365001
72.534500	-0.015108	-0.000261	-0.006714	-0.048645	4503.528029	20108.220342	3236.294443	10733.741385
73.040500	-0.015247	0.001035	-0.010711	-0.048132	4501.160228	20139.130470	3232.415647	10724.510543
73.535000	-0.014966	0.000379	-0.012496	-0.047960	4501.554013	20106.473302	3230.744775	10721.405410
74.035000	-0.018517	0.000553	0.002448	-0.048186	4489.524735	20122.215468	3243.893875	10725.476192
74.535500	-0.014750	0.001641	-0.004372	-0.046072	4495.495055	20081.820628	3236.095194	10687.506377
75.035000	-0.013822	0.000235	-0.030963	-0.045114	4495.383490	19989.041263	3213.030308	10670.353592
75.536000	-0.016567	-0.000738	-0.013662	-0.047541	4494.235238	20046.056870	3229.397798	10713.878035
76.035500	-0.011207	0.001397	-0.013410	-0.045239	4505.330005	20039.497491	3227.661858	10672.591410
76.536500	-0.013386	0.001310	-0.005992	-0.045378	4497.918539	20041.496632	3234.100496	10675.075229
77.037000	-0.010302	0.001854	-0.017149	-0.043665	4502.897330	19995.686172	3223.202063	10644.492524
77.534500	-0.014624	0.000805	-0.001603	-0.045137	4492.569531	20012.270775	3237.683267	10670.779985
78.034500	-0.014191	0.001960	-0.013534	-0.041714	4481.804467	19923.617081	3224.592471	10609.802972
78.535000	-0.014725	0.001826	-0.004337	-0.044083	4488.403657	20010.955318	3234.410189	10651.945302
79.035500	-0.012963	0.001078	-0.011149	-0.042590	4489.373891	19923.375435	3227.334348	10625.366029
79.536000	-0.011335	0.001310	0.002870	-0.043859	4499.848878	19982.022963	3240.466028	10647.957633
80.036000	-0.013062	0.000667	-0.011912	-0.042186	4487.560601	19891.658538	3226.351322	10618.190535
80.536500	-0.014165	0.000533	-0.010190	-0.043043	4486.673324	19919.788501	3228.527986	10633.418973
81.036500	-0.015395	0.001078	-0.009313	-0.041394	4476.351799	19876.830423	3227.875309	10604.140745
81.537000	-0.013939	0.000815	-0.008524	-0.041994	4483.717117	19889.916460	3229.050682	10614.773527
82.036500	-0.016423	0.000259	-0.002963	-0.040436	4469.267072	19807.890902	3232.459904	10587.169736
82.540500	-0.018146	0.000933	-0.019134	-0.042003	4468.711919	19894.872081	3220.172112	10614.938157
83.035500	-0.019998	0.000086	-0.010431	-0.040739	4457.665424	19812.897956	3226.379122	10592.525113
83.535000	-0.017037	0.000738	-0.012985	-0.040859	4468.588694	19842.851791	3224.336795	10594.659633
84.046500	-0.013656	0.001062	-0.015930	-0.038837	4473.429240	19777.084009	3220.203304	10558.938375
84.538500	-0.016188	0.001347	-0.020408	-0.039854	4468.029835	19827.472854	3217.350139	10576.875033
85.036500	-0.015625	0.001662	-0.000050	-0.038672	4465.835556	19793.923205	3233.445185	10556.038304
85.536500	-0.013427	0.002531	-0.009291	-0.038207	4471.999112	19809.521284	3225.209912	10547.845753
86.036500	-0.020215	0.000603	-0.015709	-0.037172	4444.363631	19695.179209	3219.010045	10529.653440
86.537500	-0.015993	0.003301	-0.017334	-0.037694	4461.063391	19819.513421	3218.101313	10538.823731
87.034500	-0.016714	0.002251	-0.006287	-0.037595	4458.164054	19775.027390	3227.221960	10537.082695
