sample name	sample
index	987
start time	 04-14-2021  03:59:25 PM
880	-0.028238
Peak Time (s)	102.042
Peak Height 	-0.02824
calc peak height	100,103
Baseline Time (s)	10.536
Baseline Value 	-0.002759
subtract baseline	10,4
Abs	-0.009317
Peak Time (s)	101.536
Peak Height 	-0.009317
calc peak height	100,103
Baseline Time (s)	9.536
Baseline Value 	0.003459
subtract baseline	10,3
PK_550	-0.000060
Peak Time (s)	101.536
Peak Height 	-5.9698E-5
calc peak height	100,103
Baseline Time (s)	11.537
Baseline Value 	4.9651E-4
subtract baseline	10,2
PK_880	-0.005150
Peak Time (s)	102.537
Peak Height 	-0.00515
calc peak height	100,103
Baseline Time (s)	9.536
Baseline Value 	9.1939E-5
subtract baseline	10,1


Time (s)	A880-A510	A880-A775	A880-A975	A880	I510	I775	I975	I880	
0.035500	-0.001123	-0.000870	-0.006044	0.002113	6313.640810	42106.835508	3952.108949	22174.234164
0.535500	-0.003697	-0.000608	-0.002702	0.006905	6257.838015	41701.368808	3948.837076	21963.760701
1.036000	0.000654	-0.000148	-0.001269	0.003673	6315.297821	42031.505999	3959.404248	22105.449544
1.537000	-0.001094	-0.001183	-0.005366	0.001428	6319.101630	42140.284521	3955.194121	22204.494554
2.036000	0.000617	-0.000471	0.001639	0.001061	6335.040154	42237.604331	3972.055302	22220.723049
2.537000	-0.003801	-0.000900	-0.007557	0.004621	6274.253924	41879.046237	3943.057278	22063.757429
3.040000	0.001805	-0.000421	0.000401	-0.000900	6359.345901	42419.529673	3973.725484	22307.748625
3.535000	-0.002010	-0.001263	-0.004062	-0.000507	6326.907029	42307.639892	3962.566951	22290.264741
4.035000	-0.000415	0.000559	-0.002539	0.001094	6326.857917	42327.711179	3962.389942	22219.271600
4.537500	0.000528	-0.000803	-0.001892	-0.000011	6342.608146	42304.448415	3966.399993	22268.246411
5.035500	0.000855	-0.000838	-0.004597	-0.000047	6345.409605	42304.582503	3960.298039	22269.870675
5.536000	-0.000258	-0.001311	-0.006405	-0.001047	6344.530382	42352.200448	3958.456527	22314.275127
6.036500	-0.000988	0.000087	-0.001950	0.000079	6330.251092	42376.897433	3966.059711	22264.254381
6.535500	0.000556	-0.001619	-0.005391	-0.001407	6353.604639	42356.945495	3961.587832	22330.311771
7.037000	0.000105	-0.001045	0.000695	-0.000593	6343.838070	42335.287387	3973.696565	22294.121768
7.537500	0.000018	-0.000696	-0.003981	-0.000575	6343.024066	42365.209288	3962.907233	22293.297981
8.037000	0.000928	-0.000285	-0.003319	-0.000245	6347.497507	42372.570254	3963.669149	22278.652112
8.534500	0.000852	0.000171	0.001424	0.000147	6343.889653	42378.359449	3973.671399	22261.257718
9.035500	0.000077	0.000125	0.003615	0.000328	6336.526657	42357.732049	3978.324281	22253.215452
9.535500	0.000000	-0.000722	0.000000	-0.000552	6342.713089	42360.786673	3971.997893	22292.303363
10.035500	-0.000085	0.000196	-0.002034	-0.000022	6337.974670	42395.978662	3966.100215	22268.764280
10.536000	0.001212	-0.000347	-0.006048	0.000000	6347.798998	42344.708781	3956.889110	22267.771106
11.036000	-0.001893	-0.000638	-0.003022	-0.000382	6326.844083	42352.927620	3964.661574	22284.723166
11.536500	-0.000057	0.000000	0.001642	0.000297	6335.731378	42349.221850	3973.826770	22254.577325
12.036000	-0.000933	-0.000336	-0.000370	-0.000215	6332.935552	42365.189952	3970.369247	22277.334612
12.540000	0.000113	-0.000741	-0.000512	0.000047	6338.965656	42304.786759	3969.437225	22265.686338
13.034500	0.000588	-0.000615	-0.005787	-0.000505	6346.886720	42366.243255	3958.630162	22290.203045
13.535000	0.001250	-0.000883	-0.004009	-0.000459	6351.645100	42337.756216	3962.579500	22288.170197
14.035000	-0.002063	-0.000762	-0.000773	0.001386	6312.018434	42182.034919	3965.763772	22206.367760
14.535500	-0.001351	-0.000538	-0.000604	0.002013	6312.663857	42145.736856	3964.713112	22178.636732
15.035500	0.000001	-0.000463	-0.000716	0.000239	6336.623349	42312.535399	3968.526324	22257.147381
15.536000	-0.000417	-0.000983	-0.006864	-0.000491	6339.032209	42331.624629	3956.150037	22289.579203
16.039500	0.001309	-0.000346	-0.000698	-0.000322	6351.034560	42373.998231	3969.859840	22282.075321
16.536500	0.001510	-0.000874	-0.000886	0.000013	6350.002763	42295.857776	3968.655995	22267.182550
17.037000	0.000900	0.000213	0.004063	-0.002667	6366.023947	42637.958342	3986.348893	22386.488006
17.537500	0.000691	-0.000805	-0.002626	-0.000343	6346.427271	42334.378903	3965.479848	22283.015490
18.034500	0.001033	0.000322	-0.005982	0.000760	6340.553940	42336.428362	3955.312225	22234.054726
18.535000	0.000240	0.000569	-0.002211	0.001069	6332.085973	42330.928805	3963.197319	22220.403474
19.035500	0.000887	-0.000842	-0.002262	-0.000252	6347.235247	42322.666789	3966.104191	22278.938271
19.535500	-0.002922	-0.000899	-0.000522	-0.000109	6316.871530	42304.684897	3969.774270	22272.608224
20.036000	-0.001070	0.000161	-0.003596	0.001118	6321.653675	42289.495182	3959.922813	22218.208488
20.536000	0.001432	0.000044	-0.001797	0.000431	6346.176226	42341.159457	3965.605990	22248.674123
21.036500	0.002190	0.000714	0.001304	0.001113	6346.756578	42340.031629	3971.164678	22218.442787
21.537000	0.001253	-0.000148	-0.001442	0.000436	6344.754202	42323.318466	3966.408410	22248.437868
22.037000	-0.000749	0.000051	-0.003730	0.000682	6327.462676	42319.028274	3960.612603	22237.542000
22.537500	0.000558	-0.000440	-0.002897	0.000070	6342.212730	42329.937172	3963.911294	22264.644557
23.035000	-0.000892	-0.000390	0.000186	0.000613	6326.893491	42285.451616	3969.742184	22240.606737
23.535000	0.000102	-0.000964	-0.003612	-0.000035	6339.511273	42292.085502	3962.517668	22269.324020
24.035000	-0.000999	-0.001088	-0.002018	-0.000321	6333.248505	42306.794067	3966.824415	22282.042892
24.535500	-0.000952	-0.000464	0.000269	0.000372	6328.283499	42300.463058	3970.488177	22251.265297
25.036000	-0.001826	-0.000657	-0.006238	0.000386	6321.480894	42281.789701	3955.581655	22250.669638
25.536500	-0.001489	-0.000154	-0.008736	0.000133	6325.993269	42350.099133	3950.498412	22261.852353
26.037000	-0.001584	0.000080	-0.001351	0.000270	6324.215355	42358.996108	3966.997896	22255.801668
26.537000	0.001301	0.000301	0.000325	0.000829	6342.096323	42328.337807	3969.564125	22231.028825
27.034500	-0.000188	-0.000628	-0.002842	-0.002370	6355.292283	42534.263157	3969.637455	22373.230390
27.534500	-0.000607	0.000028	0.002922	-0.001626	6346.310420	42526.239510	3981.255355	22340.060903
28.035000	0.000867	0.000325	-0.000365	-0.000108	6345.972515	42415.382506	3970.132885	22272.549896
28.535500	0.000445	-0.000366	-0.003577	0.001153	6333.016829	42238.759625	3959.887352	22216.678861
29.035500	0.000300	-0.000372	-0.004302	-0.000565	6345.124222	42393.658113	3962.153046	22292.861300
29.535500	0.000498	0.000074	-0.003810	-0.000404	6345.407036	42419.478751	3962.907078	22285.698621
30.036000	0.000359	-0.000263	-0.004877	-0.001111	6349.789170	42453.003809	3962.086101	22317.126408
30.536500	-0.001291	-0.000103	-0.001994	0.001868	6314.231933	42197.943456	3961.867246	22185.038733
31.036500	-0.000523	-0.000029	-0.001954	0.002081	6318.477453	42185.478480	3961.472723	22175.642597
31.539500	0.000361	-0.000908	0.000197	-0.000963	6348.666215	42381.163693	3973.401745	22310.568446
32.034500	-0.001390	-0.000050	-0.004055	-0.000608	6332.443790	42426.704182	3962.815414	22294.767721
32.534500	0.000380	-0.000408	-0.002227	0.000068	6340.863138	42333.062109	3965.451135	22264.746107
33.034500	0.000534	0.000061	-0.001720	-0.000696	6347.943863	42444.888846	3968.368319	22298.706838
33.540000	0.000747	-0.000364	-0.002731	-0.001933	6359.151084	42518.605019	3968.889276	22353.768643
34.036000	-0.000782	-0.000277	-0.000580	0.000052	6332.041852	42346.358023	3969.269081	22265.451832
34.536000	-0.000111	-0.000748	-0.001176	-0.000095	6338.333672	42317.088202	3968.236685	22271.995724
35.036000	0.000425	-0.000244	-0.002697	0.000483	6338.011924	42310.373842	3963.425866	22246.340376
35.537000	0.001528	-0.000171	-0.003515	0.000549	6346.003989	42311.010357	3961.406450	22243.435700
36.039500	-0.001758	-0.000459	-0.004116	0.000562	6320.649745	42283.778185	3960.005387	22242.857158
36.536500	0.000988	0.000375	-0.001713	0.001774	6332.414638	42249.614433	3962.723527	22189.192115
37.034500	0.000481	-0.000772	-0.003808	0.000572	6337.759348	42254.572598	3960.685710	22242.407484
37.535000	0.000038	0.000110	0.000218	0.000723	6333.193563	42320.706374	3969.562541	22235.718874
38.035500	-0.000418	-0.001387	-0.002012	0.000272	6333.149836	42226.073693	3965.474959	22255.689708
38.535500	-0.000138	-0.000096	-0.003689	0.001092	6329.009359	42268.730488	3959.770901	22219.388494
39.036000	-0.001890	-0.001198	-0.000596	0.000214	6322.308436	42248.512606	3968.860580	22258.293094
39.537000	-0.000604	-0.000972	-0.007393	0.000284	6331.625437	42262.476256	3953.192435	22255.153096
40.035500	-0.001954	0.000373	-0.001412	0.001131	6314.796721	42307.521880	3964.883219	22217.630762
40.537000	-0.000025	0.000040	-0.002287	0.000896	6331.380421	42298.664437	3963.417983	22228.057909
41.034500	-0.000536	-0.000322	-0.003865	0.000489	6330.577435	42302.774214	3960.744615	22246.076748
41.537000	-0.001429	0.000299	-0.005786	0.000972	6320.028088	42315.190630	3955.274665	22224.666350
42.034500	-0.000856	-0.000395	-0.005690	0.000845	6325.390041	42263.932962	3955.782265	22230.291214
42.535500	-0.002137	-0.000064	-0.002415	0.001063	6313.912507	42274.149021	3962.744339	22220.647337
43.035500	-0.001413	0.000001	-0.002589	0.000963	6320.219496	42289.103150	3962.573940	22225.076468
43.535500	0.000399	-0.000442	-0.003545	0.000160	6340.301314	42321.724338	3962.226153	22260.692326
44.036000	-0.002349	-0.000862	0.000720	-0.001167	6329.373598	42403.801038	3975.081034	22319.629718
44.536500	-0.001232	-0.000444	0.001348	0.002937	6306.520064	42071.091526	3967.072121	22137.880792
45.036000	0.000449	-0.000005	-0.001235	-0.000488	6345.683525	42419.960523	3969.006639	22289.457734
45.539500	0.001019	0.000789	0.001390	0.000160	6345.076246	42433.203392	3973.563055	22260.684743
46.034500	0.000184	0.000096	-0.000214	-0.000221	6341.578029	42404.855496	3970.741150	22277.573754
46.537500	-0.004668	-0.000214	-0.004477	0.005404	6261.822313	41870.402718	3948.217380	22029.416574
47.034500	-0.000998	-0.000720	0.001530	-0.000683	6336.034400	42372.841618	3975.835359	22298.113348
47.535500	-0.001555	-0.000019	-0.001892	0.001108	6318.024526	42274.208915	3963.836398	22218.668602
48.036000	-0.001523	-0.000839	-0.001591	-0.000728	6332.344034	42366.124126	3968.737141	22300.097193
48.535500	-0.005067	-0.000982	-0.006155	0.005274	6259.803829	41813.481722	3944.739269	22035.136648
49.036500	-0.000736	-0.000884	0.003795	-0.001134	6341.525458	42398.824306	3982.144618	22318.182540
49.536500	0.000803	0.000007	0.000811	-0.003053	6368.275244	42654.335632	3979.665182	22403.742975
50.036500	0.001010	-0.000687	-0.001266	-0.001527	6358.045322	42452.329243	3971.325162	22335.660832
50.537000	0.005584	-0.002875	0.003447	0.004105	6349.861652	41748.794270	3969.209194	22086.449384
51.034500	0.022882	-0.005899	0.006061	0.397432	4406.648134	18573.390913	3376.523009	10712.154023
51.536500	0.003750	-0.012258	-0.013629	-0.046862	6751.660176	45639.602056	4050.291075	24463.919483
52.035000	-0.008545	-0.026794	-0.024080	-0.135125	7469.664049	53523.633243	4262.222566	29302.439030
52.535000	0.008141	-0.055993	-0.003374	-0.245424	8989.256960	63891.035504	4717.120271	36909.399775
53.035500	0.023335	-0.010759	0.008904	-0.041473	6876.458070	45259.613309	4093.777585	24199.108918
53.536500	0.021001	-0.018155	0.004014	-0.160687	8074.998072	57660.934419	4432.125348	30897.446758
54.036500	0.006535	-0.011264	-0.006202	-0.070289	6985.339624	48104.327367	4129.811461	25653.866912
54.536500	0.005335	-0.009800	-0.011366	-0.111014	7365.502780	52703.022648	4228.761374	27881.672264
55.040000	0.005964	-0.007494	-0.005248	-0.079021	7061.031446	49420.792323	4155.966098	26114.122179
55.534500	0.004743	-0.004003	-0.005960	-0.051711	6802.525634	46944.943037	4081.876140	24704.977484
56.037500	0.000186	-0.005029	-0.007661	-0.040342	6665.447764	45709.305150	4048.919758	24143.995972
56.535000	0.002284	-0.003852	-0.009466	-0.032824	6619.934971	45090.624058	4026.010330	23781.016678
57.036000	0.001303	-0.002053	-0.006309	-0.019209	6500.141066	43961.595573	4000.887574	23139.424321
57.535500	-0.000277	-0.001749	-0.007980	-0.013908	6445.052025	43493.333335	3984.474417	22895.027460
58.036500	-0.000279	-0.002170	-0.006594	-0.005759	6380.911949	42702.693750	3968.801899	22525.069730
58.536000	-0.002877	-0.001467	-0.009345	-0.003799	6345.560696	42587.998095	3958.029917	22437.109460
59.035000	-0.000911	-0.001371	-0.007708	0.006405	6282.615514	41677.939727	3938.735124	21985.595958
59.537000	0.000041	-0.001199	-0.007525	-0.005265	6379.550598	42746.319051	3965.531610	22502.873175
60.035000	0.000978	-0.001139	-0.003300	-0.006723	6398.270374	42885.373510	3978.642701	22568.474660
60.537000	-0.001098	-0.001065	-0.007668	0.020916	6173.232612	40434.232049	3906.995359	21361.518646
61.035500	-0.001157	0.000105	-0.010464	0.011453	6242.791412	41361.397847	3921.486789	21766.140723
61.535000	-0.002426	-0.000096	-0.006870	0.026674	6121.801131	40024.010962	3896.356596	21119.568278
62.038000	-0.004267	-0.000236	-0.011690	0.023922	6128.360054	40247.143846	3891.955930	21234.780208
62.536000	-0.002853	-0.000462	-0.008153	0.019745	6168.953198	40587.246185	3908.474349	21411.075490
63.039000	-0.002092	-0.001191	-0.011166	0.015041	6209.142774	40932.638791	3912.134582	21611.654860
63.536500	-0.005201	-0.002444	-0.013610	0.011991	6208.710401	41089.843180	3913.452107	21742.896277
64.039000	-0.005591	-0.002252	-0.013503	0.010958	6213.468286	41197.375788	3915.929598	21787.534876
64.539500	-0.003428	-0.000549	-0.009168	0.000746	6306.479401	42259.023137	3948.143602	22234.685877
65.040000	-0.001176	-0.000789	-0.012373	-0.020436	6490.049439	44197.052660	3989.473520	23196.416400
65.537500	-0.000758	0.000121	-0.016145	-0.026839	6545.373812	44896.195561	3995.666981	23496.494699
66.040000	-0.003565	-0.003550	-0.009483	-0.035302	6591.909311	45360.762815	4032.008761	23899.966939
66.535000	0.001615	-0.003577	-0.014271	-0.020150	6510.264117	43906.693531	3984.361787	23183.128463
67.035500	-0.001665	-0.003578	-0.005780	-0.018542	6470.932420	43755.545399	4000.561424	23108.519812
67.536000	-0.003629	-0.003035	-0.014060	-0.038439	6617.445723	45718.229390	4028.494208	24051.524274
68.036000	-0.004664	-0.003975	-0.008912	-0.038577	6609.966815	45639.385586	4041.452855	24058.182441
68.536000	-0.008475	-0.004277	-0.014149	-0.039314	6584.470868	45682.111504	4030.410238	24093.955284
69.039500	-0.009396	-0.004771	-0.015991	-0.040069	6583.100278	45707.780860	4027.759490	24130.687819
69.536500	-0.007775	-0.004099	-0.015710	-0.039581	6592.479929	45725.898561	4027.256108	24106.961698
70.037000	-0.006826	-0.003884	-0.011315	-0.037482	6582.961243	45540.940696	4032.859482	24005.131641
70.538000	-0.008652	-0.005335	-0.012095	-0.037386	6567.119806	45389.799413	4030.718589	24000.492038
71.035000	-0.006578	-0.004021	-0.011578	-0.035405	6567.886180	45324.853487	4027.149262	23904.888522
71.535000	-0.005546	-0.004387	-0.010296	-0.034990	6572.965764	45248.849248	4029.259963	23884.922896
72.035000	-0.007583	-0.003885	-0.009577	-0.029622	6512.481568	44778.498970	4017.985718	23628.305663
72.536000	-0.006746	-0.004227	-0.012733	-0.032899	6545.953126	45061.469649	4018.276786	23784.571606
73.036000	-0.002950	-0.003840	-0.008195	-0.032296	6572.157294	45040.654637	4027.816296	23755.735383
73.536500	-0.004964	-0.003543	-0.009427	-0.031475	6548.879935	44989.896613	4022.828090	23716.503686
74.037000	-0.007597	-0.002519	-0.010111	-0.025357	6478.006376	44500.684962	4006.471049	23426.660623
74.537000	-0.005327	-0.003271	-0.010982	-0.030268	6536.069064	44899.784491	4016.155413	23659.029230
75.034000	-0.003233	-0.003415	-0.013174	-0.030082	6551.651946	44867.921365	4010.444435	23650.154034
75.535000	-0.003355	-0.003585	-0.009052	-0.030114	6550.911561	44854.596062	4020.441659	23651.678703
76.037500	-0.004228	-0.002489	-0.012397	-0.025448	6505.856586	44512.210674	4001.246773	23430.906925
76.535000	-0.001916	-0.002385	-0.006431	-0.030257	6563.889036	44984.182033	4027.145733	23658.484024
77.038000	-0.004060	-0.002660	-0.012470	-0.030921	6551.752789	45021.787662	4014.145688	23690.109229
77.536500	-0.004207	-0.002343	-0.002688	-0.030960	6550.865067	45056.168250	4038.021169	23691.957383
78.038500	-0.007877	-0.001933	-0.010818	-0.025834	6479.581320	44602.281102	4005.923100	23449.097197
78.539000	-0.004320	-0.002668	-0.014590	-0.031164	6551.606244	45044.444325	4009.644133	23701.667647
79.036000	-0.003424	-0.001554	-0.009115	-0.031272	6559.836210	45162.811069	4023.091202	23706.817664
79.537000	-0.003942	-0.002278	-0.007168	-0.032168	6562.943013	45179.538881	4030.007746	23749.597041
80.037500	-0.008452	-0.002126	-0.012577	-0.027094	6485.081617	44704.534321	4004.732786	23508.518105
80.535000	-0.003860	-0.001250	-0.005522	-0.031351	6556.913650	45200.114700	4032.033635	23710.622022
81.037500	-0.005093	-0.001330	-0.007244	-0.033412	6563.708053	45392.842061	4032.860843	23809.157075
81.535500	-0.003646	-0.000609	-0.003625	-0.033262	6574.376821	45448.619153	4041.383500	23801.949396
82.038000	-0.005569	-0.001130	-0.011274	-0.028158	6516.937272	44902.702004	4010.388094	23558.859387
82.536500	-0.003172	-0.000883	-0.009441	-0.034577	6589.153110	45550.460711	4030.338715	23865.071461
83.039000	-0.001805	-0.001564	-0.011239	-0.035186	6605.538039	45543.362064	4027.440330	23894.347459
83.536500	-0.001672	-0.000356	-0.010473	-0.035654	6610.547019	45707.756396	4030.449693	23916.902724
84.036000	-0.003629	0.000174	-0.007334	-0.030147	6548.940114	45221.508476	4024.685817	23653.260641
84.537500	-0.000419	0.000433	-0.005336	-0.036270	6626.136917	45846.060942	4044.588739	23946.594682
85.037500	-0.000335	0.000971	-0.009865	-0.036656	6630.067162	45937.265497	4034.386258	23965.224455
85.535500	-0.001750	0.001028	-0.007056	-0.037247	6623.182193	46001.363602	4042.751065	23993.804360
86.038000	-0.001855	0.001004	-0.005772	-0.037674	6625.867345	46041.164865	4046.984569	24014.426195
86.536000	-0.001702	0.001542	-0.008351	-0.037847	6628.590491	46111.716933	4041.036316	24022.814057
87.037500	-0.003773	0.000067	-0.001286	-0.039006	6620.969089	46080.274038	4061.506638	24078.996852
87.536000	-0.004645	0.000281	-0.012021	-0.040078	6622.641566	46207.997594	4037.493808	24131.120054
88.039000	-0.005521	0.000835	-0.006685	-0.034044	6565.385223	45666.569125	4035.779058	23839.474014
88.536500	-0.005340	0.000577	-0.014787	-0.040430	6619.784670	46272.522960	4031.578710	24148.287245
89.033500	-0.003559	0.001103	-0.007894	-0.040056	6631.537854	46287.601217	4047.628449	24130.031341
89.537000	-0.006335	-0.000010	-0.007755	-0.041324	6618.928521	46303.047868	4051.124135	24191.835120
90.034500	-0.009386	0.000832	-0.011963	-0.035295	6543.962904	45789.303241	4025.944883	23899.604800
90.535000	-0.006507	-0.000656	-0.014857	-0.040902	6613.979918	46196.754471	4032.561065	24171.266679
91.034500	-0.004171	0.000838	-0.006160	-0.040902	6633.494725	46345.511814	4054.049874	24171.257774
91.535500	-0.006178	0.000291	-0.013175	-0.041384	6620.745220	46339.069403	4037.867450	24194.799263
92.036000	-0.007347	-0.000454	-0.010566	-0.041615	6612.919366	46287.819078	4044.870855	24206.054955
92.536500	-0.004608	-0.000067	-0.008911	-0.041253	6632.774449	46290.280839	4048.074957	24188.382224
93.042000	-0.006493	0.000176	-0.009454	-0.041078	6615.571216	46297.169408	4046.295829	24179.873320
93.537500	-0.005993	-0.001223	-0.010908	-0.041840	6626.100009	46233.691797	4044.582576	24217.045576
94.034000	-0.009545	-0.001117	-0.015962	-0.035942	6547.951155	45661.326925	4017.828092	23930.778108
94.537500	-0.004955	-0.000205	-0.012042	-0.040443	6623.097902	46195.959458	4038.339503	24148.881216
95.040500	-0.005529	-0.000959	-0.009087	-0.040964	6622.658117	46172.886996	4046.923632	24174.291709
95.535500	-0.005416	-0.000624	-0.013604	-0.040258	6617.709317	46135.971423	4034.050641	24139.886537
96.035500	-0.006009	-0.001028	-0.015404	-0.034610	6566.024420	45539.476134	4015.963152	23866.649457
96.536000	-0.005373	-0.000613	-0.009835	-0.038358	6602.251982	45948.892943	4038.640262	24047.569394
97.041500	-0.004099	-0.000635	-0.010555	-0.038522	6614.214756	45963.020034	4037.272852	24055.546473
97.539500	-0.006389	-0.000154	-0.010693	-0.037745	6588.750332	45933.774200	4035.027884	24017.901891
98.039000	-0.010578	-0.001877	-0.017135	-0.033428	6519.051459	45341.046462	4008.972141	23809.906564
98.534500	-0.006811	-0.000664	-0.007454	-0.036299	6573.327830	45740.967353	4039.432612	23948.011899
99.034500	-0.006092	-0.000582	-0.010989	-0.036445	6580.459791	45763.310409	4031.120771	23955.052031
99.534500	-0.006416	-0.000987	-0.012664	-0.036446	6577.801518	45723.659971	4027.040024	23955.105876
100.035000	-0.008508	-0.001656	-0.014561	-0.030793	6514.476335	45106.587325	4008.825032	23684.002079
100.535500	-0.007638	-0.000655	-0.009357	-0.034683	6553.254065	45583.097847	4030.802506	23870.145186
101.036000	-0.005215	-0.000736	-0.009600	-0.034116	6568.500624	45519.718015	4028.827278	23842.948090
101.536000	-0.005601	-0.000060	-0.009317	-0.033109	6557.058417	45487.380845	4027.064743	23794.659773
102.042000	-0.008406	-0.000810	-0.014080	-0.028238	6494.658754	44941.369433	4003.877778	23562.652166
102.537000	-0.005150	-0.000443	-0.011675	-0.032331	6554.373759	45373.936231	4019.460801	23757.404137
103.039500	-0.005396	0.000041	-0.009061	-0.031489	6545.467194	45339.037359	4023.748992	23717.177913
103.537000	-0.004597	-0.000058	-0.008743	-0.031006	6548.057778	45282.483785	4023.349959	23694.182087
104.040500	-0.007998	-0.000856	-0.013602	-0.026222	6481.720063	44742.757697	4000.223621	23467.377129
104.534500	-0.004873	-0.000793	-0.013667	-0.030790	6544.027135	45189.969943	4010.959402	23683.859530
105.036000	-0.003224	-0.000037	-0.010648	-0.029682	6548.446623	45155.838436	4015.547371	23631.133841
105.536000	-0.003754	-0.000471	-0.010706	-0.029491	6542.554467	45095.278027	4014.949313	23622.067841
106.035500	-0.009673	0.000310	-0.010337	-0.023729	6448.424696	44615.540230	4002.055890	23350.186434
106.536500	-0.005195	-0.000212	-0.007948	-0.027844	6517.429479	44961.002692	4017.625383	23543.997395
107.036500	-0.004363	-0.000686	-0.010134	-0.028014	6525.563345	44931.750376	4012.774749	23552.051270
107.536500	-0.006506	0.000689	-0.007206	-0.026706	6497.622865	44938.147028	4016.670294	23490.202344
108.037500	-0.009125	-0.000497	-0.012278	-0.022299	6441.419516	44401.933935	3994.079355	23283.281854
108.534500	-0.004139	-0.000191	-0.013485	-0.026597	6515.882599	44842.845916	4001.391713	23485.078197
109.034500	-0.004041	0.001118	-0.014097	-0.025316	6506.296321	44845.477875	3996.906597	23424.703426
109.540500	-0.004967	-0.000579	-0.006431	-0.026007	6504.404719	44748.739961	4016.854447	23457.253439
110.035000	-0.007741	0.000331	-0.010951	-0.020612	6439.015696	44320.119645	3993.229460	23204.592585
110.535500	-0.005955	0.000329	-0.015879	-0.025029	6488.553895	44742.062404	3992.027268	23411.223487
111.036000	-0.005574	-0.000023	-0.008168	-0.025208	6493.061576	44725.484667	4010.762166	23419.652171
111.539500	-0.004513	0.000241	-0.006105	-0.024789	6498.232121	44710.489832	4014.705428	23399.923250
112.041500	-0.005556	0.000512	-0.013345	-0.024426	6486.907605	44701.666045	3996.579621	23382.868105
