sample name	sample
index	731
start time	 03-25-2021  03:20:18 PM
880	-0.040818
Peak Time (s)	92.537
Peak Height 	-0.04082
calc peak height	90,93
Baseline Time (s)	11.537
Baseline Value 	-0.007133
subtract baseline	10,4
Abs	-0.002235
Peak Time (s)	91.537
Peak Height 	-0.002235
calc peak height	90,93
Baseline Time (s)	11.537
Baseline Value 	0.002987
subtract baseline	10,3
PK_550	0.001064
Peak Time (s)	92.037
Peak Height 	0.001064
calc peak height	90,93
Baseline Time (s)	10.537
Baseline Value 	9.1834E-4
subtract baseline	10,2
PK_880	0.003864
Peak Time (s)	90.035
Peak Height 	0.003864
calc peak height	90,93
Baseline Time (s)	11.537
Baseline Value 	0.003679
subtract baseline	10,1


Time (s)	A880-A510	A880-A775	A880-A975	A880	I510	I775	I975	I880	
0.036000	-0.002008	-0.000835	-0.001063	0.003001	7141.150808	43933.341574	3954.636326	23435.907466
0.536500	-0.004263	-0.000843	-0.008799	0.004374	7105.845604	43803.153437	3932.091831	23371.063802
1.037000	-0.003549	-0.001777	-0.006317	0.006809	7089.197277	43487.332138	3932.207077	23256.563577
1.539000	-0.000336	0.000124	-0.004837	0.003838	7149.327709	43944.924817	3943.165845	23396.384439
2.037000	-0.000682	-0.000130	0.001953	0.002052	7163.443951	44089.744998	3964.596506	23480.850753
2.535000	-0.001740	-0.001141	0.000172	0.001361	7159.842569	44059.566107	3961.851908	23513.674102
3.035000	-0.004888	-0.001264	-0.000812	0.005145	7092.332837	43691.150368	3949.912679	23334.748183
3.535500	0.000110	-0.000283	-0.003458	0.000807	7183.510552	44193.483598	3954.133546	23539.990259
4.035500	-0.000580	-0.000930	-0.001906	0.000258	7182.107747	44184.084012	3959.398240	23566.082318
4.535500	-0.000881	-0.000588	-0.002312	0.000264	7179.084740	44216.045668	3958.364192	23565.814299
5.036500	-0.001646	-0.000288	-0.002244	0.005538	7119.944552	43745.818144	3945.375714	23316.235961
5.536500	0.002068	0.000299	-0.001832	0.001054	7200.438085	44225.351649	3957.586044	23528.259268
6.037000	-0.001008	-0.000142	0.002898	0.000469	7175.808120	44238.953370	3970.995777	23556.040139
6.537000	-0.000315	-0.000475	0.001415	0.000271	7184.607518	44226.179237	3967.740584	23565.500286
7.036500	0.000398	-0.000157	-0.003784	0.000403	7190.340974	44243.816228	3954.327838	23559.182574
7.534500	0.002013	0.000246	0.002962	0.000667	7203.718460	44257.003433	3970.656028	23546.626948
8.035500	-0.000206	-0.000179	0.002135	0.000709	7181.355009	44212.662679	3968.453509	23544.655133
8.535000	0.000577	0.000280	-0.000894	-0.000052	7196.623110	44328.833660	3962.724732	23580.877626
9.035500	-0.003786	-0.001292	0.000965	-0.000937	7162.325047	44263.430023	3969.660745	23623.091422
9.536000	-0.000882	-0.000372	-0.003621	-0.000332	7184.965779	44293.408174	3956.575733	23594.220127
10.036000	0.002562	0.000505	0.002379	0.000658	7209.251713	44282.568564	3969.199434	23547.047324
10.536500	0.001437	0.000000	-0.000319	0.000162	7203.017849	44281.756668	3963.633912	23570.689529
11.037000	-0.001015	0.000295	0.000612	0.000350	7176.920008	44291.938431	3965.510798	23561.743487
11.537500	0.000000	-0.000357	0.000000	0.000000	7190.393692	44263.189842	3964.847603	23578.391279
12.035000	-0.000444	0.000177	-0.002533	0.000411	7181.951715	44274.897946	3957.442016	23558.836223
12.535000	-0.000368	-0.000816	0.002008	-0.000292	7189.644611	44247.290039	3970.668646	23592.306731
13.035000	0.000063	-0.000871	-0.002938	0.000691	7184.190659	44148.564079	3955.724564	23545.489391
13.535500	-0.002501	-0.000437	-0.002584	0.000075	7165.007926	44248.477981	3958.156525	23574.832952
14.036000	-0.001259	-0.000360	-0.001905	0.002734	7151.101473	44003.504761	3953.199803	23448.562479
14.536000	0.000378	-0.000669	-0.002603	0.001920	7175.176927	44051.243794	3953.489734	23487.127527
15.050500	-0.000471	-0.000920	0.000561	0.000262	7183.150611	44184.712270	3965.602306	23565.920935
15.537000	0.000902	-0.000046	0.000405	0.000312	7196.230066	44263.040024	3965.081418	23563.515417
16.037000	-0.001353	-0.000313	-0.000655	0.000084	7176.205809	44259.268811	3962.983645	23574.369440
16.537000	-0.000936	-0.000127	0.000409	0.000346	7177.740138	44252.202171	3965.007640	23561.935100
17.037000	0.001670	0.000465	0.000365	-0.002208	7228.909804	44552.577498	3971.364220	23683.863495
17.535000	-0.001318	-0.001131	-0.002591	-0.000470	7182.022171	44234.316630	3959.508529	23600.809952
18.035000	-0.001273	-0.000102	-0.004453	0.001281	7165.215096	44165.660961	3950.468046	23517.459267
18.535500	-0.001719	-0.001319	0.000514	0.000497	7168.538061	44124.553909	3964.891636	23554.738762
19.036000	-0.001660	-0.001686	0.001075	0.000407	7170.011570	44098.271073	3966.535000	23559.030272
19.536000	-0.001211	-0.000652	0.002250	0.001166	7166.960944	44124.420699	3967.587536	23522.940139
20.036500	-0.001255	-0.000395	-0.002189	0.000855	7169.575343	44178.259532	3957.189645	23537.685572
20.536500	-0.001705	-0.000304	-0.001179	0.001343	7160.371832	44140.584103	3958.500181	23514.536245
21.037000	-0.000233	-0.000780	0.004672	0.001233	7175.922995	44105.820034	3973.563210	23519.738267
21.535000	-0.001682	-0.000672	0.001148	0.001012	7163.839318	44137.048714	3965.191793	23530.250635
22.040000	-0.002122	-0.000130	-0.003396	0.001382	7155.890733	44153.410000	3952.850587	23512.655571
22.535000	0.000184	-0.000866	0.000565	0.000715	7185.145675	44146.837858	3964.467575	23544.351170
23.035500	-0.001848	0.000341	-0.001816	0.001843	7154.056098	44154.303506	3955.651215	23490.794323
23.535500	0.001863	-0.000507	-0.001294	0.001270	7196.268605	44128.242467	3958.395297	23518.005052
24.036000	-0.001860	-0.000913	-0.002766	0.000653	7165.616787	44148.237032	3956.251081	23547.302199
24.536500	0.000610	-0.000155	0.006020	0.001377	7182.811965	44151.390204	3976.630790	23512.878833
25.037000	-0.000997	-0.001254	-0.000330	0.000583	7174.802658	44122.559913	3962.544487	23550.637842
25.537000	0.000539	-0.000299	0.000126	0.001306	7182.815128	44144.565815	3961.873030	23516.277190
26.037000	-0.003472	-0.000691	-0.002536	0.001183	7144.617503	44119.060706	3955.499304	23522.120773
26.535000	-0.003131	-0.000579	0.000497	0.000887	7150.849243	44157.682083	3963.862390	23536.171404
27.036000	-0.001382	-0.000366	0.001856	0.001054	7166.368684	44162.052000	3966.874301	23528.225815
27.535500	0.000626	-0.000863	-0.000874	-0.002358	7219.996865	44439.799723	3968.599947	23691.025966
28.036000	-0.000400	-0.000388	-0.003587	0.000090	7185.554925	44251.696540	3955.606374	23574.120102
28.536000	0.000354	-0.000896	0.003889	-0.000343	7197.291804	44244.500333	3975.583522	23594.730084
29.037500	-0.003051	-0.000420	-0.001583	0.004254	7118.773127	43854.278756	3950.212233	23376.741671
29.536500	-0.001040	-0.000347	0.006680	0.000281	7177.359348	44237.445083	3981.122895	23565.030097
30.037000	0.000266	0.000063	0.001123	0.000509	7187.996098	44254.725181	3966.398495	23554.167322
30.537000	-0.000515	-0.001325	0.000645	-0.000820	7193.413932	44249.070844	3968.550888	23617.488607
31.034500	-0.000574	-0.000075	0.002980	0.003188	7153.358748	43987.534517	3964.323478	23427.092370
31.550000	0.001177	0.000384	0.000426	0.001242	7189.747776	44215.462253	3962.788596	23519.300051
32.035000	-0.001082	-0.000300	-0.000052	-0.000058	7180.281709	44274.191154	3964.864352	23581.176899
32.535500	-0.000191	-0.001180	0.002978	-0.000135	7189.837502	44197.690805	3972.732835	23584.810365
33.035500	-0.001758	-0.000868	0.000237	0.000953	7163.671131	44124.059374	3963.041190	23533.041548
33.535500	0.000145	-0.000434	0.002574	-0.001901	7210.677493	44437.214859	3976.204336	23669.161978
34.036500	0.000447	-0.000762	-0.002903	0.001486	7180.128494	44083.555934	3953.823699	23507.705659
34.537000	-0.001556	-0.001025	0.003506	0.001412	7161.148583	44065.680995	3970.146329	23511.242716
35.036500	-0.001552	-0.000949	-0.005257	0.001635	7158.997586	44051.766124	3947.587925	23500.656171
35.534000	-0.001781	-0.000074	-0.002025	0.001455	7158.517632	44151.749094	3956.096157	23509.177859
36.038000	-0.001466	-0.000320	-0.001036	0.001531	7160.864682	44121.208621	3958.386277	23505.595198
36.535000	-0.001269	-0.001103	0.000342	0.001100	7167.040738	44087.861232	3962.935704	23526.071804
37.035000	-0.001807	-0.000483	0.002001	0.001420	7158.605085	44116.234489	3966.315542	23510.859788
37.541000	-0.000724	-0.000747	0.005306	0.001503	7168.436577	44083.419538	3974.490344	23506.915287
38.036000	0.000047	-0.000361	-0.001650	0.001493	7176.118899	44120.967104	3956.941853	23507.389660
38.536500	-0.000975	-0.000882	0.000109	0.001416	7166.817412	44078.785398	3961.551459	23511.026044
39.036500	-0.000818	-0.000923	-0.004497	0.001279	7169.705929	44087.933193	3950.363541	23517.541716
39.539500	0.000056	-0.000253	-0.002582	0.001878	7172.408226	44094.652059	3953.645037	23489.100877
40.037000	-0.001433	-0.000258	-0.000439	0.001749	7159.043486	44106.371863	3959.337459	23495.238409
40.540000	-0.002045	-0.000846	-0.001053	0.001124	7159.173875	44109.868910	3959.365327	23524.894418
41.034500	-0.002951	-0.000592	-0.003321	0.001712	7144.530445	44078.218719	3952.214280	23496.982363
41.534500	-0.002108	-0.000366	0.000821	0.001808	7151.847442	44090.536184	3962.357787	23492.425270
42.035500	-0.001491	-0.000722	-0.001226	0.001549	7160.434285	44081.379746	3957.863134	23504.714258
42.535500	-0.002393	0.000084	0.001478	0.002250	7144.736478	44091.399991	3962.901294	23471.494836
43.036000	-0.001472	0.000563	-0.000877	0.002126	7154.965510	44148.535222	3957.293255	23477.359025
43.538000	-0.001173	-0.000585	0.004140	0.001110	7167.881127	44135.954302	3972.521571	23525.572525
44.036500	0.002514	-0.001209	0.002685	-0.003414	7249.404578	44507.683120	3980.351512	23741.658609
44.542500	0.000530	-0.000102	0.003115	0.000777	7187.951136	44213.445606	3970.763683	23541.396828
45.037000	-0.000913	-0.001117	-0.001940	0.000229	7179.116263	44169.124609	3959.387791	23567.499718
45.540500	-0.000946	-0.000783	-0.001723	-0.000239	7183.410154	44245.399571	3961.107206	23589.775895
46.035000	-0.000568	-0.001197	0.000981	-0.000293	7187.676524	44211.098855	3968.068833	23592.349082
46.535500	0.000546	0.000448	0.005419	0.000797	7187.907657	44263.920090	3976.576997	23540.445500
47.035500	-0.002238	-0.000634	-0.000933	0.002501	7143.792184	43999.530703	3956.211490	23459.573103
47.536000	-0.000679	-0.000672	0.002528	0.001986	7164.126084	44044.815409	3966.218095	23484.023929
48.036000	0.001709	0.000415	0.000372	0.001670	7190.783130	44177.830275	3961.575799	23499.011781
48.536000	-0.001796	-0.000445	-0.000841	0.000518	7167.575239	44205.501280	3961.422459	23553.732657
49.036000	-0.000670	-0.000478	0.002477	0.001575	7168.258261	44102.034723	3967.127877	23503.493436
49.537000	0.000415	-0.000626	-0.000641	-0.002322	7217.534447	44459.065083	3969.099508	23689.298105
50.037500	0.001515	-0.000224	0.004692	-0.001657	7221.865098	44433.833591	3980.993138	23657.461400
50.537500	0.002075	0.000040	0.004450	0.000246	7208.509302	44277.493796	3975.510949	23566.661220
51.035000	0.000767	-0.000507	0.000589	0.027291	6936.007212	41732.143546	3899.471066	22318.365041
51.537500	-0.060444	-0.010196	-0.010737	0.155171	5510.139664	31196.702540	3616.744625	17362.984356
52.035500	-0.059991	-0.018029	-0.011889	-0.082463	7418.418047	50913.660726	4158.295430	27904.312779
52.538500	-0.051313	-0.058228	-0.007972	-0.227376	9336.854017	63997.885088	4685.477059	37812.117675
53.036500	-0.039529	-0.036358	0.005602	-0.186481	8919.304177	61380.388897	4574.694901	34673.799003
53.539000	-0.023848	-0.020912	-0.002440	-0.145583	8579.573192	58053.230834	4392.869105	31817.347972
54.037000	-0.018630	-0.020017	-0.001287	-0.147657	8675.786815	58431.319298	4404.236218	31955.814697
54.539500	0.003195	-0.013116	-0.004796	-0.144253	8926.194531	58880.023114	4379.982292	31728.860209
55.037500	0.004882	-0.018368	-0.005996	-0.164643	9240.628981	60864.842829	4448.269764	33115.141431
55.534500	0.005452	-0.016251	-0.006104	-0.159221	9170.138486	60425.577253	4428.279912	32740.129131
56.035000	0.007932	-0.009107	-0.003027	-0.132763	8833.160244	57924.474281	4346.529654	30975.926032
56.536000	0.002323	-0.007945	-0.005268	-0.119797	8584.610532	56449.836283	4295.671520	30149.808722
57.036000	-0.001126	-0.007263	-0.002072	-0.109365	8405.682270	55261.494915	4272.088604	29502.783686
57.535500	-0.006689	-0.006320	-0.006242	-0.088798	8084.003800	52949.461179	4194.378384	28271.897749
58.036500	-0.003681	-0.007258	-0.006495	-0.097657	8227.688421	53870.096437	4220.909863	28794.929571
58.536500	-0.002992	-0.006624	-0.004991	-0.099529	8259.218276	54164.947084	4231.464796	28906.839821
59.037000	-0.006034	-0.005490	-0.005389	-0.087450	8075.730503	52889.830917	4192.867755	28193.250867
59.537000	0.000611	-0.003660	-0.011358	-0.085523	8132.299129	52878.737996	4169.008730	28081.228924
60.034500	-0.007390	-0.004381	-0.008220	-0.071673	7875.392027	51230.565066	4137.321347	27290.521059
60.536500	-0.016402	-0.006654	-0.008825	-0.067967	7731.701428	50570.130481	4124.790205	27083.201609
61.035500	-0.009176	-0.005966	-0.011050	-0.071476	7852.707520	51032.781211	4128.509567	27279.443835
61.536500	-0.017663	-0.014403	-0.007525	-0.127074	8420.569333	56550.825186	4312.261463	30610.393432
62.035500	0.001711	-0.000912	-0.011419	-0.081362	8095.526790	52716.449849	4156.427186	27841.024733
62.536500	0.004881	0.000314	-0.004923	-0.075294	8060.952534	52164.449473	4157.695496	27494.834368
63.036500	0.006311	-0.000049	-0.009593	-0.074451	8067.930292	52027.823577	4141.433200	27447.085191
63.542000	0.010688	0.001041	-0.007251	-0.072230	8093.663350	51900.139481	4141.787150	27321.811827
64.037000	0.012698	0.002441	-0.009116	-0.067871	8065.629983	51567.581434	4123.669606	27077.832759
64.537000	0.011648	0.001782	-0.004852	-0.065722	8027.703314	51254.210689	4129.798844	26958.468500
65.035000	0.012292	0.002788	-0.013029	-0.061880	7990.060694	50939.604247	4095.371821	26746.490888
65.535000	0.012386	0.003469	-0.007546	-0.059037	7957.912986	50701.183504	4102.851049	26590.805887
66.035000	0.014031	0.004196	-0.011163	-0.055447	7935.297206	50387.233904	4082.536030	26395.707718
66.535500	0.013566	0.003225	-0.010171	-0.053830	7911.198925	50105.199505	4080.790691	26308.331259
67.036000	0.013103	0.003973	-0.006184	-0.050679	7869.642958	49844.909292	4083.123862	26139.023464
67.536500	0.014449	0.004347	-0.002243	-0.048395	7858.918508	49639.131856	4087.771563	26017.119281
68.036500	0.012062	0.003887	-0.008354	-0.047242	7818.636785	49465.919009	4067.546623	25955.777967
68.536500	0.011864	0.004964	-0.005994	-0.044428	7784.616447	49280.150090	4066.294459	25806.834696
69.037000	0.011929	0.004918	-0.011540	-0.042922	7768.418133	49114.743598	4046.999596	25727.467563
69.537500	0.009204	0.003463	-0.010010	-0.043796	7747.708581	49053.063198	4053.544082	25773.511860
70.035000	0.010138	0.004153	-0.004799	-0.041933	7737.334733	48928.607477	4062.711172	25675.528518
70.535000	0.010227	0.004358	-0.006278	-0.040872	7726.522928	48838.054159	4055.750285	25619.964242
71.035500	0.008112	0.003533	-0.008072	-0.040320	7696.948462	48692.685079	4049.352598	25591.047525
71.535500	0.008793	0.004017	-0.002246	-0.039820	7698.946836	48691.039754	4063.923279	25564.946292
72.036000	0.008439	0.003393	-0.005637	-0.040414	7701.606591	48687.822898	4056.250070	25595.982070
72.536500	0.008558	0.003264	-0.002529	-0.039373	7691.413331	48564.732475	4061.915207	25541.623820
73.037000	0.007805	0.003032	-0.005268	-0.039439	7683.835952	48547.246418	4054.592039	25545.044830
73.537000	0.006574	0.002926	-0.008103	-0.039240	7668.095260	48515.328488	4046.337830	25534.697878
74.034500	0.005903	0.002232	-0.004605	-0.039295	7661.332033	48448.170615	4056.010092	25537.528736
74.535000	0.005623	0.002897	-0.005604	-0.038366	7648.090370	48420.609290	4050.750287	25489.158391
75.035000	0.006145	0.002740	-0.005625	-0.037972	7649.493718	48362.865851	4049.623818	25468.679141
75.535500	0.005010	0.002219	-0.007624	-0.038679	7644.807030	48382.384375	4046.114378	25505.447985
76.035500	0.004618	0.002070	-0.003410	-0.038420	7637.700366	48339.635075	4056.887409	25491.968642
76.536000	0.004667	0.002487	-0.006463	-0.037086	7623.688820	48243.897620	4044.943515	25422.642483
77.036500	0.006243	0.002352	-0.004690	-0.037462	7644.982480	48268.951993	4050.777175	25442.152088
77.536500	0.004511	0.001136	-0.005525	-0.038287	7635.085522	48228.278666	4050.752766	25485.070737
78.037000	0.004600	0.002538	-0.006503	-0.037685	7629.484135	48311.806012	4046.458189	25453.760228
78.537000	0.005287	0.001420	-0.009046	-0.038569	7646.635192	48287.218488	4041.966462	25499.704601
79.034500	0.003375	0.001511	-0.002764	-0.038463	7624.618095	48285.742080	4058.774073	25494.203726
79.535000	0.003610	0.001791	-0.007684	-0.038683	7629.569661	48337.998631	4045.962380	25505.671394
80.035500	0.002113	0.001789	-0.001776	-0.039314	7620.142578	48403.752809	4063.822819	25538.524584
80.535000	0.001413	0.001739	-0.006901	-0.038925	7608.313305	48357.874690	4048.744022	25518.255805
81.038500	0.003121	0.002328	-0.002935	-0.039180	7629.662500	48446.263319	4060.271912	25531.579174
81.536500	0.003343	0.001845	-0.005106	-0.040434	7645.775041	48527.140029	4057.756550	25597.029479
82.036000	0.002236	0.001303	-0.004515	-0.041240	7642.482066	48554.878382	4061.588765	25639.222432
82.536500	0.001277	0.001339	-0.009924	-0.040448	7623.378387	48475.443986	4044.673035	25597.745461
83.037000	0.000868	0.001364	-0.002268	-0.041630	7631.808852	48602.332757	4068.855661	25659.658215
83.537500	0.002216	0.002465	-0.005440	-0.041622	7646.442549	48717.345846	4060.097829	25659.235976
84.034500	0.001960	0.001849	-0.005885	-0.042897	7657.600213	48786.912489	4062.378929	25726.178880
84.535000	0.002076	0.002177	-0.006808	-0.041089	7639.079553	48630.884891	4054.894898	25631.301268
85.035000	0.000909	0.001500	-0.006822	-0.043649	7654.326310	48829.527095	4061.871037	25765.766339
85.535500	0.003667	0.002244	-0.005161	-0.043298	7680.760177	48871.026930	4065.474395	25747.289646
86.036000	0.000862	0.001255	-0.004144	-0.044616	7664.410772	48905.913222	4071.927372	25816.749182
86.536000	0.001692	0.001696	-0.006874	-0.042161	7646.611723	48693.149456	4057.646398	25687.527949
87.036500	0.004208	0.001728	-0.001439	-0.044131	7695.916121	48904.520200	4078.091933	25791.130296
87.537000	0.002777	0.001349	-0.004349	-0.044990	7689.601820	48955.413175	4072.393194	25836.472030
88.037000	0.001731	0.001795	-0.005733	-0.045162	7679.962429	49020.991697	4069.040709	25845.577103
88.537500	0.000143	0.001384	-0.006096	-0.042897	7637.718252	48737.883267	4061.798308	25726.189138
89.034500	0.002706	0.001519	-0.005508	-0.044783	7686.536223	48951.493371	4068.614858	25825.566568
89.535000	0.002246	0.001541	-0.007585	-0.045100	7684.956487	48987.393525	4063.760179	25842.305776
90.035500	0.003864	0.000904	-0.009371	-0.045343	7705.517369	48945.624963	4059.519911	25855.130200
90.536000	0.000492	0.000302	-0.012475	-0.043146	7644.245997	48650.038410	4045.072222	25739.252582
91.036000	0.003849	0.000730	-0.010060	-0.045259	7704.423367	48918.361847	4057.402824	25850.694240
91.536500	0.000891	0.001009	-0.002235	-0.045061	7669.620894	48926.907293	4078.466763	25840.253040
92.037000	0.001994	0.001064	-0.003747	-0.044659	7677.323474	48890.102922	4073.144523	25818.988444
92.537000	-0.000344	0.000732	-0.009664	-0.040818	7609.794126	48450.657626	4046.382827	25617.123577
93.037500	0.001689	0.000770	-0.008518	-0.044164	7668.521753	48806.758023	4058.627412	25792.884087
93.554500	0.001666	0.000856	-0.007998	-0.044350	7670.320369	48835.419453	4060.562980	25802.687423
94.035000	0.002151	0.000624	-0.007912	-0.044184	7673.826343	48793.458520	4060.346964	25793.963468
94.535500	-0.000691	0.000105	-0.008618	-0.040958	7607.539668	48399.652334	4049.601957	25624.433593
95.035000	0.000461	0.000183	-0.003663	-0.043673	7649.675591	48692.908469	4070.646220	25766.986680
95.536000	-0.000368	0.000969	-0.001918	-0.042732	7630.334899	48676.675650	4072.873149	25717.473034
96.036500	0.000972	0.000379	-0.004392	-0.043236	7650.483962	48667.594066	4067.424457	25744.015035
