sample name	sample
index	74
start time	 02-11-2021  03:58:26 PM
880	-0.062278
Peak Time (s)	92.536
Peak Height 	-0.06228
calc peak height	90,93
Baseline Time (s)	10.034
Baseline Value 	-0.001973
subtract baseline	10,4
Abs	0.000547
Peak Time (s)	91.535
Peak Height 	5.4726E-4
calc peak height	90,93
Baseline Time (s)	11.536
Baseline Value 	0.00623
subtract baseline	10,3
PK_550	0.001178
Peak Time (s)	90.037
Peak Height 	0.001178
calc peak height	90,93
Baseline Time (s)	10.034
Baseline Value 	0.001112
subtract baseline	10,2
PK_880	0.001630
Peak Time (s)	92.536
Peak Height 	0.00163
calc peak height	90,93
Baseline Time (s)	11.536
Baseline Value 	0.002835
subtract baseline	10,1


Time (s)	A880-A510	A880-A775	A880-A975	A880	I510	I775	I975	I880	
0.035000	-0.002061	-0.001531	-0.005858	0.005876	4591.610008	20056.340147	3309.257037	10900.630603
0.535000	-0.004200	-0.001795	-0.006290	0.001617	4599.705632	20214.477318	3312.674745	10979.171275
1.035000	-0.001217	-0.001625	0.002024	0.001664	4610.984693	20219.401499	3320.161478	10978.309345
1.538000	-0.001302	0.000825	-0.008689	0.000898	4613.613914	20347.825365	3311.170967	10992.511942
2.036000	-0.001887	-0.000753	-0.006409	0.002439	4605.423376	20223.245277	3311.831459	10963.952132
2.536000	-0.004161	-0.000546	0.002112	0.000192	4605.322731	20321.198343	3321.590049	11005.629682
3.036500	0.002036	0.000169	-0.009357	-0.001729	4636.801696	20427.037268	3312.925240	11041.431227
3.537000	0.001089	0.000655	0.004790	0.000375	4624.903498	20361.981588	3323.886779	11002.232287
4.040000	0.001511	-0.001150	-0.005458	-0.000352	4629.371949	20318.793968	3315.194841	11015.743602
4.534500	-0.000662	-0.001257	-0.013670	-0.001307	4624.634519	20352.779941	3308.698278	11033.558073
5.035000	-0.001658	-0.001185	-0.007951	-0.000655	4618.243486	20329.512453	3313.223141	11021.399964
5.535500	-0.002575	-0.001910	-0.013301	-0.001192	4616.769681	20322.003079	3308.924054	11031.406705
6.035500	0.000413	0.001550	-0.009162	0.001717	4617.075470	20344.054464	3310.018058	10977.327512
6.536000	0.000469	-0.000006	-0.000092	-0.000009	4623.984106	20350.866549	3319.756593	11009.366538
7.036000	-0.002887	-0.000893	-0.003295	-0.000298	4612.114367	20326.924513	3317.104037	11014.750519
7.536500	0.001243	0.001093	0.001334	0.000587	4624.675330	20371.035395	3320.515427	10998.285587
8.037000	-0.003337	-0.000789	-0.012959	-0.000853	4612.516750	20353.297456	3308.925638	11025.077621
8.537000	0.001117	0.001144	0.005007	0.000788	4623.406521	20365.034931	3323.705707	10994.553214
9.037500	-0.004035	-0.000884	-0.007312	-0.001432	4612.055769	20372.751453	3314.497012	11035.881769
9.535000	0.002772	0.000640	-0.000762	0.000465	4631.102727	20357.768100	3318.712922	11000.551169
10.034500	0.003770	0.000000	0.009712	0.000000	4636.821904	20350.753096	3328.804133	11009.199442
10.535500	-0.001481	0.000725	-0.010459	-0.000235	4617.299784	20389.273417	3310.601312	11013.568503
11.036000	-0.004991	-0.000790	0.003092	-0.001289	4607.820526	20370.736656	3323.854400	11033.207361
11.535500	0.000000	-0.000289	0.000000	0.003012	4610.479738	20218.916962	3317.090370	10953.358156
12.036000	-0.001631	0.000087	0.003414	-0.000364	4617.219002	20368.826267	3323.299014	11015.970470
12.537000	0.002727	-0.000951	-0.001540	-0.001331	4637.946737	20365.975111	3319.640813	11033.989760
13.037000	0.000469	-0.001512	0.001178	-0.001903	4631.358070	20366.464647	3322.657165	11044.686973
13.540500	0.000815	-0.000575	0.000646	0.003332	4612.391549	20194.822087	3317.386464	10947.458291
14.037000	-0.005004	-0.001656	-0.001966	0.000471	4601.014907	20265.703089	3317.612687	11000.447724
14.537500	-0.002263	-0.000540	0.000137	0.001427	4607.869193	20272.096537	3318.655600	10982.699311
15.038000	0.002244	-0.000811	0.004059	-0.001457	4636.548082	20376.656077	3324.902805	11036.341853
15.535500	-0.006874	-0.002467	-0.013435	0.001860	4588.574254	20178.146241	3306.103199	10974.668746
16.035500	-0.002457	-0.001881	-0.011946	-0.001581	4618.732728	20338.731806	3310.475393	11038.659294
16.536000	0.001006	0.000265	-0.002774	-0.000780	4629.072781	20392.662961	3318.014422	11023.713975
17.036500	-0.001658	0.000116	0.002313	-0.003403	4628.913587	20492.403277	3325.088300	11072.749429
17.536500	0.000066	-0.000083	-0.003860	0.002133	4614.123364	20262.111853	3314.394831	10969.612611
18.037500	-0.002150	-0.002218	0.003430	-0.000635	4616.258254	20287.408458	3323.563108	11021.014149
18.537000	0.000721	-0.000271	-0.001757	0.000923	4621.344508	20302.932525	3317.391421	10992.046115
19.037500	0.000241	-0.000248	-0.008858	0.000242	4622.121654	20331.104841	3311.605839	11004.692010
19.535000	-0.002502	-0.000845	0.002210	0.000003	4612.438092	20316.789919	3321.853987	11009.151944
20.035500	-0.003989	-0.000848	0.015032	0.000683	4604.092609	20289.454035	3333.159337	10996.496571
20.535000	-0.000045	0.000250	0.002651	0.001051	4617.883644	20318.694010	3321.297639	10989.680572
21.036000	-0.004592	-0.001776	-0.002900	-0.000750	4607.283901	20309.665435	3317.872873	11023.161003
21.536000	-0.002576	-0.001353	0.006773	0.000015	4612.104930	20295.985015	3326.054354	11008.923090
22.036500	-0.000020	-0.001055	0.000004	-0.000198	4622.817819	20316.404662	3320.017227	11012.879024
22.536500	-0.005875	-0.000582	0.008255	0.000751	4596.610934	20297.395230	3326.747001	10995.246963
23.040000	0.002463	-0.000785	0.008732	0.000569	4629.494828	20296.561252	3327.360535	10998.628685
23.535000	-0.002454	-0.001446	-0.009201	-0.000064	4612.877926	20295.436280	3311.572478	11010.387506
24.035000	-0.000927	-0.001438	-0.000374	-0.000605	4620.877302	20317.359985	3320.043219	11020.457205
24.535500	-0.001173	-0.000640	-0.007983	0.000465	4615.786502	20306.507356	3312.190143	11000.559081
25.035000	0.003120	-0.002160	-0.002276	-0.000009	4634.316401	20264.745825	3317.767232	11009.374420
25.536000	0.000299	-0.001936	0.004987	0.000216	4622.448442	20264.679156	3324.214580	11005.176969
26.036000	-0.001815	-0.001346	-0.004747	-0.000084	4615.423993	20300.235271	3315.595215	11010.763362
26.536000	0.000566	-0.000628	-0.005436	0.000431	4622.652993	20308.377755	3314.509784	11001.194173
27.037000	0.002021	-0.000148	-0.008243	-0.001668	4636.502577	20411.779950	3313.871756	11040.287950
27.540500	-0.003076	-0.001136	0.007325	0.001239	4605.463446	20255.765884	3325.430458	10986.174464
28.037000	-0.001861	-0.002012	-0.003307	-0.001659	4621.346485	20336.624503	3318.330277	11040.126025
28.534500	-0.000900	-0.001022	0.007798	-0.000972	4622.408520	20348.720483	3327.925680	11027.297781
29.035000	-0.000322	-0.000796	-0.004469	-0.001100	4625.147477	20362.945591	3316.766991	11029.684770
29.535500	-0.001264	0.000119	0.000831	0.003085	4605.336516	20232.243034	3317.778955	10952.015957
30.036000	-0.000228	-0.001698	0.008149	-0.001560	4627.305243	20345.248082	3328.802102	11038.275647
30.536000	-0.001167	-0.001099	-0.002887	0.001115	4613.297947	20262.226844	3316.194100	10988.489201
31.036000	0.001700	-0.000824	0.002319	0.001276	4623.774021	20266.744418	3320.786355	10985.491874
31.536500	-0.000240	0.000417	0.008129	0.003314	4608.392923	20235.000201	3324.255308	10947.779973
32.036500	-0.000438	-0.000625	0.001351	-0.000017	4620.497401	20326.394327	3321.084188	11009.517512
32.541500	-0.000166	-0.000301	-0.005037	-0.000744	4624.372506	20368.497975	3315.929937	11023.046546
33.037500	0.001460	-0.000110	-0.007397	-0.001767	4634.697291	20417.306974	3314.722856	11042.137158
33.537500	-0.002312	-0.001593	-0.005864	0.003749	4598.769095	20137.871300	3311.147453	10939.750011
34.035500	0.000056	-0.001216	-0.003732	0.001170	4617.811854	20255.373871	3315.380044	10987.470097
34.535000	-0.002358	-0.000534	-0.005365	0.001481	4607.295956	20270.143886	3313.627355	10981.692480
35.036000	-0.006387	-0.000167	-0.003910	0.001047	4593.527105	20302.150074	3315.330227	10989.754482
35.536500	0.000563	-0.001072	-0.003823	0.002941	4612.924715	20190.587889	3313.701202	10954.664436
36.036500	-0.003612	-0.000674	0.011603	0.000831	4604.976427	20290.515066	3329.796180	10993.757701
36.536000	-0.001530	-0.000750	0.007991	0.000900	4612.723870	20284.736911	3326.363599	10992.475663
37.039500	-0.001238	-0.000006	-0.004200	0.001765	4610.514373	20279.884380	3314.420307	10976.431862
37.537000	-0.001898	-0.000561	-0.003688	0.003275	4602.174128	20197.643890	3313.522695	10948.506572
38.037500	0.000800	0.000177	0.004665	0.001755	4618.425655	20287.611688	3322.499607	10976.615143
38.535000	0.002694	-0.001616	0.004211	0.000292	4631.478577	20274.441604	3323.428772	11003.777739
39.035000	-0.005446	-0.001187	0.007427	0.000650	4598.638706	20277.284612	3326.071705	10997.121016
39.535000	-0.003487	-0.000865	0.001006	0.002156	4600.375216	20230.076625	3318.783326	10969.198643
40.035500	-0.004027	-0.000760	-0.000557	0.000568	4604.390888	20297.584489	3318.806169	10998.638071
40.535500	-0.001674	0.000719	0.002048	0.001914	4608.260409	20302.907422	3319.954792	10973.669766
41.036500	-0.000783	-0.000547	0.001381	0.001148	4614.648379	20282.914669	3320.045251	10987.863251
41.536500	-0.000890	-0.001494	-0.002639	0.001725	4612.010313	20222.156982	3315.865851	10977.172896
42.037000	-0.000910	-0.000995	-0.001283	0.000147	4618.031672	20305.029171	3318.528545	11006.463788
42.537000	-0.001865	-0.001470	-0.000682	0.000732	4612.079238	20262.671555	3318.542902	10995.586753
43.037500	0.000967	-0.001229	0.007747	0.001008	4621.967351	20261.303473	3326.036847	10990.469166
43.535000	-0.000773	-0.001196	-0.004264	0.002452	4609.661386	20205.131054	3313.744564	10963.717351
44.035000	0.003934	-0.000048	-0.007303	-0.000183	4638.179055	20356.136472	3313.380612	11012.596417
44.535500	0.000741	-0.000745	0.002773	-0.001141	4629.445815	20366.625506	3323.423883	11030.444876
45.035500	0.003091	-0.002064	0.002601	-0.002010	4642.041215	20348.574436	3324.067472	11046.678310
45.536000	0.001254	0.000217	-0.003708	0.004845	4608.252652	20166.210352	3312.096448	10919.578842
46.036000	0.000636	-0.000586	-0.001924	-0.000639	4627.082806	20352.861406	3318.659955	11021.087875
46.540500	0.000130	-0.001665	0.004633	-0.001083	4626.841199	20327.437267	3325.088747	11029.365854
47.037000	-0.002235	-0.000300	-0.007710	0.001323	4608.376569	20285.808544	3311.665794	10984.626125
47.537500	-0.004348	-0.002647	0.001715	0.002284	4596.589293	20154.191369	3319.313235	10966.827540
48.035000	-0.002439	-0.000666	-0.006805	-0.001875	4619.940024	20399.272310	3315.353827	11044.145855
48.538000	-0.000130	-0.001555	-0.003660	-0.002123	4629.877052	20373.510688	3318.430272	11048.785457
49.035500	0.005586	-0.000425	-0.004699	-0.001141	4648.437386	20379.502692	3316.595542	11030.459257
49.536000	-0.006542	-0.001705	0.004992	0.003306	4584.342025	20150.986561	3321.375169	10947.927128
50.036000	0.000281	-0.001726	-0.001529	-0.003728	4637.755822	20431.168798	3321.846172	11078.843014
50.536000	-0.035517	-0.024845	0.007030	0.263241	3783.903757	11908.439084	3143.030721	7336.884745
51.037000	-0.041636	-0.022622	-0.013704	0.069505	4241.608489	17022.720643	3250.658352	9814.371155
51.537000	-0.003018	-0.010441	-0.008452	-0.161816	5366.094361	27611.626669	3487.857695	14656.893324
52.037000	-0.009207	-0.012786	-0.002319	-0.156607	5303.165089	27186.179979	3489.061471	14517.083889
52.537500	-0.015592	-0.014108	0.000394	-0.097280	4970.892508	24025.940906	3419.889005	13037.590830
53.035000	-0.018919	-0.013105	-0.009608	-0.101127	4973.331507	24262.725517	3412.897546	13127.515003
53.538500	-0.021066	-0.013202	-0.005013	-0.127054	5087.946121	25569.411052	3448.559296	13754.822674
54.035500	-0.009399	-0.004027	-0.011344	-0.106270	5043.260129	24972.507032	3416.755823	13248.987408
54.536000	-0.025883	-0.012435	-0.000683	-0.101854	4944.292924	24331.434818	3423.906113	13144.608290
55.036500	-0.014896	-0.009036	-0.008275	-0.098535	4980.053922	24335.385713	3411.479941	13066.837927
55.536500	-0.016913	-0.008535	-0.010464	-0.099013	4972.823934	24383.634259	3409.560003	13078.001899
56.039500	-0.021125	-0.010168	0.001181	-0.096398	4941.068924	24174.893258	3419.779835	13017.076295
56.536500	-0.026975	-0.005237	-0.000783	-0.087887	4875.877238	24000.555695	3407.943527	12821.319510
57.037000	-0.018625	-0.007590	0.010443	-0.083035	4891.557949	23654.061519	3415.112528	12711.433622
57.537000	-0.020303	-0.010073	-0.016379	-0.063802	4799.668110	22643.702765	3365.607379	12287.703281
58.035000	-0.015713	-0.009880	-0.007654	-0.070601	4849.167968	22963.536136	3381.711515	12435.355366
58.535500	-0.018070	-0.008904	0.007675	-0.056855	4779.557240	22383.298624	3383.386294	12139.213960
59.035500	-0.015389	-0.008848	0.003012	-0.051075	4766.458614	22128.725006	3372.450748	12017.471044
59.536000	-0.019080	-0.011455	-0.003034	-0.046925	4733.720179	21832.471944	3362.023851	11931.044044
60.036500	-0.007897	-0.007080	-0.009654	-0.045165	4773.133153	21946.577829	3353.635151	11894.630541
60.539000	-0.015565	-0.007850	-0.002683	-0.053865	4777.502737	22296.815807	3369.454312	12076.032520
61.037000	-0.015680	-0.011440	-0.004499	-0.064544	4822.824271	22615.377538	3378.657000	12303.715470
61.537000	-0.004775	-0.004161	-0.004465	-0.049929	4806.783273	22285.846319	3363.616813	11993.520997
62.037500	-0.008872	-0.004459	-0.009479	-0.071236	4882.374697	23244.744925	3380.457406	12449.276470
62.535500	-0.009495	-0.003143	-0.009491	-0.068344	4866.688452	23171.158648	3377.408743	12386.092112
63.037500	-0.006733	-0.003391	-0.009797	-0.068355	4879.052522	23160.156164	3377.100480	12386.334141
63.535500	-0.004316	-0.003353	-0.012516	-0.068344	4889.837843	23161.342037	3374.254613	12386.080106
64.036000	-0.005210	-0.002374	-0.005367	-0.067216	4880.768230	23154.451234	3380.553803	12361.568608
64.536500	-0.007542	-0.003709	-0.008100	-0.068718	4877.056766	23162.216738	3379.258587	12394.235386
65.036500	-0.006518	-0.002729	-0.007459	-0.068647	4881.321210	23204.619619	3379.857540	12392.693455
65.537000	-0.011866	-0.003180	-0.020353	-0.066983	4850.177630	23106.133767	3364.800002	12356.501314
66.037000	-0.010342	-0.003499	-0.011179	-0.073467	4885.779730	23394.439720	3381.016165	12498.284611
66.537500	-0.006322	-0.002250	-0.006080	-0.074456	4908.390371	23500.148475	3387.480951	12520.111054
67.037500	-0.006158	-0.002962	-0.000266	-0.075373	4913.308983	23509.867179	3394.734093	12540.385698
67.535000	-0.009964	-0.002641	-0.013599	-0.072704	4884.055869	23398.937463	3377.672837	12481.502900
68.037500	-0.008071	-0.001684	-0.004070	-0.079325	4922.607060	23759.065844	3394.895403	12628.236292
68.536000	-0.005184	-0.000806	-0.000170	-0.079948	4938.720935	23831.128252	3399.833190	12642.142626
69.035500	-0.002792	-0.001220	-0.014363	-0.082255	4960.499835	23922.418428	3386.962610	12693.875530
69.536500	-0.006218	-0.001036	-0.012608	-0.078558	4927.581355	23753.401820	3384.893600	12611.126699
70.039500	-0.005099	-0.001450	-0.003207	-0.085238	4963.650217	24055.795533	3402.312421	12761.163488
70.537000	-0.005750	0.000577	-0.009063	-0.084616	4957.715471	24124.265642	3395.218024	12747.100523
71.037500	-0.002692	-0.001305	-0.004888	-0.087357	4984.884191	24166.228608	3402.797402	12809.267586
71.534000	-0.008805	-0.000684	-0.014438	-0.082033	4931.655329	23937.575110	3386.646444	12688.896581
72.034500	-0.006567	-0.000734	-0.017461	-0.087776	4968.650599	24214.636823	3389.558360	12818.795295
72.535500	-0.003473	-0.000584	-0.008722	-0.088463	4986.414371	24255.697329	3399.793444	12834.445491
73.035500	-0.002594	-0.000049	-0.008864	-0.088657	4991.484715	24291.488938	3399.850318	12838.873904
73.536000	-0.007519	-0.000876	0.004348	-0.083340	4943.601255	23991.568082	3408.596135	12718.309362
74.036500	-0.004315	0.000294	-0.000317	-0.087339	4977.161551	24243.611366	3407.852018	12808.852565
74.536500	-0.005963	-0.000878	-0.014095	-0.088362	4974.227529	24236.347960	3393.823037	12832.152658
75.036500	-0.001532	0.000286	-0.002861	-0.086639	4986.969722	24208.910525	3404.245355	12792.944844
75.536500	-0.004119	-0.000712	-0.007296	-0.084257	4963.644831	24044.034896	3396.751633	12738.993764
76.037000	-0.004126	0.000094	-0.003491	-0.084905	4966.641602	24114.802024	3401.633217	12753.637106
76.535000	-0.004716	0.000500	-0.007263	-0.083843	4958.931858	24082.840057	3396.335318	12729.638147
77.035000	-0.001407	0.000867	-0.012238	-0.082492	4968.069506	24035.007292	3389.492844	12699.210118
77.535500	-0.006525	-0.001218	-0.004166	-0.080338	4934.343050	23830.064218	3395.891960	12650.873920
78.036000	-0.004060	0.000918	-0.010208	-0.080850	4948.080378	23957.839281	3389.909607	12662.334699
78.536000	-0.001696	0.000921	0.007475	-0.079960	4954.920089	23914.983944	3408.313933	12642.419940
79.036000	-0.005644	0.000872	-0.012421	-0.079230	4933.300828	23877.377198	3385.808272	12626.111159
79.539500	-0.003234	0.000882	-0.002273	-0.076163	4930.277179	23730.518233	3393.414089	12557.869911
80.036500	-0.005017	0.000551	-0.007466	-0.077655	4928.943793	23786.145506	3389.422595	12591.001920
80.537000	0.000073	0.001697	-0.002485	-0.076593	4947.509908	23790.225290	3393.650228	12567.418134
81.037000	-0.002348	0.001887	-0.001592	-0.075592	4931.725835	23751.287761	3393.533106	12545.220587
81.535000	-0.002364	0.000430	-0.001148	-0.074009	4924.397376	23606.152050	3392.301598	12510.253331
82.035000	-0.001516	0.002418	0.004055	-0.074161	4928.978923	23708.201288	3398.122796	12513.596972
82.535500	-0.003369	0.000324	-0.001424	-0.075077	4924.682710	23651.958336	3393.157432	12533.837085
83.036000	-0.003024	0.000324	-0.004822	-0.074961	4925.734171	23646.438985	3389.370231	12531.272048
83.536000	-0.000422	0.001091	-0.007791	-0.071127	4920.095925	23500.675292	3382.121891	12446.873419
84.039000	-0.001885	0.000470	-0.001256	-0.073593	4924.683154	23588.217858	3391.734576	12501.061112
84.536500	-0.000545	0.000818	0.010666	-0.072436	4925.519541	23549.810587	3403.495833	12475.600630
85.037000	-0.001693	0.001567	-0.007849	-0.072128	4918.867335	23570.758882	3383.120255	12468.840907
85.534000	-0.000698	0.001258	-0.009488	-0.068903	4908.713256	23403.517459	3377.996439	12398.257860
86.034500	-0.000873	0.001109	-0.003031	-0.071887	4921.509699	23537.569166	3387.993732	12463.552495
86.535000	-0.003661	0.000280	-0.001756	-0.071247	4905.904039	23467.996883	3388.673831	12449.501712
87.035500	-0.000554	0.001078	-0.009267	-0.070292	4915.687851	23460.597080	3379.687072	12428.604822
87.535500	-0.005179	0.000347	-0.008419	-0.067091	4880.346776	23275.616363	3377.219409	12358.842553
88.035500	-0.001542	0.000918	0.001865	-0.069211	4906.284287	23402.023033	3390.376100	12404.985483
88.536000	-0.000528	0.001327	0.003101	-0.068689	4908.514337	23396.744504	3391.145694	12393.611063
89.039000	-0.001283	0.000611	-0.009530	-0.068464	4904.068515	23352.418434	3377.492747	12388.700883
89.537000	-0.002807	0.001374	-0.004998	-0.064530	4879.504708	23203.968143	3378.119724	12303.420528
90.036500	-0.000276	0.001178	-0.015639	-0.066097	4897.916224	23268.011096	3368.710127	12337.282863
90.534000	-0.001938	0.001123	-0.003882	-0.065153	4886.188634	23221.306909	3379.945004	12316.866960
91.037500	-0.000330	0.000959	-0.002570	-0.064709	4891.418864	23192.893552	3380.858538	12307.267060
91.535500	0.000274	0.000565	0.000547	-0.063587	4889.087675	23122.328628	3382.966760	12283.075556
92.035000	-0.001767	0.000593	-0.010542	-0.063323	4878.757109	23111.369815	3371.101446	12277.396304
92.536000	0.001630	0.000798	-0.005032	-0.062278	4889.300625	23072.445854	3375.730883	12254.939398
93.080000	-0.001493	0.000651	-0.012564	-0.061841	4873.363040	23045.354491	3367.501238	12245.554276
93.539500	-0.000199	0.000428	-0.004779	-0.061596	4878.045479	23023.689974	3375.284375	12240.305054
94.037000	-0.001526	-0.001097	-0.002027	-0.060534	4867.394944	22904.426465	3377.046084	12217.555167
94.536500	-0.001421	-0.000774	-0.009330	-0.060378	4867.167961	22912.091205	3369.316361	12214.218232
95.039500	-0.003913	0.000733	-0.001389	-0.058582	4848.206776	22898.830355	3375.675885	12175.918043
95.534000	-0.001657	0.000523	-0.006315	-0.054538	4840.349004	22704.242189	3366.423312	12090.217641
