sample name	sample
index	682
start time	 03-22-2021  12:01:31 PM


Wavelength (nm)	Absorbance
494.344910	NaN
494.563924	NaN
494.782919	NaN
495.001897	0.014892
495.220856	NaN
495.439797	NaN
495.658719	NaN
495.877624	0.626542
496.096510	0.360648
496.315378	0.168709
496.534227	0.070927
496.753059	0.062397
496.971872	0.060244
497.190667	0.025637
497.409444	0.017434
497.628203	0.017892
497.846943	0.016191
498.065665	0.017934
498.284369	0.017894
498.503055	0.018043
498.721723	0.016252
498.940372	0.015271
499.159003	0.014832
499.377616	0.014666
499.596210	0.014044
499.814787	0.014353
500.033345	0.013968
500.251885	0.013937
500.470406	0.014326
500.688910	0.015659
500.907395	0.015796
501.125862	0.015779
501.344311	0.016215
501.562742	0.016364
501.781154	0.017139
501.999548	0.016492
502.217924	0.015853
502.436282	0.015859
502.654621	0.015572
502.872942	0.015204
503.091245	0.015376
503.309530	0.014754
503.527797	0.014209
503.746045	0.013180
503.964275	0.013378
504.182487	0.013826
504.400681	0.013264
504.618856	0.013106
504.837013	0.013963
505.055152	0.013357
505.273273	0.013917
505.491376	0.014076
505.709460	0.014473
505.927526	0.014645
506.145574	0.015252
506.363604	0.015201
506.581615	0.014809
506.799608	0.015021
507.017583	0.015342
507.235540	0.015474
507.453478	0.015786
507.671399	0.016130
507.889301	0.016047
508.107185	0.015283
508.325050	0.014618
508.542898	0.014902
508.760727	0.014698
508.978538	0.013747
509.196330	0.013405
509.414105	0.012820
509.631861	0.012645
509.849599	0.012617
510.067319	0.012587
510.285021	0.013597
510.502704	0.013838
510.720369	0.013399
510.938016	0.013998
511.155645	0.014232
511.373255	0.014733
511.590848	0.014806
511.808422	0.014281
512.025977	0.014067
512.243515	0.013818
512.461034	0.013747
512.678536	0.014046
512.896018	0.014049
513.113483	0.013933
513.330930	0.013650
513.548358	0.013349
513.765768	0.013662
513.983160	0.013219
514.200533	0.012944
514.417889	0.012823
514.635226	0.012741
514.852545	0.012548
515.069845	0.012166
515.287128	0.012445
515.504392	0.012500
515.721638	0.012395
515.938866	0.012936
516.156075	0.012764
516.373267	0.012603
516.590440	0.012193
516.807594	0.012226
517.024731	0.012699
517.241850	0.013014
517.458950	0.012701
517.676032	0.012332
517.893095	0.012266
518.110141	0.012726
518.327168	0.012705
518.544177	0.012530
518.761168	0.012548
518.978141	0.012474
519.195095	0.012239
519.412031	0.012573
519.628949	0.012688
519.845849	0.012661
520.062731	0.012538
520.279594	0.012639
520.496439	0.013307
520.713266	0.013506
520.930074	0.013503
521.146865	0.014010
521.363637	0.013441
521.580391	0.014098
521.797127	0.014044
522.013844	0.013922
522.230543	0.013725
522.447224	0.013418
522.663887	0.013407
522.880532	0.013479
523.097158	0.012422
523.313766	0.012722
523.530356	0.012466
523.746928	0.012357
523.963481	0.012773
524.180017	0.012695
524.396534	0.012396
524.613032	0.012500
524.829513	0.012509
525.045975	0.013228
525.262420	0.013008
525.478845	0.012960
525.695253	0.013266
525.911643	0.013371
526.128014	0.013852
526.344367	0.014285
526.560702	0.014013
526.777018	0.013534
526.993316	0.013074
527.209597	0.013251
527.425858	0.012970
527.642102	0.013081
527.858328	0.012493
528.074535	0.012215
528.290724	0.012451
528.506894	0.012571
528.723047	0.012295
528.939181	0.012634
529.155297	0.012809
529.371395	0.013170
529.587475	0.013210
529.803536	0.012912
530.019579	0.012804
530.235604	0.012581
530.451611	0.012891
530.667600	0.013329
530.883570	0.012824
531.099522	0.012802
531.315456	0.012619
531.531372	0.012453
531.747269	0.012878
531.963148	0.012983
532.179009	0.012617
532.394852	0.012212
532.610676	0.012869
532.826482	0.013171
533.042271	0.013348
533.258040	0.013901
533.473792	0.013978
533.689525	0.014080
533.905240	0.014660
534.120937	0.014686
534.336616	0.014806
534.552277	0.013956
534.767919	0.013491
534.983543	0.013187
535.199149	0.013258
535.414736	0.013055
535.630306	0.012979
535.845857	0.011571
536.061390	0.012037
536.276904	0.011472
536.492401	0.011743
536.707879	0.011923
536.923339	0.011831
537.138781	0.011272
537.354204	0.011290
537.569610	0.011426
537.784997	0.012209
538.000366	0.012169
538.215716	0.012964
538.431049	0.013354
538.646363	0.013294
538.861659	0.013721
539.076937	0.013954
539.292196	0.014276
539.507438	0.013991
539.722661	0.013935
539.937866	0.013813
540.153052	0.013804
540.368221	0.013636
540.583371	0.013737
540.798503	0.013723
541.013617	0.013669
541.228712	0.013785
541.443789	0.013759
541.658848	0.013794
541.873889	0.013714
542.088912	0.013299
542.303916	0.013245
542.518902	0.013237
542.733870	0.013054
542.948820	0.012982
543.163752	0.012887
543.378665	0.013220
543.593560	0.013319
543.808437	0.013225
544.023295	0.013165
544.238136	0.012905
544.452958	0.012928
544.667762	0.012945
544.882548	0.012815
545.097315	0.012532
545.312064	0.012093
545.526795	0.012054
545.741508	0.012074
545.956203	0.012426
546.170879	0.012720
546.385537	0.012457
546.600177	0.012390
546.814799	0.012564
547.029402	0.012770
547.243988	0.013008
547.458555	0.012586
547.673103	0.012528
547.887634	0.012368
548.102146	0.012188
548.316640	0.012653
548.531116	0.012437
548.745574	0.012176
548.960013	0.012239
549.174435	0.012359
549.388838	0.012639
549.603222	0.012861
549.817589	0.012580
550.031937	0.012552
550.246267	0.012305
550.460579	0.012578
550.674873	0.012645
550.889148	0.012538
551.103405	0.012598
551.317644	0.012723
551.531865	0.012518
551.746068	0.012858
551.960252	0.013213
552.174418	0.013314
552.388566	0.013411
552.602696	0.013764
552.816807	0.013890
553.030900	0.013951
553.244975	0.014146
553.459032	0.014511
553.673070	0.014249
553.887091	0.014008
554.101093	0.014143
554.315077	0.014266
554.529042	0.014179
554.742990	0.013973
554.956919	0.014093
555.170830	0.013773
555.384722	0.013655
555.598597	0.013900
555.812453	0.013757
556.026291	0.013246
556.240111	0.012820
556.453913	0.012600
556.667696	0.012634
556.881461	0.012396
557.095208	0.012418
557.308937	0.012337
557.522647	0.012257
557.736339	0.012375
557.950013	0.012873
558.163669	0.013071
558.377307	0.012901
558.590926	0.013137
558.804527	0.012891
559.018110	0.013075
559.231675	0.013078
559.445221	0.013334
559.658749	0.013606
559.872259	0.013392
560.085751	0.013344
560.299225	0.013521
560.512680	0.013380
560.726117	0.013467
560.939536	0.013300
561.152937	0.013322
561.366319	0.013208
561.579683	0.013161
561.793029	0.013458
562.006357	0.013470
562.219667	0.013543
562.432958	0.013646
562.646231	0.013949
562.859486	0.014130
563.072723	0.014342
563.285941	0.014191
563.499141	0.014123
563.712323	0.014120
563.925487	0.014394
564.138632	0.014462
564.351760	0.014584
564.564869	0.014700
564.777960	0.014883
564.991032	0.014766
565.204087	0.014971
565.417123	0.014744
565.630141	0.014691
565.843140	0.014508
566.056122	0.014308
566.269085	0.013774
566.482030	0.013726
566.694957	0.013632
566.907866	0.013144
567.120756	0.012897
567.333628	0.013011
567.546482	0.012976
567.759318	0.013110
567.972135	0.013345
568.184935	0.013750
568.397716	0.013686
568.610478	0.013647
568.823223	0.014175
569.035949	0.014499
569.248657	0.014657
569.461347	0.014698
569.674019	0.014478
569.886672	0.014135
570.099308	0.014126
570.311925	0.014053
570.524523	0.013695
570.737104	0.013356
570.949666	0.013091
571.162210	0.012978
571.374736	0.013078
571.587244	0.013171
571.799733	0.013401
572.012205	0.013166
572.224658	0.013341
572.437092	0.013882
572.649509	0.014188
572.861907	0.014177
573.074287	0.014151
573.286649	0.014157
573.498993	0.014417
573.711318	0.014441
573.923625	0.014677
574.135914	0.014574
574.348185	0.014433
574.560438	0.014801
574.772672	0.014982
574.984888	0.015000
575.197086	0.014774
575.409266	0.014557
575.621427	0.014449
575.833570	0.014236
576.045695	0.013966
576.257802	0.014013
576.469890	0.013305
576.681961	0.013233
576.894013	0.013387
577.106046	0.013543
577.318062	0.013368
577.530059	0.013509
577.742039	0.013548
577.954000	0.013460
578.165942	0.013298
578.377867	0.013628
578.589773	0.013477
578.801661	0.013187
579.013531	0.013033
579.225382	0.012949
579.437216	0.013138
579.649031	0.013372
579.860828	0.013552
580.072606	0.013501
580.284367	0.013438
580.496109	0.013643
580.707833	0.013585
580.919539	0.013923
581.131227	0.014137
581.342896	0.013768
581.554547	0.014025
581.766180	0.014189
581.977795	0.014149
582.189391	0.014361
582.400969	0.014495
582.612529	0.014981
582.824071	0.014811
583.035595	0.014880
583.247100	0.015216
583.458587	0.014828
583.670056	0.014660
583.881506	0.014854
584.092939	0.014595
584.304353	0.014456
584.515749	0.014326
584.727127	0.014503
584.938486	0.014480
585.149828	0.014434
585.361151	0.014281
585.572456	0.014445
585.783742	0.014389
585.995011	0.014530
586.206261	0.014457
586.417493	0.014259
586.628706	0.014195
586.839902	0.014052
587.051079	0.013929
587.262238	0.014053
587.473379	0.014073
587.684502	0.014072
587.895606	0.013979
588.106692	0.014112
588.317760	0.014304
588.528810	0.013909
588.739841	0.014065
588.950855	0.014268
589.161850	0.014148
589.372827	0.013990
589.583785	0.014115
589.794726	0.014198
590.005648	0.014257
590.216552	0.014083
590.427437	0.014327
590.638305	0.014258
590.849154	0.014262
591.059985	0.014433
591.270798	0.014307
591.481592	0.013973
591.692369	0.013842
591.903127	0.013825
592.113867	0.013891
592.324588	0.013781
592.535292	0.013915
592.745977	0.013953
592.956644	0.013972
593.167293	0.014336
593.377923	0.014466
593.588536	0.014737
593.799130	0.014825
594.009706	0.014637
594.220263	0.014774
594.430803	0.014778
594.641324	0.014354
594.851827	0.014236
595.062312	0.014272
595.272778	0.014607
595.483227	0.014279
595.693657	0.014063
595.904069	0.014410
596.114462	0.014505
596.324838	0.014407
596.535195	0.014360
596.745534	0.014576
596.955855	0.014474
597.166157	0.014444
597.376441	0.014480
597.586707	0.014641
597.796955	0.014408
598.007185	0.014285
598.217396	0.014396
598.427589	0.014606
598.637764	0.014677
598.847921	0.014544
599.058060	0.014190
599.268180	0.014331
599.478282	0.014164
599.688366	0.014316
599.898431	0.014565
600.108479	0.014509
600.318508	0.014584
600.528519	0.014841
600.738511	0.015058
600.948486	0.015610
601.158442	0.015718
601.368380	0.015800
601.578300	0.015769
601.788202	0.015527
601.998085	0.015682
602.207950	0.015745
602.417797	0.015241
602.627626	0.015038
602.837436	0.014674
603.047228	0.014498
603.257002	0.014415
603.466758	0.014592
603.676496	0.014834
603.886215	0.014873
604.095916	0.015015
604.305599	0.014951
604.515264	0.015199
604.724910	0.015265
604.934538	0.015254
605.144148	0.015424
605.353740	0.014920
605.563314	0.014859
605.772869	0.014625
605.982406	0.014572
606.191925	0.014749
606.401425	0.014786
606.610908	0.014887
606.820372	0.015156
607.029818	0.015169
607.239246	0.015528
607.448655	0.015339
607.658047	0.015207
607.867420	0.015120
608.076775	0.015110
608.286111	0.014947
608.495430	0.014676
608.704730	0.014555
608.914012	0.014348
609.123275	0.014251
609.332521	0.014321
609.541748	0.014508
609.750957	0.014461
609.960148	0.014450
610.169321	0.014597
610.378475	0.014622
610.587611	0.014531
610.796729	0.014726
611.005829	0.014563
611.214910	0.014396
611.423974	0.014336
611.633019	0.014412
611.842045	0.014522
612.051054	0.014320
612.260044	0.014398
612.469017	0.014630
612.677970	0.014578
612.886906	0.014877
613.095824	0.014871
613.304723	0.014828
613.513604	0.014666
613.722467	0.014767
613.931311	0.014629
614.140138	0.014444
614.348946	0.014272
614.557736	0.014147
614.766507	0.014169
614.975261	0.014276
615.183996	0.014332
615.392713	0.014564
615.601412	0.014228
615.810092	0.014328
616.018754	0.014691
616.227399	0.014711
616.436024	0.015163
616.644632	0.015221
616.853222	0.015261
617.061793	0.015338
617.270346	0.015266
617.478880	0.015541
617.687397	0.015746
617.895895	0.015615
618.104375	0.015644
618.312837	0.015548
618.521281	0.015462
618.729706	0.015645
618.938113	0.015715
619.146502	0.015616
619.354873	0.015558
619.563226	0.015426
619.771560	0.015482
619.979876	0.015606
620.188174	0.015690
620.396453	0.015655
620.604715	0.015656
620.812958	0.015546
621.021183	0.015889
621.229390	0.015786
621.437578	0.016049
621.645748	0.016014
621.853900	0.015884
622.062034	0.015754
622.270150	0.015530
622.478247	0.015617
622.686326	0.015575
622.894387	0.015433
623.102430	0.015475
623.310454	0.015051
623.518461	0.015123
623.726449	0.015022
623.934418	0.015009
624.142370	0.015214
624.350303	0.014963
624.558218	0.015239
624.766115	0.015303
624.973994	0.015452
625.181855	0.015720
625.389697	0.015712
625.597521	0.015957
625.805327	0.015844
626.013114	0.015907
626.220883	0.016088
626.428634	0.016128
626.636367	0.015947
626.844082	0.015754
627.051778	0.015760
627.259457	0.015854
627.467117	0.015764
627.674758	0.015777
627.882382	0.015869
628.089987	0.015829
628.297574	0.015614
628.505143	0.015848
628.712694	0.016063
628.920226	0.016124
629.127740	0.015968
629.335236	0.015844
629.542714	0.015661
629.750174	0.015480
629.957615	0.015404
630.165038	0.015682
630.372443	0.015517
630.579829	0.015284
630.787198	0.015319
630.994548	0.015371
631.201880	0.015389
631.409194	0.015573
631.616489	0.015689
631.823766	0.015562
632.031025	0.015293
632.238266	0.015168
632.445489	0.015338
632.652693	0.015333
632.859879	0.015301
633.067047	0.015385
633.274197	0.015483
633.481329	0.015524
633.688442	0.015698
633.895537	0.015667
634.102614	0.015721
634.309672	0.015691
634.516713	0.015700
634.723735	0.015856
634.930739	0.015748
635.137724	0.015734
635.344692	0.015440
635.551641	0.015433
635.758572	0.015648
635.965485	0.015876
636.172379	0.015647
636.379256	0.015486
636.586114	0.015337
636.792954	0.015587
636.999775	0.015533
637.206579	0.015832
637.413364	0.015792
637.620131	0.015871
637.826880	0.015916
638.033610	0.016213
638.240323	0.016272
638.447017	0.016101
638.653692	0.016020
638.860350	0.016125
639.066990	0.016114
639.273611	0.016230
639.480214	0.015922
639.686798	0.015687
639.893365	0.015725
640.099913	0.015847
640.306443	0.016049
640.512955	0.015986
640.719449	0.015915
640.925924	0.015805
641.132381	0.015698
641.338820	0.016054
641.545241	0.016117
641.751644	0.016084
641.958028	0.015933
642.164394	0.016116
642.370742	0.016321
642.577071	0.016359
642.783383	0.016697
642.989676	0.016700
643.195951	0.016665
643.402207	0.016754
643.608446	0.016644
643.814666	0.016658
644.020868	0.016490
644.227052	0.016462
644.433218	0.016354
644.639365	0.016255
644.845494	0.016434
645.051605	0.016389
645.257698	0.016551
645.463772	0.016802
645.669828	0.017052
645.875866	0.017249
646.081886	0.017349
646.287888	0.017514
646.493871	0.017411
646.699836	0.017499
646.905783	0.017447
647.111712	0.017355
647.317622	0.017299
647.523514	0.017217
647.729388	0.017128
647.935244	0.017028
648.141082	0.017021
648.346901	0.017083
648.552702	0.016903
648.758485	0.016845
648.964250	0.016865
649.169996	0.016740
649.375724	0.016587
649.581434	0.016478
649.787126	0.016378
649.992800	0.016180
650.198455	0.015854
650.404092	0.015735
650.609711	0.015742
650.815311	0.015595
651.020894	0.015553
651.226458	0.015657
651.432004	0.015801
651.637532	0.015869
651.843041	0.016018
652.048532	0.016175
652.254006	0.016368
652.459460	0.016388
652.664897	0.016342
652.870315	0.016513
653.075716	0.016545
653.281097	0.016481
653.486461	0.016456
653.691807	0.016461
653.897134	0.016678
654.102443	0.016546
654.307734	0.016596
654.513006	0.016674
654.718261	0.016505
654.923497	0.016549
655.128715	0.016585
655.333915	0.016626
655.539096	0.016627
655.744259	0.016438
655.949404	0.016496
656.154531	0.016514
656.359640	0.016499
656.564730	0.016674
656.769802	0.016607
656.974856	0.016495
657.179892	0.016452
657.384909	0.016494
657.589908	0.016639
657.794889	0.016715
657.999852	0.016727
658.204797	0.016930
658.409723	0.016819
658.614631	0.016704
658.819521	0.016748
659.024393	0.016753
659.229246	0.016664
659.434081	0.016491
659.638898	0.016420
659.843697	0.016360
660.048478	0.016118
660.253240	0.016185
660.457984	0.016197
660.662710	0.016111
660.867417	0.016114
661.072107	0.016175
661.276778	0.016261
661.481431	0.016191
661.686066	0.016104
661.890682	0.016132
662.095281	0.016039
662.299861	0.016037
662.504422	0.016117
662.708966	0.016017
662.913491	0.016035
663.117999	0.015918
663.322488	0.016138
663.526958	0.016168
663.731411	0.016287
663.935845	0.016323
664.140261	0.016416
664.344659	0.016476
664.549038	0.016623
664.753400	0.016619
664.957743	0.016838
665.162068	0.016796
665.366375	0.016933
665.570663	0.016722
665.774933	0.016878
665.979185	0.016914
666.183419	0.016916
666.387635	0.016678
666.591832	0.016722
666.796011	0.016852
667.000172	0.016877
667.204315	0.016874
667.408439	0.017121
667.612545	0.017136
667.816634	0.017078
668.020703	0.017254
668.224755	0.017491
668.428788	0.017507
668.632803	0.017346
668.836800	0.017421
669.040779	0.017474
669.244739	0.017475
669.448681	0.017526
669.652605	0.017711
669.856511	0.017519
670.060399	0.017647
670.264268	0.017682
670.468119	0.017657
670.671952	0.017527
670.875767	0.017384
671.079563	0.017317
671.283341	0.017099
671.487101	0.017123
671.690843	0.017200
671.894567	0.017293
672.098272	0.017440
672.301959	0.017600
672.505628	0.017722
672.709278	0.017958
672.912911	0.018085
673.116525	0.018287
673.320121	0.018149
673.523699	0.018100
673.727258	0.017922
673.930799	0.017822
674.134322	0.017764
674.337827	0.017586
674.541314	0.017492
674.744782	0.017403
674.948232	0.017393
675.151664	0.017475
675.355078	0.017565
675.558474	0.017560
675.761851	0.017416
675.965210	0.017378
676.168551	0.017354
676.371873	0.017392
676.575178	0.017373
676.778464	0.017234
676.981732	0.017188
677.184981	0.017211
677.388213	0.017210
677.591426	0.017254
677.794621	0.017421
677.997798	0.017593
678.200956	0.017480
678.404097	0.017533
678.607219	0.017743
678.810323	0.017750
679.013408	0.017635
679.216476	0.017672
679.419525	0.017720
679.622556	0.017582
679.825569	0.017548
680.028563	0.017454
680.231540	0.017464
680.434498	0.017351
680.637438	0.017332
680.840359	0.017268
681.043263	0.017173
681.246148	0.017087
681.449015	0.017154
681.651864	0.017126
681.854694	0.017265
682.057506	0.017251
682.260301	0.017157
682.463076	0.017053
682.665834	0.017163
682.868573	0.017266
683.071295	0.017398
683.273998	0.017346
683.476682	0.017144
683.679349	0.017098
683.881997	0.017023
684.084627	0.017152
684.287239	0.017265
684.489833	0.017284
684.692408	0.017225
684.894965	0.017222
685.097504	0.017279
685.300025	0.017585
685.502527	0.017694
685.705012	0.017894
685.907478	0.017793
686.109925	0.017759
686.312355	0.017749
686.514766	0.017632
686.717159	0.017573
686.919534	0.017443
687.121891	0.017280
687.324230	0.017156
687.526550	0.017087
687.728852	0.017096
687.931136	0.017133
688.133401	0.017007
688.335649	0.017156
688.537878	0.017100
688.740089	0.017013
688.942281	0.017056
689.144456	0.017052
689.346612	0.017009
689.548750	0.017091
689.750870	0.017205
689.952971	0.017215
690.155055	0.017199
690.357120	0.017293
690.559167	0.017444
690.761195	0.017379
690.963206	0.017327
691.165198	0.017331
691.367172	0.017208
691.569128	0.016994
691.771065	0.017104
691.972984	0.017221
692.174885	0.017152
692.376768	0.017209
692.578633	0.017308
692.780479	0.017538
692.982308	0.017559
693.184118	0.017573
693.385909	0.017666
693.587683	0.017744
693.789438	0.017646
693.991175	0.017629
694.192894	0.017708
694.394595	0.017813
694.596277	0.017746
694.797941	0.017803
694.999587	0.017985
695.201215	0.018079
695.402824	0.017981
695.604416	0.018047
695.805989	0.018214
696.007543	0.018109
696.209080	0.017998
696.410598	0.017990
696.612099	0.018059
696.813580	0.018034
697.015044	0.017992
697.216490	0.018148
697.417917	0.018257
697.619326	0.018272
697.820717	0.018204
698.022089	0.018353
698.223444	0.018396
698.424780	0.018210
698.626098	0.018262
698.827397	0.018317
699.028679	0.018195
699.229942	0.017970
699.431187	0.017842
699.632414	0.017852
699.833622	0.017782
700.034813	0.017660
700.235985	0.017684
700.437139	0.017562
700.638274	0.017512
700.839392	0.017414
701.040491	0.017513
701.241572	0.017710
701.442635	0.017666
701.643679	0.017631
701.844706	0.017627
702.045714	0.017644
702.246704	0.017468
702.447675	0.017601
702.648629	0.017773
702.849564	0.017747
703.050481	0.017523
703.251380	0.017446
703.452260	0.017475
703.653122	0.017607
703.853966	0.017689
704.054792	0.017929
704.255600	0.017793
704.456389	0.017735
704.657160	0.017720
704.857913	0.017796
705.058648	0.018055
705.259365	0.017985
705.460063	0.017756
705.660743	0.017690
705.861405	0.017763
706.062048	0.017792
706.262674	0.017802
706.463281	0.017867
706.663870	0.017802
706.864441	0.017819
707.064993	0.018049
707.265527	0.018234
707.466043	0.018352
707.666541	0.018320
707.867021	0.018409
708.067482	0.018514
708.267925	0.018369
708.468350	0.018486
708.668757	0.018353
708.869145	0.018282
709.069516	0.018210
709.269868	0.018067
709.470201	0.017874
709.670517	0.017802
709.870814	0.017581
710.071093	0.017662
710.271354	0.017469
710.471597	0.017447
710.671821	0.017309
710.872028	0.017380
711.072216	0.017533
711.272385	0.017653
711.472537	0.017551
711.672670	0.017544
711.872785	0.017712
712.072882	0.017828
712.272961	0.017698
712.473021	0.017828
712.673063	0.017753
712.873087	0.017564
713.073093	0.017491
713.273081	0.017483
713.473050	0.017506
713.673001	0.017391
713.872934	0.017428
714.072849	0.017693
714.272745	0.017582
714.472623	0.017605
714.672483	0.017510
714.872325	0.017583
715.072148	0.017747
715.271954	0.017804
715.471741	0.017735
715.671509	0.017575
715.871260	0.017453
716.070992	0.017301
716.270707	0.017231
716.470403	0.017417
716.670080	0.017431
716.869740	0.017418
717.069381	0.017516
717.269004	0.017497
717.468609	0.017549
717.668195	0.017587
717.867764	0.017662
718.067314	0.017706
718.266846	0.017695
718.466360	0.017858
718.665855	0.017815
718.865332	0.017848
719.064791	0.017967
719.264232	0.018044
719.463655	0.018107
719.663059	0.018183
719.862445	0.018470
720.061813	0.018663
720.261163	0.018479
720.460494	0.018484
720.659807	0.018378
720.859102	0.018365
721.058379	0.018457
721.257638	0.018406
721.456878	0.018405
721.656100	0.018169
721.855304	0.017957
722.054490	0.017809
722.253657	0.017572
722.452806	0.017670
722.651937	0.017494
722.851050	0.017429
723.050145	0.017248
723.249221	0.017123
723.448279	0.017018
723.647319	0.016986
723.846340	0.016929
724.045344	0.017021
724.244329	0.016941
724.443296	0.017170
724.642245	0.017159
724.841175	0.017329
725.040088	0.017298
725.238982	0.017429
725.437857	0.017455
725.636715	0.017503
725.835554	0.017645
726.034376	0.017585
726.233179	0.017439
726.431963	0.017412
726.630730	0.017204
726.829478	0.017208
727.028208	0.017159
727.226920	0.017044
727.425614	0.017126
727.624289	0.016933
727.822946	0.016829
728.021585	0.016882
728.220206	0.016894
728.418808	0.017206
728.617392	0.017429
728.815958	0.017523
729.014506	0.017571
729.213036	0.017744
729.411547	0.017920
729.610040	0.018037
729.808515	0.017924
730.006972	0.017847
730.205410	0.017616
730.403831	0.017481
730.602233	0.017231
730.800616	0.017046
730.998982	0.016855
731.197329	0.016707
731.395658	0.016710
731.593969	0.016678
731.792262	0.016670
731.990536	0.016717
732.188793	0.016515
732.387031	0.016658
732.585250	0.016791
732.783452	0.016877
732.981635	0.016831
733.179800	0.016811
733.377947	0.016787
733.576076	0.016657
733.774186	0.016645
733.972278	0.016761
734.170352	0.016817
734.368408	0.016735
734.566446	0.016499
734.764465	0.016469
734.962466	0.016304
735.160449	0.016405
735.358413	0.016581
735.556360	0.016705
735.754288	0.016688
735.952198	0.016642
736.150090	0.016732
736.347963	0.016889
736.545818	0.016988
736.743655	0.017034
736.941474	0.017088
737.139275	0.017182
737.337057	0.017105
737.534821	0.017071
737.732567	0.017201
737.930295	0.017028
738.128005	0.017095
738.325696	0.017160
738.523369	0.017304
738.721024	0.017325
738.918660	0.017090
739.116279	0.016988
739.313879	0.017199
739.511461	0.017060
739.709024	0.017253
739.906570	0.017067
740.104097	0.017084
740.301606	0.016895
740.499097	0.016847
740.696569	0.016929
740.894024	0.017102
741.091460	0.017005
741.288878	0.017124
741.486277	0.017048
741.683659	0.017084
741.881022	0.016906
742.078367	0.017113
742.275694	0.017019
742.473002	0.016973
742.670293	0.016865
742.867565	0.016907
743.064819	0.016907
743.262054	0.016916
743.459272	0.017029
743.656471	0.017237
743.853652	0.017176
744.050815	0.017202
744.247959	0.017234
744.445085	0.017346
744.642194	0.017287
744.839283	0.017075
745.036355	0.017056
745.233408	0.016931
745.430444	0.016816
745.627461	0.016743
745.824459	0.016742
746.021440	0.016661
746.218402	0.016532
746.415346	0.016673
746.612272	0.016711
746.809180	0.016855
747.006069	0.016985
747.202940	0.017030
747.399793	0.017270
747.596628	0.017432
747.793444	0.017732
747.990243	0.017870
748.187023	0.017640
748.383784	0.017643
748.580528	0.017629
748.777253	0.017678
748.973960	0.017762
749.170649	0.017709
749.367320	0.017784
749.563973	0.017744
749.760607	0.017786
749.957223	0.018086
750.153821	0.018265
750.350400	0.018372
750.546962	0.018478
750.743505	0.018258
750.940030	0.018331
751.136536	0.018161
751.333025	0.018034
751.529495	0.017940
751.725947	0.017888
751.922381	0.017732
752.118796	0.017666
752.315194	0.017824
752.511573	0.018075
752.707934	0.017823
752.904276	0.017738
753.100601	0.017751
753.296907	0.017539
753.493195	0.017450
753.689465	0.017281
753.885716	0.017288
754.081949	0.016975
754.278164	0.016908
754.474361	0.016883
754.670540	0.017087
754.866700	0.017122
755.062843	0.017282
755.258967	0.017122
755.455072	0.017279
755.651160	0.017040
755.847229	0.017042
756.043280	0.016866
756.239313	0.017071
756.435328	0.017049
756.631324	0.017125
756.827302	0.017221
757.023262	0.017453
757.219204	0.017549
757.415127	0.017756
757.611033	0.017920
757.806920	0.018027
758.002788	0.017972
758.198639	0.018044
758.394471	0.018075
758.590286	0.017964
758.786081	0.017936
758.981859	0.017792
759.177619	0.017765
759.373360	0.017415
759.569083	0.017433
759.764788	0.017305
759.960474	0.017104
760.156143	0.016827
760.351793	0.016826
760.547425	0.016658
760.743038	0.016679
760.938634	0.016683
761.134211	0.016762
761.329770	0.016721
761.525311	0.016786
761.720833	0.016797
761.916338	0.017071
762.111824	0.016998
762.307292	0.017088
762.502741	0.017263
762.698173	0.017233
762.893586	0.017315
763.088981	0.017280
763.284358	0.017257
763.479716	0.017215
763.675057	0.016888
763.870379	0.016973
764.065683	0.016884
764.260968	0.016678
764.456236	0.016871
764.651485	0.016962
764.846716	0.017121
765.041929	0.017208
765.237123	0.017171
765.432299	0.017548
765.627457	0.017746
765.822597	0.018033
766.017719	0.017980
766.212822	0.017733
766.407907	0.017566
766.602974	0.017494
766.798023	0.017509
766.993054	0.017379
767.188066	0.017225
767.383060	0.017128
767.578036	0.017052
767.772993	0.017275
767.967933	0.017358
768.162854	0.017463
768.357757	0.017733
768.552642	0.017704
768.747508	0.017996
768.942356	0.018021
769.137186	0.017980
769.331998	0.017871
769.526792	0.017801
769.721567	0.018006
769.916324	0.017965
770.111063	0.017670
770.305784	0.017589
770.500486	0.017576
770.695171	0.017663
770.889837	0.017692
771.084484	0.017554
771.279114	0.017585
771.473725	0.017309
771.668318	0.017230
771.862893	0.017248
772.057450	0.017485
772.251988	0.017473
772.446509	0.017440
772.641011	0.017458
772.835494	0.017566
773.029960	0.017453
773.224407	0.017469
773.418836	0.017707
773.613247	0.017646
773.807640	0.017524
774.002014	0.017691
774.196370	0.017644
774.390708	0.017608
774.585028	0.017825
774.779330	0.017976
774.973613	0.018221
775.167878	0.018311
775.362125	0.018602
775.556354	0.018677
775.750564	0.018610
775.944756	0.018620
776.138930	0.018728
776.333086	0.018670
776.527223	0.018675
776.721343	0.018652
776.915444	0.018500
777.109526	0.018556
777.303591	0.018702
777.497637	0.018734
777.691666	0.018943
777.885676	0.019032
778.079667	0.019107
778.273641	0.019091
778.467596	0.018957
778.661533	0.019040
778.855452	0.018923
779.049352	0.018701
779.243235	0.018677
779.437099	0.018687
779.630945	0.018491
779.824773	0.018353
780.018582	0.018287
780.212373	0.018389
780.406146	0.018437
780.599901	0.018456
780.793638	0.018444
780.987356	0.018490
781.181056	0.018545
781.374738	0.018650
781.568402	0.018617
781.762047	0.018728
781.955674	0.018854
782.149283	0.018878
782.342874	0.018886
782.536447	0.018870
782.730001	0.018675
782.923537	0.018380
783.117055	0.018362
783.310555	0.018463
783.504036	0.018552
783.697499	0.018562
783.890944	0.018447
784.084371	0.018334
784.277780	0.018567
784.471170	0.018720
784.664542	0.018804
784.857896	0.018869
785.051231	0.018877
785.244549	0.018696
785.437848	0.018683
785.631129	0.018740
785.824392	0.018888
786.017636	0.018685
786.210863	0.018666
786.404071	0.018569
786.597260	0.018582
786.790432	0.018487
786.983585	0.018622
787.176721	0.018380
787.369838	0.018256
787.562936	0.018182
787.756017	0.018168
787.949079	0.018170
788.142123	0.018138
788.335149	0.018009
788.528156	0.017982
788.721146	0.018049
788.914117	0.018034
789.107070	0.018108
789.300005	0.018071
789.492921	0.017995
789.685819	0.017947
789.878699	0.017900
790.071561	0.017792
790.264405	0.017761
790.457230	0.017793
790.650037	0.018019
790.842826	0.018011
791.035597	0.018020
791.228349	0.018173
791.421084	0.018152
791.613800	0.018365
791.806497	0.018549
791.999177	0.018836
792.191838	0.018667
792.384481	0.018716
792.577106	0.018795
792.769713	0.018998
792.962301	0.019174
793.154871	0.019247
793.347423	0.019149
793.539957	0.019267
793.732473	0.019279
793.924970	0.019359
794.117449	0.019332
794.309910	0.019351
794.502353	0.019155
794.694777	0.018990
794.887183	0.019050
795.079571	0.019197
795.271941	0.018994
795.464293	0.018836
795.656626	0.018898
795.848941	0.018966
796.041238	0.019105
796.233516	0.018987
796.425777	0.019039
796.618019	0.019069
796.810243	0.019089
797.002449	0.019268
797.194636	0.019279
797.386805	0.019138
797.578956	0.018824
797.771089	0.018627
797.963204	0.018780
798.155300	0.018731
798.347378	0.018556
798.539438	0.018496
798.731480	0.018546
798.923503	0.018722
799.115509	0.018820
799.307496	0.018960
799.499465	0.018878
799.691415	0.018843
799.883348	0.018959
800.075262	0.019152
800.267158	0.019148
800.459035	0.018839
800.650895	0.018485
800.842736	0.018458
801.034559	0.018365
801.226364	0.018475
801.418150	0.018529
801.609919	0.018476
801.801669	0.018458
801.993401	0.018425
802.185114	0.018619
802.376810	0.018739
802.568487	0.018578
802.760146	0.018712
802.951787	0.018604
803.143409	0.018591
803.335014	0.018417
803.526600	0.018289
803.718168	0.018184
803.909717	0.018069
804.101249	0.018190
804.292762	0.018268
804.484257	0.018258
804.675734	0.018331
804.867192	0.018157
805.058632	0.018259
805.250054	0.018385
805.441458	0.018423
805.632844	0.018420
805.824211	0.018266
806.015561	0.018376
806.206891	0.018287
806.398204	0.018259
806.589499	0.018393
806.780775	0.018483
806.972033	0.018386
807.163273	0.018280
807.354495	0.018156
807.545698	0.018101
807.736883	0.018008
807.928050	0.018147
808.119199	0.018225
808.310329	0.018103
808.501441	0.018004
808.692535	0.017967
808.883611	0.018285
809.074669	0.018504
809.265708	0.018799
809.456729	0.018669
809.647732	0.018466
809.838717	0.018359
810.029683	0.018458
810.220632	0.018514
810.411562	0.018605
810.602474	0.018412
810.793367	0.018490
810.984242	0.018267
811.175100	0.018218
811.365938	0.018481
811.556759	0.018434
811.747562	0.018193
811.938346	0.018104
812.129112	0.018027
812.319860	0.018205
812.510589	0.018152
812.701300	0.018060
812.891994	0.018447
813.082668	0.018520
813.273325	0.018719
813.463964	0.018851
813.654584	0.018860
813.845186	0.018774
814.035769	0.018667
814.226335	0.018529
814.416882	0.018584
814.607411	0.018394
814.797922	0.018183
814.988415	0.018192
815.178889	0.018152
815.369345	0.018195
815.559783	0.018336
815.750203	0.018171
815.940605	0.018288
816.130988	0.018410
816.321353	0.018521
816.511700	0.018469
816.702028	0.018222
816.892339	0.018495
817.082631	0.018469
817.272905	0.018358
817.463161	0.018402
817.653398	0.018491
817.843617	0.018300
818.033819	0.018036
818.224001	0.018096
818.414166	0.018120
818.604312	0.017906
818.794440	0.017911
818.984550	0.017957
819.174642	0.017965
819.364716	0.017876
819.554771	0.018075
819.744808	0.018196
819.934827	0.018030
820.124827	0.018021
820.314810	0.018113
820.504774	0.018289
820.694720	0.018229
820.884647	0.018333
821.074557	0.018349
821.264448	0.018454
821.454321	0.018595
821.644176	0.018919
821.834012	0.018848
822.023831	0.018810
822.213631	0.018550
822.403413	0.018654
822.593176	0.018588
822.782922	0.018419
822.972649	0.018037
823.162358	0.017740
823.352049	0.017444
823.541721	0.017546
823.731376	0.017530
823.921012	0.017557
824.110629	0.017456
824.300229	0.017265
824.489811	0.017222
824.679374	0.017531
824.868919	0.017652
825.058445	0.017638
825.247954	0.017707
825.437444	0.017608
825.626916	0.017478
825.816370	0.017543
826.005806	0.017645
826.195223	0.017628
826.384622	0.017533
826.574003	0.017511
826.763366	0.017630
826.952711	0.017638
827.142037	0.017794
827.331345	0.018057
827.520635	0.018172
827.709906	0.018467
827.899160	0.018601
828.088395	0.018775
828.277612	0.019192
828.466810	0.019099
828.655991	0.019166
828.845153	0.019296
829.034297	0.019259
829.223423	0.019088
829.412531	0.018972
829.601620	0.019133
829.790691	0.019130
829.979744	0.018909
830.168779	0.019170
830.357795	0.019207
830.546793	0.019086
830.735773	0.019181
830.924735	0.019164
831.113679	0.019004
831.302604	0.019073
831.491511	0.019122
831.680400	0.019052
831.869271	0.019057
832.058123	0.019121
832.246957	0.019362
832.435773	0.019603
832.624571	0.019999
832.813351	0.020218
833.002112	0.020052
833.190855	0.020006
833.379580	0.020149
833.568287	0.020119
833.756975	0.019975
833.945645	0.019878
834.134297	0.019564
834.322931	0.019400
834.511547	0.019436
834.700144	0.019384
834.888723	0.019142
835.077284	0.018818
835.265826	0.018868
835.454351	0.018722
835.642857	0.018358
835.831345	0.018232
836.019815	0.017811
836.208266	0.017491
836.396699	0.017548
836.585114	0.017726
836.773511	0.017868
836.961890	0.017692
837.150250	0.017836
837.338592	0.018025
837.526916	0.018188
837.715222	0.018465
837.903510	0.018792
838.091779	0.018628
838.280030	0.018630
838.468263	0.018813
838.656477	0.018763
838.844674	0.018736
839.032852	0.018783
839.221012	0.018963
839.409153	0.019076
839.597277	0.019143
839.785382	0.019467
839.973469	0.019660
840.161538	0.019748
840.349589	0.019917
840.537621	0.019913
840.725635	0.020120
840.913631	0.019959
841.101609	0.020048
841.289568	0.019924
841.477509	0.019936
841.665432	0.019756
841.853337	0.019559
842.041224	0.019543
842.229092	0.019746
842.416942	0.019668
842.604774	0.019656
842.792588	0.019499
842.980383	0.019621
843.168160	0.019750
843.355919	0.019908
843.543660	0.020157
843.731382	0.020188
843.919087	0.020139
844.106773	0.020215
844.294441	0.020322
844.482090	0.020468
844.669722	0.020165
844.857335	0.019923
845.044930	0.019773
845.232507	0.019622
845.420065	0.019451
845.607605	0.019324
845.795127	0.019264
845.982631	0.019304
846.170117	0.019234
846.357584	0.019581
846.545033	0.019631
846.732464	0.019663
846.919877	0.019700
847.107272	0.020039
847.294648	0.020388
847.482006	0.020424
847.669346	0.020500
847.856667	0.020604
848.043971	0.020469
848.231256	0.020735
848.418523	0.020719
848.605771	0.020790
848.793002	0.020747
848.980214	0.020847
849.167408	0.021045
849.354584	0.021122
849.541742	0.021156
849.728881	0.021464
849.916002	0.021198
850.103105	0.021363
850.290190	0.021417
850.477256	0.021374
850.664304	0.021312
850.851334	0.021009
851.038346	0.020904
851.225340	0.020994
851.412315	0.020694
851.599272	0.020920
851.786211	0.020933
851.973132	0.020824
852.160034	0.020892
852.346918	0.020676
852.533784	0.021107
852.720632	0.021173
852.907462	0.021019
853.094273	0.021314
853.281066	0.021346
853.467841	0.021394
853.654598	0.021422
853.841336	0.021465
854.028056	0.021626
854.214758	0.021367
854.401442	0.021283
854.588107	0.021267
854.774755	0.021481
854.961384	0.021669
855.147995	0.022123
855.334587	0.022282
855.521162	0.022587
855.707718	0.022785
855.894256	0.023188
856.080775	0.023592
856.267277	0.023964
856.453760	0.023480
856.640225	0.023297
856.826672	0.022729
857.013101	0.022757
857.199511	0.022498
857.385903	0.022440
857.572277	0.022152
857.758633	0.021931
857.944970	0.021920
858.131290	0.021980
858.317591	0.021835
858.503873	0.021838
858.690138	0.021768
858.876384	0.021528
859.062612	0.021485
859.248822	0.021507
859.435014	0.021447
859.621188	0.021297
859.807343	0.021542
859.993480	0.021759
860.179599	0.021671
860.365699	0.021589
860.551781	0.021825
860.737846	0.021929
860.923891	0.021939
861.109919	0.021925
861.295929	0.021844
861.481920	0.021748
861.667893	0.021789
861.853848	0.021848
862.039784	0.022277
862.225702	0.022347
862.411603	0.022458
862.597484	0.022239
862.783348	0.022409
862.969193	0.022427
863.155021	0.022364
863.340830	0.022402
863.526620	0.022672
863.712393	0.022572
863.898147	0.022780
864.083883	0.022749
864.269601	0.023057
864.455301	0.023243
864.640982	0.023546
864.826645	0.023829
865.012290	0.023890
865.197917	0.024027
865.383526	0.023997
865.569116	0.024069
865.754688	0.024062
865.940242	0.024552
866.125777	0.024458
866.311295	0.024326
866.496794	0.024429
866.682275	0.024502
866.867737	0.024381
867.053182	0.024317
867.238608	0.024268
867.424016	0.024304
867.609406	0.024005
867.794778	0.023989
867.980131	0.023985
868.165466	0.023872
868.350783	0.023660
868.536082	0.023642
868.721362	0.023754
868.906625	0.023707
869.091869	0.023586
869.277094	0.023575
869.462302	0.023726
869.647491	0.023852
869.832662	0.023850
870.017815	0.023777
870.202950	0.024087
870.388066	0.024147
870.573165	0.024005
870.758245	0.024285
870.943306	0.024080
871.128350	0.023723
871.313375	0.023528
871.498382	0.023622
871.683371	0.023775
871.868342	0.023520
872.053294	0.023346
872.238229	0.023532
872.423144	0.023407
872.608042	0.023511
872.792922	0.023627
872.977783	0.023872
873.162626	0.023895
873.347451	0.024021
873.532258	0.024173
873.717046	0.024076
873.901816	0.023857
874.086568	0.023803
874.271302	0.023698
874.456017	0.023766
874.640715	0.023662
874.825394	0.023781
875.010055	0.023617
875.194697	0.023459
875.379322	0.023925
875.563928	0.024222
875.748516	0.024413
875.933085	0.024587
876.117637	0.024600
876.302170	0.024785
876.486685	0.024518
876.671182	0.024852
876.855661	0.024986
877.040121	0.024742
877.224563	0.024667
877.408987	0.024587
877.593393	0.024686
877.777780	0.024691
877.962150	0.024617
878.146501	0.024949
878.330833	0.024547
878.515148	0.024470
878.699444	0.024452
878.883722	0.024569
879.067982	0.024343
879.252224	0.023788
879.436447	0.023914
879.620653	0.023705
879.804840	0.023302
879.989008	0.023512
880.173159	0.023497
880.357291	0.023378
880.541405	0.023199
880.725501	0.023197
880.909579	0.023671
881.093638	0.023642
881.277680	0.023773
881.461703	0.023830
881.645707	0.023701
881.829694	0.023822
882.013662	0.023878
882.197612	0.023855
882.381544	0.024035
882.565458	0.023758
882.749353	0.023524
882.933230	0.023371
883.117089	0.023526
883.300930	0.023528
883.484753	0.023380
883.668557	0.023587
883.852343	0.023467
884.036111	0.023338
884.219861	0.023551
884.403592	0.023539
884.587305	0.023755
884.771000	0.023585
884.954677	0.023731
885.138335	0.023901
885.321976	0.023770
885.505598	0.024086
885.689201	0.024063
885.872787	0.024339
886.056354	0.024470
886.239904	0.024492
886.423434	0.024652
886.606947	0.024503
886.790442	0.024645
886.973918	0.024768
887.157376	0.024783
887.340816	0.024814
887.524237	0.024568
887.707641	0.024176
887.891026	0.023903
888.074393	0.023525
888.257741	0.023377
888.441072	0.022773
888.624384	0.022485
888.807678	0.022105
888.990954	0.021985
889.174211	0.021535
889.357451	0.021821
889.540672	0.022044
889.723875	0.022458
889.907059	0.022498
890.090226	0.022849
890.273374	0.022988
890.456504	0.022975
890.639616	0.023082
890.822709	0.023518
891.005785	0.023572
891.188842	0.023275
891.371881	0.023041
891.554901	0.023364
891.737904	0.023158
891.920888	0.022921
892.103854	0.023007
892.286802	0.022555
892.469731	0.022473
892.652643	0.022409
892.835536	0.022805
893.018410	0.022756
893.201267	0.022745
893.384106	0.022768
893.566926	0.022889
893.749728	0.023017
893.932511	0.023522
894.115277	0.023490
894.298024	0.023365
894.480753	0.022963
894.663464	0.022888
894.846157	0.022700
895.028831	0.022661
895.211487	0.022685
895.394125	0.022838
895.576745	0.022872
895.759346	0.022983
895.941930	0.023290
896.124495	0.023377
896.307041	0.023715
896.489570	0.023937
896.672080	0.024263
896.854573	0.024409
897.037046	0.024180
897.219502	0.024166
897.401940	0.024186
897.584359	0.023759
897.766760	0.023994
897.949143	0.023601
898.131507	0.023159
898.313854	0.022811
898.496182	0.022404
898.678492	0.022305
898.860783	0.022057
899.043057	0.022236
899.225312	0.022430
899.407549	0.022314
899.589768	0.022452
899.771968	0.022333
899.954151	0.022436
900.136315	0.022581
900.318461	0.022596
900.500588	0.022691
900.682698	0.022477
900.864789	0.022592
901.046862	0.022572
901.228917	0.022455
901.410953	0.022084
901.592971	0.021969
901.774972	0.021768
901.956953	0.021992
902.138917	0.021873
902.320862	0.021790
902.502790	0.021543
902.684699	0.021066
902.866589	0.021076
903.048462	0.021461
903.230316	0.021205
903.412152	0.021335
903.593970	0.021409
903.775770	0.021396
903.957551	0.021215
904.139314	0.021188
904.321059	0.021686
904.502786	0.021750
904.684494	0.022098
904.866185	0.022592
905.047857	0.023041
905.229510	0.022472
905.411146	0.022641
905.592763	0.022712
905.774363	0.022691
905.955943	0.022136
906.137506	0.022156
906.319051	0.021659
906.500577	0.021513
906.682085	0.020964
906.863575	0.020833
907.045046	0.020380
907.226500	0.020381
907.407935	0.020206
907.589352	0.020459
907.770750	0.020416
907.952131	0.020645
908.133493	0.020444
908.314837	0.020631
908.496163	0.020825
908.677470	0.020947
908.858760	0.020881
909.040031	0.021064
909.221284	0.021093
909.402518	0.020963
909.583735	0.020539
909.764933	0.020324
909.946113	0.020334
910.127275	0.020310
910.308418	0.020202
910.489544	0.019912
910.670651	0.019509
910.851740	0.019237
911.032810	0.019356
911.213863	0.019303
911.394897	0.019232
911.575913	0.018625
911.756911	0.018572
911.937890	0.018182
912.118851	0.018169
912.299794	0.018191
912.480719	0.018198
912.661626	0.017902
912.842514	0.018258
913.023384	0.018366
913.204236	0.018259
913.385070	0.018181
913.565886	0.018362
913.746683	0.018107
913.927462	0.018281
914.108223	0.018007
914.288965	0.017780
914.469690	0.017612
914.650396	0.017505
914.831084	0.017546
915.011754	0.017091
915.192405	0.017233
915.373038	0.017238
915.553653	0.017171
915.734250	0.017355
915.914829	0.017106
916.095389	0.016939
916.275931	0.016699
916.456455	0.016484
916.636961	0.016469
916.817448	0.016289
916.997917	0.016302
917.178368	0.016088
917.358801	0.015924
917.539216	0.015809
917.719612	0.015847
917.899990	0.015795
918.080350	0.015821
918.260692	0.015681
918.441015	0.015561
918.621320	0.015627
918.801607	0.015411
918.981876	0.015271
919.162127	0.015737
919.342359	0.015249
919.522573	0.015224
919.702769	0.015411
919.882947	0.015278
920.063106	0.015001
920.243247	0.014858
920.423370	0.014733
920.603475	0.014728
920.783562	0.014154
920.963630	0.014092
921.143680	0.013762
921.323712	0.013556
921.503725	0.013683
921.683721	0.013534
921.863698	0.012835
922.043657	0.012742
922.223598	0.012532
922.403520	0.012618
922.583424	0.012538
922.763311	0.012582
922.943178	0.012677
923.123028	0.012395
923.302859	0.012538
923.482673	0.012571
923.662467	0.012783
923.842244	0.012469
924.022003	0.012309
924.201743	0.012229
924.381465	0.012308
924.561169	0.011979
924.740854	0.012110
924.920522	0.011705
925.100171	0.011888
925.279802	0.011530
925.459414	0.011811
925.639009	0.011757
925.818585	0.011326
925.998143	0.011116
926.177683	0.011245
926.357205	0.011452
926.536708	0.011769
926.716193	0.011472
926.895660	0.011447
927.075109	0.011009
927.254539	0.010319
927.433951	0.010736
927.613345	0.010524
927.792721	0.010004
927.972079	0.009419
928.151418	0.008796
928.330739	0.009162
928.510042	0.008998
928.689327	0.008317
928.868593	0.008621
929.047841	0.008262
929.227071	0.008007
929.406283	0.007514
929.585476	0.007124
929.764652	0.006861
929.943809	0.006181
930.122948	0.005889
930.302068	0.006799
930.481171	0.006310
930.660255	0.005998
930.839321	0.005674
931.018369	0.006041
931.197398	0.005827
931.376409	0.005806
931.555402	0.005767
931.734377	0.005457
931.913334	0.004483
932.092272	0.004907
932.271192	0.005079
932.450094	0.005002
932.628978	0.004832
932.807844	0.005366
932.986691	0.005000
933.165520	0.004308
933.344331	0.003982
933.523123	0.004076
933.701898	0.003609
933.880654	0.002571
934.059392	0.002406
934.238111	0.001755
934.416813	0.001145
934.595496	0.001491
934.774161	0.001583
934.952808	0.001455
935.131437	0.001341
935.310047	0.000830
935.488639	0.001272
935.667213	0.001335
935.845769	0.001448
936.024306	0.001631
936.202825	0.001149
936.381326	0.000813
936.559809	0.001272
936.738274	0.001019
936.916720	0.001367
937.095148	0.001435
937.273558	0.001592
937.451950	0.002177
937.630323	0.001783
937.808678	0.001425
937.987015	0.001671
938.165334	0.001229
938.343635	0.001273
938.521917	0.001161
938.700181	0.000821
938.878427	0.000154
939.056655	-0.000114
939.234864	-0.000887
939.413055	0.000154
939.591228	0.000080
939.769383	0.000408
939.947519	0.000897
940.125638	0.000857
940.303738	0.000955
940.481820	0.001038
940.659883	0.000144
940.837929	0.000934
941.015956	-0.000464
941.193965	-0.000124
941.371955	-0.000443
941.549928	-0.001908
941.727882	-0.002852
941.905818	-0.003843
942.083736	-0.004785
942.261636	-0.004465
942.439517	-0.004991
942.617380	-0.004742
942.795225	-0.005528
942.973052	-0.005493
943.150860	-0.004413
943.328651	-0.003183
943.506423	-0.002965
943.684176	-0.001806
943.861912	-0.001495
944.039629	-0.001838
944.217328	-0.000831
944.395009	-0.000920
944.572672	-0.002263
944.750317	-0.002861
944.927943	-0.003875
945.105551	-0.003441
945.283141	-0.004415
945.460712	-0.005712
945.638265	-0.006548
945.815801	-0.008081
945.993317	-0.008399
946.170816	-0.008123
946.348297	-0.008909
946.525759	-0.008249
946.703203	-0.008411
946.880629	-0.008116
947.058036	-0.007297
947.235425	-0.006073
947.412797	-0.005955
947.590149	-0.005713
947.767484	-0.005245
947.944800	-0.005167
948.122099	-0.005362
948.299379	-0.004511
948.476640	-0.004410
948.653884	-0.004984
948.831109	-0.005493
949.008316	-0.004727
949.185505	-0.004635
949.362676	-0.005082
949.539828	-0.004853
949.716962	-0.005284
949.894078	-0.006176
950.071176	-0.006711
950.248256	-0.006565
950.425317	-0.006132
950.602360	-0.006411
950.779385	-0.007080
950.956391	-0.006313
951.133380	-0.006294
951.310350	-0.007021
951.487302	-0.007285
951.664235	-0.006741
951.841151	-0.007285
952.018048	-0.007726
952.194927	-0.007319
952.371788	-0.006754
952.548631	-0.008334
952.725455	-0.009100
952.902261	-0.008495
953.079049	-0.007532
953.255819	-0.008090
953.432570	-0.007801
953.609303	-0.008734
953.786018	-0.009633
953.962715	-0.008038
954.139394	-0.007200
954.316054	-0.006767
954.492696	-0.006338
954.669320	-0.006771
954.845926	-0.005090
955.022513	-0.004813
955.199083	-0.002998
955.375634	-0.002184
955.552166	-0.003305
955.728681	-0.002131
955.905177	-0.002573
956.081655	-0.003143
956.258115	-0.002436
956.434557	-0.003207
956.610980	-0.003444
956.787385	-0.002961
956.963772	-0.004362
957.140141	-0.004511
957.316492	-0.005306
957.492824	-0.003251
957.669138	-0.002039
957.845434	-0.002294
958.021712	-0.002367
958.197971	-0.001900
958.374212	-0.004295
958.550435	-0.002058
958.726640	-0.001076
958.902826	-0.000682
959.078995	-0.000641
959.255145	-0.001677
959.431277	-0.001326
959.607390	-0.001209
959.783486	-0.001030
959.959563	0.001250
960.135622	0.000429
960.311662	-0.000733
960.487685	-0.000432
960.663689	-0.000211
960.839675	0.000425
961.015643	0.000629
961.191593	0.000969
961.367524	-0.000090
961.543437	-0.000038
961.719332	0.001642
961.895209	0.003942
962.071067	0.004345
962.246907	0.004707
962.422730	0.005000
962.598533	0.003662
962.774319	0.004608
962.950086	0.005615
963.125835	0.005863
963.301566	0.003928
963.477279	0.003548
963.652973	0.002928
963.828650	0.002288
964.004308	0.002166
964.179947	0.003794
964.355569	0.003748
964.531172	0.005198
964.706757	0.005483
964.882324	0.006732
965.057873	0.007306
965.233403	0.007744
965.408916	0.007689
965.584410	0.006829
965.759885	0.007491
965.935343	0.009437
966.110782	0.008743
966.286203	0.008967
966.461606	0.007495
966.636991	0.006543
966.812357	0.007330
966.987705	0.008020
967.163035	0.008116
967.338347	0.007570
967.513641	0.006601
967.688916	0.007593
967.864173	0.006072
968.039412	0.008139
968.214632	0.008256
968.389835	0.007913
968.565019	0.010451
968.740185	0.011413
968.915333	0.012583
969.090462	0.011592
969.265573	0.010755
969.440667	0.011306
969.615741	0.010977
969.790798	0.012331
969.965836	0.013519
970.140856	0.011282
970.315858	0.010929
970.490842	0.011344
970.665808	0.011719
970.840755	0.011270
971.015684	0.011746
971.190595	0.011370
971.365487	0.009559
971.540362	0.009286
971.715218	0.009913
971.890056	0.011784
972.064875	0.008768
972.239677	0.008922
972.414460	0.009444
972.589225	0.010762
972.763972	0.012024
972.938700	0.013270
973.113411	0.012247
973.288103	0.012568
973.462777	0.010807
973.637432	0.010802
973.812070	0.011852
973.986689	0.013286
974.161290	0.013009
974.335873	0.011613
974.510437	0.011828
974.684984	0.013115
974.859512	0.011568
975.034022	0.013096
975.208513	0.015695
975.382987	0.015116
975.557442	0.016457
975.731879	0.015258
975.906298	0.014680
976.080698	0.013550
976.255080	0.011529
976.429445	0.011697
976.603790	0.009950
976.778118	0.008518
976.952427	0.009216
977.126719	0.006412
977.300992	0.006390
977.475246	0.008395
977.649483	0.010939
977.823701	0.010396
977.997901	0.010953
978.172083	0.012154
978.346247	0.011871
978.520392	0.010819
978.694519	0.010657
978.868628	0.011055
979.042719	0.010129
979.216791	0.009552
979.390845	0.011582
979.564882	0.011781
979.738899	0.010775
979.912899	0.011889
980.086880	0.011602
980.260843	0.011077
980.434788	0.010721
980.608715	0.012403
980.782623	0.011337
980.956514	0.012020
981.130386	0.011448
981.304240	0.012719
981.478075	0.011512
981.651892	0.011707
981.825692	0.013416
981.999472	0.013864
982.173235	0.011790
982.346980	0.011236
982.520706	0.009569
982.694414	0.009533
982.868104	0.009036
983.041775	0.007860
983.215428	0.007751
983.389064	0.007762
983.562680	0.007505
983.736279	0.007604
983.909860	0.008999
984.083422	0.008688
984.256966	0.008912
984.430491	0.009429
984.603999	0.011663
984.777488	0.012074
984.950959	0.012013
985.124412	0.012871
985.297847	0.013482
985.471263	0.013172
985.644661	0.013602
985.818041	0.014153
985.991403	0.013756
986.164747	0.013792
986.338072	0.012905
986.511379	0.012713
986.684668	0.012527
986.857938	0.011141
987.031191	0.010345
987.204425	0.011419
987.377641	0.011649
987.550839	0.012357
987.724018	0.011493
987.897179	0.012947
988.070322	0.014396
988.243447	0.014689
988.416554	0.016023
988.589642	0.016127
988.762712	0.013920
988.935764	0.013469
989.108798	0.013512
989.281813	0.014258
989.454811	0.014360
989.627790	0.014193
989.800751	0.014644
989.973693	0.014582
990.146617	0.014904
990.319524	0.017507
990.492412	0.017490
990.665281	0.016137
990.838133	0.015053
991.010966	0.013860
991.183781	0.011785
991.356578	0.012306
991.529356	0.011533
991.702117	0.012630
991.874859	0.011261
992.047583	0.010013
992.220288	0.010665
992.392976	0.010679
992.565645	0.010085
992.738296	0.009606
992.910929	0.008590
993.083543	0.008496
993.256139	0.008312
993.428718	0.009040
993.601277	0.010636
993.773819	0.010983
993.946342	0.011465
994.118848	0.012867
994.291335	0.014589
994.463803	0.014441
994.636254	0.013859
994.808686	0.013068
994.981100	0.013663
995.153496	0.014342
995.325874	0.014037
995.498233	0.014980
995.670574	0.013229
995.842897	0.011786
996.015202	0.012665
996.187488	0.014324
996.359757	0.014839
996.532007	0.014190
996.704239	0.013810
996.876452	0.014135
997.048648	0.013725
997.220825	0.014688
997.392984	0.016404
997.565124	0.015381
997.737247	0.014734
997.909351	0.014027
998.081437	0.012902
998.253505	0.012019
998.425554	0.012891
998.597586	0.013200
998.769599	0.013655
998.941594	0.013152
999.113571	0.014008
999.285529	0.014651
999.457469	0.014617
999.629391	0.014212
999.801295	0.014579
999.973181	0.013611
1000.145048	0.012780
1000.316897	0.012939
1000.488728	0.012562
1000.660541	0.011720
1000.832335	0.011447
1001.004111	0.011620
1001.175869	0.012600
1001.347609	0.012202
1001.519331	0.010177
1001.691034	0.009801
1001.862719	0.008543
1002.034386	0.008326
1002.206035	0.008667
1002.377665	0.009938
1002.549277	0.009770
1002.720871	0.009751
1002.892447	0.009891
1003.064004	0.013077
1003.235544	0.013978
1003.407065	0.013966
1003.578568	0.013629
1003.750052	0.014459
1003.921519	0.013652
1004.092967	0.015723
1004.264397	0.016483
1004.435809	0.016970
1004.607202	0.016106
1004.778577	0.016050
1004.949934	0.015440
1005.121273	0.016166
1005.292594	0.015773
1005.463896	0.015115
1005.635180	0.013828
1005.806446	0.013384
1005.977694	0.013349
1006.148923	0.014343
1006.320135	0.015010
1006.491328	0.016280
1006.662503	0.016546
1006.833659	0.014962
1007.004798	0.014254
1007.175918	0.012913
1007.347020	0.012738
1007.518103	0.012470
1007.689169	0.010447
1007.860216	0.009100
1008.031245	0.008639
1008.202256	0.007739
1008.373248	0.008094
1008.544223	0.009178
1008.715179	0.010313
1008.886117	0.009626
1009.057036	0.011421
1009.227938	0.011944
1009.398821	0.012000
1009.569686	0.010981
1009.740533	0.010992
1009.911361	0.010572
1010.082172	0.010029
1010.252964	0.009464
1010.423738	0.010700
1010.594493	0.009369
1010.765231	0.008567
1010.935950	0.009041
1011.106651	0.009992
1011.277334	0.011562
1011.447998	0.011043
1011.618645	0.011247
1011.789273	0.010713
1011.959882	0.010995
1012.130474	0.011368
1012.301048	0.011600
1012.471603	0.012471
1012.642140	0.013486
1012.812658	0.012099
1012.983159	0.013265
1013.153641	0.012823
1013.324105	0.013146
1013.494551	0.011437
1013.664979	0.009387
1013.835388	0.009342
1014.005779	0.008991
1014.176152	0.007220
1014.346507	0.008210
1014.516843	0.007998
1014.687162	0.008019
1014.857462	0.008674
1015.027744	0.009098
1015.198007	0.009669
1015.368252	0.010821
1015.538480	0.010778
1015.708689	0.010971
1015.878879	0.010972
1016.049052	0.010246
1016.219206	0.010818
1016.389342	0.010525
1016.559460	0.009697
1016.729559	0.009479
1016.899641	0.009102
1017.069704	0.009347
1017.239749	0.011033
1017.409775	0.009943
1017.579784	0.010863
1017.749774	0.009996
1017.919746	0.009250
1018.089700	0.010259
1018.259635	0.011774
1018.429553	0.011133
1018.599452	0.009823
1018.769333	0.007324
1018.939195	0.007466
1019.109040	0.008758
1019.278866	0.008489
1019.448674	0.008538
1019.618464	0.009835
1019.788235	0.008760
1019.957989	0.008439
1020.127724	0.009838
1020.297441	0.010669
1020.467139	0.010355
1020.636820	0.008418
1020.806482	0.009370
1020.976126	0.009476
1021.145752	0.006352
1021.315359	0.006503
1021.484948	0.006788
1021.654519	0.006588
1021.824072	0.007804
1021.993607	0.008121
1022.163123	0.009986
1022.332621	0.010039
1022.502101	0.010003
1022.671563	0.013227
1022.841007	0.013288
1023.010432	0.013682
1023.179839	0.012738
1023.349228	0.011129
1023.518598	0.011127
1023.687951	0.010064
1023.857285	0.009522
1024.026601	0.010436
1024.195899	0.009170
1024.365178	0.009997
1024.534439	0.008964
1024.703682	0.008635
1024.872907	0.010329
1025.042114	0.011188
1025.211302	0.011506
1025.380472	0.010446
1025.549624	0.010977
1025.718758	0.011109
1025.887873	0.010060
1026.056970	0.011030
1026.226049	0.010770
1026.395110	0.010732
1026.564153	0.010145
1026.733177	0.010264
1026.902183	0.011291
1027.071171	0.010471
1027.240141	0.010108
1027.409092	0.010224
1027.578026	0.009859
1027.746940	0.009424
1027.915837	0.007974
1028.084716	0.007667
1028.253576	0.007676
1028.422418	0.007459
1028.591242	0.007381
1028.760048	0.007524
1028.928835	0.007590
1029.097604	0.007407
1029.266355	0.008342
1029.435088	0.008601
1029.603803	0.008804
1029.772499	0.008754
1029.941177	0.008781
1030.109837	0.008974
1030.278478	0.009438
1030.447102	0.008242
1030.615707	0.009224
1030.784294	0.009494
1030.952863	0.010506
1031.121413	0.010366
1031.289945	0.011062
1031.458460	0.010198
1031.626955	0.010092
1031.795433	0.010573
1031.963892	0.012247
1032.132334	0.012238
1032.300756	0.012977
1032.469161	0.013148
1032.637548	0.011039
1032.805916	0.009695
1032.974266	0.011464
1033.142598	0.010711
1033.310911	0.009246
1033.479207	0.008169
1033.647484	0.008024
1033.815743	0.006942
1033.983983	0.007064
1034.152206	0.009031
1034.320410	0.009784
1034.488596	0.009355
1034.656764	0.009543
1034.824914	0.009583
1034.993045	0.008767
1035.161158	0.008976
1035.329253	0.010181
1035.497330	0.009339
1035.665388	0.009103
1035.833428	0.008997
1036.001450	0.010106
1036.169454	0.010320
1036.337440	0.010729
1036.505407	0.011682
1036.673356	0.009580
1036.841287	0.010433
1037.009200	0.011222
1037.177094	0.011163
1037.344970	0.010105
1037.512828	0.009016
1037.680668	0.008852
1037.848489	0.009959
1038.016293	0.010526
1038.184078	0.012663
1038.351845	0.012271
1038.519593	0.010224
1038.687324	0.012311
1038.855036	0.013215
1039.022730	0.014067
1039.190406	0.014920
1039.358063	0.012890
1039.525702	0.011781
1039.693323	0.011745
1039.860926	0.010831
1040.028511	0.014118
1040.196077	0.011981
1040.363625	0.010687
1040.531155	0.008839
1040.698667	0.009718
1040.866161	0.010056
1041.033636	0.011607
1041.201093	0.012208
1041.368532	0.012536
1041.535952	0.011254
1041.703355	0.012283
1041.870739	0.013142
1042.038105	0.014300
1042.205452	0.011370
1042.372782	0.011505
1042.540093	0.011782
1042.707386	0.010623
1042.874661	0.010207
1043.041918	0.010554
1043.209156	0.010838
1043.376376	0.011561
1043.543578	0.010600
1043.710762	0.011966
1043.877927	0.014000
1044.045074	0.014104
1044.212203	0.014601
1044.379314	0.015270
1044.546407	0.014303
1044.713481	0.014214
1044.880537	0.013030
1045.047575	0.014829
1045.214595	0.015847
1045.381596	0.013716
1045.548579	0.013262
1045.715544	0.014140
1045.882491	0.011922
1046.049420	0.012188
1046.216330	0.011559
1046.383222	0.012176
1046.550096	0.012192
1046.716951	0.011050
1046.883789	0.011037
1047.050608	0.010916
1047.217409	0.008476
1047.384192	0.008657
1047.550956	0.008860
1047.717703	0.006709
1047.884431	0.006377
1048.051140	0.004934
1048.217832	0.004588
1048.384505	0.005157
1048.551161	0.003774
1048.717798	0.003880
1048.884416	0.004964
1049.051017	0.003377
1049.217599	0.005853
1049.384163	0.004845
1049.550709	0.005884
1049.717237	0.007307
1049.883746	0.008053
1050.050237	0.009173
1050.216710	0.009512
1050.383165	0.008743
1050.549601	0.009639
1050.716019	0.007371
1050.882420	0.007707
1051.048801	0.007516
1051.215165	0.006788
1051.381510	0.006317
1051.547837	0.006109
1051.714146	0.006915
1051.880437	0.006754
1052.046709	0.007395
1052.212964	0.010232
1052.379200	0.011601
1052.545417	0.011744
1052.711617	0.009743
1052.877798	0.009396
1053.043961	0.008313
1053.210106	0.007580
1053.376233	0.008490
1053.542341	0.007795
1053.708432	0.006868
1053.874504	0.006000
1054.040557	0.004590
1054.206593	0.006326
1054.372610	0.006424
1054.538609	0.007935
1054.704590	0.009147
1054.870553	0.007974
1055.036497	0.010616
1055.202424	0.009675
1055.368331	0.009942
1055.534221	0.009521
1055.700093	0.008299
1055.865946	0.008939
1056.031781	0.009732
1056.197598	0.008762
1056.363397	0.008595
1056.529177	0.007133
1056.694939	0.008981
1056.860683	0.008851
1057.026409	0.009360
1057.192116	0.010028
1057.357806	0.008162
1057.523477	0.005601
1057.689130	0.007358
1057.854764	0.007366
1058.020381	0.006211
1058.185979	0.005289
1058.351559	0.006120
1058.517120	0.006731
1058.682664	0.007499
1058.848189	0.009953
1059.013696	0.012657
1059.179185	0.011350
1059.344656	0.012780
1059.510108	0.013243
1059.675542	0.013405
1059.840958	0.013018
1060.006356	0.012596
1060.171735	0.013445
1060.337096	0.011244
1060.502439	0.010068
1060.667764	0.009187
1060.833071	0.008422
1060.998359	0.008455
1061.163629	0.007351
1061.328881	0.007886
1061.494115	0.007601
1061.659330	0.004733
1061.824527	0.004682
1061.989706	0.005542
1062.154867	0.004956
1062.320010	0.006158
1062.485134	0.005648
1062.650240	0.006340
1062.815328	0.005376
1062.980398	0.005171
1063.145449	0.006481
1063.310482	0.006789
1063.475497	0.006268
1063.640494	0.007004
1063.805473	0.006986
1063.970433	0.007867
1064.135375	0.008159
1064.300299	0.009844
1064.465204	0.009606
1064.630092	0.010901
1064.794961	0.012101
1064.959812	0.012014
1065.124645	0.012756
1065.289459	0.013578
1065.454256	0.015305
1065.619034	0.014446
1065.783793	0.012431
1065.948535	0.013841
1066.113258	0.014801
1066.277964	0.016230
1066.442651	0.016719
1066.607319	0.016811
1066.771970	0.015157
1066.936602	0.012598
1067.101216	0.013999
1067.265812	0.013923
1067.430389	0.014779
1067.594949	0.014195
1067.759490	0.012409
1067.924013	0.013352
1068.088518	0.014626
1068.253004	0.014247
1068.417472	0.015912
1068.581922	0.015930
1068.746354	0.015342
1068.910768	0.012256
1069.075163	0.010996
1069.239540	0.008627
1069.403899	0.006829
1069.568240	0.005926
1069.732562	0.005343
1069.896866	0.002722
1070.061152	0.002164
1070.225420	0.001787
1070.389670	0.005142
1070.553901	0.004120
1070.718114	0.007583
1070.882309	0.007290
1071.046486	0.007045
1071.210644	0.008248
1071.374784	0.008162
1071.538906	0.008430
1071.703010	0.011044
1071.867096	0.010692
1072.031163	0.011161
1072.195212	0.008952
1072.359243	0.009341
1072.523256	0.008345
1072.687250	0.007628
1072.851226	0.009329
1073.015184	0.007878
1073.179124	0.005381
1073.343045	0.003562
1073.506949	0.003976
1073.670834	0.006008
1073.834701	0.007440
1073.998549	0.008145
1074.162380	0.007085
1074.326192	0.006500
1074.489986	0.007942
1074.653761	0.009790
1074.817519	0.010177
1074.981258	0.012102
1075.144979	0.011397
1075.308682	0.008886
1075.472367	0.008178
1075.636033	0.009789
1075.799681	0.009098
1075.963311	0.008798
1076.126923	0.008854
1076.290516	0.010579
1076.454092	0.009844
1076.617649	0.010078
1076.781187	0.011799
1076.944708	0.011241
1077.108210	0.010873
1077.271695	0.013302
1077.435160	0.011355
1077.598608	0.011270
1077.762038	0.010044
1077.925449	0.010740
1078.088842	0.010855
1078.252217	0.010586
1078.415573	0.010443
1078.578912	0.010420
1078.742232	0.008240
1078.905534	0.009963
1079.068817	0.008845
1079.232083	0.009551
1079.395330	0.006033
1079.558559	0.004661
1079.721770	0.003746
1079.884962	0.004815
1080.048136	0.004040
1080.211293	0.006981
1080.374430	0.006597
1080.537550	0.007847
1080.700651	0.006835
1080.863735	0.006911
1081.026800	0.005815
1081.189846	0.007339
1081.352875	0.008390
1081.515885	0.011648
1081.678877	0.009783
1081.841851	0.009560
1082.004807	0.008258
1082.167744	0.006618
1082.330663	0.008462
1082.493564	0.008452
1082.656447	0.007166
1082.819312	0.005321
1082.982158	0.002385
1083.144986	0.001530
1083.307796	0.001581
1083.470587	0.002120
1083.633361	0.003808
1083.796116	0.002828
1083.958853	0.005128
1084.121571	0.004516
1084.284272	0.005356
1084.446954	0.006302
1084.609618	0.008658
1084.772264	0.011208
1084.934892	0.010958
1085.097501	0.012264
1085.260092	0.013402
1085.422665	0.011119
1085.585220	0.013348
1085.747756	0.012701
1085.910274	0.012934
1086.072774	0.010005
1086.235256	0.007785
1086.397720	0.010818
1086.560165	0.008940
1086.722592	0.010453
1086.885001	0.012275
1087.047392	0.011236
1087.209764	0.009625
1087.372119	0.010982
1087.534455	0.012565
1087.696772	0.012514
1087.859072	0.009414
1088.021353	0.010115
1088.183616	0.007979
1088.345861	0.005805
1088.508088	0.006688
1088.670296	0.009018
1088.832486	0.007203
1088.994658	0.006099
1089.156812	0.008501
1089.318948	0.008463
1089.481065	0.008921
1089.643164	0.007433
1089.805245	0.008367
1089.967308	0.008011
1090.129352	0.008785
1090.291378	0.010952
1090.453386	0.011222
1090.615376	0.010679
1090.777347	0.010763
1090.939301	0.010577
1091.101236	0.010305
1091.263153	0.011203
1091.425051	0.009334
1091.586932	0.009435
1091.748794	0.006729
1091.910638	0.008455
1092.072463	0.006728
1092.234271	0.006533
1092.396060	0.006604
1092.557831	0.011568
1092.719584	0.010441
1092.881319	0.013856
1093.043035	0.013511
1093.204733	0.015620
1093.366413	0.014271
1093.528075	0.011737
1093.689718	0.013917
1093.851343	0.013149
1094.012950	0.010794
1094.174539	0.010334
1094.336110	0.005763
1094.497662	0.007519
1094.659196	0.005067
1094.820712	0.004963
1094.982210	0.007561
1095.143689	0.008655
1095.305151	0.009566
1095.466594	0.008452
1095.628018	0.007623
1095.789425	0.008358
1095.950813	0.005230
1096.112183	0.003575
1096.273535	0.002205
1096.434869	-0.000104
1096.596184	-0.002743
1096.757482	-0.001594
1096.918761	0.000274
1097.080021	0.001252
1097.241264	0.000396
1097.402488	-0.000134
1097.563694	0.004321
1097.724882	0.004857
1097.886052	0.005675
1098.047203	0.007418
1098.208336	0.006290
1098.369451	0.006761
1098.530548	0.008076
1098.691627	0.012249
1098.852687	0.012580
1099.013729	0.013402
1099.174753	0.013155
1099.335758	0.016643
1099.496746	0.016339
1099.657715	0.016975
1099.818666	0.015860
1099.979599	0.013200
1100.140513	0.011223
1100.301409	0.012307
1100.462287	0.011791
1100.623147	0.014017
1100.783989	0.012274
1100.944812	0.010353
1101.105617	0.010930
1101.266404	0.011320
1101.427173	0.009710
1101.587923	0.008406
1101.748656	0.010230
1101.909370	0.009300
1102.070066	0.010427
1102.230743	0.011344
1102.391403	0.012319
1102.552044	0.009614
1102.712667	0.009258
1102.873271	0.013419
1103.033858	0.016177
1103.194426	0.017094
1103.354976	0.016282
1103.515508	0.013037
1103.676021	0.010927
1103.836517	0.007501
1103.996994	0.005549
1104.157453	0.004257
1104.317893	0.004348
1104.478316	0.003292
1104.638720	0.003938
1104.799106	0.005850
1104.959474	0.006024
1105.119823	0.004810
1105.280155	0.005779
1105.440468	0.009512
1105.600763	0.010644
1105.761039	0.010117
1105.921298	0.009476
1106.081538	0.003484
1106.241760	0.001183
1106.401964	0.005034
1106.562149	0.006309
1106.722316	0.007727
1106.882465	0.005300
1107.042596	0.006824
1107.202709	0.009268
1107.362803	0.010968
1107.522879	0.014216
1107.682937	0.017088
1107.842977	0.015485
1108.002999	0.014339
1108.163002	0.015471
1108.322987	0.019086
1108.482954	0.016841
1108.642902	0.017942
1108.802833	0.019307
1108.962745	0.019100
1109.122639	0.017720
1109.282515	0.016561
1109.442372	0.017663
1109.602211	0.017165
1109.762032	0.013958
1109.921835	0.014152
1110.081620	0.010265
1110.241386	0.007604
1110.401134	0.007855
1110.560864	0.009795
1110.720576	0.009945
1110.880269	0.009070
1111.039945	0.010609
1111.199602	0.012355
1111.359240	0.012878
1111.518861	0.016087
1111.678463	0.016966
1111.838047	0.017466
1111.997613	0.013951
1112.157161	0.013862
1112.316690	0.016096
1112.476202	0.014975
1112.635695	0.013700
1112.795169	0.014081
1112.954626	0.011047
1113.114064	0.012625
1113.273484	0.014038
1113.432886	0.014978
1113.592270	0.012894
1113.751635	0.011609
1113.910983	0.014134
1114.070312	0.016164
1114.229622	0.014358
1114.388915	0.013182
1114.548189	0.010114
1114.707445	0.010825
1114.866683	0.010056
1115.025903	0.015675
1115.185104	0.018682
1115.344287	0.014793
1115.503452	0.015570
1115.662599	0.013368
1115.821727	0.013557
1115.980838	0.013934
1116.139930	0.010316
1116.299004	0.012403
1116.458059	0.008849
1116.617097	0.008487
1116.776116	0.014158
1116.935117	0.014822
1117.094099	0.014635
1117.253064	0.017495
1117.412010	0.015742
1117.570938	0.017847
1117.729848	0.017961
1117.888740	0.021339
1118.047613	0.020952
1118.206468	0.013792
1118.365305	0.010160
1118.524124	0.009964
1118.682924	0.007442
1118.841707	0.008621
1119.000471	0.002983
1119.159216	0.001609
1119.317944	-0.001402
1119.476653	-0.000078
1119.635344	0.003845
1119.794017	0.007081
1119.952672	0.010209
1120.111308	0.010671
1120.269927	0.013669
1120.428527	0.016733
1120.587108	0.018924
1120.745672	0.016373
1120.904217	0.009682
1121.062744	0.010176
1121.221253	0.006914
1121.379744	0.005302
1121.538216	0.007488
1121.696671	0.003081
1121.855107	0.007211
1122.013524	0.005545
1122.171924	0.006830
1122.330305	0.014159
1122.488668	0.009869
1122.647013	0.007034
1122.805340	0.009905
1122.963648	0.008204
1123.121938	0.012548
1123.280210	0.007701
1123.438464	0.006019
1123.596700	0.006920
1123.754917	0.005612
1123.913116	0.007594
1124.071297	0.007915
1124.229459	0.005187
1124.387604	0.005478
1124.545730	0.003806
1124.703838	0.006802
1124.861928	0.007322
1125.019999	0.003784
1125.178052	-0.001278
1125.336088	0.000949
1125.494104	0.003581
1125.652103	0.006249
1125.810083	0.008354
1125.968045	0.006358
1126.125989	0.007856
1126.283915	0.008586
1126.441823	0.013587
1126.599712	0.015278
1126.757583	0.011715
1126.915436	0.011036
1127.073270	0.009881
1127.231087	0.012839
1127.388885	0.011535
1127.546665	0.011148
1127.704426	0.012925
1127.862170	0.013440
1128.019895	0.016497
1128.177602	0.014356
1128.335291	0.018528
1128.492961	0.020639
1128.650614	0.016163
1128.808248	0.019353
1128.965864	0.018001
1129.123461	0.016153
1129.281041	0.012450
1129.438602	0.011012
1129.596145	0.011590
1129.753670	0.007125
1129.911176	0.007964
1130.068665	0.006214
1130.226135	0.011791
1130.383587	0.011169
1130.541020	0.009562
1130.698436	0.009901
1130.855833	0.013367
1131.013212	0.021028
1131.170573	0.019199
1131.327915	0.018051
1131.485239	0.023948
1131.642545	0.017513
1131.799833	0.016583
1131.957103	0.014577
1132.114354	0.014745
1132.271588	0.013748
1132.428803	0.011269
1132.585999	0.014254
1132.743178	0.014225
1132.900338	0.013789
1133.057480	0.017484
1133.214604	0.020099
1133.371710	0.024165
1133.528797	0.027636
1133.685866	0.026771
1133.842917	0.024830
1133.999950	0.025019
1134.156964	0.019670
1134.313960	0.017797
1134.470938	0.012379
1134.627898	0.010396
1134.784840	0.011680
1134.941763	0.004868
1135.098668	0.002289
1135.255555	0.001863
1135.412424	0.006707
1135.569274	0.011662
1135.726107	0.007640
1135.882921	0.015702
1136.039716	0.018129
1136.196494	0.015965
1136.353253	0.020634
1136.509995	0.021622
1136.666717	0.019564
1136.823422	0.015439
1136.980109	0.015288
1137.136777	0.022821
1137.293427	0.014573
1137.450059	0.013965
1137.606672	0.013319
1137.763267	0.014455
1137.919844	0.012001
1138.076403	0.009997
1138.232944	0.008897
1138.389466	0.007524
1138.545971	0.003768
1138.702457	0.006752
1138.858924	0.005754
1139.015374	0.005918
1139.171805	0.007942
1139.328218	0.014087
1139.484613	0.020098
1139.640990	0.016798
1139.797348	0.017286
1139.953688	0.015658
1140.110010	0.015115
1140.266314	0.013718
1140.422600	0.015521
1140.578867	0.009935
1140.735116	0.003471
1140.891347	0.001668
1141.047559	0.008725
1141.203754	0.007434
1141.359930	0.004403
1141.516088	0.005175
1141.672228	0.004864
1141.828349	0.003978
1141.984452	0.006896
1142.140537	0.010748
1142.296604	0.010621
1142.452653	0.006550
1142.608683	0.006475
1142.764695	0.009004
1142.920689	0.008584
1143.076665	0.006551
1143.232622	0.005663
1143.388562	0.004764
1143.544483	0.005838
1143.700385	0.005514
1143.856270	0.010484
1144.012136	0.012759
1144.167985	0.016540
1144.323814	0.014798
1144.479626	0.022135
1144.635420	0.017230
1144.791195	0.015782
1144.946952	0.007752
1145.102691	0.005731
1145.258411	0.002693
1145.414113	0.002065
1145.569798	-0.004040
1145.725463	-0.003031
1145.881111	-0.006688
1146.036741	-0.003419
1146.192352	-0.002462
1146.347945	0.000753
1146.503519	0.001038
1146.659076	-0.002772
1146.814614	-0.006819
1146.970134	0.002971
1147.125636	0.002279
1147.281120	0.000851
1147.436585	0.003655
1147.592032	0.002765
1147.747461	0.008946
1147.902872	0.018000
1148.058265	0.017072
1148.213639	0.020079
1148.368995	0.002793
1148.524333	-0.000104
1148.679653	0.000113
1148.834954	0.005501
1148.990237	0.007465
1149.145502	0.000224
1149.300749	0.000092
1149.455977	0.002527
1149.611188	0.001049
1149.766380	0.017690
1149.921553	0.020013
1150.076709	0.017617
1150.231846	0.007591
1150.386966	0.014282
1150.542066	0.018128
1150.697149	0.010145
1150.852214	0.009610
1151.007260	0.008975
1151.162288	0.004697
1151.317298	0.003912
1151.472289	0.002959
1151.627263	0.008428
1151.782218	0.002812
1151.937155	-0.000180
1152.092073	0.002851
1152.246974	0.006970
1152.401856	0.006587
1152.556720	0.004684
1152.711566	0.009127
1152.866393	0.011007
1153.021203	0.012667
1153.175994	0.023753
1153.330767	0.031020
1153.485521	0.031854
1153.640258	0.033725
1153.794976	0.042204
1153.949676	0.051467
1154.104358	0.050090
1154.259021	0.051192
1154.413667	0.055161
1154.568294	0.039892
1154.722903	0.030706
1154.877493	0.026709
1155.032066	0.019543
1155.186620	0.018866
1155.341156	0.006959
1155.495674	-0.001950
1155.650173	-0.004284
1155.804654	-0.013064
1155.959118	-0.009220
1156.113562	-0.003653
1156.267989	-0.008607
1156.422397	-0.003608
1156.576788	-0.009713
1156.731160	-0.000672
1156.885513	0.010020
1157.039849	0.017633
1157.194166	0.017854
1157.348465	0.016731
1157.502746	0.016855
1157.657009	0.020592
1157.811253	0.021732
1157.965479	0.031353
1158.119687	0.027168
1158.273877	0.018636
1158.428048	0.012394
1158.582201	0.011589
1158.736337	0.017094
1158.890453	0.024062
1159.044552	0.032085
1159.198632	0.029767
1159.352694	0.016938
1159.506738	0.016575
1159.660764	0.018599
1159.814771	0.013141
1159.968761	0.014598
1160.122732	0.016402
1160.276685	0.008312
1160.430619	0.006660
1160.584535	0.001544
1160.738434	0.005729
1160.892313	0.000028
1161.046175	0.010637
1161.200019	0.021180
1161.353844	0.022302
1161.507651	0.012367
1161.661440	0.009134
1161.815210	0.002470
1161.968962	0.003689
1162.122697	0.002288
1162.276412	0.001002
1162.430110	-0.000480
1162.583789	-0.007790
1162.737451	-0.017242
1162.891094	-0.016730
1163.044718	-0.018711
1163.198325	-0.018460
1163.351913	-0.014610
1163.505483	-0.012784
1163.659035	-0.003147
1163.812569	-0.007121
1163.966084	0.000013
1164.119581	0.011886
1164.273060	0.012600
1164.426521	0.020827
1164.579964	0.029050
1164.733388	0.027466
1164.886794	0.022518
1165.040182	0.020179
1165.193551	0.019648
1165.346903	0.016376
1165.500236	0.009051
1165.653551	0.004406
1165.806848	0.009086
1165.960126	-0.001239
1166.113386	-0.008862
1166.266628	-0.002219
1166.419852	-0.003759
1166.573058	-0.009755
1166.726245	-0.019164
1166.879414	-0.022753
1167.032565	-0.014713
1167.185698	-0.032749
1167.338812	-0.037486
1167.491909	-0.029883
1167.644987	-0.037968
1167.798046	-0.032871
1167.951088	-0.030455
1168.104111	-0.019927
1168.257117	-0.019877
1168.410103	-0.013613
1168.563072	-0.011345
1168.716023	-0.002062
1168.868955	-0.000243
1169.021869	0.005681
1169.174765	-0.004632
1169.327642	-0.001011
1169.480501	-0.007142
1169.633343	-0.002557
1169.786165	-0.008776
1169.938970	0.001677
1170.091757	-0.003255
1170.244525	-0.007678
1170.397275	-0.004956
1170.550007	0.005147
1170.702720	0.010309
1170.855415	0.009517
1171.008092	0.019413
1171.160751	0.020859
1171.313392	0.024957
1171.466014	-0.056109
1171.618619	0.064528
1171.771205	0.064528
1171.923772	0.064528
