sample name	sample
index	363
start time	 03-04-2021  11:30:29 AM
880	-0.046075
Peak Time (s)	92.037
Peak Height 	-0.04607
calc peak height	90,93
Baseline Time (s)	11.035
Baseline Value 	-0.0032
subtract baseline	10,4
Abs	-0.011967
Peak Time (s)	92.535
Peak Height 	-0.01197
calc peak height	90,93
Baseline Time (s)	11.035
Baseline Value 	0.005571
subtract baseline	10,3
PK_550	-0.005843
Peak Time (s)	92.535
Peak Height 	-0.005843
calc peak height	90,93
Baseline Time (s)	9.537
Baseline Value 	7.5262E-4
subtract baseline	10,2
PK_880	-0.016396
Peak Time (s)	92.535
Peak Height 	-0.0164
calc peak height	90,93
Baseline Time (s)	8.537
Baseline Value 	0.001768
subtract baseline	10,1


Time (s)	A880-A510	A880-A775	A880-A975	A880	I510	I775	I975	I880	
0.034000	-0.002181	-0.000119	-0.004859	0.001164	6889.017402	47728.603104	3959.907785	25143.117111
0.537000	-0.001066	-0.000473	-0.009355	0.005738	6856.864161	47222.319053	3936.081897	24909.255599
1.040000	-0.001545	-0.000890	-0.006054	0.003235	6875.652317	47436.001887	3951.269571	25036.921543
1.537500	-0.000619	-0.000838	-0.004265	0.000174	6912.908069	47756.576126	3964.115880	25194.032842
2.035500	-0.000044	-0.000474	-0.006895	0.000333	6916.823392	47777.910611	3956.712927	25185.878464
2.535000	-0.000546	-0.000156	-0.002883	0.002117	6895.388523	47626.499044	3962.624738	25094.178152
3.035500	-0.001269	0.000057	0.000683	-0.001349	6921.123509	48007.360514	3981.486313	25272.667993
3.536000	0.000369	-0.000403	0.000932	-0.000185	6925.575902	47838.742732	3979.013400	25212.537572
4.036500	0.000453	-0.000985	0.001105	-0.000476	6929.114931	47808.691960	3980.265564	25227.561222
4.536500	0.000117	0.000663	-0.000228	0.001123	6910.904210	47813.740160	3972.373859	25145.205003
5.037000	-0.000967	-0.001009	-0.002878	-0.000894	6919.673074	47849.407750	3970.675858	25249.115254
5.534000	-0.001989	-0.000339	-0.002651	-0.000304	6904.544848	47857.806785	3969.703573	25218.698299
6.035000	-0.000169	-0.000709	-0.005559	0.000213	6916.772106	47765.965714	3960.573011	25192.030255
6.535000	-0.001542	-0.000575	-0.001852	-0.000057	6906.411351	47807.678446	3971.181048	25205.933251
7.035500	-0.001067	-0.000446	-0.002901	0.000416	6906.435907	47772.144414	3967.112247	25181.602413
7.535500	-0.001190	-0.000152	-0.002140	0.000527	6904.249583	47791.101606	3968.849460	25175.888662
8.036000	-0.000488	0.000173	-0.001811	0.000675	6909.434358	47809.394432	3969.330602	25168.238253
8.536500	0.000000	0.000037	0.002318	0.000174	6918.722060	47847.112323	3981.785419	25194.027007
9.036500	0.000212	-0.000001	-0.003593	0.000141	6921.031214	47846.630057	3965.997053	25195.728549
9.536500	-0.000902	0.000000	0.000074	-0.000177	6913.543956	47879.720162	3976.678886	25212.130609
10.037000	-0.001244	-0.000040	-0.005588	-0.000105	6909.666232	47868.115825	3961.340642	25208.438065
10.540000	0.000726	0.000506	0.001063	0.000451	6922.958588	47867.104032	3977.652444	25179.812045
11.035000	0.000487	-0.000074	0.000000	0.000000	6924.947624	47853.743737	3976.003589	25203.016393
11.535500	-0.000371	0.000168	-0.000612	-0.000106	6917.870012	47889.847909	3974.643013	25208.492239
12.035500	0.000490	-0.000045	-0.000158	-0.000371	6928.469656	47895.154819	3976.576326	25222.131400
12.535500	-0.000198	-0.000624	-0.000742	-0.000731	6925.373426	47872.416399	3975.972931	25240.694062
13.036000	-0.002559	-0.000916	-0.000300	-0.000985	6905.585786	47868.581502	3977.847339	25253.833462
13.539500	0.000114	0.000903	-0.008549	0.000521	6916.539096	47901.035294	3951.847402	25176.193404
14.045000	0.000932	0.000060	-0.002627	-0.000046	6929.563263	47872.354857	3969.077715	25205.362231
14.536500	-0.003325	-0.000481	-0.004137	0.002368	6867.164489	47567.113193	3958.627752	25081.315859
15.037000	-0.002470	0.000135	-0.002260	0.001353	6884.562539	47735.365256	3966.321102	25133.391564
15.542500	0.001310	-0.000358	-0.004820	-0.000490	6937.332742	47875.102301	3964.410632	25228.303974
16.034500	0.000379	0.000230	-0.004866	-0.000679	6930.325190	47955.614299	3964.789593	25238.022212
16.535500	-0.000596	-0.000186	0.001432	-0.000378	6918.311081	47881.287905	3980.886310	25222.518086
17.035500	-0.001747	0.000494	-0.002246	0.000335	6900.829382	47877.903432	3969.080573	25185.784735
17.536000	0.002243	-0.000488	-0.000648	-0.003338	6973.196114	48157.660916	3983.265080	25375.685603
18.036000	0.000597	-0.000088	-0.001330	-0.001185	6937.159121	47975.165196	3975.613198	25264.153674
18.536000	-0.001191	-0.000024	0.001251	0.000883	6900.900481	47767.503280	3976.992710	25157.543177
19.037000	-0.000296	0.000022	-0.004302	0.001087	6907.372395	47751.173213	3961.590827	25147.067447
19.537000	-0.001304	-0.000239	-0.000648	0.000939	6899.320003	47739.498653	3971.738310	25154.661422
20.043000	-0.000438	-0.000006	0.002336	0.001216	6904.827860	47734.864184	3979.022041	25140.422425
20.535000	-0.000605	0.001218	-0.004908	0.002187	6894.183599	47761.106206	3957.064845	25090.597294
21.035500	-0.000938	-0.000180	-0.002517	0.000971	6902.441926	47742.254594	3966.653569	25153.029093
21.535500	-0.002850	0.000123	0.000276	0.001134	6883.057310	47756.713785	3973.695963	25144.635098
22.036000	-0.002170	-0.000048	0.001073	0.000752	6892.971610	47778.543630	3976.868891	25164.303650
22.536000	-0.000680	0.000591	-0.001983	0.001351	6901.299948	47782.666591	3967.065288	25133.500118
23.037000	-0.001839	0.000907	-0.007712	0.001536	6888.746397	47796.318098	3951.379344	25124.016478
23.536500	-0.002103	-0.000600	-0.002795	0.000580	6895.204576	47739.234248	3966.956720	25173.142872
24.036500	0.000123	-0.000078	-0.005771	0.000941	6912.679604	47755.964623	3958.078684	25154.590912
24.537500	-0.002982	-0.000951	0.000761	-0.000079	6893.148492	47771.141831	3978.266804	25207.085700
25.043000	-0.002428	-0.000133	-0.001043	0.001153	6886.814625	47728.329140	3970.109285	25143.666623
25.537500	-0.001805	-0.000043	-0.004874	0.000891	6895.084513	47764.704749	3960.589915	25157.140575
26.035000	-0.001155	-0.000216	-0.002068	0.000639	6903.515127	47772.811857	3968.740893	25170.089057
26.535500	-0.002776	-0.000844	-0.002682	0.000521	6889.470824	47720.147819	3967.414658	25176.190609
27.036000	-0.002789	0.000504	-0.002571	0.001185	6883.154694	47790.853148	3965.937407	25142.018323
27.536000	-0.000826	-0.000231	-0.003259	0.000980	6903.412160	47736.101290	3964.651280	25152.582069
28.036500	0.001015	0.000452	0.000850	-0.002356	6952.194063	48153.324600	3984.663217	25324.743368
28.540000	-0.000629	0.000462	-0.001865	-0.000426	6918.453130	47953.430494	3972.137118	25224.959760
29.059000	-0.002859	-0.000542	-0.002974	0.002091	6874.067195	47589.374308	3962.450500	25095.514126
29.540000	0.002075	0.000506	0.000313	0.000294	6937.147855	47883.366569	3976.054456	25187.877263
30.035000	-0.001687	0.000174	-0.002357	0.001696	6888.671346	47704.026548	3965.148810	25115.811416
30.535500	-0.000797	0.000016	-0.006825	-0.000810	6920.488215	47947.066233	3959.928080	25244.805154
31.035500	-0.002104	-0.000414	-0.001442	-0.000060	6901.183740	47824.728306	3972.290011	25206.100469
31.535500	-0.002001	-0.000204	-0.003652	0.002298	6880.125808	47602.891929	3960.099667	25084.892173
32.036000	-0.002104	0.000204	-0.002817	0.003215	6870.642943	47550.439415	3959.882997	25037.960766
32.632500	-0.002168	-0.000533	-0.003963	-0.001022	6909.601408	47912.088919	3968.115190	25255.739402
33.037500	0.000807	-0.000100	-0.000778	0.000202	6926.050767	47830.067279	3973.368385	25192.598151
33.536500	-0.002496	-0.000259	-0.005173	-0.000943	6905.775563	47932.336941	3964.674192	25251.651535
34.040000	-0.002050	-0.000202	-0.002981	0.002234	6880.266622	47609.642472	3962.052070	25088.186093
34.537500	-0.001571	-0.000100	0.001049	-0.000547	6910.741459	47907.704757	3980.307255	25231.208528
35.038000	-0.000830	-0.000599	-0.000798	-0.001084	6922.754531	47911.717853	3976.772941	25258.960765
35.534500	-0.001642	-0.000321	-0.003649	0.001248	6893.277844	47699.141277	3962.898747	25138.820332
36.035500	-0.001715	-0.000470	-0.007222	0.001967	6885.880707	47609.579959	3951.533131	25101.890105
36.536000	-0.002477	-0.000041	0.000029	0.001677	6881.476784	47683.695305	3971.575278	25116.749454
37.036500	-0.002187	-0.000622	-0.000569	0.001345	6887.275409	47658.071378	3970.863988	25133.823731
37.536000	-0.001630	-0.000315	-0.000047	0.001511	6890.924915	47672.594053	3971.819834	25125.304534
38.036500	-0.001700	0.000031	-0.001861	0.003015	6876.246405	47553.217970	3962.954863	25048.167185
38.537000	-0.000862	0.000098	-0.001272	0.002062	6892.952292	47658.290575	3967.064238	25096.998454
39.037500	-0.003701	-0.000756	-0.000415	0.001265	6873.918426	47652.487921	3971.489399	25137.914455
39.540500	-0.001822	-0.000275	-0.003350	0.001604	6888.269062	47667.063606	3962.747954	25120.511515
40.035000	-0.000706	-0.000361	-0.006283	0.001494	6899.722831	47669.593043	3955.260911	25126.147965
40.535500	-0.001979	-0.000574	-0.002405	0.001032	6892.140906	47695.307223	3966.790900	25149.884770
41.036000	-0.000747	-0.000147	-0.001980	0.002072	6893.929541	47632.058349	3965.149860	25096.498456
41.539000	-0.001843	-0.000110	-0.004077	0.001638	6887.751756	47680.629493	3960.724854	25118.777100
42.036500	-0.002693	-0.000265	-0.000765	0.001265	6883.302178	47703.194199	3970.554674	25137.929616
42.536000	-0.002962	-0.000441	-0.003154	0.001647	6877.239020	47645.476542	3963.152839	25118.280440
43.037000	-0.002185	-0.000828	-0.000724	0.001460	6886.217376	47624.881625	3970.138514	25127.880218
43.540000	-0.001078	0.000385	0.001599	0.002620	6885.722204	47630.349029	3973.257718	25068.403809
44.037000	-0.001280	-0.000206	-0.000046	0.001907	6890.499656	47642.989092	3970.758657	25104.960945
44.535000	-0.003038	-0.000513	-0.001693	0.001302	6879.749958	47673.788074	3967.971231	25136.045817
45.035500	-0.001062	0.000644	0.004020	0.001450	6896.808819	47778.006266	3982.941857	25128.431777
45.535500	-0.000341	0.000365	-0.002308	0.000121	6916.022728	47886.769829	3969.487265	25196.805524
46.035500	-0.004413	0.000213	-0.003607	0.004927	6833.447272	47375.559894	3953.260430	24950.524749
46.535500	-0.000162	0.000314	-0.002279	-0.000293	6921.587503	47924.292052	3970.671125	25218.097317
47.036500	-0.000962	0.000508	0.000159	0.001578	6896.533910	47750.593020	3972.189483	25121.826219
47.539500	-0.000842	0.000939	-0.000362	0.000514	6907.630505	47905.434800	3973.648264	25176.543903
48.037000	-0.005820	-0.000028	-0.005130	0.005156	6818.416134	47327.422274	3948.647518	24938.902709
48.538000	0.001036	0.001364	0.002596	0.000830	6922.299825	47916.827448	3980.767070	25160.300156
49.037500	-0.003982	-0.000164	-0.004788	0.002463	6860.184903	47590.011135	3956.651474	25076.437444
49.535000	-0.002161	0.000008	-0.000459	0.002529	6876.492558	47600.978170	3967.990253	25073.083752
50.045500	-0.003193	0.000272	-0.007514	0.004232	6851.116772	47452.885834	3944.816731	24985.972061
50.536000	-0.000236	-0.000323	-0.004626	-0.000713	6924.857206	47901.868210	3965.521539	25239.810777
51.036000	-0.000939	-0.000539	-0.002243	0.000922	6902.899152	47710.271625	3967.517666	25155.576204
51.539000	0.001359	0.000066	0.000896	-0.001952	6951.626162	48071.009971	3983.693858	25303.837543
52.036500	-0.001351	0.000106	-0.006992	0.005924	6852.502679	47262.570666	3941.754557	24899.810010
52.536000	-0.002300	-0.001208	0.001337	-0.001212	6910.134427	47861.806789	3982.882728	25265.538797
53.039500	0.001172	-0.006680	0.009417	0.372089	4574.289035	21672.074612	3314.285437	12323.754730
53.537000	-0.023814	-0.024416	-0.016757	-0.028193	6961.764777	48254.510123	4007.188863	26704.105896
54.035000	-0.038421	-0.051512	-0.017816	-0.167994	8340.449378	61705.247341	4458.844595	35773.144280
54.535500	-0.018252	-0.166354	-0.006447	-0.310218	10836.582754	65535.000000	5159.583076	48540.585597
55.035500	-0.008527	-0.165706	0.001864	-0.309571	11005.578287	65535.000000	5201.460321	48472.499842
55.536000	-0.006868	-0.145914	0.004397	-0.289778	10671.463166	65535.000000	5108.179024	46438.786675
56.036000	-0.017354	-0.082519	-0.010260	-0.225034	9425.135062	65340.465979	4723.712026	40397.921059
56.536500	-0.019719	-0.073051	-0.014668	-0.213609	9219.173460	65059.635086	4655.103207	39422.308268
57.036500	-0.017635	-0.085416	-0.016461	-0.229280	9485.570542	65535.000000	4715.106707	40767.109924
57.537000	-0.010179	-0.090214	-0.016016	-0.234078	9675.888639	65535.000000	4738.279402	41188.637921
58.037500	-0.011532	-0.077502	-0.021771	-0.221366	9457.900228	65535.000000	4657.888894	40081.940759
58.534500	-0.003069	-0.073498	-0.013241	-0.217362	9526.249460	65535.000000	4677.278588	39740.035982
59.035000	-0.002854	-0.056897	-0.012812	-0.197375	9228.462743	65048.205377	4594.930135	38079.507597
59.535500	-0.003487	-0.052722	-0.012441	-0.191630	9135.263284	64823.813122	4572.941902	37616.168765
60.035500	-0.007786	-0.044610	-0.017355	-0.179186	8897.010342	64208.760730	4503.762378	36633.354009
60.536000	-0.006098	-0.034243	-0.013148	-0.162758	8694.728681	63358.413026	4456.685283	35378.264179
61.036500	-0.006015	-0.028495	-0.017661	-0.153948	8578.167374	62933.369848	4406.853159	34724.498612
61.536500	-0.011660	-0.022749	-0.019629	-0.137943	8298.909518	61531.000453	4342.006151	33570.273519
62.036500	-0.008834	-0.025057	-0.017659	-0.142805	8396.483701	61877.062497	4366.341894	33916.392168
62.540000	-0.013996	-0.018039	-0.017852	-0.120514	8055.820083	59837.553162	4287.676361	32360.687165
63.037500	-0.012976	-0.013113	-0.021013	-0.101359	7842.316181	58000.999660	4213.524261	31086.189432
63.534500	-0.014510	-0.022913	-0.019735	-0.133933	8213.289513	60969.799199	4327.530593	33287.665386
64.035000	-0.011340	-0.016250	-0.019466	-0.130146	8205.637379	61355.861524	4315.262718	33023.126959
64.535500	-0.010864	-0.015493	-0.020212	-0.131837	8232.509796	61686.515627	4318.547122	33140.943963
65.040000	-0.012350	-0.014453	-0.023245	-0.130384	8196.106044	61630.715757	4303.018426	33039.705928
65.595500	-0.008057	-0.013465	-0.021725	-0.129291	8235.754400	61616.483819	4304.492011	32963.775654
66.036500	-0.010927	-0.013119	-0.019518	-0.127805	8181.859907	61462.375692	4306.976113	32860.808046
66.536500	-0.013408	-0.012084	-0.024079	-0.125446	8122.603363	61283.975375	4283.267657	32698.055783
67.039500	-0.015212	-0.010402	-0.023961	-0.120313	8038.822389	60821.538771	4266.322249	32347.044429
67.537500	-0.011907	-0.009678	-0.021302	-0.119343	8066.876064	60788.809550	4272.010161	32281.182952
68.037500	-0.014909	-0.009762	-0.026383	-0.118112	8016.132694	60613.707004	4250.873270	32197.819001
68.535000	-0.013326	-0.008519	-0.021172	-0.115181	8000.078356	60389.621343	4258.474957	32000.240954
69.035500	-0.014873	-0.008108	-0.024219	-0.111584	7939.274290	59969.139337	4236.439628	31759.575571
69.535500	-0.015154	-0.007293	-0.022740	-0.111149	7930.847727	60018.981552	4239.878818	31730.558291
70.036000	-0.019709	-0.006186	-0.030221	-0.104739	7803.820080	59325.296625	4194.779585	31307.033280
70.536500	-0.014476	-0.007027	-0.025113	-0.108268	7905.072178	59675.826127	4222.648592	31539.412779
71.036500	-0.017207	-0.006509	-0.026130	-0.104532	7830.144261	59256.536750	4207.245057	31293.477690
71.537000	-0.016297	-0.006390	-0.025945	-0.104423	7839.365755	59257.762174	4207.491936	31286.338017
72.037000	-0.019450	-0.005080	-0.029821	-0.097349	7722.907909	58514.204873	4172.627271	30826.445077
72.537000	-0.015513	-0.005449	-0.021996	-0.100455	7802.815408	58866.072794	4207.429123	31027.468980
73.037500	-0.018357	-0.005530	-0.023636	-0.096662	7727.465295	58368.655268	4190.020236	30782.148889
73.534500	-0.014407	-0.006017	-0.025011	-0.097323	7779.693092	58390.907723	4187.749275	30824.765768
74.035000	-0.015835	-0.005545	-0.026913	-0.095453	7742.292772	58212.483693	4175.812748	30704.476043
74.535000	-0.014240	-0.004632	-0.022568	-0.092483	7726.786670	57950.911331	4180.152408	30514.455479
75.036000	-0.017787	-0.004019	-0.023326	-0.088619	7644.014568	57539.923979	4165.616653	30269.125222
75.535500	-0.014870	-0.003990	-0.021666	-0.088341	7673.313978	57508.627147	4169.944057	30251.543667
76.036500	-0.018346	-0.002761	-0.029044	-0.080545	7549.375742	56688.606541	4123.157204	29763.611607
76.539500	-0.016255	-0.002770	-0.022713	-0.083677	7606.404855	57076.934758	4152.143126	29958.558444
77.037000	-0.014788	-0.003040	-0.021987	-0.082046	7604.613057	56840.248493	4149.346611	29856.877764
77.537000	-0.016831	-0.003325	-0.022216	-0.080148	7561.527157	56569.522586	4142.789801	29738.996871
78.035000	-0.018196	-0.001665	-0.024984	-0.073457	7474.664382	55950.896535	4114.012819	29327.446293
78.535500	-0.015190	-0.002000	-0.023903	-0.075686	7530.924353	56182.901657	4124.009354	29463.824583
79.035500	-0.016545	-0.002281	-0.017861	-0.074398	7502.434896	55990.665113	4138.504604	29384.957448
79.536000	-0.015584	-0.002435	-0.021658	-0.072738	7494.939634	55769.299155	4121.883178	29283.643817
80.036000	-0.021199	-0.003319	-0.029108	-0.067244	7377.259620	54997.873459	4083.276910	28951.006124
80.536500	-0.016840	-0.002578	-0.017021	-0.069497	7446.925291	55358.543781	4126.112016	29086.864315
81.036500	-0.017641	-0.002946	-0.022807	-0.068272	7425.475748	55166.312127	4104.993526	29012.921474
81.537000	-0.016760	-0.002527	-0.019964	-0.066380	7414.794233	54989.111946	4107.837293	28899.029723
82.037500	-0.020775	-0.002843	-0.022210	-0.060341	7309.997671	54231.894110	4083.263156	28538.969930
82.534500	-0.017307	-0.003941	-0.016769	-0.063328	7377.002301	54455.775443	4108.267654	28716.429210
83.035000	-0.017095	-0.004621	-0.027337	-0.062881	7374.542452	54322.054591	4075.683865	28689.784665
83.535500	-0.017707	-0.003712	-0.020931	-0.060437	7342.713873	54140.502219	4087.306412	28544.614980
84.036000	-0.021019	-0.003948	-0.025730	-0.054791	7250.703082	53450.709391	4056.890645	28212.423057
84.536000	-0.019068	-0.004537	-0.022409	-0.058152	7305.036865	53774.574626	4076.263883	28409.646573
85.036500	-0.018776	-0.005184	-0.020207	-0.057268	7298.946878	53595.429632	4080.119991	28357.605497
85.536500	-0.019354	-0.005380	-0.021295	-0.056506	7285.191219	53483.609908	4074.711562	28312.868168
86.039500	-0.023078	-0.005808	-0.027654	-0.052032	7201.989856	52915.495841	4043.488349	28051.637652
86.537000	-0.018807	-0.005100	-0.017165	-0.054314	7268.377029	53261.328489	4080.381296	28184.549863
87.037500	-0.020103	-0.005694	-0.025223	-0.051350	7225.109306	52850.062467	4048.474213	28012.046276
87.535000	-0.018238	-0.005162	-0.017240	-0.052645	7257.155678	53060.756467	4075.277912	28087.241742
88.035000	-0.020990	-0.005797	-0.022518	-0.049036	7192.870439	52572.607422	4049.592644	27878.188656
88.535500	-0.019626	-0.006370	-0.021321	-0.052512	7241.694389	52906.008584	4063.032122	28079.496763
89.035500	-0.019482	-0.006404	-0.022741	-0.052033	7238.299337	52846.898327	4057.552790	28051.651125
89.536500	-0.018766	-0.006305	-0.018032	-0.050660	7231.646193	52700.417294	4067.193276	27972.028575
90.036500	-0.020361	-0.006443	-0.019149	-0.047955	7188.336325	52375.290581	4056.155549	27815.876157
90.537000	-0.018222	-0.006337	-0.022229	-0.050042	7230.904226	52625.960509	4053.302762	27936.291376
91.037000	-0.020830	-0.006443	-0.026038	-0.046260	7166.701006	52182.449858	4031.713872	27718.554379
91.537500	-0.017806	-0.006212	-0.015207	-0.048632	7220.856128	52478.910820	4069.509612	27854.892053
92.037000	-0.018202	-0.006552	-0.020031	-0.046075	7191.134671	52149.028275	4048.236491	27707.925148
92.535000	-0.016396	-0.005843	-0.011967	-0.047591	7224.574163	52402.237894	4075.916543	27794.950687
93.035500	-0.016714	-0.006820	-0.014146	-0.048037	7225.863378	52341.636342	4070.863424	27820.594243
93.535500	-0.018050	-0.006630	-0.016670	-0.047694	7208.935153	52324.221238	4062.550601	27800.884120
94.036000	-0.015789	-0.006884	-0.013923	-0.047420	7228.988314	52264.219470	4069.719379	27785.137934
94.536000	-0.018285	-0.006423	-0.024342	-0.046847	7198.044443	52251.306908	4038.166109	27752.186898
95.036000	-0.018576	-0.007053	-0.017247	-0.044040	7167.041974	51862.054350	4050.381534	27591.621770
95.539500	-0.015860	-0.006640	-0.018704	-0.046495	7218.925443	52186.767003	4053.242807	27732.035220
96.034000	-0.016246	-0.006221	-0.018951	-0.044705	7197.008496	52031.215135	4047.410265	27629.549136
96.551000	-0.016031	-0.005344	-0.014247	-0.045291	7205.059801	52197.114991	4062.605978	27663.026107
97.038000	-0.014687	-0.006195	-0.017376	-0.045785	7223.597457	52156.637716	4055.015343	27691.325146
97.535500	-0.015330	-0.006007	-0.015116	-0.045168	7210.888467	52108.027864	4059.744774	27656.033144
98.035000	-0.016038	-0.005894	-0.016635	-0.044339	7195.427870	52026.875852	4052.990746	27608.666743
98.555000	-0.014303	-0.005948	-0.018590	-0.045748	7227.100319	52180.429202	4051.425876	27689.187440
99.036500	-0.016686	-0.006241	-0.017010	-0.042759	7173.121338	51809.107796	4047.396219	27518.648146
