sample name	sample
index	1310
start time	 04-29-2021  04:16:27 PM
880	0.238311
Peak Time (s)	100.535
Peak Height 	0.2383
calc peak height	100,103
Baseline Time (s)	10.036
Baseline Value 	-0.006624
subtract baseline	10,4
Abs	0.116912
Peak Time (s)	102.537
Peak Height 	0.1169
calc peak height	100,103
Baseline Time (s)	9.536
Baseline Value 	0.005146
subtract baseline	10,3
PK_550	0.062544
Peak Time (s)	102.537
Peak Height 	0.06254
calc peak height	100,103
Baseline Time (s)	10.036
Baseline Value 	1.3369E-4
subtract baseline	10,2
PK_880	0.110805
Peak Time (s)	100.035
Peak Height 	0.1108
calc peak height	100,103
Baseline Time (s)	11.537
Baseline Value 	0.001839
subtract baseline	10,1


Time (s)	A880-A510	A880-A775	A880-A975	A880	I510	I775	I975	I880	
0.034500	-0.001732	-0.000025	-0.003456	0.007160	5430.746556	30817.463891	3641.530336	15991.725127
0.538500	-0.002695	0.000519	-0.007608	0.007533	5423.272836	30828.413694	3634.573804	15980.560971
1.036500	-0.001912	-0.000111	-0.005364	0.006695	5432.346748	30841.706844	3639.304389	16005.650890
1.536500	-0.001386	0.001628	-0.002581	0.005915	5439.677825	31003.464347	3644.815584	16029.033104
2.037000	0.001969	0.000985	0.001524	0.005638	5460.185545	30979.924048	3651.655647	16037.351630
2.537500	0.000570	0.000343	0.004707	0.004131	5460.803842	31035.654722	3659.055158	16082.710809
3.037500	0.001900	0.000931	-0.000783	0.001517	5483.274806	31242.827579	3654.508589	16161.708257
3.535000	-0.001684	0.000160	-0.000645	0.002210	5458.908633	31147.846611	3653.633819	16140.699133
4.035500	0.000159	-0.000197	-0.000264	0.002604	5467.139488	31099.359165	3653.615108	16128.802184
4.535500	-0.003863	-0.000909	-0.005172	0.006346	5423.379509	30812.985428	3640.138431	16016.119372
5.035500	0.002701	0.000869	-0.005707	0.002486	5482.307092	31175.912852	3645.286587	16132.358136
5.536000	-0.000963	-0.000854	-0.005160	0.001034	5469.683825	31158.374610	3648.401212	16176.355509
6.036500	-0.000295	-0.000433	-0.001347	0.000618	5475.865267	31212.671484	3655.036621	16188.999327
6.536500	-0.001221	-0.000296	0.004528	0.000426	5471.683287	31233.978540	3664.671099	16194.830727
7.036500	-0.000675	-0.000398	-0.001281	0.000631	5473.622717	31214.073093	3655.120470	16188.597511
7.537000	-0.001145	-0.001625	0.002768	-0.001049	5480.535008	31243.451918	3664.215037	16239.743211
8.037500	-0.001316	0.000316	0.005621	0.000582	5470.250145	31263.593444	3666.169317	16190.075583
8.535000	0.000763	0.000307	0.002134	0.000542	5482.345384	31265.633949	3660.668553	16191.305128
9.038000	-0.000437	0.001137	-0.003441	0.000734	5474.395119	31307.164234	3651.562263	16185.480945
9.535500	-0.001421	-0.000333	0.000000	-0.000090	5473.481063	31265.088548	3658.284446	16210.512061
10.036000	0.001969	0.000000	-0.005119	0.000000	5492.365516	31280.893611	3650.082533	16207.779202
10.536500	-0.000866	0.000753	0.001120	0.005079	5447.311678	31000.949797	3651.899153	16054.151511
11.036500	0.001677	-0.000173	-0.002067	-0.000467	5493.375425	31300.020415	3655.612887	16222.005476
11.537000	0.000000	-0.000629	0.003086	-0.000623	5484.647817	31280.511193	3664.042986	16226.755296
12.037000	0.000010	0.000025	-0.004108	-0.000611	5484.631957	31322.256848	3652.625988	16226.376462
12.537500	-0.002214	-0.000169	-0.002910	0.003912	5446.292777	31016.758010	3647.420802	16089.293928
13.037500	0.001130	-0.000257	-0.000558	-0.000726	5491.719452	31311.445692	3658.407749	16229.887114
13.537500	-0.002076	-0.000282	-0.002327	-0.000027	5469.393897	31264.337132	3654.510241	16208.615355
14.035500	0.000114	-0.000135	-0.005354	0.001306	5474.277230	31187.352448	3647.675049	16168.111908
14.535500	-0.004342	-0.000528	0.003844	0.003068	5439.064963	31048.049916	3659.373493	16114.778896
15.036500	-0.002179	0.000156	-0.004791	-0.001235	5475.692041	31371.505779	3652.533050	16245.417017
15.539000	-0.002311	-0.001065	0.002491	-0.001757	5477.915274	31325.961226	3664.904604	16261.350156
16.037000	0.004129	-0.000268	-0.001815	-0.001546	5513.746481	31364.103212	3657.715772	16254.886581
16.537000	-0.005511	-0.000746	-0.000723	0.004559	5424.158779	30938.029051	3649.827304	16069.813865
17.034500	0.001080	0.000259	0.005007	-0.004525	5513.340837	31593.708334	3673.406158	16346.149852
17.537500	-0.000568	-0.001240	0.000865	-0.001092	5484.079571	31271.246740	3661.248279	16241.040799
18.035000	-0.000274	-0.001006	-0.003158	-0.001441	5487.764750	31309.156382	3655.427684	16251.687024
18.538500	0.000634	-0.000465	0.003581	0.000809	5480.080253	31198.111199	3662.546800	16183.179267
19.035500	-0.000480	-0.001776	-0.005297	-0.001379	5486.225775	31255.067040	3651.963774	16249.788034
19.535000	0.000257	-0.000940	0.006560	-0.000711	5486.624106	31265.986742	3669.755685	16229.432293
20.036000	-0.002290	-0.000603	-0.002197	-0.001244	5475.110553	31322.652779	3656.634541	16245.694752
20.536000	-0.000632	-0.000735	0.003454	0.000565	5474.243435	31196.429528	3662.733121	16190.588427
21.036500	0.002061	-0.000103	-0.003036	-0.000535	5495.972185	31308.984334	3654.192802	16224.067231
21.537000	-0.001528	0.000319	0.003442	-0.000268	5473.886409	31319.106642	3664.044415	16215.937522
22.037000	-0.001520	-0.000809	0.003235	-0.001154	5478.992822	31303.358726	3665.129932	16242.945655
22.537500	-0.001025	-0.000306	-0.003191	-0.000793	5479.755096	31312.610691	3654.355162	16231.927417
23.037500	-0.000618	-0.000676	-0.006425	-0.001224	5484.547617	31316.598610	3649.954428	16245.076867
23.535500	-0.001408	-0.000009	0.000793	-0.000916	5478.269779	31339.915904	3660.853688	16235.672941
24.038500	-0.001576	-0.000603	0.003907	-0.001050	5478.073628	31309.968057	3666.039112	16239.771066
24.536000	-0.000045	-0.000777	-0.007218	0.000107	5480.211284	31223.431077	3646.636801	16204.516780
25.036000	0.001562	-0.000537	-0.003853	-0.000803	5494.644728	31298.257792	3653.329532	16232.245913
25.536500	-0.001988	-0.001154	0.007339	-0.001909	5480.628341	31330.062415	3672.947393	16265.990995
26.037000	-0.000524	-0.001082	0.001110	-0.001301	5485.524768	31295.129157	3661.970982	16247.411845
26.537000	-0.002412	-0.000818	0.004892	-0.001107	5473.626966	31299.660628	3667.709226	16241.487196
27.037500	0.001499	-0.001049	-0.000715	-0.003789	5511.506746	31459.646665	3663.028097	16323.558638
27.535500	-0.002122	-0.001004	-0.005477	0.000156	5468.089612	31205.536490	3649.277926	16203.034437
28.034500	-0.000018	-0.000239	-0.005490	-0.000356	5483.014917	31288.488221	3650.058640	16218.618186
28.535000	-0.000666	-0.000819	0.000204	-0.002209	5489.922268	31371.393077	3661.974889	16275.151388
29.036000	-0.000041	-0.000737	-0.000180	-0.002956	5497.805091	31425.558536	3662.553255	16298.005535
29.536000	-0.003882	-0.001470	-0.001931	0.001971	5447.834766	31058.003033	3651.989767	16147.960748
30.036000	0.002482	-0.000233	-0.006473	-0.002144	5507.676751	31405.444915	3651.320564	16273.175784
30.536500	0.001654	-0.001080	-0.003414	-0.000095	5491.105403	31216.899676	3652.905488	16210.674132
31.037000	0.001368	-0.000359	0.001494	0.000091	5488.394954	31251.603905	3660.366676	16204.999455
31.537500	-0.001320	0.000220	-0.002026	0.002147	5461.334686	31155.864618	3651.565120	16142.635754
32.040000	-0.001246	-0.001229	0.000538	-0.002811	5490.044950	31383.986942	3663.466497	16293.577939
32.540500	-0.002001	-0.000215	-0.004945	0.003918	5447.461534	31013.397305	3644.246152	16089.111640
33.035500	-0.000091	0.000249	0.004678	-0.001994	5491.984330	31427.089474	3668.790165	16268.570377
33.536000	-0.003366	-0.001044	-0.000127	0.000826	5457.220543	31159.557864	3656.633939	16182.664468
34.036000	-0.001060	-0.001166	-0.002629	-0.002780	5490.937118	31386.047553	3658.381446	16292.630338
34.536500	-0.001338	-0.000542	0.001210	0.000885	5468.400194	31188.246797	3658.657710	16180.878339
35.039500	-0.002587	-0.000834	0.002001	-0.001058	5472.349906	31295.480429	3663.003756	16240.003135
35.537000	0.000306	-0.000911	-0.004513	0.001258	5475.643374	31140.236216	3649.061997	16169.569466
36.037000	0.000929	-0.000533	0.000570	-0.000183	5487.448042	31258.112619	3659.335777	16213.344210
36.534500	-0.000236	-0.000953	-0.004907	0.001075	5473.596678	31149.320254	3648.733369	16175.129601
37.034500	-0.001433	-0.000930	-0.001444	-0.000651	5476.612719	31262.733227	3656.887738	16227.598520
37.537500	-0.001287	-0.001250	0.002418	0.001133	5467.277584	31126.351742	3660.179596	16173.345793
38.035500	0.001481	-0.000656	-0.003182	-0.000927	5494.890931	31298.529138	3654.579665	16236.013694
38.535500	-0.002558	-0.000534	0.002964	0.000638	5462.870598	31204.718314	3661.835819	16188.369467
39.035500	-0.000004	-0.001168	0.001598	-0.001230	5488.102308	31284.924030	3662.637103	16245.259064
39.536000	-0.001946	-0.002303	-0.003993	-0.001327	5477.542388	31217.478495	3653.932168	16248.197581
40.036500	-0.003547	-0.001354	-0.000453	-0.000863	5465.777544	31249.003404	3658.792046	16234.060530
40.537000	-0.001664	-0.001638	-0.003829	-0.000748	5475.847678	31223.078175	3653.279646	16230.561640
41.037000	-0.004100	-0.000579	-0.006081	-0.001022	5463.545616	31309.765394	3650.176365	16238.916804
41.538000	0.000537	0.000447	-0.006394	0.000066	5483.774424	31305.630916	3647.985878	16205.756612
42.037500	0.002187	0.000442	0.004780	-0.000146	5494.458755	31319.194808	3665.988916	16212.226083
42.535500	-0.002592	-0.000436	-0.001101	-0.000356	5468.323561	31275.665253	3656.963324	16218.609074
43.035500	-0.001914	-0.001147	-0.002120	-0.001529	5478.879924	31305.701101	3657.206451	16254.369674
43.536000	-0.003418	-0.001392	0.003345	-0.001793	5471.804980	31307.009125	3666.328820	16262.449784
44.036500	-0.000186	-0.000496	-0.004839	-0.002561	5494.698238	31415.520530	3654.543291	16285.915981
44.536500	-0.004202	-0.001800	-0.001989	0.002281	5444.278790	31016.699727	3651.412296	16138.559106
45.037000	0.000317	0.000167	-0.000034	-0.002635	5498.016065	31463.693307	3662.274065	16288.175246
45.537000	0.001686	-0.000412	0.004793	-0.002978	5507.898546	31448.245723	3670.560807	16298.694923
46.034500	0.000420	-0.000375	0.003946	-0.003050	5501.007993	31455.419371	3669.313085	16300.908347
46.535000	-0.002960	-0.001004	0.000038	0.003210	5446.046180	31008.173946	3653.136221	16110.483835
47.035500	0.000553	-0.000754	0.007975	-0.003077	5501.924570	31432.323416	3675.871256	16301.716011
47.535500	-0.001545	-0.001987	-0.002219	-0.001900	5483.109337	31275.226969	3657.637037	16265.705409
48.041000	0.000236	-0.001988	0.000185	-0.001009	5488.210463	31217.288760	3660.035122	16238.505632
48.536000	-0.002178	-0.000384	0.001290	0.002455	5454.728233	31096.891508	3656.299819	16133.305859
49.036000	-0.000460	-0.001989	-0.004031	-0.004048	5501.681035	31415.087922	3658.168374	16331.503143
49.537000	-0.005588	-0.001654	-0.006182	0.002367	5436.006185	31020.639251	3644.734662	16135.967482
50.036500	0.000302	-0.000318	0.001823	-0.005116	5512.258743	31594.692515	3669.221043	16364.357685
50.537000	-0.005047	-0.002919	-0.005767	-0.057551	5800.236103	35066.881918	3745.253489	18080.000880
51.037500	-0.001406	-0.002252	-0.005014	-0.126857	6312.843654	40666.331269	3880.919787	20690.024883
51.538000	-0.006975	-0.037084	0.044502	0.429620	3906.351094	12680.707675	3253.663291	7908.346135
52.038000	-0.018044	-0.031922	-0.007236	-0.107942	6052.248359	36683.680014	3837.658898	19935.873764
52.538000	-0.034629	-0.067261	-0.024804	-0.383956	8548.896275	61598.611022	4543.019378	34980.171162
53.036000	-0.024235	-0.113158	-0.016438	-0.457664	9735.081693	65471.362556	4870.185455	40896.544973
53.536500	-0.033009	-0.090591	-0.018790	-0.426876	9148.443334	64300.570966	4730.598980	38302.651672
54.036500	-0.030072	-0.053138	-0.011718	-0.362166	8332.933166	60573.845646	4511.815169	33415.002668
54.536500	-0.023310	-0.036642	-0.013071	-0.323954	7960.218187	57767.680675	4377.584431	30852.813842
55.037000	-0.022105	-0.033575	-0.010703	-0.322858	7961.467232	58016.636852	4381.711243	30782.602138
55.540000	-0.020378	-0.030730	-0.024243	-0.333759	8107.914526	59784.502182	4373.159649	31488.894410
56.037500	-0.018589	-0.030513	-0.016696	-0.330531	8091.010956	59392.508131	4387.182244	31277.918512
56.535000	-0.019543	-0.024439	-0.018723	-0.290511	7632.432782	55155.270770	4256.432250	28788.115917
57.035500	-0.011228	-0.017239	-0.008892	-0.250606	7307.267805	51374.790919	4170.381631	26523.783963
57.535500	-0.014400	-0.013054	-0.008482	-0.217405	6961.025429	48250.781153	4083.104703	24792.102711
58.036000	-0.001253	-0.007666	-0.004691	-0.203521	6954.305089	47374.864967	4057.540620	24106.279077
58.536500	-0.000887	-0.005349	0.000294	-0.178335	6734.515888	45100.575545	4008.126446	22916.806496
59.036500	0.007219	-0.000679	0.000222	-0.165590	6694.809132	44325.727895	3977.943512	22340.653912
59.539000	0.010709	0.002187	0.006728	-0.148967	6584.675172	43038.389881	3954.740693	21614.182534
60.037000	0.014391	0.004229	0.009271	-0.128706	6450.317583	41395.017553	3915.385799	20765.506050
60.540000	0.015299	0.009092	0.016114	-0.058296	5939.705540	36021.577180	3786.697671	18105.897501
61.037500	0.019562	0.006254	0.020259	-0.069844	6048.782702	36689.734824	3816.737850	18513.062833
61.535000	0.015088	0.002522	0.025790	-0.023185	5709.882966	33003.103701	3740.256194	16932.305871
62.035500	0.025977	0.008406	0.031220	-0.067129	6074.891363	36646.141915	3832.963928	18416.357046
62.536000	0.027543	0.009783	0.028442	-0.099274	6323.281041	39343.030369	3893.316283	19601.089942
63.036000	0.034204	0.014748	0.037593	-0.079241	6222.445308	38105.038186	3870.476657	18852.522841
63.539000	0.035517	0.015594	0.036706	-0.059894	6091.272785	36642.525666	3829.497471	18161.586791
64.036500	0.040852	0.018459	0.039617	0.003277	5705.527660	32285.684326	3718.176831	16108.450713
64.540000	0.053002	0.034997	0.044847	0.065069	5413.026956	29391.430251	3626.848230	14369.333622
65.037500	0.050685	0.033775	0.046697	0.115710	5135.729974	26424.993120	3557.076811	13117.437300
65.537500	0.050630	0.034823	0.055865	0.121199	5108.611305	26187.055833	3562.069440	12990.309259
66.034500	0.051989	0.037363	0.049490	0.124987	5096.835294	26120.593783	3548.379915	12903.499453
66.541500	0.052520	0.037621	0.055412	0.126060	5094.214077	26077.309061	3554.870918	12879.043304
67.036000	0.058101	0.040404	0.060164	0.127908	5112.315111	26126.958301	3558.793436	12837.079175
67.536000	0.059016	0.041551	0.053103	0.128475	5114.008091	26157.804671	3548.546785	12824.237123
68.036000	0.062188	0.042240	0.052973	0.129527	5124.363707	26138.474728	3546.974187	12800.448397
68.536500	0.065018	0.043773	0.053101	0.130958	5131.226443	26143.924096	3545.246665	12768.190202
69.036500	0.063613	0.044537	0.053058	0.131859	5119.931028	26136.689126	3543.999234	12747.953791
69.539500	0.060671	0.043491	0.059363	0.136647	5082.488414	25828.394010	3546.005947	12641.009338
70.037500	0.068141	0.044492	0.060577	0.134461	5129.364189	25996.285060	3550.532015	12689.696279
70.539000	0.064094	0.043947	0.058452	0.134401	5109.882139	25970.708887	3547.779378	12691.036973
71.035000	0.069046	0.045900	0.056681	0.137428	5119.264755	25914.040945	3541.434813	12623.692703
71.535500	0.069442	0.046284	0.057678	0.142833	5094.933168	25651.080358	3535.665980	12504.592577
72.035500	0.071501	0.047582	0.070543	0.139409	5121.582110	25898.282372	3557.274407	12579.865741
72.536000	0.070191	0.049024	0.069566	0.146291	5081.891955	25613.710442	3546.748256	12429.175062
73.036500	0.074694	0.049674	0.070398	0.141148	5128.703696	25916.851908	3554.733208	12541.552377
73.536500	0.074624	0.050618	0.069214	0.143180	5118.415374	25859.610768	3550.422019	12496.998243
74.036500	0.079727	0.051761	0.072528	0.140905	5154.751042	26039.941635	3557.936105	12546.894755
74.537000	0.077323	0.053134	0.065718	0.147825	5108.935869	25748.024414	3539.648006	12395.917528
75.037500	0.083437	0.054965	0.074826	0.143308	5161.256060	26082.417227	3557.794401	12494.196263
75.535000	0.080534	0.055584	0.080115	0.148051	5123.497380	25864.633827	3558.533182	12391.027107
76.035500	0.083506	0.056011	0.077121	0.145090	5152.734535	26043.358097	3558.488254	12455.297949
76.535500	0.084267	0.057726	0.075508	0.153662	5114.325540	25683.035440	3544.855224	12270.414531
77.036000	0.090592	0.059194	0.085082	0.151042	5158.372583	25897.141855	3561.215638	12326.530001
77.536000	0.090005	0.060779	0.081559	0.156968	5126.210002	25669.802972	3548.498329	12200.071222
78.036500	0.091514	0.060805	0.080562	0.155097	5142.842765	25768.925577	3549.662874	12239.820155
78.536500	0.086152	0.060813	0.061619	0.163107	5077.793129	25353.922730	3514.798209	12070.875346
79.036500	0.091593	0.062366	0.083746	0.160489	5116.755448	25569.271616	3546.724742	12125.749120
79.537500	0.090521	0.061016	0.086270	0.164852	5090.399695	25274.821954	3544.288494	12034.478600
80.034500	0.094193	0.062226	0.093535	0.165615	5104.467023	25297.693438	3552.946693	12018.604362
80.535000	0.093596	0.061912	0.093395	0.167275	5093.544889	25196.757362	3550.536972	11984.176781
81.035500	0.091931	0.060072	0.085696	0.168026	5081.919970	25064.986615	3539.355889	11968.656953
81.535500	0.095640	0.061611	0.090078	0.171083	5085.046833	24988.099069	3541.095581	11905.711103
82.036000	0.096688	0.059778	0.084610	0.170884	5091.050701	24905.638998	3534.210969	11909.789224
82.536500	0.096449	0.060529	0.087114	0.173883	5075.498106	24792.746323	3533.568430	11848.433377
83.036500	0.096001	0.059585	0.098233	0.174527	5070.276473	24713.340565	3547.320321	11835.312987
83.536000	0.094499	0.059327	0.097056	0.178616	5043.766318	24497.487110	3540.365752	11752.476414
84.037000	0.095351	0.060140	0.088978	0.179223	5044.922772	24507.651953	3529.077977	11740.242172
84.540000	0.093503	0.058761	0.087774	0.180031	5032.439530	24399.825898	3526.495292	11723.989130
85.034000	0.095878	0.059059	0.093966	0.182895	5030.151770	24274.000427	3530.774102	11666.624137
85.535500	0.095978	0.058688	0.091592	0.186719	5012.795915	24069.819334	3522.831307	11590.600194
86.036000	0.099084	0.060063	0.085378	0.187333	5024.391634	24106.719233	3514.211494	11578.455680
86.535500	0.096519	0.058566	0.099192	0.188953	5004.956819	23956.059758	3529.701202	11546.504097
87.036000	0.100262	0.059211	0.086331	0.191158	5012.076824	23881.063815	3510.627003	11503.193286
87.536000	0.098442	0.058755	0.098669	0.193787	4991.546476	23733.518676	3522.843856	11451.847792
88.036500	0.098244	0.058704	0.097164	0.195971	4980.638226	23627.262542	3518.169336	11409.424840
88.537000	0.100057	0.059105	0.103237	0.198235	4978.578783	23539.140625	3522.995543	11365.670221
89.040000	0.101260	0.058657	0.100358	0.198719	4981.859455	23495.202211	3518.732674	11356.347574
89.535000	0.097621	0.059233	0.100370	0.201705	4951.821142	23381.988092	3514.989264	11299.050204
90.035000	0.100005	0.058335	0.098433	0.203293	4955.404589	23265.825789	3510.584846	11268.741927
90.535500	0.096638	0.058488	0.096031	0.210715	4907.367172	22930.137385	3498.500900	11128.558018
91.035500	0.099154	0.059032	0.103780	0.206887	4935.470749	23131.401331	3512.772027	11200.569599
91.535500	0.101881	0.059619	0.105412	0.210885	4929.808491	22974.198682	3509.823756	11125.377594
92.036000	0.102252	0.060013	0.116752	0.210383	4933.697084	23015.382840	3524.738093	11134.778931
92.536500	0.100347	0.059407	0.109378	0.211536	4920.110600	22934.630789	3513.958452	11113.200115
93.037000	0.101389	0.059660	0.101676	0.213882	4914.347598	22838.964105	3501.524086	11069.464896
93.539500	0.102228	0.058251	0.105217	0.214705	4914.416325	22737.432785	3504.858461	11054.173890
94.034500	0.105465	0.061461	0.107578	0.217933	4914.453184	22736.637552	3503.792481	10994.490165
94.535000	0.103104	0.060714	0.098462	0.218777	4900.362338	22664.587889	3491.696073	10978.959896
95.035000	0.103035	0.060559	0.113140	0.220349	4893.183685	22586.704718	3507.671948	10950.119945
95.535500	0.102170	0.060391	0.113012	0.222764	4878.923714	22470.803452	3504.534188	10906.008809
96.035500	0.102348	0.060491	0.111811	0.222231	4882.004627	22499.155304	3503.713143	10915.723197
96.536500	0.106033	0.061692	0.110581	0.224337	4888.867659	22458.627913	3499.630519	10877.405893
97.035000	0.101744	0.061499	0.111560	0.225434	4865.553985	22400.981466	3499.486939	10857.509876
97.537000	0.104695	0.061548	0.116038	0.226910	4871.915026	22337.509880	3503.157844	10830.842977
98.037000	0.110739	0.062056	0.106457	0.228240	4892.370125	22300.984709	3489.936533	10806.880357
98.540000	0.100635	0.060441	0.105842	0.233782	4825.321522	21986.173848	3482.621335	10707.831077
99.037500	0.106803	0.060291	0.114050	0.229663	4869.130613	22160.126062	3497.371573	10781.323344
99.534500	0.106693	0.061383	0.114556	0.230910	4863.293844	22153.285979	3496.474047	10759.004511
100.035500	0.110805	0.061240	0.112694	0.232375	4874.694943	22082.637834	3492.456939	10732.846637
100.535000	0.104836	0.060636	0.102964	0.238311	4823.940803	21798.016411	3473.956664	10627.812936
101.039000	0.106215	0.060705	0.111975	0.233154	4851.635772	22025.088434	3490.660062	10718.986328
101.538500	0.107009	0.061979	0.112997	0.234966	4847.293905	22001.631777	3489.714596	10686.834227
102.036000	0.108113	0.061849	0.114405	0.235739	4848.701107	21962.185870	3490.473362	10673.143389
102.536500	0.106180	0.062544	0.116912	0.236999	4835.143082	21937.573553	3491.969324	10650.897984
103.040000	0.106345	0.060949	0.118199	0.236499	4837.960056	21890.008746	3494.120890	10659.728423
103.537500	0.107587	0.061824	0.121197	0.239066	4832.353086	21816.700316	3494.640437	10614.548882
104.037500	0.108588	0.061518	0.120374	0.238382	4839.483318	21833.039941	3494.473343	10626.561823
104.535500	0.104570	0.060744	0.115229	0.242437	4805.562143	21625.234359	3483.485277	10555.636786
105.035000	0.107053	0.061224	0.118719	0.239169	4829.665562	21786.333758	3491.534005	10612.752228
105.537500	0.105526	0.062137	0.111604	0.240804	4816.373256	21755.181472	3481.136630	10584.116974
106.035500	0.108198	0.062388	0.118013	0.241125	4826.248029	21752.170976	3488.348460	10578.521225
106.536500	0.106318	0.061336	0.112559	0.244122	4805.824897	21578.524148	3478.364921	10526.370801
107.035500	0.108374	0.063832	0.116899	0.242497	4821.215433	21755.289102	3485.391237	10554.593921
107.536000	0.109886	0.062273	0.115021	0.242309	4828.366713	21696.261133	3483.390687	10557.868197
108.043000	0.108372	0.061945	0.115511	0.241348	4826.039822	21723.511267	3485.108295	10574.620220
108.535000	0.106678	0.062073	0.110645	0.246193	4798.717887	21521.643197	3473.724880	10490.541555
