sample name	sample
index	1284
start time	 04-29-2021  02:49:40 PM


Wavelength (nm)	Absorbance
494.344910	-0.403181
494.563924	-0.403181
494.782919	-0.403181
495.001897	0.465583
495.220856	-0.030858
495.439797	0.015150
495.658719	0.111965
495.877624	0.141486
496.096510	0.139027
496.315378	0.151568
496.534227	0.226541
496.753059	0.235775
496.971872	0.236247
497.190667	0.013344
497.409444	0.003779
497.628203	0.001009
497.846943	0.001121
498.065665	-0.000137
498.284369	-0.000536
498.503055	-0.001720
498.721723	-0.002821
498.940372	-0.002527
499.159003	-0.001610
499.377616	-0.001239
499.596210	-0.001524
499.814787	-0.001473
500.033345	-0.001355
500.251885	-0.002047
500.470406	-0.001847
500.688910	-0.001795
500.907395	-0.001590
501.125862	-0.002400
501.344311	-0.003308
501.562742	-0.002853
501.781154	-0.003443
501.999548	-0.003726
502.217924	-0.003338
502.436282	-0.003065
502.654621	-0.002958
502.872942	-0.003005
503.091245	-0.003031
503.309530	-0.002417
503.527797	-0.003217
503.746045	-0.003631
503.964275	-0.003843
504.182487	-0.003311
504.400681	-0.003948
504.618856	-0.004790
504.837013	-0.004723
505.055152	-0.005229
505.273273	-0.005973
505.491376	-0.005549
505.709460	-0.004720
505.927526	-0.004471
506.145574	-0.004418
506.363604	-0.004737
506.581615	-0.003616
506.799608	-0.003671
507.017583	-0.003753
507.235540	-0.003055
507.453478	-0.003260
507.671399	-0.004208
507.889301	-0.004286
508.107185	-0.004422
508.325050	-0.003367
508.542898	-0.003904
508.760727	-0.004519
508.978538	-0.004146
509.196330	-0.004266
509.414105	-0.004120
509.631861	-0.003818
509.849599	-0.004253
510.067319	-0.004322
510.285021	-0.004757
510.502704	-0.004346
510.720369	-0.004710
510.938016	-0.005884
511.155645	-0.006748
511.373255	-0.007432
511.590848	-0.006944
511.808422	-0.007236
512.025977	-0.007670
512.243515	-0.007290
512.461034	-0.007521
512.678536	-0.007420
512.896018	-0.005970
513.113483	-0.004945
513.330930	-0.004721
513.548358	-0.005601
513.765768	-0.005160
513.983160	-0.005586
514.200533	-0.006572
514.417889	-0.006976
514.635226	-0.006749
514.852545	-0.007589
515.069845	-0.007785
515.287128	-0.007717
515.504392	-0.007464
515.721638	-0.007645
515.938866	-0.006961
516.156075	-0.006564
516.373267	-0.005152
516.590440	-0.004919
516.807594	-0.004257
517.024731	-0.004281
517.241850	-0.003895
517.458950	-0.003501
517.676032	-0.002680
517.893095	-0.002985
518.110141	-0.002978
518.327168	-0.003849
518.544177	-0.004605
518.761168	-0.005175
518.978141	-0.005337
519.195095	-0.005520
519.412031	-0.005354
519.628949	-0.005313
519.845849	-0.004337
520.062731	-0.003816
520.279594	-0.004299
520.496439	-0.003846
520.713266	-0.003288
520.930074	-0.002411
521.146865	-0.002318
521.363637	-0.002963
521.580391	-0.003364
521.797127	-0.003933
522.013844	-0.004594
522.230543	-0.004395
522.447224	-0.004662
522.663887	-0.004989
522.880532	-0.005727
523.097158	-0.006071
523.313766	-0.005090
523.530356	-0.005404
523.746928	-0.005692
523.963481	-0.005321
524.180017	-0.004975
524.396534	-0.004572
524.613032	-0.004290
524.829513	-0.004359
525.045975	-0.003879
525.262420	-0.004381
525.478845	-0.003995
525.695253	-0.003914
525.911643	-0.004262
526.128014	-0.004238
526.344367	-0.004169
526.560702	-0.004300
526.777018	-0.004126
526.993316	-0.003899
527.209597	-0.004247
527.425858	-0.003764
527.642102	-0.003362
527.858328	-0.002774
528.074535	-0.002966
528.290724	-0.002875
528.506894	-0.002954
528.723047	-0.002793
528.939181	-0.003022
529.155297	-0.002556
529.371395	-0.003621
529.587475	-0.003352
529.803536	-0.003721
530.019579	-0.004107
530.235604	-0.003907
530.451611	-0.003658
530.667600	-0.003401
530.883570	-0.003205
531.099522	-0.003179
531.315456	-0.002847
531.531372	-0.002998
531.747269	-0.002801
531.963148	-0.002437
532.179009	-0.002842
532.394852	-0.002720
532.610676	-0.003046
532.826482	-0.003551
533.042271	-0.003255
533.258040	-0.002649
533.473792	-0.002660
533.689525	-0.002700
533.905240	-0.002080
534.120937	-0.001443
534.336616	-0.001142
534.552277	-0.001233
534.767919	-0.000885
534.983543	-0.001012
535.199149	-0.000615
535.414736	-0.000349
535.630306	-0.000339
535.845857	-0.000325
536.061390	-0.000752
536.276904	-0.000954
536.492401	-0.000842
536.707879	-0.000574
536.923339	-0.001056
537.138781	-0.001617
537.354204	-0.001685
537.569610	-0.001463
537.784997	-0.001424
538.000366	-0.000814
538.215716	-0.000313
538.431049	-0.000324
538.646363	-0.000056
538.861659	0.000499
539.076937	0.000592
539.292196	0.000263
539.507438	0.000646
539.722661	0.000423
539.937866	0.000140
540.153052	-0.000105
540.368221	0.000002
540.583371	-0.000508
540.798503	-0.000732
541.013617	-0.000716
541.228712	-0.000768
541.443789	-0.001324
541.658848	-0.001185
541.873889	-0.001209
542.088912	-0.001523
542.303916	-0.001400
542.518902	-0.001158
542.733870	-0.001034
542.948820	-0.000774
543.163752	-0.000384
543.378665	-0.000066
543.593560	0.000089
543.808437	0.000416
544.023295	0.000558
544.238136	0.000884
544.452958	0.001104
544.667762	0.001358
544.882548	0.001131
545.097315	0.000851
545.312064	0.001026
545.526795	0.001077
545.741508	0.000687
545.956203	0.000767
546.170879	0.001028
546.385537	0.000873
546.600177	0.001070
546.814799	0.001256
547.029402	0.001471
547.243988	0.001142
547.458555	0.001032
547.673103	0.001356
547.887634	0.001153
548.102146	0.000841
548.316640	0.001107
548.531116	0.000995
548.745574	0.000822
548.960013	0.000964
549.174435	0.000996
549.388838	0.000873
549.603222	0.000592
549.817589	0.001316
550.031937	0.001458
550.246267	0.001026
550.460579	0.001150
550.674873	0.001443
550.889148	0.001626
551.103405	0.002003
551.317644	0.002031
551.531865	0.002285
551.746068	0.002217
551.960252	0.002544
552.174418	0.002892
552.388566	0.003075
552.602696	0.003103
552.816807	0.003030
553.030900	0.002836
553.244975	0.003194
553.459032	0.002989
553.673070	0.002577
553.887091	0.002179
554.101093	0.002177
554.315077	0.001949
554.529042	0.001650
554.742990	0.001195
554.956919	0.001063
555.170830	0.000594
555.384722	0.000675
555.598597	0.001052
555.812453	0.000800
556.026291	0.000391
556.240111	0.000261
556.453913	0.000383
556.667696	0.000957
556.881461	0.000923
557.095208	0.001094
557.308937	0.001256
557.522647	0.001146
557.736339	0.001440
557.950013	0.001654
558.163669	0.001686
558.377307	0.001716
558.590926	0.001591
558.804527	0.001945
559.018110	0.002133
559.231675	0.002371
559.445221	0.002577
559.658749	0.002294
559.872259	0.002091
560.085751	0.002226
560.299225	0.002170
560.512680	0.001617
560.726117	0.001258
560.939536	0.001243
561.152937	0.000659
561.366319	-0.000065
561.579683	0.000252
561.793029	0.000505
562.006357	-0.000110
562.219667	-0.000298
562.432958	-0.000235
562.646231	-0.000233
562.859486	-0.000444
563.072723	-0.000533
563.285941	-0.000299
563.499141	-0.000408
563.712323	-0.000565
563.925487	-0.000214
564.138632	-0.000216
564.351760	-0.000301
564.564869	-0.000395
564.777960	-0.000449
564.991032	-0.000244
565.204087	-0.000015
565.417123	-0.000315
565.630141	-0.000026
565.843140	-0.000097
566.056122	-0.000039
566.269085	-0.000080
566.482030	-0.000052
566.694957	-0.000092
566.907866	-0.000230
567.120756	-0.000516
567.333628	-0.000355
567.546482	-0.000492
567.759318	-0.000442
567.972135	-0.000767
568.184935	-0.000489
568.397716	-0.000594
568.610478	-0.000600
568.823223	-0.000593
569.035949	-0.000463
569.248657	-0.000821
569.461347	-0.001270
569.674019	-0.001502
569.886672	-0.000991
570.099308	-0.001076
570.311925	-0.000846
570.524523	-0.000840
570.737104	-0.000851
570.949666	-0.001438
571.162210	-0.001383
571.374736	-0.001170
571.587244	-0.001212
571.799733	-0.001103
572.012205	-0.001114
572.224658	-0.000881
572.437092	-0.000941
572.649509	-0.001042
572.861907	-0.000494
573.074287	-0.000369
573.286649	-0.000376
573.498993	-0.000257
573.711318	-0.000512
573.923625	-0.000489
574.135914	-0.000757
574.348185	-0.000984
574.560438	-0.000769
574.772672	-0.000979
574.984888	-0.001063
575.197086	-0.001032
575.409266	-0.001163
575.621427	-0.001530
575.833570	-0.001402
576.045695	-0.001740
576.257802	-0.001517
576.469890	-0.001583
576.681961	-0.001173
576.894013	-0.001260
577.106046	-0.001452
577.318062	-0.001509
577.530059	-0.001376
577.742039	-0.001670
577.954000	-0.001669
578.165942	-0.001687
578.377867	-0.001843
578.589773	-0.002237
578.801661	-0.002200
579.013531	-0.001984
579.225382	-0.002114
579.437216	-0.002223
579.649031	-0.002226
579.860828	-0.001927
580.072606	-0.002212
580.284367	-0.002094
580.496109	-0.002293
580.707833	-0.002209
580.919539	-0.002245
581.131227	-0.001982
581.342896	-0.001974
581.554547	-0.001851
581.766180	-0.001850
581.977795	-0.001904
582.189391	-0.002471
582.400969	-0.002551
582.612529	-0.002560
582.824071	-0.002615
583.035595	-0.002695
583.247100	-0.002508
583.458587	-0.002500
583.670056	-0.002665
583.881506	-0.002688
584.092939	-0.002307
584.304353	-0.001857
584.515749	-0.001714
584.727127	-0.001470
584.938486	-0.001339
585.149828	-0.001494
585.361151	-0.001677
585.572456	-0.001756
585.783742	-0.001413
585.995011	-0.001444
586.206261	-0.001611
586.417493	-0.001733
586.628706	-0.002265
586.839902	-0.002049
587.051079	-0.002076
587.262238	-0.002050
587.473379	-0.001984
587.684502	-0.002438
587.895606	-0.002113
588.106692	-0.002153
588.317760	-0.001998
588.528810	-0.001763
588.739841	-0.002112
588.950855	-0.002080
589.161850	-0.001837
589.372827	-0.001896
589.583785	-0.001170
589.794726	-0.001034
590.005648	-0.000948
590.216552	-0.001064
590.427437	-0.000775
590.638305	-0.000685
590.849154	-0.000493
591.059985	-0.000260
591.270798	0.000135
591.481592	-0.000046
591.692369	-0.000234
591.903127	0.000048
592.113867	0.000147
592.324588	0.000126
592.535292	0.000251
592.745977	0.000284
592.956644	0.000226
593.167293	0.000348
593.377923	0.000328
593.588536	0.000264
593.799130	-0.000054
594.009706	-0.000079
594.220263	-0.000127
594.430803	-0.000066
594.641324	0.000089
594.851827	-0.000121
595.062312	-0.000058
595.272778	-0.000121
595.483227	-0.000107
595.693657	0.000151
595.904069	0.000176
596.114462	-0.000001
596.324838	-0.000217
596.535195	-0.000337
596.745534	-0.000204
596.955855	-0.000640
597.166157	-0.000690
597.376441	-0.000613
597.586707	-0.000826
597.796955	-0.000875
598.007185	-0.000678
598.217396	-0.000480
598.427589	-0.000132
598.637764	-0.000218
598.847921	-0.000322
599.058060	-0.000133
599.268180	-0.000219
599.478282	-0.000070
599.688366	-0.000185
599.898431	-0.000203
600.108479	-0.000152
600.318508	-0.000535
600.528519	-0.000664
600.738511	-0.000581
600.948486	-0.000512
601.158442	-0.000615
601.368380	-0.000838
601.578300	-0.000619
601.788202	-0.000771
601.998085	-0.001013
602.207950	-0.001125
602.417797	-0.001026
602.627626	-0.001001
602.837436	-0.001198
603.047228	-0.000945
603.257002	-0.000794
603.466758	-0.001031
603.676496	-0.001077
603.886215	-0.001173
604.095916	-0.000942
604.305599	-0.000911
604.515264	-0.000931
604.724910	-0.000816
604.934538	-0.001035
605.144148	-0.001117
605.353740	-0.000987
605.563314	-0.000763
605.772869	-0.000361
605.982406	-0.000429
606.191925	-0.000143
606.401425	-0.000052
606.610908	-0.000001
606.820372	0.000267
607.029818	0.000520
607.239246	0.000504
607.448655	0.000573
607.658047	0.000635
607.867420	0.000734
608.076775	0.000618
608.286111	0.000757
608.495430	0.000728
608.704730	0.000766
608.914012	0.000693
609.123275	0.000840
609.332521	0.000863
609.541748	0.000714
609.750957	0.000662
609.960148	0.000575
610.169321	0.000663
610.378475	0.000717
610.587611	0.000915
610.796729	0.000943
611.005829	0.000983
611.214910	0.000889
611.423974	0.001084
611.633019	0.000904
611.842045	0.000953
612.051054	0.000894
612.260044	0.001091
612.469017	0.001130
612.677970	0.001179
612.886906	0.001142
613.095824	0.001180
613.304723	0.001217
613.513604	0.001601
613.722467	0.001767
613.931311	0.001709
614.140138	0.001601
614.348946	0.001512
614.557736	0.001756
614.766507	0.001860
614.975261	0.001975
615.183996	0.002030
615.392713	0.002038
615.601412	0.001862
615.810092	0.002145
616.018754	0.002331
616.227399	0.002241
616.436024	0.001823
616.644632	0.001830
616.853222	0.001942
617.061793	0.001786
617.270346	0.001568
617.478880	0.001421
617.687397	0.001116
617.895895	0.001099
618.104375	0.001100
618.312837	0.001153
618.521281	0.001220
618.729706	0.001006
618.938113	0.000772
619.146502	0.000737
619.354873	0.000898
619.563226	0.001026
619.771560	0.000755
619.979876	0.000491
620.188174	0.000409
620.396453	0.000408
620.604715	0.000588
620.812958	0.001011
621.021183	0.001304
621.229390	0.001358
621.437578	0.001321
621.645748	0.001392
621.853900	0.001695
622.062034	0.001958
622.270150	0.001701
622.478247	0.001714
622.686326	0.001623
622.894387	0.001601
623.102430	0.001766
623.310454	0.001898
623.518461	0.001841
623.726449	0.001892
623.934418	0.001770
624.142370	0.001985
624.350303	0.002133
624.558218	0.002142
624.766115	0.002124
624.973994	0.002193
625.181855	0.002135
625.389697	0.002435
625.597521	0.002358
625.805327	0.002615
626.013114	0.002584
626.220883	0.002428
626.428634	0.002524
626.636367	0.002461
626.844082	0.002250
627.051778	0.002198
627.259457	0.002046
627.467117	0.002139
627.674758	0.001887
627.882382	0.002187
628.089987	0.002099
628.297574	0.002168
628.505143	0.002372
628.712694	0.002496
628.920226	0.002704
629.127740	0.002602
629.335236	0.002715
629.542714	0.002753
629.750174	0.002468
629.957615	0.002607
630.165038	0.002552
630.372443	0.002479
630.579829	0.002458
630.787198	0.002387
630.994548	0.002672
631.201880	0.002429
631.409194	0.002400
631.616489	0.002199
631.823766	0.002310
632.031025	0.002121
632.238266	0.002299
632.445489	0.002300
632.652693	0.002282
632.859879	0.002196
633.067047	0.002254
633.274197	0.002517
633.481329	0.002944
633.688442	0.002973
633.895537	0.002927
634.102614	0.002633
634.309672	0.002700
634.516713	0.002658
634.723735	0.002365
634.930739	0.002404
635.137724	0.002456
635.344692	0.002399
635.551641	0.002332
635.758572	0.002630
635.965485	0.002779
636.172379	0.002706
636.379256	0.002849
636.586114	0.003030
636.792954	0.003055
636.999775	0.002932
637.206579	0.002809
637.413364	0.002844
637.620131	0.002869
637.826880	0.002791
638.033610	0.002960
638.240323	0.003065
638.447017	0.003209
638.653692	0.003234
638.860350	0.003346
639.066990	0.003448
639.273611	0.003454
639.480214	0.003472
639.686798	0.003600
639.893365	0.003389
640.099913	0.003259
640.306443	0.003376
640.512955	0.003396
640.719449	0.003268
640.925924	0.003123
641.132381	0.003325
641.338820	0.003435
641.545241	0.003440
641.751644	0.003715
641.958028	0.003571
642.164394	0.003416
642.370742	0.003412
642.577071	0.003349
642.783383	0.003605
642.989676	0.003405
643.195951	0.003143
643.402207	0.003133
643.608446	0.003024
643.814666	0.003106
644.020868	0.002969
644.227052	0.003126
644.433218	0.003405
644.639365	0.003490
644.845494	0.003251
645.051605	0.003336
645.257698	0.003174
645.463772	0.003009
645.669828	0.003130
645.875866	0.003201
646.081886	0.003105
646.287888	0.003116
646.493871	0.002876
646.699836	0.002963
646.905783	0.002907
647.111712	0.003075
647.317622	0.003229
647.523514	0.003114
647.729388	0.003256
647.935244	0.003291
648.141082	0.003175
648.346901	0.003346
648.552702	0.003462
648.758485	0.003627
648.964250	0.003565
649.169996	0.003701
649.375724	0.003847
649.581434	0.004062
649.787126	0.004092
649.992800	0.004055
650.198455	0.004029
650.404092	0.003904
650.609711	0.003847
650.815311	0.003931
651.020894	0.003868
651.226458	0.003726
651.432004	0.003649
651.637532	0.003671
651.843041	0.003526
652.048532	0.003670
652.254006	0.003742
652.459460	0.003657
652.664897	0.003693
652.870315	0.003617
653.075716	0.003921
653.281097	0.004025
653.486461	0.004046
653.691807	0.004377
653.897134	0.004360
654.102443	0.004680
654.307734	0.005001
654.513006	0.005019
654.718261	0.005254
654.923497	0.005116
655.128715	0.004872
655.333915	0.004796
655.539096	0.004664
655.744259	0.004471
655.949404	0.004260
656.154531	0.004058
656.359640	0.003972
656.564730	0.003824
656.769802	0.003863
656.974856	0.003953
657.179892	0.004079
657.384909	0.004080
657.589908	0.004058
657.794889	0.004255
657.999852	0.004233
658.204797	0.004306
658.409723	0.004434
658.614631	0.004478
658.819521	0.004536
659.024393	0.004688
659.229246	0.004891
659.434081	0.005249
659.638898	0.005263
659.843697	0.005344
660.048478	0.005527
660.253240	0.005642
660.457984	0.005547
660.662710	0.005663
660.867417	0.005665
661.072107	0.005503
661.276778	0.005426
661.481431	0.005453
661.686066	0.005609
661.890682	0.005625
662.095281	0.005501
662.299861	0.005735
662.504422	0.005826
662.708966	0.005739
662.913491	0.006062
663.117999	0.006136
663.322488	0.006076
663.526958	0.005923
663.731411	0.005947
663.935845	0.006101
664.140261	0.006029
664.344659	0.006150
664.549038	0.006271
664.753400	0.006008
664.957743	0.006067
665.162068	0.006033
665.366375	0.006174
665.570663	0.006300
665.774933	0.006251
665.979185	0.006205
666.183419	0.006042
666.387635	0.006019
666.591832	0.006108
666.796011	0.005895
667.000172	0.005814
667.204315	0.005827
667.408439	0.005719
667.612545	0.005798
667.816634	0.005783
668.020703	0.005672
668.224755	0.005676
668.428788	0.005817
668.632803	0.006039
668.836800	0.006218
669.040779	0.006259
669.244739	0.006243
669.448681	0.006270
669.652605	0.006290
669.856511	0.006542
670.060399	0.006780
670.264268	0.006907
670.468119	0.006929
670.671952	0.007010
670.875767	0.007009
671.079563	0.007118
671.283341	0.007070
671.487101	0.007138
671.690843	0.006987
671.894567	0.006903
672.098272	0.006749
672.301959	0.006674
672.505628	0.006837
672.709278	0.006831
672.912911	0.006634
673.116525	0.006643
673.320121	0.006809
673.523699	0.006802
673.727258	0.006796
673.930799	0.006891
674.134322	0.007052
674.337827	0.006849
674.541314	0.007078
674.744782	0.007314
674.948232	0.007544
675.151664	0.007462
675.355078	0.007745
675.558474	0.007723
675.761851	0.007852
675.965210	0.007946
676.168551	0.008083
676.371873	0.007992
676.575178	0.008032
676.778464	0.007834
676.981732	0.008014
677.184981	0.007907
677.388213	0.007847
677.591426	0.007786
677.794621	0.007563
677.997798	0.007630
678.200956	0.007466
678.404097	0.007534
678.607219	0.007591
678.810323	0.007469
679.013408	0.007443
679.216476	0.007561
679.419525	0.007621
679.622556	0.007813
679.825569	0.007825
680.028563	0.008013
680.231540	0.008009
680.434498	0.007963
680.637438	0.008273
680.840359	0.008461
681.043263	0.008656
681.246148	0.008763
681.449015	0.008773
681.651864	0.008822
681.854694	0.008919
682.057506	0.009000
682.260301	0.009266
682.463076	0.009137
682.665834	0.008972
682.868573	0.008950
683.071295	0.008906
683.273998	0.008934
683.476682	0.008898
683.679349	0.008840
683.881997	0.008761
684.084627	0.008761
684.287239	0.008835
684.489833	0.008976
684.692408	0.008997
684.894965	0.008981
685.097504	0.009131
685.300025	0.009204
685.502527	0.009260
685.705012	0.009343
685.907478	0.009083
686.109925	0.009196
686.312355	0.009199
686.514766	0.009191
686.717159	0.009360
686.919534	0.009225
687.121891	0.009348
687.324230	0.009468
687.526550	0.009558
687.728852	0.009746
687.931136	0.009724
688.133401	0.009790
688.335649	0.009699
688.537878	0.009553
688.740089	0.009400
688.942281	0.009096
689.144456	0.008971
689.346612	0.008764
689.548750	0.008838
689.750870	0.008624
689.952971	0.008462
690.155055	0.008356
690.357120	0.008107
690.559167	0.008186
690.761195	0.008147
690.963206	0.008107
691.165198	0.008194
691.367172	0.008090
691.569128	0.008056
691.771065	0.008078
691.972984	0.008057
692.174885	0.008159
692.376768	0.008152
692.578633	0.008161
692.780479	0.008090
692.982308	0.007882
693.184118	0.008014
693.385909	0.008102
693.587683	0.008192
693.789438	0.008398
693.991175	0.008503
694.192894	0.008411
694.394595	0.008787
694.596277	0.009061
694.797941	0.009336
694.999587	0.009308
695.201215	0.009394
695.402824	0.009481
695.604416	0.009597
695.805989	0.009650
696.007543	0.009838
696.209080	0.009718
696.410598	0.009640
696.612099	0.009665
696.813580	0.009514
697.015044	0.009629
697.216490	0.009438
697.417917	0.009209
697.619326	0.009192
697.820717	0.009193
698.022089	0.009169
698.223444	0.009046
698.424780	0.009066
698.626098	0.009125
698.827397	0.009036
699.028679	0.009160
699.229942	0.009157
699.431187	0.009254
699.632414	0.009367
699.833622	0.009542
700.034813	0.009701
700.235985	0.009804
700.437139	0.009900
700.638274	0.009902
700.839392	0.009847
701.040491	0.009994
701.241572	0.009900
701.442635	0.009896
701.643679	0.009699
701.844706	0.009507
702.045714	0.009327
702.246704	0.009211
702.447675	0.009247
702.648629	0.009486
702.849564	0.009449
703.050481	0.009503
703.251380	0.009482
703.452260	0.009574
703.653122	0.009755
703.853966	0.009839
704.054792	0.010002
704.255600	0.010054
704.456389	0.010041
704.657160	0.010236
704.857913	0.010263
705.058648	0.010222
705.259365	0.010250
705.460063	0.010291
705.660743	0.010354
705.861405	0.010220
706.062048	0.010155
706.262674	0.010019
706.463281	0.009853
706.663870	0.009826
706.864441	0.010008
707.064993	0.009901
707.265527	0.009781
707.466043	0.009792
707.666541	0.010075
707.867021	0.010101
708.067482	0.010042
708.267925	0.010067
708.468350	0.010086
708.668757	0.009965
708.869145	0.010012
709.069516	0.010152
709.269868	0.010053
709.470201	0.009870
709.670517	0.009955
709.870814	0.010066
710.071093	0.010186
710.271354	0.010344
710.471597	0.010382
710.671821	0.010451
710.872028	0.010420
711.072216	0.010530
711.272385	0.010474
711.472537	0.010459
711.672670	0.010694
711.872785	0.010552
712.072882	0.010563
712.272961	0.010475
712.473021	0.010559
712.673063	0.010633
712.873087	0.010460
713.073093	0.010713
713.273081	0.010556
713.473050	0.010488
713.673001	0.010582
713.872934	0.010550
714.072849	0.010449
714.272745	0.010258
714.472623	0.010292
714.672483	0.010365
714.872325	0.010198
715.072148	0.010157
715.271954	0.009840
715.471741	0.009656
715.671509	0.009458
715.871260	0.009590
716.070992	0.009414
716.270707	0.009163
716.470403	0.009046
716.670080	0.008921
716.869740	0.009003
717.069381	0.009060
717.269004	0.009157
717.468609	0.009252
717.668195	0.009137
717.867764	0.009449
718.067314	0.009455
718.266846	0.009533
718.466360	0.009566
718.665855	0.009463
718.865332	0.009492
719.064791	0.009306
719.264232	0.009083
719.463655	0.008981
719.663059	0.008994
719.862445	0.009076
720.061813	0.009073
720.261163	0.008996
720.460494	0.009103
720.659807	0.008931
720.859102	0.008897
721.058379	0.008854
721.257638	0.008996
721.456878	0.008670
721.656100	0.008523
721.855304	0.008355
722.054490	0.008138
722.253657	0.007879
722.452806	0.007955
722.651937	0.007876
722.851050	0.007940
723.050145	0.007789
723.249221	0.007791
723.448279	0.007572
723.647319	0.007460
723.846340	0.007520
724.045344	0.007420
724.244329	0.007212
724.443296	0.007235
724.642245	0.007077
724.841175	0.006850
725.040088	0.006724
725.238982	0.006806
725.437857	0.006573
725.636715	0.006377
725.835554	0.006276
726.034376	0.006216
726.233179	0.006173
726.431963	0.006080
726.630730	0.006296
726.829478	0.006237
727.028208	0.006067
727.226920	0.006322
727.425614	0.006366
727.624289	0.006466
727.822946	0.006534
728.021585	0.006470
728.220206	0.006410
728.418808	0.006244
728.617392	0.006273
728.815958	0.006460
729.014506	0.006265
729.213036	0.006392
729.411547	0.006379
729.610040	0.006117
729.808515	0.006029
730.006972	0.006089
730.205410	0.006155
730.403831	0.005964
730.602233	0.005819
730.800616	0.005991
730.998982	0.005996
731.197329	0.005959
731.395658	0.006120
731.593969	0.006306
731.792262	0.006391
731.990536	0.006396
732.188793	0.006702
732.387031	0.006876
732.585250	0.006804
732.783452	0.006715
732.981635	0.006834
733.179800	0.006911
733.377947	0.007018
733.576076	0.006912
733.774186	0.006733
733.972278	0.006644
734.170352	0.006625
734.368408	0.006686
734.566446	0.006645
734.764465	0.006611
734.962466	0.006824
735.160449	0.006647
735.358413	0.006788
735.556360	0.006954
735.754288	0.007064
735.952198	0.006910
736.150090	0.006810
736.347963	0.006903
736.545818	0.006726
736.743655	0.006340
736.941474	0.006196
737.139275	0.005980
737.337057	0.005759
737.534821	0.005380
737.732567	0.005208
737.930295	0.005070
738.128005	0.004808
738.325696	0.004758
738.523369	0.004753
738.721024	0.004699
738.918660	0.004615
739.116279	0.004712
739.313879	0.004745
739.511461	0.004714
739.709024	0.004495
739.906570	0.004527
740.104097	0.004495
740.301606	0.004452
740.499097	0.004507
740.696569	0.004671
740.894024	0.004405
741.091460	0.004319
741.288878	0.004428
741.486277	0.004751
741.683659	0.004780
741.881022	0.004717
742.078367	0.004866
742.275694	0.004720
742.473002	0.004638
742.670293	0.004816
742.867565	0.004966
743.064819	0.004937
743.262054	0.004905
743.459272	0.004792
743.656471	0.005039
743.853652	0.004761
744.050815	0.004759
744.247959	0.004614
744.445085	0.004674
744.642194	0.004694
744.839283	0.004845
745.036355	0.004994
745.233408	0.005379
745.430444	0.005322
745.627461	0.005638
745.824459	0.005817
746.021440	0.006139
746.218402	0.006131
746.415346	0.006044
746.612272	0.006026
746.809180	0.005985
747.006069	0.005856
747.202940	0.005790
747.399793	0.005598
747.596628	0.005656
747.793444	0.005474
747.990243	0.005408
748.187023	0.005525
748.383784	0.005261
748.580528	0.005136
748.777253	0.005107
748.973960	0.005281
749.170649	0.005319
749.367320	0.005190
749.563973	0.005175
749.760607	0.005180
749.957223	0.005149
750.153821	0.005445
750.350400	0.005546
750.546962	0.005610
750.743505	0.005373
750.940030	0.005482
751.136536	0.005535
751.333025	0.005760
751.529495	0.005858
751.725947	0.005843
751.922381	0.005626
752.118796	0.005453
752.315194	0.005305
752.511573	0.005561
752.707934	0.005586
752.904276	0.005656
753.100601	0.005498
753.296907	0.005574
753.493195	0.005565
753.689465	0.005610
753.885716	0.005834
754.081949	0.006072
754.278164	0.005887
754.474361	0.005802
754.670540	0.005819
754.866700	0.005876
755.062843	0.005689
755.258967	0.005598
755.455072	0.005562
755.651160	0.005440
755.847229	0.005101
756.043280	0.004878
756.239313	0.004975
756.435328	0.004660
756.631324	0.004384
756.827302	0.004500
757.023262	0.004502
757.219204	0.004420
757.415127	0.004435
757.611033	0.004417
757.806920	0.004591
758.002788	0.004469
758.198639	0.004733
758.394471	0.004812
758.590286	0.004918
758.786081	0.004952
758.981859	0.004905
759.177619	0.004878
759.373360	0.005104
759.569083	0.005093
759.764788	0.005038
759.960474	0.005113
760.156143	0.005322
760.351793	0.005212
760.547425	0.005391
760.743038	0.005519
760.938634	0.005449
761.134211	0.005441
761.329770	0.005411
761.525311	0.005461
761.720833	0.005102
761.916338	0.004832
762.111824	0.004684
762.307292	0.004392
762.502741	0.004351
762.698173	0.004393
762.893586	0.004379
763.088981	0.004393
763.284358	0.004291
763.479716	0.004401
763.675057	0.004591
763.870379	0.004511
764.065683	0.004595
764.260968	0.004754
764.456236	0.004516
764.651485	0.004379
764.846716	0.004383
765.041929	0.004501
765.237123	0.004497
765.432299	0.004432
765.627457	0.004525
765.822597	0.004475
766.017719	0.004259
766.212822	0.004620
766.407907	0.004553
766.602974	0.004534
766.798023	0.004321
766.993054	0.004364
767.188066	0.004379
767.383060	0.004112
767.578036	0.004150
767.772993	0.004102
767.967933	0.003844
768.162854	0.003831
768.357757	0.003650
768.552642	0.003632
768.747508	0.003477
768.942356	0.003435
769.137186	0.003818
769.331998	0.003728
769.526792	0.003960
769.721567	0.003904
769.916324	0.003982
770.111063	0.004146
770.305784	0.004122
770.500486	0.004343
770.695171	0.004234
770.889837	0.004341
771.084484	0.004630
771.279114	0.004696
771.473725	0.004880
771.668318	0.004842
771.862893	0.004938
772.057450	0.005173
772.251988	0.005100
772.446509	0.005258
772.641011	0.005104
772.835494	0.004998
773.029960	0.004844
773.224407	0.004989
773.418836	0.005030
773.613247	0.005072
773.807640	0.005234
774.002014	0.005279
774.196370	0.005365
774.390708	0.005291
774.585028	0.005575
774.779330	0.005897
774.973613	0.005948
775.167878	0.006188
775.362125	0.006208
775.556354	0.006123
775.750564	0.006047
775.944756	0.006024
776.138930	0.005992
776.333086	0.005800
776.527223	0.005751
776.721343	0.005619
776.915444	0.005494
777.109526	0.005354
777.303591	0.005447
777.497637	0.005670
777.691666	0.005768
777.885676	0.006137
778.079667	0.006090
778.273641	0.006003
778.467596	0.006053
778.661533	0.006091
778.855452	0.006183
779.049352	0.006121
779.243235	0.006213
779.437099	0.006278
779.630945	0.006173
779.824773	0.006276
780.018582	0.006199
780.212373	0.006205
780.406146	0.006221
780.599901	0.006248
780.793638	0.006330
780.987356	0.006117
781.181056	0.005920
781.374738	0.005835
781.568402	0.005712
781.762047	0.005729
781.955674	0.005508
782.149283	0.005398
782.342874	0.005464
782.536447	0.005411
782.730001	0.005557
782.923537	0.005527
783.117055	0.005459
783.310555	0.005290
783.504036	0.005317
783.697499	0.005564
783.890944	0.005545
784.084371	0.005519
784.277780	0.005446
784.471170	0.005028
784.664542	0.004976
784.857896	0.004933
785.051231	0.004954
785.244549	0.004791
785.437848	0.004484
785.631129	0.004440
785.824392	0.004186
786.017636	0.004190
786.210863	0.004455
786.404071	0.004454
786.597260	0.004562
786.790432	0.004883
786.983585	0.005219
787.176721	0.005478
787.369838	0.005573
787.562936	0.005952
787.756017	0.005843
787.949079	0.005874
788.142123	0.005923
788.335149	0.005980
788.528156	0.005794
788.721146	0.005778
788.914117	0.005674
789.107070	0.005706
789.300005	0.005446
789.492921	0.005592
789.685819	0.005488
789.878699	0.005469
790.071561	0.005315
790.264405	0.005437
790.457230	0.005270
790.650037	0.005416
790.842826	0.005280
791.035597	0.005283
791.228349	0.004997
791.421084	0.005037
791.613800	0.004874
791.806497	0.004882
791.999177	0.004686
792.191838	0.004521
792.384481	0.004551
792.577106	0.004534
792.769713	0.004559
792.962301	0.004680
793.154871	0.004532
793.347423	0.004481
793.539957	0.004470
793.732473	0.004488
793.924970	0.004546
794.117449	0.004363
794.309910	0.004548
794.502353	0.004528
794.694777	0.004467
794.887183	0.004896
795.079571	0.005256
795.271941	0.005135
795.464293	0.005408
795.656626	0.005467
795.848941	0.005427
796.041238	0.005312
796.233516	0.005359
796.425777	0.005430
796.618019	0.005112
796.810243	0.005230
797.002449	0.005497
797.194636	0.005219
797.386805	0.005183
797.578956	0.005243
797.771089	0.005342
797.963204	0.005433
798.155300	0.005325
798.347378	0.005367
798.539438	0.004996
798.731480	0.004684
798.923503	0.004944
799.115509	0.004951
799.307496	0.004759
799.499465	0.004653
799.691415	0.004689
799.883348	0.004793
800.075262	0.004803
800.267158	0.004875
800.459035	0.004964
800.650895	0.004793
800.842736	0.004734
801.034559	0.004796
801.226364	0.004888
801.418150	0.004789
801.609919	0.004995
801.801669	0.004971
801.993401	0.004947
802.185114	0.004908
802.376810	0.004670
802.568487	0.004497
802.760146	0.004574
802.951787	0.004279
803.143409	0.004077
803.335014	0.003694
803.526600	0.003658
803.718168	0.003769
803.909717	0.003802
804.101249	0.003828
804.292762	0.004102
804.484257	0.003961
804.675734	0.003998
804.867192	0.003976
805.058632	0.004004
805.250054	0.003750
805.441458	0.003427
805.632844	0.003359
805.824211	0.003225
806.015561	0.002992
806.206891	0.002991
806.398204	0.003073
806.589499	0.003145
806.780775	0.003147
806.972033	0.003383
807.163273	0.003590
807.354495	0.003590
807.545698	0.003519
807.736883	0.003523
807.928050	0.003542
808.119199	0.003525
808.310329	0.003289
808.501441	0.003256
808.692535	0.003119
808.883611	0.003068
809.074669	0.002976
809.265708	0.003255
809.456729	0.003137
809.647732	0.003161
809.838717	0.003234
810.029683	0.003493
810.220632	0.003562
810.411562	0.003593
810.602474	0.003690
810.793367	0.003789
810.984242	0.003797
811.175100	0.004056
811.365938	0.003875
811.556759	0.003747
811.747562	0.003615
811.938346	0.003677
812.129112	0.003827
812.319860	0.003797
812.510589	0.004039
812.701300	0.004036
812.891994	0.003970
813.082668	0.004280
813.273325	0.004379
813.463964	0.004704
813.654584	0.004592
813.845186	0.004544
814.035769	0.004549
814.226335	0.004477
814.416882	0.004720
814.607411	0.004943
814.797922	0.004885
814.988415	0.004899
815.178889	0.004907
815.369345	0.005249
815.559783	0.005450
815.750203	0.005346
815.940605	0.005368
816.130988	0.005278
816.321353	0.005226
816.511700	0.005364
816.702028	0.005549
816.892339	0.005515
817.082631	0.005334
817.272905	0.005378
817.463161	0.005501
817.653398	0.005452
817.843617	0.005287
818.033819	0.005039
818.224001	0.004927
818.414166	0.004865
818.604312	0.004824
818.794440	0.004809
818.984550	0.004556
819.174642	0.004670
819.364716	0.004782
819.554771	0.004658
819.744808	0.004825
819.934827	0.004835
820.124827	0.004568
820.314810	0.004449
820.504774	0.004470
820.694720	0.004485
820.884647	0.004252
821.074557	0.003919
821.264448	0.004148
821.454321	0.004224
821.644176	0.004187
821.834012	0.004219
822.023831	0.004176
822.213631	0.004132
822.403413	0.004292
822.593176	0.004333
822.782922	0.004451
822.972649	0.004484
823.162358	0.004314
823.352049	0.004163
823.541721	0.004302
823.731376	0.004343
823.921012	0.004310
824.110629	0.004184
824.300229	0.004124
824.489811	0.004213
824.679374	0.003966
824.868919	0.004100
825.058445	0.004160
825.247954	0.004025
825.437444	0.004169
825.626916	0.004095
825.816370	0.003914
826.005806	0.003836
826.195223	0.003866
826.384622	0.004160
826.574003	0.004064
826.763366	0.004083
826.952711	0.004088
827.142037	0.003764
827.331345	0.003648
827.520635	0.003682
827.709906	0.003505
827.899160	0.003301
828.088395	0.002951
828.277612	0.002802
828.466810	0.002668
828.655991	0.002369
828.845153	0.002250
829.034297	0.002130
829.223423	0.001895
829.412531	0.002181
829.601620	0.002152
829.790691	0.001992
829.979744	0.001970
830.168779	0.002072
830.357795	0.002296
830.546793	0.002371
830.735773	0.002765
830.924735	0.002911
831.113679	0.002731
831.302604	0.002833
831.491511	0.002981
831.680400	0.003069
831.869271	0.003003
832.058123	0.003064
832.246957	0.003331
832.435773	0.003210
832.624571	0.003430
832.813351	0.003659
833.002112	0.003715
833.190855	0.003739
833.379580	0.003900
833.568287	0.004108
833.756975	0.004230
833.945645	0.004220
834.134297	0.004201
834.322931	0.004250
834.511547	0.004191
834.700144	0.004153
834.888723	0.004250
835.077284	0.004224
835.265826	0.004152
835.454351	0.004139
835.642857	0.003949
835.831345	0.004060
836.019815	0.003777
836.208266	0.003853
836.396699	0.003647
836.585114	0.003457
836.773511	0.003389
836.961890	0.003490
837.150250	0.003212
837.338592	0.003266
837.526916	0.003289
837.715222	0.003359
837.903510	0.003102
838.091779	0.003299
838.280030	0.003507
838.468263	0.003459
838.656477	0.003227
838.844674	0.003382
839.032852	0.003517
839.221012	0.003242
839.409153	0.003447
839.597277	0.003436
839.785382	0.003454
839.973469	0.003445
840.161538	0.003209
840.349589	0.003327
840.537621	0.003312
840.725635	0.003224
840.913631	0.003290
841.101609	0.002987
841.289568	0.003178
841.477509	0.003066
841.665432	0.002970
841.853337	0.003026
842.041224	0.002987
842.229092	0.002875
842.416942	0.002882
842.604774	0.002906
842.792588	0.003103
842.980383	0.003123
843.168160	0.003113
843.355919	0.003263
843.543660	0.003233
843.731382	0.003227
843.919087	0.003341
844.106773	0.003197
844.294441	0.003390
844.482090	0.003407
844.669722	0.003414
844.857335	0.003534
845.044930	0.003506
845.232507	0.003730
845.420065	0.003761
845.607605	0.004097
845.795127	0.004153
845.982631	0.004168
846.170117	0.004282
846.357584	0.004044
846.545033	0.004010
846.732464	0.004209
846.919877	0.004156
847.107272	0.004202
847.294648	0.003959
847.482006	0.004070
847.669346	0.003919
847.856667	0.003922
848.043971	0.004243
848.231256	0.004284
848.418523	0.004021
848.605771	0.004403
848.793002	0.004448
848.980214	0.004445
849.167408	0.004656
849.354584	0.004974
849.541742	0.005038
849.728881	0.005301
849.916002	0.005560
850.103105	0.005715
850.290190	0.005512
850.477256	0.005596
850.664304	0.005696
850.851334	0.005744
851.038346	0.005497
851.225340	0.005468
851.412315	0.005385
851.599272	0.005236
851.786211	0.005399
851.973132	0.005389
852.160034	0.005429
852.346918	0.005613
852.533784	0.005473
852.720632	0.005506
852.907462	0.005502
853.094273	0.005384
853.281066	0.005351
853.467841	0.005307
853.654598	0.005321
853.841336	0.005303
854.028056	0.005184
854.214758	0.005209
854.401442	0.005166
854.588107	0.005198
854.774755	0.005205
854.961384	0.005156
855.147995	0.005175
855.334587	0.005201
855.521162	0.005121
855.707718	0.005235
855.894256	0.005382
856.080775	0.005553
856.267277	0.005631
856.453760	0.005708
856.640225	0.005717
856.826672	0.005489
857.013101	0.005264
857.199511	0.005003
857.385903	0.004797
857.572277	0.004828
857.758633	0.004552
857.944970	0.004450
858.131290	0.004392
858.317591	0.004550
858.503873	0.004517
858.690138	0.004769
858.876384	0.004845
859.062612	0.004882
859.248822	0.004778
859.435014	0.005026
859.621188	0.005235
859.807343	0.005205
859.993480	0.005109
860.179599	0.005366
860.365699	0.005266
860.551781	0.005333
860.737846	0.005500
860.923891	0.005678
861.109919	0.005662
861.295929	0.005599
861.481920	0.005640
861.667893	0.005924
861.853848	0.005769
862.039784	0.005955
862.225702	0.006278
862.411603	0.006143
862.597484	0.005955
862.783348	0.005904
862.969193	0.005860
863.155021	0.005791
863.340830	0.005633
863.526620	0.005753
863.712393	0.005898
863.898147	0.005668
864.083883	0.005667
864.269601	0.005696
864.455301	0.005725
864.640982	0.005292
864.826645	0.005390
865.012290	0.005391
865.197917	0.005390
865.383526	0.005159
865.569116	0.005341
865.754688	0.005242
865.940242	0.005382
866.125777	0.005397
866.311295	0.005801
866.496794	0.005787
866.682275	0.005833
866.867737	0.005854
867.053182	0.005986
867.238608	0.005848
867.424016	0.005790
867.609406	0.005640
867.794778	0.005599
867.980131	0.005454
868.165466	0.005284
868.350783	0.005226
868.536082	0.005183
868.721362	0.005075
868.906625	0.004930
869.091869	0.004990
869.277094	0.004724
869.462302	0.004671
869.647491	0.004481
869.832662	0.004582
870.017815	0.004349
870.202950	0.004149
870.388066	0.003906
870.573165	0.004069
870.758245	0.004003
870.943306	0.004268
871.128350	0.004230
871.313375	0.004436
871.498382	0.004108
871.683371	0.004054
871.868342	0.004199
872.053294	0.004344
872.238229	0.004272
872.423144	0.004278
872.608042	0.003988
872.792922	0.004033
872.977783	0.003969
873.162626	0.004136
873.347451	0.004156
873.532258	0.003856
873.717046	0.003688
873.901816	0.003697
874.086568	0.003869
874.271302	0.003783
874.456017	0.003626
874.640715	0.003720
874.825394	0.003635
875.010055	0.003847
875.194697	0.003859
875.379322	0.003986
875.563928	0.003791
875.748516	0.003693
875.933085	0.003848
876.117637	0.003915
876.302170	0.003646
876.486685	0.003884
876.671182	0.003936
876.855661	0.004359
877.040121	0.004193
877.224563	0.004250
877.408987	0.004277
877.593393	0.004209
877.777780	0.004366
877.962150	0.004448
878.146501	0.004378
878.330833	0.004338
878.515148	0.004133
878.699444	0.004204
878.883722	0.004217
879.067982	0.004303
879.252224	0.004238
879.436447	0.004155
879.620653	0.004085
879.804840	0.004109
879.989008	0.003939
880.173159	0.003957
880.357291	0.004405
880.541405	0.004473
880.725501	0.004247
880.909579	0.004286
881.093638	0.004095
881.277680	0.004203
881.461703	0.004052
881.645707	0.004049
881.829694	0.003575
882.013662	0.002931
882.197612	0.002659
882.381544	0.002465
882.565458	0.002509
882.749353	0.002456
882.933230	0.002659
883.117089	0.002693
883.300930	0.002631
883.484753	0.003060
883.668557	0.003138
883.852343	0.003094
884.036111	0.003262
884.219861	0.003569
884.403592	0.003785
884.587305	0.003369
884.771000	0.003564
884.954677	0.003515
885.138335	0.003244
885.321976	0.003522
885.505598	0.003714
885.689201	0.003687
885.872787	0.003501
886.056354	0.003600
886.239904	0.003921
886.423434	0.003722
886.606947	0.004156
886.790442	0.004642
886.973918	0.004844
887.157376	0.004753
887.340816	0.004818
887.524237	0.004672
887.707641	0.004590
887.891026	0.004633
888.074393	0.004792
888.257741	0.004706
888.441072	0.004417
888.624384	0.004508
888.807678	0.004720
888.990954	0.004970
889.174211	0.005079
889.357451	0.004860
889.540672	0.004476
889.723875	0.004644
889.907059	0.004390
890.090226	0.004518
890.273374	0.003891
890.456504	0.003962
890.639616	0.003669
890.822709	0.003377
891.005785	0.003569
891.188842	0.003758
891.371881	0.003505
891.554901	0.003467
891.737904	0.003329
891.920888	0.003042
892.103854	0.002901
892.286802	0.002755
892.469731	0.002990
892.652643	0.002796
892.835536	0.002694
893.018410	0.002699
893.201267	0.002367
893.384106	0.002114
893.566926	0.002319
893.749728	0.002229
893.932511	0.002190
894.115277	0.002245
894.298024	0.002220
894.480753	0.002222
894.663464	0.001820
894.846157	0.001788
895.028831	0.001718
895.211487	0.001628
895.394125	0.001375
895.576745	0.001416
895.759346	0.000936
895.941930	0.000932
896.124495	0.000733
896.307041	0.001019
896.489570	0.001406
896.672080	0.001564
896.854573	0.001722
897.037046	0.001938
897.219502	0.001690
897.401940	0.001942
897.584359	0.001961
897.766760	0.001924
897.949143	0.001767
898.131507	0.001246
898.313854	0.001382
898.496182	0.000743
898.678492	0.000988
898.860783	0.001086
899.043057	0.000916
899.225312	0.000873
899.407549	0.000708
899.589768	0.000787
899.771968	0.000917
899.954151	0.000631
900.136315	0.001143
900.318461	0.000435
900.500588	0.000406
900.682698	0.000166
900.864789	-0.000234
901.046862	-0.000321
901.228917	-0.000674
901.410953	-0.000814
901.592971	-0.000848
901.774972	-0.000637
901.956953	-0.000234
902.138917	-0.000270
902.320862	-0.000025
902.502790	0.000029
902.684699	0.000116
902.866589	0.000175
903.048462	0.000192
903.230316	0.000178
903.412152	-0.000098
903.593970	-0.000206
903.775770	-0.000280
903.957551	-0.000183
904.139314	-0.000231
904.321059	-0.000344
904.502786	-0.000237
904.684494	-0.000010
904.866185	0.000322
905.047857	0.000351
905.229510	0.000217
905.411146	0.000184
905.592763	-0.000219
905.774363	0.000026
905.955943	0.000180
906.137506	-0.000021
906.319051	-0.000069
906.500577	-0.000346
906.682085	-0.000433
906.863575	-0.000369
907.045046	-0.000178
907.226500	-0.000050
907.407935	-0.000172
907.589352	-0.000239
907.770750	-0.000217
907.952131	-0.000457
908.133493	-0.000531
908.314837	-0.000933
908.496163	-0.001056
908.677470	-0.001383
908.858760	-0.001527
909.040031	-0.001390
909.221284	-0.001295
909.402518	-0.001298
909.583735	-0.001322
909.764933	-0.001277
909.946113	-0.001072
910.127275	-0.001127
910.308418	-0.001405
910.489544	-0.001640
910.670651	-0.001671
910.851740	-0.001778
911.032810	-0.002014
911.213863	-0.001769
911.394897	-0.002317
911.575913	-0.002233
911.756911	-0.002448
911.937890	-0.001968
912.118851	-0.001581
912.299794	-0.002128
912.480719	-0.002070
912.661626	-0.002218
912.842514	-0.002832
913.023384	-0.002958
913.204236	-0.003372
913.385070	-0.003671
913.565886	-0.004217
913.746683	-0.004947
913.927462	-0.004803
914.108223	-0.005324
914.288965	-0.005679
914.469690	-0.006038
914.650396	-0.006102
914.831084	-0.006730
915.011754	-0.007111
915.192405	-0.007626
915.373038	-0.007657
915.553653	-0.008176
915.734250	-0.008573
915.914829	-0.009041
916.095389	-0.009503
916.275931	-0.009903
916.456455	-0.009708
916.636961	-0.009762
916.817448	-0.009663
916.997917	-0.010065
917.178368	-0.010350
917.358801	-0.010144
917.539216	-0.010036
917.719612	-0.009398
917.899990	-0.009449
918.080350	-0.009920
918.260692	-0.009978
918.441015	-0.010164
918.621320	-0.010394
918.801607	-0.010329
918.981876	-0.010918
919.162127	-0.010981
919.342359	-0.011841
919.522573	-0.012150
919.702769	-0.012377
919.882947	-0.012414
920.063106	-0.012475
920.243247	-0.012254
920.423370	-0.012569
920.603475	-0.012255
920.783562	-0.012426
920.963630	-0.012420
921.143680	-0.012429
921.323712	-0.012435
921.503725	-0.012536
921.683721	-0.012960
921.863698	-0.012798
922.043657	-0.012897
922.223598	-0.013972
922.403520	-0.014048
922.583424	-0.013909
922.763311	-0.014472
922.943178	-0.014820
923.123028	-0.015405
923.302859	-0.015686
923.482673	-0.016254
923.662467	-0.017084
923.842244	-0.016683
924.022003	-0.017514
924.201743	-0.017948
924.381465	-0.017896
924.561169	-0.017916
924.740854	-0.018019
924.920522	-0.018042
925.100171	-0.018391
925.279802	-0.017726
925.459414	-0.018029
925.639009	-0.018113
925.818585	-0.018523
925.998143	-0.018459
926.177683	-0.018476
926.357205	-0.018344
926.536708	-0.017911
926.716193	-0.018409
926.895660	-0.018898
927.075109	-0.019117
927.254539	-0.018364
927.433951	-0.018485
927.613345	-0.018889
927.792721	-0.019307
927.972079	-0.019627
928.151418	-0.020147
928.330739	-0.020145
928.510042	-0.020397
928.689327	-0.020640
928.868593	-0.021058
929.047841	-0.021130
929.227071	-0.021095
929.406283	-0.021288
929.585476	-0.021632
929.764652	-0.021903
929.943809	-0.021902
930.122948	-0.022044
930.302068	-0.022325
930.481171	-0.023130
930.660255	-0.023213
930.839321	-0.023839
931.018369	-0.023812
931.197398	-0.024055
931.376409	-0.024485
931.555402	-0.024585
931.734377	-0.024698
931.913334	-0.024708
932.092272	-0.024654
932.271192	-0.025033
932.450094	-0.024984
932.628978	-0.025242
932.807844	-0.025421
932.986691	-0.025822
933.165520	-0.026911
933.344331	-0.027392
933.523123	-0.027825
933.701898	-0.028342
933.880654	-0.028869
934.059392	-0.029059
934.238111	-0.029617
934.416813	-0.030589
934.595496	-0.031120
934.774161	-0.030952
934.952808	-0.031633
935.131437	-0.032439
935.310047	-0.032576
935.488639	-0.032282
935.667213	-0.032632
935.845769	-0.032440
936.024306	-0.032372
936.202825	-0.032556
936.381326	-0.033018
936.559809	-0.032319
936.738274	-0.032176
936.916720	-0.031689
937.095148	-0.032681
937.273558	-0.033117
937.451950	-0.033531
937.630323	-0.033255
937.808678	-0.033591
937.987015	-0.032847
938.165334	-0.034035
938.343635	-0.033778
938.521917	-0.034559
938.700181	-0.034258
938.878427	-0.033895
939.056655	-0.033920
939.234864	-0.034092
939.413055	-0.033904
939.591228	-0.034713
939.769383	-0.034031
939.947519	-0.034177
940.125638	-0.034498
940.303738	-0.034853
940.481820	-0.035395
940.659883	-0.036317
940.837929	-0.037075
941.015956	-0.037639
941.193965	-0.038209
941.371955	-0.038555
941.549928	-0.039232
941.727882	-0.040140
941.905818	-0.039721
942.083736	-0.039738
942.261636	-0.040250
942.439517	-0.040503
942.617380	-0.041104
942.795225	-0.040790
942.973052	-0.040179
943.150860	-0.040362
943.328651	-0.039300
943.506423	-0.040572
943.684176	-0.041050
943.861912	-0.040512
944.039629	-0.039766
944.217328	-0.039206
944.395009	-0.039939
944.572672	-0.041686
944.750317	-0.040867
944.927943	-0.041001
945.105551	-0.040416
945.283141	-0.040611
945.460712	-0.040876
945.638265	-0.040913
945.815801	-0.040505
945.993317	-0.040666
946.170816	-0.041084
946.348297	-0.042151
946.525759	-0.043300
946.703203	-0.044017
946.880629	-0.044179
947.058036	-0.043896
947.235425	-0.045218
947.412797	-0.046176
947.590149	-0.045833
947.767484	-0.045850
947.944800	-0.046812
948.122099	-0.046990
948.299379	-0.047034
948.476640	-0.047300
948.653884	-0.047543
948.831109	-0.047780
949.008316	-0.047278
949.185505	-0.047088
949.362676	-0.046739
949.539828	-0.043700
949.716962	-0.043975
949.894078	-0.043594
950.071176	-0.043556
950.248256	-0.043139
950.425317	-0.041312
950.602360	-0.042230
950.779385	-0.043615
950.956391	-0.043721
951.133380	-0.045188
951.310350	-0.044592
951.487302	-0.043798
951.664235	-0.043366
951.841151	-0.043438
952.018048	-0.044664
952.194927	-0.044028
952.371788	-0.042505
952.548631	-0.040795
952.725455	-0.041178
952.902261	-0.040330
953.079049	-0.042003
953.255819	-0.042215
953.432570	-0.040841
953.609303	-0.041296
953.786018	-0.040670
953.962715	-0.041756
954.139394	-0.042395
954.316054	-0.041800
954.492696	-0.041985
954.669320	-0.040439
954.845926	-0.040813
955.022513	-0.040936
955.199083	-0.039866
955.375634	-0.041054
955.552166	-0.039214
955.728681	-0.039735
955.905177	-0.040441
956.081655	-0.040334
956.258115	-0.040583
956.434557	-0.039742
956.610980	-0.040024
956.787385	-0.039989
956.963772	-0.037732
957.140141	-0.038500
957.316492	-0.038050
957.492824	-0.037294
957.669138	-0.035761
957.845434	-0.035488
958.021712	-0.035533
958.197971	-0.034920
958.374212	-0.034346
958.550435	-0.034565
958.726640	-0.033721
958.902826	-0.033802
959.078995	-0.033445
959.255145	-0.034237
959.431277	-0.035129
959.607390	-0.033763
959.783486	-0.034037
959.959563	-0.032929
960.135622	-0.032095
960.311662	-0.031608
960.487685	-0.030659
960.663689	-0.031826
960.839675	-0.030547
961.015643	-0.028230
961.191593	-0.028205
961.367524	-0.029099
961.543437	-0.030163
961.719332	-0.032760
961.895209	-0.032003
962.071067	-0.030026
962.246907	-0.027919
962.422730	-0.029880
962.598533	-0.031630
962.774319	-0.031758
962.950086	-0.029778
963.125835	-0.028669
963.301566	-0.025917
963.477279	-0.024508
963.652973	-0.024050
963.828650	-0.022701
964.004308	-0.021506
964.179947	-0.019572
964.355569	-0.018102
964.531172	-0.017006
964.706757	-0.018771
964.882324	-0.017808
965.057873	-0.018048
965.233403	-0.019479
965.408916	-0.021206
965.584410	-0.021037
965.759885	-0.020000
965.935343	-0.021007
966.110782	-0.022273
966.286203	-0.018569
966.461606	-0.020020
966.636991	-0.021200
966.812357	-0.019845
966.987705	-0.019411
967.163035	-0.017020
967.338347	-0.016587
967.513641	-0.015910
967.688916	-0.016327
967.864173	-0.019464
968.039412	-0.019048
968.214632	-0.018456
968.389835	-0.019499
968.565019	-0.019388
968.740185	-0.020954
968.915333	-0.022322
969.090462	-0.020853
969.265573	-0.019547
969.440667	-0.016815
969.615741	-0.016499
969.790798	-0.015926
969.965836	-0.013874
970.140856	-0.012574
970.315858	-0.011991
970.490842	-0.012143
970.665808	-0.014011
970.840755	-0.015432
971.015684	-0.014612
971.190595	-0.014813
971.365487	-0.014543
971.540362	-0.016749
971.715218	-0.016697
971.890056	-0.015687
972.064875	-0.012811
972.239677	-0.011816
972.414460	-0.011249
972.589225	-0.011660
972.763972	-0.011435
972.938700	-0.010435
973.113411	-0.010439
973.288103	-0.012397
973.462777	-0.013057
973.637432	-0.015294
973.812070	-0.015922
973.986689	-0.015438
974.161290	-0.016841
974.335873	-0.016547
974.510437	-0.017764
974.684984	-0.016810
974.859512	-0.014218
975.034022	-0.016727
975.208513	-0.015781
975.382987	-0.016378
975.557442	-0.015564
975.731879	-0.014505
975.906298	-0.012649
976.080698	-0.013298
976.255080	-0.013937
976.429445	-0.016371
976.603790	-0.014771
976.778118	-0.016691
976.952427	-0.013085
977.126719	-0.013219
977.300992	-0.012910
977.475246	-0.014180
977.649483	-0.015718
977.823701	-0.015696
977.997901	-0.012722
978.172083	-0.012206
978.346247	-0.009112
978.520392	-0.011063
978.694519	-0.011144
978.868628	-0.013605
979.042719	-0.012281
979.216791	-0.008260
979.390845	-0.007390
979.564882	-0.008457
979.738899	-0.009744
979.912899	-0.012978
980.086880	-0.013845
980.260843	-0.013362
980.434788	-0.010100
980.608715	-0.010540
980.782623	-0.012309
980.956514	-0.012163
981.130386	-0.012491
981.304240	-0.013062
981.478075	-0.011353
981.651892	-0.012451
981.825692	-0.012511
981.999472	-0.014679
982.173235	-0.016369
982.346980	-0.015294
982.520706	-0.015868
982.694414	-0.016996
982.868104	-0.015732
983.041775	-0.015752
983.215428	-0.015764
983.389064	-0.017768
983.562680	-0.019018
983.736279	-0.017783
983.909860	-0.020006
984.083422	-0.021862
984.256966	-0.021074
984.430491	-0.021247
984.603999	-0.021072
984.777488	-0.021580
984.950959	-0.021264
985.124412	-0.018922
985.297847	-0.020876
985.471263	-0.022144
985.644661	-0.021511
985.818041	-0.020262
985.991403	-0.018995
986.164747	-0.019963
986.338072	-0.018423
986.511379	-0.017953
986.684668	-0.019691
986.857938	-0.019355
987.031191	-0.018281
987.204425	-0.017112
987.377641	-0.018878
987.550839	-0.020080
987.724018	-0.020596
987.897179	-0.019602
988.070322	-0.018681
988.243447	-0.016627
988.416554	-0.014754
988.589642	-0.014694
988.762712	-0.014100
988.935764	-0.014645
989.108798	-0.014820
989.281813	-0.012966
989.454811	-0.015756
989.627790	-0.016317
989.800751	-0.019401
989.973693	-0.020955
990.146617	-0.018185
990.319524	-0.018355
990.492412	-0.018415
990.665281	-0.018425
990.838133	-0.019833
991.010966	-0.017821
991.183781	-0.017592
991.356578	-0.015970
991.529356	-0.014795
991.702117	-0.018447
991.874859	-0.020794
992.047583	-0.021533
992.220288	-0.022689
992.392976	-0.021874
992.565645	-0.022533
992.738296	-0.021989
992.910929	-0.022545
993.083543	-0.022789
993.256139	-0.020836
993.428718	-0.019558
993.601277	-0.017559
993.773819	-0.015785
993.946342	-0.017563
994.118848	-0.017824
994.291335	-0.017567
994.463803	-0.016317
994.636254	-0.017010
994.808686	-0.018746
994.981100	-0.018459
995.153496	-0.019074
995.325874	-0.019826
995.498233	-0.019180
995.670574	-0.018510
995.842897	-0.020500
996.015202	-0.021834
996.187488	-0.021333
996.359757	-0.019147
996.532007	-0.020453
996.704239	-0.022192
996.876452	-0.021782
997.048648	-0.021815
997.220825	-0.023712
997.392984	-0.022675
997.565124	-0.022546
997.737247	-0.022475
997.909351	-0.023100
998.081437	-0.021271
998.253505	-0.019340
998.425554	-0.019039
998.597586	-0.019356
998.769599	-0.017012
998.941594	-0.017955
999.113571	-0.017819
999.285529	-0.019016
999.457469	-0.019253
999.629391	-0.020578
999.801295	-0.019500
999.973181	-0.019721
1000.145048	-0.018201
1000.316897	-0.019700
1000.488728	-0.019815
1000.660541	-0.018693
1000.832335	-0.017459
1001.004111	-0.016632
1001.175869	-0.016350
1001.347609	-0.016628
1001.519331	-0.015622
1001.691034	-0.015798
1001.862719	-0.015885
1002.034386	-0.014788
1002.206035	-0.016014
1002.377665	-0.015917
1002.549277	-0.017351
1002.720871	-0.016973
1002.892447	-0.017860
1003.064004	-0.019463
1003.235544	-0.019862
1003.407065	-0.019141
1003.578568	-0.019042
1003.750052	-0.018755
1003.921519	-0.020009
1004.092967	-0.018884
1004.264397	-0.020449
1004.435809	-0.019628
1004.607202	-0.018888
1004.778577	-0.019857
1004.949934	-0.019103
1005.121273	-0.019557
1005.292594	-0.018870
1005.463896	-0.018005
1005.635180	-0.019338
1005.806446	-0.018732
1005.977694	-0.020151
1006.148923	-0.019230
1006.320135	-0.019203
1006.491328	-0.020488
1006.662503	-0.020742
1006.833659	-0.022929
1007.004798	-0.023461
1007.175918	-0.023146
1007.347020	-0.021791
1007.518103	-0.021075
1007.689169	-0.022207
1007.860216	-0.021116
1008.031245	-0.020584
1008.202256	-0.019952
1008.373248	-0.018591
1008.544223	-0.017733
1008.715179	-0.016925
1008.886117	-0.017143
1009.057036	-0.017160
1009.227938	-0.016899
1009.398821	-0.016279
1009.569686	-0.016737
1009.740533	-0.017570
1009.911361	-0.017938
1010.082172	-0.018717
1010.252964	-0.019783
1010.423738	-0.019495
1010.594493	-0.021000
1010.765231	-0.022171
1010.935950	-0.023161
1011.106651	-0.023448
1011.277334	-0.022309
1011.447998	-0.020983
1011.618645	-0.021323
1011.789273	-0.020995
1011.959882	-0.021504
1012.130474	-0.020311
1012.301048	-0.018871
1012.471603	-0.019457
1012.642140	-0.019025
1012.812658	-0.020358
1012.983159	-0.021336
1013.153641	-0.020124
1013.324105	-0.019586
1013.494551	-0.020229
1013.664979	-0.020685
1013.835388	-0.021154
1014.005779	-0.019384
1014.176152	-0.020265
1014.346507	-0.019845
1014.516843	-0.021084
1014.687162	-0.021724
1014.857462	-0.023395
1015.027744	-0.023404
1015.198007	-0.024329
1015.368252	-0.024274
1015.538480	-0.025319
1015.708689	-0.024120
1015.878879	-0.024693
1016.049052	-0.022856
1016.219206	-0.023007
1016.389342	-0.022040
1016.559460	-0.021164
1016.729559	-0.018886
1016.899641	-0.020677
1017.069704	-0.021701
1017.239749	-0.024180
1017.409775	-0.024433
1017.579784	-0.025213
1017.749774	-0.026252
1017.919746	-0.026395
1018.089700	-0.028551
1018.259635	-0.030315
1018.429553	-0.029791
1018.599452	-0.029094
1018.769333	-0.027543
1018.939195	-0.027758
1019.109040	-0.026616
1019.278866	-0.025487
1019.448674	-0.026522
1019.618464	-0.025084
1019.788235	-0.023434
1019.957989	-0.023085
1020.127724	-0.024712
1020.297441	-0.024221
1020.467139	-0.022605
1020.636820	-0.024753
1020.806482	-0.024579
1020.976126	-0.022979
1021.145752	-0.023879
1021.315359	-0.025658
1021.484948	-0.025438
1021.654519	-0.025058
1021.824072	-0.024627
1021.993607	-0.025357
1022.163123	-0.023580
1022.332621	-0.024990
1022.502101	-0.024208
1022.671563	-0.023794
1022.841007	-0.023456
1023.010432	-0.023243
1023.179839	-0.023038
1023.349228	-0.022968
1023.518598	-0.023082
1023.687951	-0.024318
1023.857285	-0.023795
1024.026601	-0.026102
1024.195899	-0.025101
1024.365178	-0.023754
1024.534439	-0.025657
1024.703682	-0.025766
1024.872907	-0.026747
1025.042114	-0.027166
1025.211302	-0.026484
1025.380472	-0.025449
1025.549624	-0.024602
1025.718758	-0.024278
1025.887873	-0.025044
1026.056970	-0.022893
1026.226049	-0.021217
1026.395110	-0.020858
1026.564153	-0.021080
1026.733177	-0.020802
1026.902183	-0.021145
1027.071171	-0.021407
1027.240141	-0.023442
1027.409092	-0.023580
1027.578026	-0.023977
1027.746940	-0.023864
1027.915837	-0.024092
1028.084716	-0.024152
1028.253576	-0.025228
1028.422418	-0.025534
1028.591242	-0.024502
1028.760048	-0.022804
1028.928835	-0.024052
1029.097604	-0.023494
1029.266355	-0.024837
1029.435088	-0.022988
1029.603803	-0.022751
1029.772499	-0.021719
1029.941177	-0.022080
1030.109837	-0.023679
1030.278478	-0.023296
1030.447102	-0.021069
1030.615707	-0.021845
1030.784294	-0.021417
1030.952863	-0.021209
1031.121413	-0.021953
1031.289945	-0.021899
1031.458460	-0.021088
1031.626955	-0.019642
1031.795433	-0.021334
1031.963892	-0.021294
1032.132334	-0.021449
1032.300756	-0.021514
1032.469161	-0.023458
1032.637548	-0.021894
1032.805916	-0.021969
1032.974266	-0.022470
1033.142598	-0.022756
1033.310911	-0.021506
1033.479207	-0.022714
1033.647484	-0.022261
1033.815743	-0.021136
1033.983983	-0.020476
1034.152206	-0.020823
1034.320410	-0.022177
1034.488596	-0.021938
1034.656764	-0.022602
1034.824914	-0.022547
1034.993045	-0.022929
1035.161158	-0.023199
1035.329253	-0.024817
1035.497330	-0.026614
1035.665388	-0.025746
1035.833428	-0.025724
1036.001450	-0.027331
1036.169454	-0.027204
1036.337440	-0.026683
1036.505407	-0.026586
1036.673356	-0.025879
1036.841287	-0.025707
1037.009200	-0.025310
1037.177094	-0.025807
1037.344970	-0.025336
1037.512828	-0.023883
1037.680668	-0.023537
1037.848489	-0.022737
1038.016293	-0.023504
1038.184078	-0.025296
1038.351845	-0.025313
1038.519593	-0.023927
1038.687324	-0.024780
1038.855036	-0.023496
1039.022730	-0.024174
1039.190406	-0.023667
1039.358063	-0.024688
1039.525702	-0.024722
1039.693323	-0.023287
1039.860926	-0.022916
1040.028511	-0.022492
1040.196077	-0.023056
1040.363625	-0.024382
1040.531155	-0.023838
1040.698667	-0.025234
1040.866161	-0.026950
1041.033636	-0.025745
1041.201093	-0.025791
1041.368532	-0.024625
1041.535952	-0.025936
1041.703355	-0.024623
1041.870739	-0.025735
1042.038105	-0.024639
1042.205452	-0.024766
1042.372782	-0.022737
1042.540093	-0.022502
1042.707386	-0.022971
1042.874661	-0.024551
1043.041918	-0.024318
1043.209156	-0.024594
1043.376376	-0.025014
1043.543578	-0.025775
1043.710762	-0.025342
1043.877927	-0.024746
1044.045074	-0.024685
1044.212203	-0.023383
1044.379314	-0.022714
1044.546407	-0.023211
1044.713481	-0.024062
1044.880537	-0.021464
1045.047575	-0.022898
1045.214595	-0.022303
1045.381596	-0.024586
1045.548579	-0.025298
1045.715544	-0.025909
1045.882491	-0.026373
1046.049420	-0.026692
1046.216330	-0.025284
1046.383222	-0.024361
1046.550096	-0.023609
1046.716951	-0.022579
1046.883789	-0.023143
1047.050608	-0.023757
1047.217409	-0.023766
1047.384192	-0.024146
1047.550956	-0.024048
1047.717703	-0.025205
1047.884431	-0.027523
1048.051140	-0.028311
1048.217832	-0.028240
1048.384505	-0.025895
1048.551161	-0.026259
1048.717798	-0.025231
1048.884416	-0.026070
1049.051017	-0.023798
1049.217599	-0.025656
1049.384163	-0.024436
1049.550709	-0.023618
1049.717237	-0.025207
1049.883746	-0.025814
1050.050237	-0.023545
1050.216710	-0.026354
1050.383165	-0.026232
1050.549601	-0.027661
1050.716019	-0.025984
1050.882420	-0.028105
1051.048801	-0.026590
1051.215165	-0.026296
1051.381510	-0.028771
1051.547837	-0.029539
1051.714146	-0.028458
1051.880437	-0.027085
1052.046709	-0.025660
1052.212964	-0.024736
1052.379200	-0.023378
1052.545417	-0.025327
1052.711617	-0.024679
1052.877798	-0.022650
1053.043961	-0.022148
1053.210106	-0.024090
1053.376233	-0.022460
1053.542341	-0.023551
1053.708432	-0.024806
1053.874504	-0.025483
1054.040557	-0.024693
1054.206593	-0.025802
1054.372610	-0.026040
1054.538609	-0.027023
1054.704590	-0.024172
1054.870553	-0.027022
1055.036497	-0.029359
1055.202424	-0.028822
1055.368331	-0.028085
1055.534221	-0.028730
1055.700093	-0.030180
1055.865946	-0.030127
1056.031781	-0.029443
1056.197598	-0.029792
1056.363397	-0.029230
1056.529177	-0.028419
1056.694939	-0.028301
1056.860683	-0.028465
1057.026409	-0.028106
1057.192116	-0.025425
1057.357806	-0.026298
1057.523477	-0.029016
1057.689130	-0.030241
1057.854764	-0.031023
1058.020381	-0.029814
1058.185979	-0.029415
1058.351559	-0.030278
1058.517120	-0.032103
1058.682664	-0.033582
1058.848189	-0.033736
1059.013696	-0.032689
1059.179185	-0.033308
1059.344656	-0.031585
1059.510108	-0.031421
1059.675542	-0.030551
1059.840958	-0.030190
1060.006356	-0.028173
1060.171735	-0.029920
1060.337096	-0.029009
1060.502439	-0.028526
1060.667764	-0.026440
1060.833071	-0.025198
1060.998359	-0.025163
1061.163629	-0.026793
1061.328881	-0.025970
1061.494115	-0.026264
1061.659330	-0.024362
1061.824527	-0.025106
1061.989706	-0.025246
1062.154867	-0.026157
1062.320010	-0.028523
1062.485134	-0.027410
1062.650240	-0.027055
1062.815328	-0.026798
1062.980398	-0.025713
1063.145449	-0.024938
1063.310482	-0.025359
1063.475497	-0.025429
1063.640494	-0.025249
1063.805473	-0.025641
1063.970433	-0.028296
1064.135375	-0.028890
1064.300299	-0.029179
1064.465204	-0.029920
1064.630092	-0.029379
1064.794961	-0.030073
1064.959812	-0.028975
1065.124645	-0.029943
1065.289459	-0.028988
1065.454256	-0.027218
1065.619034	-0.027678
1065.783793	-0.028158
1065.948535	-0.028949
1066.113258	-0.029672
1066.277964	-0.027963
1066.442651	-0.028425
1066.607319	-0.027605
1066.771970	-0.026904
1066.936602	-0.027963
1067.101216	-0.026529
1067.265812	-0.027610
1067.430389	-0.025377
1067.594949	-0.025662
1067.759490	-0.025316
1067.924013	-0.026068
1068.088518	-0.026100
1068.253004	-0.027274
1068.417472	-0.026889
1068.581922	-0.026556
1068.746354	-0.025696
1068.910768	-0.028502
1069.075163	-0.028094
1069.239540	-0.028483
1069.403899	-0.026799
1069.568240	-0.025464
1069.732562	-0.025731
1069.896866	-0.025973
1070.061152	-0.026686
1070.225420	-0.026753
1070.389670	-0.026294
1070.553901	-0.026434
1070.718114	-0.027030
1070.882309	-0.026578
1071.046486	-0.029865
1071.210644	-0.030738
1071.374784	-0.028743
1071.538906	-0.030032
1071.703010	-0.029732
1071.867096	-0.030822
1072.031163	-0.030037
1072.195212	-0.029709
1072.359243	-0.030932
1072.523256	-0.028647
1072.687250	-0.027133
1072.851226	-0.030073
1073.015184	-0.029568
1073.179124	-0.028503
1073.343045	-0.026603
1073.506949	-0.028135
1073.670834	-0.029235
1073.834701	-0.029797
1073.998549	-0.028557
1074.162380	-0.030230
1074.326192	-0.028908
1074.489986	-0.027960
1074.653761	-0.029521
1074.817519	-0.030146
1074.981258	-0.030434
1075.144979	-0.029198
1075.308682	-0.028194
1075.472367	-0.029664
1075.636033	-0.029496
1075.799681	-0.029447
1075.963311	-0.030736
1076.126923	-0.032348
1076.290516	-0.031072
1076.454092	-0.029289
1076.617649	-0.028961
1076.781187	-0.030178
1076.944708	-0.029945
1077.108210	-0.028105
1077.271695	-0.030307
1077.435160	-0.028478
1077.598608	-0.026152
1077.762038	-0.027598
1077.925449	-0.028125
1078.088842	-0.030395
1078.252217	-0.030225
1078.415573	-0.031336
1078.578912	-0.031649
1078.742232	-0.028915
1078.905534	-0.030596
1079.068817	-0.030941
1079.232083	-0.029333
1079.395330	-0.028562
1079.558559	-0.027222
1079.721770	-0.026920
1079.884962	-0.027429
1080.048136	-0.027181
1080.211293	-0.026014
1080.374430	-0.025188
1080.537550	-0.023201
1080.700651	-0.023098
1080.863735	-0.024895
1081.026800	-0.026887
1081.189846	-0.025155
1081.352875	-0.024228
1081.515885	-0.025542
1081.678877	-0.027183
1081.841851	-0.026305
1082.004807	-0.026548
1082.167744	-0.023740
1082.330663	-0.023980
1082.493564	-0.021899
1082.656447	-0.023966
1082.819312	-0.024424
1082.982158	-0.023010
1083.144986	-0.023936
1083.307796	-0.023371
1083.470587	-0.026342
1083.633361	-0.028694
1083.796116	-0.029590
1083.958853	-0.030708
1084.121571	-0.031184
1084.284272	-0.028025
1084.446954	-0.029101
1084.609618	-0.028997
1084.772264	-0.030561
1084.934892	-0.028919
1085.097501	-0.031219
1085.260092	-0.030323
1085.422665	-0.027253
1085.585220	-0.026413
1085.747756	-0.028761
1085.910274	-0.029345
1086.072774	-0.027776
1086.235256	-0.028544
1086.397720	-0.027787
1086.560165	-0.027874
1086.722592	-0.029067
1086.885001	-0.031343
1087.047392	-0.030971
1087.209764	-0.029747
1087.372119	-0.029049
1087.534455	-0.031030
1087.696772	-0.029285
1087.859072	-0.028840
1088.021353	-0.026962
1088.183616	-0.026000
1088.345861	-0.026905
1088.508088	-0.025014
1088.670296	-0.026557
1088.832486	-0.027794
1088.994658	-0.028597
1089.156812	-0.029550
1089.318948	-0.030060
1089.481065	-0.030452
1089.643164	-0.031166
1089.805245	-0.028880
1089.967308	-0.029508
1090.129352	-0.028820
1090.291378	-0.027766
1090.453386	-0.025619
1090.615376	-0.024597
1090.777347	-0.027280
1090.939301	-0.028868
1091.101236	-0.027301
1091.263153	-0.027768
1091.425051	-0.032000
1091.586932	-0.032023
1091.748794	-0.032413
1091.910638	-0.032863
1092.072463	-0.034031
1092.234271	-0.032792
1092.396060	-0.030134
1092.557831	-0.031987
1092.719584	-0.030842
1092.881319	-0.027259
1093.043035	-0.030588
1093.204733	-0.031044
1093.366413	-0.034395
1093.528075	-0.034672
1093.689718	-0.035460
1093.851343	-0.037708
1094.012950	-0.041431
1094.174539	-0.042999
1094.336110	-0.046212
1094.497662	-0.043097
1094.659196	-0.042114
1094.820712	-0.037756
1094.982210	-0.034508
1095.143689	-0.035142
1095.305151	-0.036810
1095.466594	-0.030609
1095.628018	-0.029189
1095.789425	-0.026019
1095.950813	-0.028078
1096.112183	-0.026925
1096.273535	-0.025163
1096.434869	-0.026241
1096.596184	-0.021657
1096.757482	-0.018564
1096.918761	-0.022000
1097.080021	-0.021807
1097.241264	-0.024609
1097.402488	-0.023545
1097.563694	-0.024747
1097.724882	-0.028659
1097.886052	-0.030081
1098.047203	-0.031115
1098.208336	-0.031100
1098.369451	-0.026347
1098.530548	-0.030288
1098.691627	-0.032142
1098.852687	-0.031729
1099.013729	-0.028924
1099.174753	-0.029008
1099.335758	-0.030298
1099.496746	-0.034786
1099.657715	-0.035935
1099.818666	-0.041502
1099.979599	-0.041804
1100.140513	-0.038362
1100.301409	-0.040628
1100.462287	-0.044498
1100.623147	-0.042837
1100.783989	-0.041531
1100.944812	-0.040927
1101.105617	-0.043703
1101.266404	-0.041453
1101.427173	-0.039084
1101.587923	-0.041901
1101.748656	-0.041821
1101.909370	-0.039306
1102.070066	-0.042974
1102.230743	-0.041798
1102.391403	-0.040369
1102.552044	-0.036803
1102.712667	-0.036165
1102.873271	-0.037822
1103.033858	-0.038306
1103.194426	-0.039507
1103.354976	-0.041648
1103.515508	-0.036842
1103.676021	-0.038598
1103.836517	-0.039866
1103.996994	-0.043444
1104.157453	-0.040871
1104.317893	-0.040346
1104.478316	-0.034647
1104.638720	-0.029700
1104.799106	-0.028504
1104.959474	-0.031883
1105.119823	-0.032538
1105.280155	-0.034050
1105.440468	-0.031508
1105.600763	-0.036067
1105.761039	-0.038049
1105.921298	-0.043419
1106.081538	-0.043348
1106.241760	-0.042766
1106.401964	-0.047677
1106.562149	-0.048666
1106.722316	-0.046214
1106.882465	-0.049151
1107.042596	-0.048347
1107.202709	-0.043093
1107.362803	-0.039896
1107.522879	-0.043243
1107.682937	-0.045033
1107.842977	-0.040756
1108.002999	-0.039408
1108.163002	-0.039009
1108.322987	-0.036449
1108.482954	-0.034163
1108.642902	-0.036692
1108.802833	-0.038432
1108.962745	-0.037258
1109.122639	-0.036865
1109.282515	-0.036731
1109.442372	-0.039616
1109.602211	-0.043334
1109.762032	-0.043580
1109.921835	-0.047360
1110.081620	-0.049590
1110.241386	-0.051790
1110.401134	-0.050406
1110.560864	-0.049305
1110.720576	-0.048855
1110.880269	-0.046092
1111.039945	-0.042446
1111.199602	-0.043139
1111.359240	-0.043228
1111.518861	-0.039269
1111.678463	-0.038679
1111.838047	-0.042279
1111.997613	-0.043220
1112.157161	-0.043317
1112.316690	-0.046323
1112.476202	-0.049439
1112.635695	-0.048509
1112.795169	-0.043517
1112.954626	-0.043532
1113.114064	-0.043588
1113.273484	-0.044544
1113.432886	-0.048396
1113.592270	-0.049590
1113.751635	-0.051020
1113.910983	-0.045747
1114.070312	-0.042924
1114.229622	-0.046294
1114.388915	-0.045487
1114.548189	-0.043314
1114.707445	-0.040227
1114.866683	-0.038685
1115.025903	-0.039714
1115.185104	-0.035817
1115.344287	-0.038395
1115.503452	-0.044875
1115.662599	-0.039911
1115.821727	-0.047638
1115.980838	-0.048481
1116.139930	-0.047002
1116.299004	-0.043290
1116.458059	-0.038906
1116.617097	-0.041323
1116.776116	-0.043028
1116.935117	-0.037619
1117.094099	-0.039302
1117.253064	-0.032866
1117.412010	-0.030062
1117.570938	-0.037014
1117.729848	-0.037458
1117.888740	-0.040908
1118.047613	-0.037495
1118.206468	-0.037025
1118.365305	-0.039137
1118.524124	-0.041165
1118.682924	-0.042047
1118.841707	-0.046395
1119.000471	-0.039775
1119.159216	-0.040952
1119.317944	-0.041750
1119.476653	-0.043046
1119.635344	-0.044510
1119.794017	-0.041631
1119.952672	-0.044910
1120.111308	-0.042070
1120.269927	-0.039547
1120.428527	-0.043316
1120.587108	-0.044950
1120.745672	-0.047702
1120.904217	-0.046575
1121.062744	-0.047265
1121.221253	-0.056475
1121.379744	-0.054960
1121.538216	-0.063394
1121.696671	-0.063792
1121.855107	-0.061897
1122.013524	-0.061028
1122.171924	-0.055063
1122.330305	-0.056627
1122.488668	-0.052914
1122.647013	-0.043705
1122.805340	-0.041802
1122.963648	-0.036675
1123.121938	-0.039573
1123.280210	-0.038568
1123.438464	-0.044288
1123.596700	-0.046153
1123.754917	-0.049841
1123.913116	-0.054225
1124.071297	-0.058107
1124.229459	-0.058670
1124.387604	-0.061218
1124.545730	-0.064150
1124.703838	-0.064892
1124.861928	-0.056090
1125.019999	-0.053970
1125.178052	-0.052912
1125.336088	-0.043545
1125.494104	-0.047398
1125.652103	-0.049945
1125.810083	-0.047864
1125.968045	-0.045610
1126.125989	-0.049429
1126.283915	-0.051359
1126.441823	-0.053872
1126.599712	-0.052128
1126.757583	-0.057382
1126.915436	-0.053229
1127.073270	-0.050159
1127.231087	-0.050863
1127.388885	-0.044535
1127.546665	-0.041819
1127.704426	-0.041543
1127.862170	-0.042874
1128.019895	-0.040072
1128.177602	-0.037365
1128.335291	-0.042164
1128.492961	-0.045102
1128.650614	-0.042805
1128.808248	-0.047669
1128.965864	-0.049229
1129.123461	-0.050409
1129.281041	-0.052294
1129.438602	-0.052688
1129.596145	-0.056844
1129.753670	-0.052305
1129.911176	-0.049840
1130.068665	-0.054701
1130.226135	-0.055199
1130.383587	-0.054980
1130.541020	-0.053006
1130.698436	-0.050424
1130.855833	-0.057098
1131.013212	-0.054117
1131.170573	-0.053735
1131.327915	-0.054844
1131.485239	-0.052335
1131.642545	-0.055316
1131.799833	-0.053003
1131.957103	-0.054724
1132.114354	-0.054462
1132.271588	-0.051142
1132.428803	-0.049598
1132.585999	-0.050627
1132.743178	-0.048200
1132.900338	-0.053001
1133.057480	-0.045794
1133.214604	-0.050129
1133.371710	-0.048780
1133.528797	-0.049272
1133.685866	-0.047542
1133.842917	-0.054206
1133.999950	-0.051044
1134.156964	-0.051574
1134.313960	-0.047391
1134.470938	-0.043936
1134.627898	-0.036080
1134.784840	-0.033183
1134.941763	-0.033240
1135.098668	-0.040105
1135.255555	-0.034232
1135.412424	-0.038630
1135.569274	-0.044496
1135.726107	-0.037467
1135.882921	-0.035924
1136.039716	-0.036681
1136.196494	-0.040881
1136.353253	-0.037805
1136.509995	-0.029241
1136.666717	-0.034753
1136.823422	-0.033403
1136.980109	-0.021994
1137.136777	-0.029001
1137.293427	-0.037848
1137.450059	-0.049279
1137.606672	-0.053209
1137.763267	-0.056484
1137.919844	-0.057548
1138.076403	-0.055562
1138.232944	-0.058332
1138.389466	-0.067941
1138.545971	-0.066887
1138.702457	-0.065536
1138.858924	-0.060563
1139.015374	-0.056852
1139.171805	-0.056779
1139.328218	-0.061611
1139.484613	-0.064493
1139.640990	-0.058809
1139.797348	-0.061703
1139.953688	-0.060298
1140.110010	-0.062687
1140.266314	-0.055814
1140.422600	-0.058989
1140.578867	-0.059035
1140.735116	-0.053957
1140.891347	-0.051530
1141.047559	-0.049817
1141.203754	-0.036211
1141.359930	-0.036169
1141.516088	-0.032612
1141.672228	-0.038578
1141.828349	-0.040458
1141.984452	-0.040621
1142.140537	-0.040143
1142.296604	-0.038482
1142.452653	-0.044768
1142.608683	-0.052342
1142.764695	-0.052616
1142.920689	-0.051086
1143.076665	-0.051792
1143.232622	-0.047620
1143.388562	-0.039612
1143.544483	-0.040910
1143.700385	-0.047057
1143.856270	-0.044404
1144.012136	-0.044062
1144.167985	-0.048018
1144.323814	-0.050645
1144.479626	-0.044849
1144.635420	-0.045690
1144.791195	-0.046922
1144.946952	-0.044765
1145.102691	-0.034767
1145.258411	-0.039373
1145.414113	-0.041611
1145.569798	-0.034518
1145.725463	-0.033103
1145.881111	-0.035047
1146.036741	-0.031378
1146.192352	-0.040950
1146.347945	-0.051642
1146.503519	-0.053305
1146.659076	-0.050360
1146.814614	-0.048112
1146.970134	-0.047330
1147.125636	-0.046768
1147.281120	-0.047640
1147.436585	-0.047194
1147.592032	-0.040994
1147.747461	-0.040412
1147.902872	-0.042467
1148.058265	-0.043638
1148.213639	-0.042446
1148.368995	-0.050494
1148.524333	-0.052731
1148.679653	-0.053448
1148.834954	-0.052696
1148.990237	-0.051756
1149.145502	-0.042609
1149.300749	-0.043276
1149.455977	-0.044479
1149.611188	-0.044004
1149.766380	-0.040313
1149.921553	-0.044790
1150.076709	-0.039678
1150.231846	-0.050544
1150.386966	-0.049711
1150.542066	-0.050746
1150.697149	-0.046536
1150.852214	-0.042901
1151.007260	-0.047753
1151.162288	-0.041121
1151.317298	-0.040981
1151.472289	-0.043114
1151.627263	-0.042741
1151.782218	-0.047309
1151.937155	-0.047504
1152.092073	-0.045587
1152.246974	-0.037758
1152.401856	-0.028927
1152.556720	-0.036920
1152.711566	-0.023193
1152.866393	-0.030076
1153.021203	-0.025378
1153.175994	-0.030793
1153.330767	-0.024578
1153.485521	-0.026225
1153.640258	-0.042075
1153.794976	-0.045678
1153.949676	-0.042011
1154.104358	-0.056548
1154.259021	-0.050107
1154.413667	-0.051166
1154.568294	-0.049952
1154.722903	-0.048644
1154.877493	-0.055601
1155.032066	-0.042922
1155.186620	-0.040867
1155.341156	-0.050127
1155.495674	-0.040121
1155.650173	-0.044205
1155.804654	-0.048859
1155.959118	-0.051120
1156.113562	-0.063384
1156.267989	-0.062360
1156.422397	-0.061766
1156.576788	-0.065473
1156.731160	-0.059895
1156.885513	-0.063048
1157.039849	-0.066175
1157.194166	-0.061376
1157.348465	-0.056156
1157.502746	-0.052327
1157.657009	-0.046817
1157.811253	-0.060968
1157.965479	-0.059356
1158.119687	-0.056161
1158.273877	-0.054985
1158.428048	-0.044150
1158.582201	-0.042512
1158.736337	-0.042295
1158.890453	-0.041659
1159.044552	-0.038240
1159.198632	-0.023937
1159.352694	-0.022735
1159.506738	-0.016882
1159.660764	-0.016225
1159.814771	-0.016564
1159.968761	-0.010764
1160.122732	-0.003176
1160.276685	-0.006644
1160.430619	-0.010621
1160.584535	-0.017553
1160.738434	-0.018387
1160.892313	-0.025750
1161.046175	-0.035161
1161.200019	-0.044313
1161.353844	-0.055816
1161.507651	-0.058999
1161.661440	-0.054974
1161.815210	-0.054361
1161.968962	-0.046103
1162.122697	-0.049856
1162.276412	-0.047915
1162.430110	-0.026025
1162.583789	-0.010988
1162.737451	-0.001812
1162.891094	0.005512
1163.044718	0.002652
1163.198325	0.012070
1163.351913	-0.009064
1163.505483	-0.013602
1163.659035	-0.024123
1163.812569	-0.041053
1163.966084	-0.051129
1164.119581	-0.051067
1164.273060	-0.053942
1164.426521	-0.053391
1164.579964	-0.068578
1164.733388	-0.051186
1164.886794	-0.046205
1165.040182	-0.044578
1165.193551	-0.047201
1165.346903	-0.045008
1165.500236	-0.052024
1165.653551	-0.049278
1165.806848	-0.059492
1165.960126	-0.053473
1166.113386	-0.051329
1166.266628	-0.051039
1166.419852	-0.046605
1166.573058	-0.047849
1166.726245	-0.048737
1166.879414	-0.044542
1167.032565	-0.045259
1167.185698	-0.026626
1167.338812	-0.022092
1167.491909	-0.031031
1167.644987	-0.028731
1167.798046	-0.032962
1167.951088	-0.028017
1168.104111	-0.029602
1168.257117	-0.024957
1168.410103	-0.030729
1168.563072	-0.035207
1168.716023	-0.043760
1168.868955	-0.053435
1169.021869	-0.044805
1169.174765	-0.047267
1169.327642	-0.057917
1169.480501	-0.064255
1169.633343	-0.078164
1169.786165	-0.076393
1169.938970	-0.085484
1170.091757	-0.071618
1170.244525	-0.056183
1170.397275	-0.063064
1170.550007	-0.056367
1170.702720	-0.039609
1170.855415	-0.030750
1171.008092	-0.027049
1171.160751	-0.040120
1171.313392	-0.041295
1171.466014	-0.002952
1171.618619	-0.119280
1171.771205	-0.119280
1171.923772	-0.119280
