sample name	sample
index	1141
start time	 04-22-2021  03:03:53 PM


Wavelength (nm)	Absorbance
494.344910	-0.380211
494.563924	-0.380211
494.782919	-0.380211
495.001897	-0.671305
495.220856	NaN
495.439797	NaN
495.658719	NaN
495.877624	NaN
496.096510	NaN
496.315378	0.304705
496.534227	0.047368
496.753059	-0.075179
496.971872	-0.314264
497.190667	0.021181
497.409444	0.031853
497.628203	0.028134
497.846943	0.034422
498.065665	0.035877
498.284369	0.037168
498.503055	0.037380
498.721723	0.037856
498.940372	0.037437
499.159003	0.037829
499.377616	0.037618
499.596210	0.038239
499.814787	0.038152
500.033345	0.037798
500.251885	0.038189
500.470406	0.037887
500.688910	0.037280
500.907395	0.037871
501.125862	0.037888
501.344311	0.038033
501.562742	0.037953
501.781154	0.037981
501.999548	0.037368
502.217924	0.035876
502.436282	0.036205
502.654621	0.035973
502.872942	0.034865
503.091245	0.035055
503.309530	0.035264
503.527797	0.034841
503.746045	0.034035
503.964275	0.034047
504.182487	0.034212
504.400681	0.034549
504.618856	0.034379
504.837013	0.035815
505.055152	0.034959
505.273273	0.034231
505.491376	0.034399
505.709460	0.034419
505.927526	0.035216
506.145574	0.035741
506.363604	0.035454
506.581615	0.035603
506.799608	0.035473
507.017583	0.035896
507.235540	0.035552
507.453478	0.036120
507.671399	0.035865
507.889301	0.035262
508.107185	0.034505
508.325050	0.034887
508.542898	0.035056
508.760727	0.035329
508.978538	0.034515
509.196330	0.035045
509.414105	0.034923
509.631861	0.035531
509.849599	0.035292
510.067319	0.035455
510.285021	0.035001
510.502704	0.034497
510.720369	0.033853
510.938016	0.034030
511.155645	0.033896
511.373255	0.032885
511.590848	0.032643
511.808422	0.032361
512.025977	0.031620
512.243515	0.031320
512.461034	0.031437
512.678536	0.030626
512.896018	0.031167
513.113483	0.031532
513.330930	0.031955
513.548358	0.032069
513.765768	0.032531
513.983160	0.033261
514.200533	0.033620
514.417889	0.034133
514.635226	0.034510
514.852545	0.034472
515.069845	0.033679
515.287128	0.034270
515.504392	0.032931
515.721638	0.032483
515.938866	0.032574
516.156075	0.032591
516.373267	0.031662
516.590440	0.031776
516.807594	0.031006
517.024731	0.030791
517.241850	0.030645
517.458950	0.031500
517.676032	0.031459
517.893095	0.031265
518.110141	0.030208
518.327168	0.030493
518.544177	0.030557
518.761168	0.030303
518.978141	0.031301
519.195095	0.030808
519.412031	0.030575
519.628949	0.031053
519.845849	0.031328
520.062731	0.031643
520.279594	0.031421
520.496439	0.031145
520.713266	0.031595
520.930074	0.031095
521.146865	0.030867
521.363637	0.031255
521.580391	0.030450
521.797127	0.029171
522.013844	0.028700
522.230543	0.028957
522.447224	0.028847
522.663887	0.028228
522.880532	0.027796
523.097158	0.027819
523.313766	0.026839
523.530356	0.027395
523.746928	0.027928
523.963481	0.027960
524.180017	0.027598
524.396534	0.027266
524.613032	0.027631
524.829513	0.027297
525.045975	0.026732
525.262420	0.027290
525.478845	0.027308
525.695253	0.027595
525.911643	0.027806
526.128014	0.028098
526.344367	0.027871
526.560702	0.027754
526.777018	0.027508
526.993316	0.027663
527.209597	0.027856
527.425858	0.027569
527.642102	0.027358
527.858328	0.027863
528.074535	0.027660
528.290724	0.028039
528.506894	0.028457
528.723047	0.028961
528.939181	0.028919
529.155297	0.028170
529.371395	0.027983
529.587475	0.028075
529.803536	0.027245
530.019579	0.027083
530.235604	0.027006
530.451611	0.026598
530.667600	0.026659
530.883570	0.026989
531.099522	0.027139
531.315456	0.027013
531.531372	0.026089
531.747269	0.026528
531.963148	0.026643
532.179009	0.026548
532.394852	0.026940
532.610676	0.026207
532.826482	0.026179
533.042271	0.026541
533.258040	0.026498
533.473792	0.026922
533.689525	0.026212
533.905240	0.025626
534.120937	0.025536
534.336616	0.024979
534.552277	0.025179
534.767919	0.025047
534.983543	0.024749
535.199149	0.024730
535.414736	0.024909
535.630306	0.024840
535.845857	0.024857
536.061390	0.024538
536.276904	0.024168
536.492401	0.024264
536.707879	0.023976
536.923339	0.023477
537.138781	0.023361
537.354204	0.023309
537.569610	0.023601
537.784997	0.023672
538.000366	0.023990
538.215716	0.023868
538.431049	0.023426
538.646363	0.023364
538.861659	0.024064
539.076937	0.023840
539.292196	0.023512
539.507438	0.023268
539.722661	0.023180
539.937866	0.022794
540.153052	0.023124
540.368221	0.023058
540.583371	0.023087
540.798503	0.022638
541.013617	0.022871
541.228712	0.022641
541.443789	0.023045
541.658848	0.023177
541.873889	0.023339
542.088912	0.023618
542.303916	0.024112
542.518902	0.024070
542.733870	0.024543
542.948820	0.024547
543.163752	0.024876
543.378665	0.024663
543.593560	0.024748
543.808437	0.024788
544.023295	0.024496
544.238136	0.024300
544.452958	0.024315
544.667762	0.024035
544.882548	0.023907
545.097315	0.023881
545.312064	0.024241
545.526795	0.023951
545.741508	0.023561
545.956203	0.023488
546.170879	0.023328
546.385537	0.023420
546.600177	0.023279
546.814799	0.023010
547.029402	0.022820
547.243988	0.022172
547.458555	0.022339
547.673103	0.022217
547.887634	0.022192
548.102146	0.022590
548.316640	0.022574
548.531116	0.022264
548.745574	0.022534
548.960013	0.023011
549.174435	0.023136
549.388838	0.023053
549.603222	0.023312
549.817589	0.023040
550.031937	0.022928
550.246267	0.022933
550.460579	0.023092
550.674873	0.022844
550.889148	0.022705
551.103405	0.022984
551.317644	0.022965
551.531865	0.022852
551.746068	0.023286
551.960252	0.022802
552.174418	0.022444
552.388566	0.022354
552.602696	0.022248
552.816807	0.022085
553.030900	0.021658
553.244975	0.021578
553.459032	0.021594
553.673070	0.021227
553.887091	0.021378
554.101093	0.021138
554.315077	0.021438
554.529042	0.021918
554.742990	0.021510
554.956919	0.021348
555.170830	0.021164
555.384722	0.021135
555.598597	0.020995
555.812453	0.020998
556.026291	0.021407
556.240111	0.020864
556.453913	0.020213
556.667696	0.020097
556.881461	0.020262
557.095208	0.020405
557.308937	0.020654
557.522647	0.020627
557.736339	0.020261
557.950013	0.020298
558.163669	0.020636
558.377307	0.020928
558.590926	0.020995
558.804527	0.021180
559.018110	0.021338
559.231675	0.021421
559.445221	0.021591
559.658749	0.021639
559.872259	0.021300
560.085751	0.020963
560.299225	0.020841
560.512680	0.021174
560.726117	0.020889
560.939536	0.021029
561.152937	0.020518
561.366319	0.020517
561.579683	0.020818
561.793029	0.020825
562.006357	0.020741
562.219667	0.020684
562.432958	0.020465
562.646231	0.020258
562.859486	0.020159
563.072723	0.020013
563.285941	0.019840
563.499141	0.019818
563.712323	0.019970
563.925487	0.020027
564.138632	0.019915
564.351760	0.019991
564.564869	0.020250
564.777960	0.019774
564.991032	0.019955
565.204087	0.019978
565.417123	0.019591
565.630141	0.019320
565.843140	0.019238
566.056122	0.019522
566.269085	0.019397
566.482030	0.019226
566.694957	0.019257
566.907866	0.019081
567.120756	0.019175
567.333628	0.019330
567.546482	0.019001
567.759318	0.018735
567.972135	0.018279
568.184935	0.018327
568.397716	0.018138
568.610478	0.018180
568.823223	0.018488
569.035949	0.018310
569.248657	0.018347
569.461347	0.018994
569.674019	0.019527
569.886672	0.019731
570.099308	0.019510
570.311925	0.019597
570.524523	0.019431
570.737104	0.019376
570.949666	0.019507
571.162210	0.019364
571.374736	0.019115
571.587244	0.019089
571.799733	0.018774
572.012205	0.018894
572.224658	0.018965
572.437092	0.018822
572.649509	0.018812
572.861907	0.018465
573.074287	0.018433
573.286649	0.018214
573.498993	0.017988
573.711318	0.018383
573.923625	0.018484
574.135914	0.018660
574.348185	0.018957
574.560438	0.018683
574.772672	0.018774
574.984888	0.018783
575.197086	0.019094
575.409266	0.018855
575.621427	0.018555
575.833570	0.018252
576.045695	0.017905
576.257802	0.017683
576.469890	0.017603
576.681961	0.017776
576.894013	0.017596
577.106046	0.017466
577.318062	0.017831
577.530059	0.017952
577.742039	0.018044
577.954000	0.018074
578.165942	0.018220
578.377867	0.018490
578.589773	0.018269
578.801661	0.018547
579.013531	0.018640
579.225382	0.018389
579.437216	0.018172
579.649031	0.018115
579.860828	0.018118
580.072606	0.017738
580.284367	0.017461
580.496109	0.017558
580.707833	0.017023
580.919539	0.016740
581.131227	0.016890
581.342896	0.016845
581.554547	0.017048
581.766180	0.017014
581.977795	0.017439
582.189391	0.017445
582.400969	0.017380
582.612529	0.017835
582.824071	0.017736
583.035595	0.017340
583.247100	0.017680
583.458587	0.017476
583.670056	0.017606
583.881506	0.017325
584.092939	0.017441
584.304353	0.017151
584.515749	0.017230
584.727127	0.017317
584.938486	0.017586
585.149828	0.017307
585.361151	0.017138
585.572456	0.017104
585.783742	0.017035
585.995011	0.016783
586.206261	0.017276
586.417493	0.017254
586.628706	0.017039
586.839902	0.016847
587.051079	0.016630
587.262238	0.016752
587.473379	0.016613
587.684502	0.016678
587.895606	0.016688
588.106692	0.016403
588.317760	0.016346
588.528810	0.016599
588.739841	0.016564
588.950855	0.016864
589.161850	0.016937
589.372827	0.016831
589.583785	0.016917
589.794726	0.016824
590.005648	0.016954
590.216552	0.016779
590.427437	0.016463
590.638305	0.016429
590.849154	0.016305
591.059985	0.016337
591.270798	0.016335
591.481592	0.016346
591.692369	0.016536
591.903127	0.016192
592.113867	0.016200
592.324588	0.016366
592.535292	0.016701
592.745977	0.016885
592.956644	0.016633
593.167293	0.016894
593.377923	0.017116
593.588536	0.017211
593.799130	0.017540
594.009706	0.017742
594.220263	0.017752
594.430803	0.017330
594.641324	0.017419
594.851827	0.017611
595.062312	0.017678
595.272778	0.017591
595.483227	0.017726
595.693657	0.017697
595.904069	0.017582
596.114462	0.017599
596.324838	0.017902
596.535195	0.017754
596.745534	0.017571
596.955855	0.017451
597.166157	0.017175
597.376441	0.017079
597.586707	0.016889
597.796955	0.016607
598.007185	0.016724
598.217396	0.016578
598.427589	0.016386
598.637764	0.016596
598.847921	0.016349
599.058060	0.016184
599.268180	0.015818
599.478282	0.015769
599.688366	0.015860
599.898431	0.015939
600.108479	0.015862
600.318508	0.015727
600.528519	0.015424
600.738511	0.015521
600.948486	0.015829
601.158442	0.016039
601.368380	0.016035
601.578300	0.016103
601.788202	0.015640
601.998085	0.015808
602.207950	0.015741
602.417797	0.015867
602.627626	0.015779
602.837436	0.015383
603.047228	0.015271
603.257002	0.015206
603.466758	0.015028
603.676496	0.014847
603.886215	0.014430
604.095916	0.014828
604.305599	0.014859
604.515264	0.015168
604.724910	0.015269
604.934538	0.015416
605.144148	0.015540
605.353740	0.015652
605.563314	0.016096
605.772869	0.016220
605.982406	0.016022
606.191925	0.015991
606.401425	0.015643
606.610908	0.015548
606.820372	0.015356
607.029818	0.015187
607.239246	0.014948
607.448655	0.014595
607.658047	0.014568
607.867420	0.014527
608.076775	0.014395
608.286111	0.014327
608.495430	0.014466
608.704730	0.014435
608.914012	0.014280
609.123275	0.014335
609.332521	0.014085
609.541748	0.014256
609.750957	0.014154
609.960148	0.014143
610.169321	0.013966
610.378475	0.013880
610.587611	0.013946
610.796729	0.013854
611.005829	0.013782
611.214910	0.013983
611.423974	0.013833
611.633019	0.013648
611.842045	0.013692
612.051054	0.013720
612.260044	0.013754
612.469017	0.013510
612.677970	0.013664
612.886906	0.013936
613.095824	0.014119
613.304723	0.014131
613.513604	0.014357
613.722467	0.014156
613.931311	0.014422
614.140138	0.014319
614.348946	0.014438
614.557736	0.014759
614.766507	0.014581
614.975261	0.014448
615.183996	0.014550
615.392713	0.014351
615.601412	0.014491
615.810092	0.014354
616.018754	0.014267
616.227399	0.013985
616.436024	0.013516
616.644632	0.013567
616.853222	0.013615
617.061793	0.013229
617.270346	0.013333
617.478880	0.013146
617.687397	0.013212
617.895895	0.013053
618.104375	0.013006
618.312837	0.013223
618.521281	0.013077
618.729706	0.013170
618.938113	0.013315
619.146502	0.013054
619.354873	0.012977
619.563226	0.012883
619.771560	0.013002
619.979876	0.013332
620.188174	0.013062
620.396453	0.013166
620.604715	0.012945
620.812958	0.013000
621.021183	0.013259
621.229390	0.013302
621.437578	0.013068
621.645748	0.013132
621.853900	0.013410
622.062034	0.013458
622.270150	0.013212
622.478247	0.013103
622.686326	0.013067
622.894387	0.013106
623.102430	0.012974
623.310454	0.013034
623.518461	0.012748
623.726449	0.012065
623.934418	0.012275
624.142370	0.012293
624.350303	0.012408
624.558218	0.012389
624.766115	0.012270
624.973994	0.012319
625.181855	0.012352
625.389697	0.012326
625.597521	0.012588
625.805327	0.012108
626.013114	0.012312
626.220883	0.012213
626.428634	0.012110
626.636367	0.012158
626.844082	0.012292
627.051778	0.012405
627.259457	0.012588
627.467117	0.012699
627.674758	0.012863
627.882382	0.012634
628.089987	0.012612
628.297574	0.012506
628.505143	0.012443
628.712694	0.012095
628.920226	0.012084
629.127740	0.012013
629.335236	0.011854
629.542714	0.011927
629.750174	0.011999
629.957615	0.011985
630.165038	0.012004
630.372443	0.011921
630.579829	0.011998
630.787198	0.011975
630.994548	0.012161
631.201880	0.011879
631.409194	0.011879
631.616489	0.012028
631.823766	0.012309
632.031025	0.012201
632.238266	0.012196
632.445489	0.012214
632.652693	0.012157
632.859879	0.011926
633.067047	0.012129
633.274197	0.012008
633.481329	0.011965
633.688442	0.011728
633.895537	0.011861
634.102614	0.011754
634.309672	0.011850
634.516713	0.011756
634.723735	0.011762
634.930739	0.011952
635.137724	0.012008
635.344692	0.011966
635.551641	0.011851
635.758572	0.012021
635.965485	0.012189
636.172379	0.012209
636.379256	0.012233
636.586114	0.012452
636.792954	0.012377
636.999775	0.012328
637.206579	0.012152
637.413364	0.012408
637.620131	0.012267
637.826880	0.012283
638.033610	0.012344
638.240323	0.012344
638.447017	0.012209
638.653692	0.012159
638.860350	0.012226
639.066990	0.012219
639.273611	0.012071
639.480214	0.011910
639.686798	0.011879
639.893365	0.011806
640.099913	0.011920
640.306443	0.011843
640.512955	0.011816
640.719449	0.012067
640.925924	0.011998
641.132381	0.012188
641.338820	0.012514
641.545241	0.012403
641.751644	0.012360
641.958028	0.012145
642.164394	0.012226
642.370742	0.012184
642.577071	0.012144
642.783383	0.012316
642.989676	0.012180
643.195951	0.012142
643.402207	0.012113
643.608446	0.012036
643.814666	0.012045
644.020868	0.011908
644.227052	0.011960
644.433218	0.011702
644.639365	0.011684
644.845494	0.011655
645.051605	0.011536
645.257698	0.011593
645.463772	0.011721
645.669828	0.011825
645.875866	0.011930
646.081886	0.011695
646.287888	0.011673
646.493871	0.011474
646.699836	0.011512
646.905783	0.011311
647.111712	0.011287
647.317622	0.011130
647.523514	0.010927
647.729388	0.010859
647.935244	0.010922
648.141082	0.011059
648.346901	0.011176
648.552702	0.011050
648.758485	0.011199
648.964250	0.011136
649.169996	0.011052
649.375724	0.011391
649.581434	0.011373
649.787126	0.011410
649.992800	0.011220
650.198455	0.011176
650.404092	0.011041
650.609711	0.011008
650.815311	0.011246
651.020894	0.011291
651.226458	0.011030
651.432004	0.011219
651.637532	0.011334
651.843041	0.011519
652.048532	0.011619
652.254006	0.011828
652.459460	0.011975
652.664897	0.011748
652.870315	0.011934
653.075716	0.011933
653.281097	0.011801
653.486461	0.011850
653.691807	0.011587
653.897134	0.011634
654.102443	0.011592
654.307734	0.011475
654.513006	0.011611
654.718261	0.011616
654.923497	0.011575
655.128715	0.011463
655.333915	0.011473
655.539096	0.011465
655.744259	0.011401
655.949404	0.011354
656.154531	0.011263
656.359640	0.011189
656.564730	0.011095
656.769802	0.011225
656.974856	0.011341
657.179892	0.011146
657.384909	0.011360
657.589908	0.011270
657.794889	0.011440
657.999852	0.011549
658.204797	0.011515
658.409723	0.011566
658.614631	0.011564
658.819521	0.011584
659.024393	0.011494
659.229246	0.011433
659.434081	0.011462
659.638898	0.011351
659.843697	0.011214
660.048478	0.011068
660.253240	0.011002
660.457984	0.011048
660.662710	0.010883
660.867417	0.011089
661.072107	0.010945
661.276778	0.010829
661.481431	0.010812
661.686066	0.010889
661.890682	0.011256
662.095281	0.011372
662.299861	0.011296
662.504422	0.011356
662.708966	0.011025
662.913491	0.011108
663.117999	0.011167
663.322488	0.011082
663.526958	0.011032
663.731411	0.010574
663.935845	0.010459
664.140261	0.010281
664.344659	0.010245
664.549038	0.010314
664.753400	0.010255
664.957743	0.010342
665.162068	0.010347
665.366375	0.010469
665.570663	0.010492
665.774933	0.010449
665.979185	0.010650
666.183419	0.010671
666.387635	0.010750
666.591832	0.010891
666.796011	0.010806
667.000172	0.010779
667.204315	0.010761
667.408439	0.010952
667.612545	0.011005
667.816634	0.010909
668.020703	0.010964
668.224755	0.011146
668.428788	0.011206
668.632803	0.011289
668.836800	0.011398
669.040779	0.011281
669.244739	0.011435
669.448681	0.011574
669.652605	0.011680
669.856511	0.011662
670.060399	0.011567
670.264268	0.011436
670.468119	0.011370
670.671952	0.011221
670.875767	0.011147
671.079563	0.011073
671.283341	0.010878
671.487101	0.010869
671.690843	0.011224
671.894567	0.011362
672.098272	0.011549
672.301959	0.011795
672.505628	0.012091
672.709278	0.012391
672.912911	0.012425
673.116525	0.012483
673.320121	0.012394
673.523699	0.012159
673.727258	0.012122
673.930799	0.011877
674.134322	0.011657
674.337827	0.011626
674.541314	0.011419
674.744782	0.011345
674.948232	0.011242
675.151664	0.011269
675.355078	0.011218
675.558474	0.011151
675.761851	0.011141
675.965210	0.011107
676.168551	0.010849
676.371873	0.010795
676.575178	0.010799
676.778464	0.010920
676.981732	0.010979
677.184981	0.010849
677.388213	0.010747
677.591426	0.010888
677.794621	0.010712
677.997798	0.010808
678.200956	0.010854
678.404097	0.010698
678.607219	0.010754
678.810323	0.010719
679.013408	0.010626
679.216476	0.010831
679.419525	0.010723
679.622556	0.010957
679.825569	0.011036
680.028563	0.011033
680.231540	0.011475
680.434498	0.011228
680.637438	0.011245
680.840359	0.011596
681.043263	0.011518
681.246148	0.011783
681.449015	0.011806
681.651864	0.011842
681.854694	0.012023
682.057506	0.011816
682.260301	0.011982
682.463076	0.012107
682.665834	0.012078
682.868573	0.012159
683.071295	0.011971
683.273998	0.011892
683.476682	0.011685
683.679349	0.011632
683.881997	0.011657
684.084627	0.011683
684.287239	0.011559
684.489833	0.011624
684.692408	0.011456
684.894965	0.011363
685.097504	0.011429
685.300025	0.011611
685.502527	0.011462
685.705012	0.011320
685.907478	0.011257
686.109925	0.011168
686.312355	0.010916
686.514766	0.010849
686.717159	0.010894
686.919534	0.010835
687.121891	0.010590
687.324230	0.010706
687.526550	0.010668
687.728852	0.010625
687.931136	0.010685
688.133401	0.010734
688.335649	0.010658
688.537878	0.010579
688.740089	0.010592
688.942281	0.010538
689.144456	0.010423
689.346612	0.010380
689.548750	0.010342
689.750870	0.010317
689.952971	0.010072
690.155055	0.010081
690.357120	0.009863
690.559167	0.009891
690.761195	0.009855
690.963206	0.009719
691.165198	0.009644
691.367172	0.009608
691.569128	0.009457
691.771065	0.009507
691.972984	0.009534
692.174885	0.009696
692.376768	0.009538
692.578633	0.009661
692.780479	0.009636
692.982308	0.009678
693.184118	0.009590
693.385909	0.009674
693.587683	0.009771
693.789438	0.009932
693.991175	0.009966
694.192894	0.009951
694.394595	0.009956
694.596277	0.010075
694.797941	0.010088
694.999587	0.010250
695.201215	0.010240
695.402824	0.010058
695.604416	0.009889
695.805989	0.009885
696.007543	0.010019
696.209080	0.010138
696.410598	0.010117
696.612099	0.010120
696.813580	0.010030
697.015044	0.009874
697.216490	0.010027
697.417917	0.009991
697.619326	0.009922
697.820717	0.009834
698.022089	0.009788
698.223444	0.009731
698.424780	0.009629
698.626098	0.009720
698.827397	0.009938
699.028679	0.009936
699.229942	0.010059
699.431187	0.010194
699.632414	0.010128
699.833622	0.010069
700.034813	0.010226
700.235985	0.010250
700.437139	0.010223
700.638274	0.010290
700.839392	0.010217
701.040491	0.010135
701.241572	0.010089
701.442635	0.010208
701.643679	0.010219
701.844706	0.010068
702.045714	0.010055
702.246704	0.009922
702.447675	0.009649
702.648629	0.009593
702.849564	0.009493
703.050481	0.009381
703.251380	0.009332
703.452260	0.009345
703.653122	0.009436
703.853966	0.009452
704.054792	0.009457
704.255600	0.009386
704.456389	0.009396
704.657160	0.009305
704.857913	0.009141
705.058648	0.008887
705.259365	0.008716
705.460063	0.008487
705.660743	0.008399
705.861405	0.008369
706.062048	0.008419
706.262674	0.008238
706.463281	0.008441
706.663870	0.008482
706.864441	0.008559
707.064993	0.008420
707.265527	0.008453
707.466043	0.008432
707.666541	0.008364
707.867021	0.008340
708.067482	0.008402
708.267925	0.008107
708.468350	0.008087
708.668757	0.008020
708.869145	0.008037
709.069516	0.007917
709.269868	0.007831
709.470201	0.007830
709.670517	0.007824
709.870814	0.007801
710.071093	0.008027
710.271354	0.008141
710.471597	0.008088
710.671821	0.008240
710.872028	0.008352
711.072216	0.008588
711.272385	0.008612
711.472537	0.008605
711.672670	0.008773
711.872785	0.008739
712.072882	0.008622
712.272961	0.008760
712.473021	0.008633
712.673063	0.008599
712.873087	0.008374
713.073093	0.008395
713.273081	0.008505
713.473050	0.008508
713.673001	0.008334
713.872934	0.008306
714.072849	0.008148
714.272745	0.008076
714.472623	0.008078
714.672483	0.008119
714.872325	0.008044
715.072148	0.007832
715.271954	0.007705
715.471741	0.007834
715.671509	0.007836
715.871260	0.007852
716.070992	0.008020
716.270707	0.007989
716.470403	0.007967
716.670080	0.007908
716.869740	0.007942
717.069381	0.008028
717.269004	0.008058
717.468609	0.008191
717.668195	0.008209
717.867764	0.007996
718.067314	0.007985
718.266846	0.007912
718.466360	0.008066
718.665855	0.008079
718.865332	0.007737
719.064791	0.007488
719.264232	0.007530
719.463655	0.007607
719.663059	0.007681
719.862445	0.007700
720.061813	0.007788
720.261163	0.007657
720.460494	0.007493
720.659807	0.007608
720.859102	0.007597
721.058379	0.007339
721.257638	0.007138
721.456878	0.007035
721.656100	0.007038
721.855304	0.007006
722.054490	0.006878
722.253657	0.006937
722.452806	0.007039
722.651937	0.007160
722.851050	0.007394
723.050145	0.007424
723.249221	0.007605
723.448279	0.007518
723.647319	0.007441
723.846340	0.007521
724.045344	0.007564
724.244329	0.007656
724.443296	0.007676
724.642245	0.007655
724.841175	0.007744
725.040088	0.007703
725.238982	0.007763
725.437857	0.007825
725.636715	0.007924
725.835554	0.007972
726.034376	0.007960
726.233179	0.007930
726.431963	0.007619
726.630730	0.007538
726.829478	0.007358
727.028208	0.007372
727.226920	0.007388
727.425614	0.007259
727.624289	0.007071
727.822946	0.006827
728.021585	0.006832
728.220206	0.007069
728.418808	0.007109
728.617392	0.007215
728.815958	0.007362
729.014506	0.007247
729.213036	0.007235
729.411547	0.007132
729.610040	0.007160
729.808515	0.006878
730.006972	0.006783
730.205410	0.006975
730.403831	0.006942
730.602233	0.006610
730.800616	0.006719
730.998982	0.006683
731.197329	0.006832
731.395658	0.006864
731.593969	0.007113
731.792262	0.006991
731.990536	0.006796
732.188793	0.006814
732.387031	0.006902
732.585250	0.006850
732.783452	0.006931
732.981635	0.006859
733.179800	0.006865
733.377947	0.006736
733.576076	0.006843
733.774186	0.006718
733.972278	0.006564
734.170352	0.006411
734.368408	0.006250
734.566446	0.006104
734.764465	0.006136
734.962466	0.006045
735.160449	0.006105
735.358413	0.005786
735.556360	0.005758
735.754288	0.005739
735.952198	0.005704
736.150090	0.005601
736.347963	0.005603
736.545818	0.005686
736.743655	0.005627
736.941474	0.005635
737.139275	0.005850
737.337057	0.005823
737.534821	0.005938
737.732567	0.006240
737.930295	0.006504
738.128005	0.006582
738.325696	0.006573
738.523369	0.006718
738.721024	0.006568
738.918660	0.006594
739.116279	0.006758
739.313879	0.006785
739.511461	0.006539
739.709024	0.006468
739.906570	0.006306
740.104097	0.006275
740.301606	0.006293
740.499097	0.006662
740.696569	0.006744
740.894024	0.006718
741.091460	0.006731
741.288878	0.006752
741.486277	0.006830
741.683659	0.007168
741.881022	0.007237
742.078367	0.007189
742.275694	0.006976
742.473002	0.006904
742.670293	0.006871
742.867565	0.006874
743.064819	0.007164
743.262054	0.007141
743.459272	0.007002
743.656471	0.006936
743.853652	0.006975
744.050815	0.007110
744.247959	0.007165
744.445085	0.007291
744.642194	0.007103
744.839283	0.007058
745.036355	0.007043
745.233408	0.007242
745.430444	0.007387
745.627461	0.007613
745.824459	0.007558
746.021440	0.007628
746.218402	0.007724
746.415346	0.008096
746.612272	0.008109
746.809180	0.008382
747.006069	0.008388
747.202940	0.008470
747.399793	0.008381
747.596628	0.008550
747.793444	0.008534
747.990243	0.008690
748.187023	0.008708
748.383784	0.008830
748.580528	0.008695
748.777253	0.008907
748.973960	0.008969
749.170649	0.009107
749.367320	0.008956
749.563973	0.009120
749.760607	0.008987
749.957223	0.008974
750.153821	0.008857
750.350400	0.008901
750.546962	0.008649
750.743505	0.008525
750.940030	0.008331
751.136536	0.008396
751.333025	0.008215
751.529495	0.008185
751.725947	0.008025
751.922381	0.008018
752.118796	0.007917
752.315194	0.007975
752.511573	0.008033
752.707934	0.008244
752.904276	0.008258
753.100601	0.008319
753.296907	0.008372
753.493195	0.008391
753.689465	0.008333
753.885716	0.008432
754.081949	0.008394
754.278164	0.008217
754.474361	0.008178
754.670540	0.008220
754.866700	0.008075
755.062843	0.008080
755.258967	0.008104
755.455072	0.008109
755.651160	0.008076
755.847229	0.008088
756.043280	0.008256
756.239313	0.008168
756.435328	0.008388
756.631324	0.008712
756.827302	0.008763
757.023262	0.008966
757.219204	0.009171
757.415127	0.009448
757.611033	0.009552
757.806920	0.009851
758.002788	0.010024
758.198639	0.010074
758.394471	0.010231
758.590286	0.010262
758.786081	0.010299
758.981859	0.010324
759.177619	0.010123
759.373360	0.010092
759.569083	0.009784
759.764788	0.009654
759.960474	0.009385
760.156143	0.009197
760.351793	0.009095
760.547425	0.008944
760.743038	0.008668
760.938634	0.008609
761.134211	0.008541
761.329770	0.008626
761.525311	0.008551
761.720833	0.008645
761.916338	0.008543
762.111824	0.008505
762.307292	0.008343
762.502741	0.008568
762.698173	0.008463
762.893586	0.008466
763.088981	0.008468
763.284358	0.008511
763.479716	0.008365
763.675057	0.008231
763.870379	0.008141
764.065683	0.008232
764.260968	0.008030
764.456236	0.008218
764.651485	0.008149
764.846716	0.008063
765.041929	0.008100
765.237123	0.008104
765.432299	0.008209
765.627457	0.008296
765.822597	0.008315
766.017719	0.008374
766.212822	0.008299
766.407907	0.008311
766.602974	0.008395
766.798023	0.008200
766.993054	0.008164
767.188066	0.008413
767.383060	0.008398
767.578036	0.008326
767.772993	0.008324
767.967933	0.008095
768.162854	0.008118
768.357757	0.007944
768.552642	0.008045
768.747508	0.007929
768.942356	0.007689
769.137186	0.007839
769.331998	0.007870
769.526792	0.007785
769.721567	0.007905
769.916324	0.007920
770.111063	0.008008
770.305784	0.007985
770.500486	0.008181
770.695171	0.008293
770.889837	0.008059
771.084484	0.008103
771.279114	0.008235
771.473725	0.008266
771.668318	0.008314
771.862893	0.008154
772.057450	0.008154
772.251988	0.007996
772.446509	0.007669
772.641011	0.007631
772.835494	0.007629
773.029960	0.007640
773.224407	0.007666
773.418836	0.007503
773.613247	0.007444
773.807640	0.007399
774.002014	0.007389
774.196370	0.007518
774.390708	0.007638
774.585028	0.007689
774.779330	0.007589
774.973613	0.007533
775.167878	0.007458
775.362125	0.007513
775.556354	0.007695
775.750564	0.007856
775.944756	0.008023
776.138930	0.007952
776.333086	0.007882
776.527223	0.007715
776.721343	0.007933
776.915444	0.007877
777.109526	0.008031
777.303591	0.007773
777.497637	0.007530
777.691666	0.007446
777.885676	0.007552
778.079667	0.007641
778.273641	0.007891
778.467596	0.007766
778.661533	0.008029
778.855452	0.007948
779.049352	0.008133
779.243235	0.008403
779.437099	0.008557
779.630945	0.008380
779.824773	0.008723
780.018582	0.008718
780.212373	0.008704
780.406146	0.008769
780.599901	0.009018
780.793638	0.009045
780.987356	0.008983
781.181056	0.008936
781.374738	0.009133
781.568402	0.008877
781.762047	0.009046
781.955674	0.009141
782.149283	0.009060
782.342874	0.009008
782.536447	0.008980
782.730001	0.008890
782.923537	0.008896
783.117055	0.008915
783.310555	0.009024
783.504036	0.008855
783.697499	0.008846
783.890944	0.008805
784.084371	0.008794
784.277780	0.008928
784.471170	0.009161
784.664542	0.009266
784.857896	0.009361
785.051231	0.009243
785.244549	0.009300
785.437848	0.009318
785.631129	0.009392
785.824392	0.009333
786.017636	0.009401
786.210863	0.009360
786.404071	0.009339
786.597260	0.009379
786.790432	0.009481
786.983585	0.009522
787.176721	0.009566
787.369838	0.009662
787.562936	0.009865
787.756017	0.009769
787.949079	0.009898
788.142123	0.009857
788.335149	0.009840
788.528156	0.009750
788.721146	0.009934
788.914117	0.009868
789.107070	0.009834
789.300005	0.009722
789.492921	0.009776
789.685819	0.009599
789.878699	0.009662
790.071561	0.009746
790.264405	0.009701
790.457230	0.009501
790.650037	0.009563
790.842826	0.009409
791.035597	0.009406
791.228349	0.009158
791.421084	0.009263
791.613800	0.009259
791.806497	0.009060
791.999177	0.009130
792.191838	0.009172
792.384481	0.009167
792.577106	0.009407
792.769713	0.009328
792.962301	0.009599
793.154871	0.009528
793.347423	0.009351
793.539957	0.009388
793.732473	0.009326
793.924970	0.009188
794.117449	0.009209
794.309910	0.009201
794.502353	0.009157
794.694777	0.009141
794.887183	0.009064
795.079571	0.009106
795.271941	0.009014
795.464293	0.008937
795.656626	0.009098
795.848941	0.008939
796.041238	0.008817
796.233516	0.008810
796.425777	0.008525
796.618019	0.008661
796.810243	0.008672
797.002449	0.008791
797.194636	0.008839
797.386805	0.008879
797.578956	0.008887
797.771089	0.008817
797.963204	0.008906
798.155300	0.008941
798.347378	0.008715
798.539438	0.008778
798.731480	0.008711
798.923503	0.008823
799.115509	0.008675
799.307496	0.008529
799.499465	0.008577
799.691415	0.008387
799.883348	0.008479
800.075262	0.008572
800.267158	0.008379
800.459035	0.008284
800.650895	0.008176
800.842736	0.008095
801.034559	0.008306
801.226364	0.008478
801.418150	0.008786
801.609919	0.008765
801.801669	0.008721
801.993401	0.008852
802.185114	0.009008
802.376810	0.008839
802.568487	0.008940
802.760146	0.008793
802.951787	0.008593
803.143409	0.008324
803.335014	0.008444
803.526600	0.008463
803.718168	0.008623
803.909717	0.008623
804.101249	0.008942
804.292762	0.008949
804.484257	0.009061
804.675734	0.009175
804.867192	0.009365
805.058632	0.009240
805.250054	0.009464
805.441458	0.009353
805.632844	0.009166
805.824211	0.008996
806.015561	0.008945
806.206891	0.009098
806.398204	0.009109
806.589499	0.009278
806.780775	0.009402
806.972033	0.009560
807.163273	0.009532
807.354495	0.009809
807.545698	0.010124
807.736883	0.010377
807.928050	0.010440
808.119199	0.010489
808.310329	0.010265
808.501441	0.010258
808.692535	0.009976
808.883611	0.010017
809.074669	0.009967
809.265708	0.009699
809.456729	0.009767
809.647732	0.009509
809.838717	0.009509
810.029683	0.009560
810.220632	0.009701
810.411562	0.009586
810.602474	0.009511
810.793367	0.009641
810.984242	0.009823
811.175100	0.009856
811.365938	0.009925
811.556759	0.009791
811.747562	0.009965
811.938346	0.009935
812.129112	0.010306
812.319860	0.010290
812.510589	0.009988
812.701300	0.009960
812.891994	0.009733
813.082668	0.009809
813.273325	0.009859
813.463964	0.009888
813.654584	0.009845
813.845186	0.009498
814.035769	0.009660
814.226335	0.009589
814.416882	0.009264
814.607411	0.009044
814.797922	0.008832
814.988415	0.008666
815.178889	0.008197
815.369345	0.008080
815.559783	0.008172
815.750203	0.008048
815.940605	0.008081
816.130988	0.008213
816.321353	0.008225
816.511700	0.008431
816.702028	0.008365
816.892339	0.008487
817.082631	0.008532
817.272905	0.008524
817.463161	0.008481
817.653398	0.008662
817.843617	0.008573
818.033819	0.008846
818.224001	0.008807
818.414166	0.009013
818.604312	0.008922
818.794440	0.008942
818.984550	0.008866
819.174642	0.008752
819.364716	0.008614
819.554771	0.008476
819.744808	0.008367
819.934827	0.008421
820.124827	0.008279
820.314810	0.008350
820.504774	0.007876
820.694720	0.007971
820.884647	0.008052
821.074557	0.007772
821.264448	0.007741
821.454321	0.007809
821.644176	0.007483
821.834012	0.007722
822.023831	0.007634
822.213631	0.007905
822.403413	0.007817
822.593176	0.007700
822.782922	0.007971
822.972649	0.007991
823.162358	0.007827
823.352049	0.008237
823.541721	0.008140
823.731376	0.008343
823.921012	0.008279
824.110629	0.008255
824.300229	0.008439
824.489811	0.008425
824.679374	0.008603
824.868919	0.008528
825.058445	0.008266
825.247954	0.008162
825.437444	0.008033
825.626916	0.008269
825.816370	0.008110
826.005806	0.008226
826.195223	0.008208
826.384622	0.008073
826.574003	0.008004
826.763366	0.008102
826.952711	0.007938
827.142037	0.008004
827.331345	0.007886
827.520635	0.007926
827.709906	0.007926
827.899160	0.007952
828.088395	0.007961
828.277612	0.008105
828.466810	0.007876
828.655991	0.008204
828.845153	0.008147
829.034297	0.008233
829.223423	0.008453
829.412531	0.008344
829.601620	0.008224
829.790691	0.008265
829.979744	0.008220
830.168779	0.008184
830.357795	0.007867
830.546793	0.007944
830.735773	0.007823
830.924735	0.007678
831.113679	0.007591
831.302604	0.007663
831.491511	0.007627
831.680400	0.007637
831.869271	0.007821
832.058123	0.007756
832.246957	0.007754
832.435773	0.007709
832.624571	0.007780
832.813351	0.007449
833.002112	0.007603
833.190855	0.007617
833.379580	0.007657
833.568287	0.007355
833.756975	0.007394
833.945645	0.007190
834.134297	0.007025
834.322931	0.006840
834.511547	0.006966
834.700144	0.006856
834.888723	0.006758
835.077284	0.006670
835.265826	0.006736
835.454351	0.006613
835.642857	0.006683
835.831345	0.006766
836.019815	0.006770
836.208266	0.007014
836.396699	0.007022
836.585114	0.007282
836.773511	0.007135
836.961890	0.007086
837.150250	0.007275
837.338592	0.007303
837.526916	0.007218
837.715222	0.007116
837.903510	0.006938
838.091779	0.006908
838.280030	0.006716
838.468263	0.006703
838.656477	0.007111
838.844674	0.007154
839.032852	0.007029
839.221012	0.007243
839.409153	0.007578
839.597277	0.007837
839.785382	0.007601
839.973469	0.007619
840.161538	0.007870
840.349589	0.007733
840.537621	0.007832
840.725635	0.007944
840.913631	0.007900
841.101609	0.007701
841.289568	0.007450
841.477509	0.007900
841.665432	0.008101
841.853337	0.008053
842.041224	0.007938
842.229092	0.007740
842.416942	0.007838
842.604774	0.007892
842.792588	0.007877
842.980383	0.007725
843.168160	0.007419
843.355919	0.007319
843.543660	0.007212
843.731382	0.007336
843.919087	0.007496
844.106773	0.007309
844.294441	0.007328
844.482090	0.007203
844.669722	0.007282
844.857335	0.007294
845.044930	0.007186
845.232507	0.007350
845.420065	0.007116
845.607605	0.007047
845.795127	0.007118
845.982631	0.007114
846.170117	0.007310
846.357584	0.007491
846.545033	0.007468
846.732464	0.007408
846.919877	0.007174
847.107272	0.007428
847.294648	0.007328
847.482006	0.007287
847.669346	0.007380
847.856667	0.007416
848.043971	0.007531
848.231256	0.007738
848.418523	0.008009
848.605771	0.008146
848.793002	0.008067
848.980214	0.008229
849.167408	0.008390
849.354584	0.008517
849.541742	0.008654
849.728881	0.008515
849.916002	0.008591
850.103105	0.008538
850.290190	0.008583
850.477256	0.008480
850.664304	0.008512
850.851334	0.008625
851.038346	0.008486
851.225340	0.008517
851.412315	0.008731
851.599272	0.008442
851.786211	0.008580
851.973132	0.008500
852.160034	0.008594
852.346918	0.008608
852.533784	0.008435
852.720632	0.008406
852.907462	0.008323
853.094273	0.008088
853.281066	0.008284
853.467841	0.008030
853.654598	0.008173
853.841336	0.008373
854.028056	0.008327
854.214758	0.008261
854.401442	0.008089
854.588107	0.008057
854.774755	0.008152
854.961384	0.007821
855.147995	0.008209
855.334587	0.008118
855.521162	0.008174
855.707718	0.008195
855.894256	0.008459
856.080775	0.008476
856.267277	0.008735
856.453760	0.008574
856.640225	0.009032
856.826672	0.008679
857.013101	0.008833
857.199511	0.008722
857.385903	0.008797
857.572277	0.008968
857.758633	0.009445
857.944970	0.009209
858.131290	0.009890
858.317591	0.009851
858.503873	0.009988
858.690138	0.009900
858.876384	0.010034
859.062612	0.010128
859.248822	0.010113
859.435014	0.010083
859.621188	0.010324
859.807343	0.010039
859.993480	0.009988
860.179599	0.009934
860.365699	0.010072
860.551781	0.010148
860.737846	0.010021
860.923891	0.009858
861.109919	0.009723
861.295929	0.009583
861.481920	0.009573
861.667893	0.009433
861.853848	0.009557
862.039784	0.009306
862.225702	0.009455
862.411603	0.009461
862.597484	0.009259
862.783348	0.009268
862.969193	0.009202
863.155021	0.009165
863.340830	0.009236
863.526620	0.009245
863.712393	0.009429
863.898147	0.009043
864.083883	0.009244
864.269601	0.009381
864.455301	0.009204
864.640982	0.009136
864.826645	0.009262
865.012290	0.009517
865.197917	0.009592
865.383526	0.010009
865.569116	0.010326
865.754688	0.010358
865.940242	0.010581
866.125777	0.010844
866.311295	0.011311
866.496794	0.011020
866.682275	0.010852
866.867737	0.011048
867.053182	0.010709
867.238608	0.010610
867.424016	0.010548
867.609406	0.010353
867.794778	0.010544
867.980131	0.010187
868.165466	0.010308
868.350783	0.010476
868.536082	0.010351
868.721362	0.010828
868.906625	0.010639
869.091869	0.010676
869.277094	0.010937
869.462302	0.010553
869.647491	0.010976
869.832662	0.010990
870.017815	0.011093
870.202950	0.011200
870.388066	0.010552
870.573165	0.010957
870.758245	0.010956
870.943306	0.010940
871.128350	0.011109
871.313375	0.010728
871.498382	0.010554
871.683371	0.010541
871.868342	0.010526
872.053294	0.010915
872.238229	0.010670
872.423144	0.010808
872.608042	0.010568
872.792922	0.010906
872.977783	0.010995
873.162626	0.011149
873.347451	0.011083
873.532258	0.011157
873.717046	0.011108
873.901816	0.010890
874.086568	0.010778
874.271302	0.010974
874.456017	0.010622
874.640715	0.010498
874.825394	0.010635
875.010055	0.010587
875.194697	0.010495
875.379322	0.010476
875.563928	0.010691
875.748516	0.010633
875.933085	0.010421
876.117637	0.010624
876.302170	0.010837
876.486685	0.010862
876.671182	0.010866
876.855661	0.010913
877.040121	0.011039
877.224563	0.011136
877.408987	0.011549
877.593393	0.012039
877.777780	0.012218
877.962150	0.012270
878.146501	0.012455
878.330833	0.012521
878.515148	0.012808
878.699444	0.012938
878.883722	0.013151
879.067982	0.012814
879.252224	0.012869
879.436447	0.012721
879.620653	0.012759
879.804840	0.012933
879.989008	0.013077
880.173159	0.012798
880.357291	0.012785
880.541405	0.012824
880.725501	0.013032
880.909579	0.012817
881.093638	0.012740
881.277680	0.012862
881.461703	0.012763
881.645707	0.012870
881.829694	0.013073
882.013662	0.012871
882.197612	0.013071
882.381544	0.012960
882.565458	0.013043
882.749353	0.013097
882.933230	0.013049
883.117089	0.012967
883.300930	0.013001
883.484753	0.013040
883.668557	0.013190
883.852343	0.013086
884.036111	0.013289
884.219861	0.013349
884.403592	0.013476
884.587305	0.013657
884.771000	0.013643
884.954677	0.013723
885.138335	0.013503
885.321976	0.013350
885.505598	0.013238
885.689201	0.013162
885.872787	0.013318
886.056354	0.013036
886.239904	0.012880
886.423434	0.012783
886.606947	0.012575
886.790442	0.012749
886.973918	0.013001
887.157376	0.012865
887.340816	0.012800
887.524237	0.012588
887.707641	0.013019
887.891026	0.013061
888.074393	0.013166
888.257741	0.013293
888.441072	0.013109
888.624384	0.013111
888.807678	0.012713
888.990954	0.012842
889.174211	0.012856
889.357451	0.012695
889.540672	0.012798
889.723875	0.012839
889.907059	0.012524
890.090226	0.012609
890.273374	0.012722
890.456504	0.013163
890.639616	0.013040
890.822709	0.013044
891.005785	0.013033
891.188842	0.012795
891.371881	0.013048
891.554901	0.013114
891.737904	0.013001
891.920888	0.012726
892.103854	0.012639
892.286802	0.012468
892.469731	0.012368
892.652643	0.012406
892.835536	0.012468
893.018410	0.012175
893.201267	0.012252
893.384106	0.012230
893.566926	0.012059
893.749728	0.012286
893.932511	0.012551
894.115277	0.013036
894.298024	0.013082
894.480753	0.013137
894.663464	0.013189
894.846157	0.013664
895.028831	0.014043
895.211487	0.014706
895.394125	0.014756
895.576745	0.014838
895.759346	0.014583
895.941930	0.014790
896.124495	0.015071
896.307041	0.015355
896.489570	0.015037
896.672080	0.015262
896.854573	0.015100
897.037046	0.015000
897.219502	0.015028
897.401940	0.015162
897.584359	0.015016
897.766760	0.015053
897.949143	0.015063
898.131507	0.015197
898.313854	0.015054
898.496182	0.014816
898.678492	0.015192
898.860783	0.015196
899.043057	0.014968
899.225312	0.015045
899.407549	0.014780
899.589768	0.014658
899.771968	0.014322
899.954151	0.014125
900.136315	0.014495
900.318461	0.014183
900.500588	0.013943
900.682698	0.013974
900.864789	0.013747
901.046862	0.013529
901.228917	0.013493
901.410953	0.013656
901.592971	0.013645
901.774972	0.013244
901.956953	0.013267
902.138917	0.013562
902.320862	0.013617
902.502790	0.013650
902.684699	0.014121
902.866589	0.014066
903.048462	0.014114
903.230316	0.014078
903.412152	0.014333
903.593970	0.014360
903.775770	0.014214
903.957551	0.014152
904.139314	0.014095
904.321059	0.014064
904.502786	0.014088
904.684494	0.014343
904.866185	0.014438
905.047857	0.014153
905.229510	0.014201
905.411146	0.014512
905.592763	0.014692
905.774363	0.014915
905.955943	0.015172
906.137506	0.015261
906.319051	0.015179
906.500577	0.015384
906.682085	0.015541
906.863575	0.015463
907.045046	0.015463
907.226500	0.015114
907.407935	0.014979
907.589352	0.014364
907.770750	0.014535
907.952131	0.014581
908.133493	0.014464
908.314837	0.014328
908.496163	0.014189
908.677470	0.014038
908.858760	0.014116
909.040031	0.014423
909.221284	0.014312
909.402518	0.014076
909.583735	0.013820
909.764933	0.013767
909.946113	0.013636
910.127275	0.013916
910.308418	0.013617
910.489544	0.013757
910.670651	0.013350
910.851740	0.013669
911.032810	0.013615
911.213863	0.013402
911.394897	0.012865
911.575913	0.012832
911.756911	0.012663
911.937890	0.012812
912.118851	0.012240
912.299794	0.012084
912.480719	0.012007
912.661626	0.011960
912.842514	0.012087
913.023384	0.012292
913.204236	0.012442
913.385070	0.012324
913.565886	0.012046
913.746683	0.012343
913.927462	0.012654
914.108223	0.012617
914.288965	0.012470
914.469690	0.012575
914.650396	0.012580
914.831084	0.012617
915.011754	0.012666
915.192405	0.012650
915.373038	0.012142
915.553653	0.012051
915.734250	0.012121
915.914829	0.012196
916.095389	0.012108
916.275931	0.012264
916.456455	0.012378
916.636961	0.012470
916.817448	0.012648
916.997917	0.013089
917.178368	0.012852
917.358801	0.012531
917.539216	0.012264
917.719612	0.012081
917.899990	0.012141
918.080350	0.011537
918.260692	0.011026
918.441015	0.011022
918.621320	0.011557
918.801607	0.012208
918.981876	0.012582
919.162127	0.012825
919.342359	0.013030
919.522573	0.012921
919.702769	0.013090
919.882947	0.013150
920.063106	0.012890
920.243247	0.012619
920.423370	0.011928
920.603475	0.011660
920.783562	0.011429
920.963630	0.011345
921.143680	0.011100
921.323712	0.011424
921.503725	0.011699
921.683721	0.011938
921.863698	0.011515
922.043657	0.011733
922.223598	0.011433
922.403520	0.011509
922.583424	0.011337
922.763311	0.011292
922.943178	0.011129
923.123028	0.010814
923.302859	0.010886
923.482673	0.010908
923.662467	0.010603
923.842244	0.010106
924.022003	0.009946
924.201743	0.010463
924.381465	0.010183
924.561169	0.009926
924.740854	0.010221
924.920522	0.010293
925.100171	0.010603
925.279802	0.010600
925.459414	0.011008
925.639009	0.010772
925.818585	0.010063
925.998143	0.010408
926.177683	0.010781
926.357205	0.010733
926.536708	0.010323
926.716193	0.009547
926.895660	0.009965
927.075109	0.009989
927.254539	0.010364
927.433951	0.010566
927.613345	0.010217
927.792721	0.010158
927.972079	0.009290
928.151418	0.009002
928.330739	0.009510
928.510042	0.009059
928.689327	0.008793
928.868593	0.008729
929.047841	0.007865
929.227071	0.008120
929.406283	0.007925
929.585476	0.008505
929.764652	0.009023
929.943809	0.008520
930.122948	0.008438
930.302068	0.008511
930.481171	0.008131
930.660255	0.008837
930.839321	0.008591
931.018369	0.007837
931.197398	0.007472
931.376409	0.006465
931.555402	0.006588
931.734377	0.005879
931.913334	0.005859
932.092272	0.005890
932.271192	0.005541
932.450094	0.005167
932.628978	0.004776
932.807844	0.004602
932.986691	0.004687
933.165520	0.003986
933.344331	0.003766
933.523123	0.003540
933.701898	0.002936
933.880654	0.002502
934.059392	0.002406
934.238111	0.002997
934.416813	0.002994
934.595496	0.003601
934.774161	0.004445
934.952808	0.004096
935.131437	0.003328
935.310047	0.003117
935.488639	0.003301
935.667213	0.002912
935.845769	0.003127
936.024306	0.003280
936.202825	0.002092
936.381326	0.001509
936.559809	0.002459
936.738274	0.002615
936.916720	0.002839
937.095148	0.002904
937.273558	0.002420
937.451950	0.002122
937.630323	0.001734
937.808678	0.002203
937.987015	0.002015
938.165334	0.000506
938.343635	0.000543
938.521917	0.000536
938.700181	-0.000025
938.878427	-0.000048
939.056655	-0.000590
939.234864	-0.001168
939.413055	-0.001975
939.591228	-0.002407
939.769383	-0.002192
939.947519	-0.001813
940.125638	-0.001479
940.303738	-0.001727
940.481820	-0.001334
940.659883	-0.002041
940.837929	-0.001762
941.015956	-0.001379
941.193965	-0.001047
941.371955	-0.000490
941.549928	-0.000935
941.727882	-0.001476
941.905818	-0.001812
942.083736	-0.001864
942.261636	-0.000585
942.439517	-0.000511
942.617380	-0.000485
942.795225	-0.000670
942.973052	-0.001667
943.150860	-0.001740
943.328651	-0.002041
943.506423	-0.001183
943.684176	0.000025
943.861912	-0.000303
944.039629	-0.000629
944.217328	-0.000467
944.395009	-0.000698
944.572672	0.001031
944.750317	0.001425
944.927943	0.001085
945.105551	0.000729
945.283141	-0.000094
945.460712	-0.000856
945.638265	-0.000538
945.815801	-0.000408
945.993317	0.000286
946.170816	0.000395
946.348297	0.000388
946.525759	0.001165
946.703203	0.002192
946.880629	0.002665
947.058036	0.003809
947.235425	0.002888
947.412797	0.001844
947.590149	0.002519
947.767484	0.002152
947.944800	0.001223
948.122099	0.001420
948.299379	0.001177
948.476640	0.000456
948.653884	-0.000307
948.831109	0.000435
949.008316	0.002220
949.185505	0.001928
949.362676	0.002486
949.539828	0.003477
949.716962	0.002996
949.894078	0.002041
950.071176	0.002299
950.248256	0.003072
950.425317	0.003800
950.602360	0.003716
950.779385	0.002751
950.956391	0.001851
951.133380	0.003139
951.310350	0.003923
951.487302	0.004673
951.664235	0.005227
951.841151	0.005254
952.018048	0.005164
952.194927	0.004518
952.371788	0.006281
952.548631	0.006139
952.725455	0.005956
952.902261	0.005072
953.079049	0.006797
953.255819	0.007302
953.432570	0.006819
953.609303	0.008267
953.786018	0.010108
953.962715	0.010487
954.139394	0.010856
954.316054	0.009622
954.492696	0.011589
954.669320	0.009872
954.845926	0.008303
955.022513	0.009433
955.199083	0.008280
955.375634	0.007296
955.552166	0.007024
955.728681	0.007439
955.905177	0.008356
956.081655	0.007424
956.258115	0.009554
956.434557	0.011226
956.610980	0.010771
956.787385	0.011739
956.963772	0.011375
957.140141	0.010675
957.316492	0.010396
957.492824	0.012923
957.669138	0.012494
957.845434	0.011563
958.021712	0.011330
958.197971	0.012488
958.374212	0.012227
958.550435	0.012643
958.726640	0.014467
958.902826	0.015659
959.078995	0.013585
959.255145	0.014349
959.431277	0.015027
959.607390	0.015709
959.783486	0.015144
959.959563	0.016762
960.135622	0.019150
960.311662	0.018377
960.487685	0.020060
960.663689	0.020321
960.839675	0.020670
961.015643	0.020636
961.191593	0.019996
961.367524	0.021135
961.543437	0.021500
961.719332	0.019822
961.895209	0.021156
962.071067	0.021360
962.246907	0.022426
962.422730	0.021486
962.598533	0.021311
962.774319	0.021825
962.950086	0.020866
963.125835	0.020434
963.301566	0.020081
963.477279	0.019132
963.652973	0.015995
963.828650	0.016242
964.004308	0.018946
964.179947	0.019122
964.355569	0.019535
964.531172	0.020040
964.706757	0.018234
964.882324	0.021436
965.057873	0.022137
965.233403	0.024764
965.408916	0.025960
965.584410	0.026938
965.759885	0.028202
965.935343	0.030336
966.110782	0.030706
966.286203	0.032240
966.461606	0.030733
966.636991	0.030614
966.812357	0.031352
966.987705	0.028201
967.163035	0.027375
967.338347	0.026294
967.513641	0.023255
967.688916	0.022369
967.864173	0.022149
968.039412	0.021995
968.214632	0.020806
968.389835	0.022345
968.565019	0.023496
968.740185	0.023933
968.915333	0.025362
969.090462	0.027723
969.265573	0.028270
969.440667	0.030255
969.615741	0.030659
969.790798	0.031809
969.965836	0.029849
970.140856	0.031460
970.315858	0.032110
970.490842	0.031279
970.665808	0.032145
970.840755	0.032657
971.015684	0.030350
971.190595	0.030583
971.365487	0.030665
971.540362	0.031198
971.715218	0.028217
971.890056	0.026874
972.064875	0.026583
972.239677	0.025695
972.414460	0.025207
972.589225	0.026052
972.763972	0.024977
972.938700	0.023997
973.113411	0.024455
973.288103	0.025422
973.462777	0.025131
973.637432	0.025605
973.812070	0.025831
973.986689	0.026620
974.161290	0.026067
974.335873	0.025415
974.510437	0.026606
974.684984	0.025315
974.859512	0.026458
975.034022	0.027205
975.208513	0.027808
975.382987	0.027361
975.557442	0.028101
975.731879	0.027263
975.906298	0.030134
976.080698	0.030340
976.255080	0.030890
976.429445	0.032917
976.603790	0.033703
976.778118	0.033828
976.952427	0.035447
977.126719	0.032953
977.300992	0.034208
977.475246	0.032204
977.649483	0.031446
977.823701	0.029452
977.997901	0.028442
978.172083	0.026789
978.346247	0.025518
978.520392	0.024643
978.694519	0.026429
978.868628	0.024456
979.042719	0.024214
979.216791	0.024049
979.390845	0.026749
979.564882	0.025728
979.738899	0.026175
979.912899	0.028136
980.086880	0.026779
980.260843	0.026439
980.434788	0.030411
980.608715	0.031800
980.782623	0.031161
980.956514	0.030697
981.130386	0.030571
981.304240	0.030317
981.478075	0.028376
981.651892	0.029027
981.825692	0.030265
981.999472	0.029166
982.173235	0.029569
982.346980	0.031818
982.520706	0.033232
982.694414	0.034353
982.868104	0.034847
983.041775	0.034996
983.215428	0.036140
983.389064	0.035090
983.562680	0.034335
983.736279	0.033018
983.909860	0.032255
984.083422	0.031740
984.256966	0.031154
984.430491	0.030702
984.603999	0.032343
984.777488	0.033055
984.950959	0.032652
985.124412	0.031302
985.297847	0.031560
985.471263	0.031358
985.644661	0.030873
985.818041	0.030291
985.991403	0.031065
986.164747	0.030133
986.338072	0.029863
986.511379	0.031937
986.684668	0.033346
986.857938	0.033214
987.031191	0.033848
987.204425	0.033041
987.377641	0.034665
987.550839	0.034978
987.724018	0.035968
987.897179	0.034426
988.070322	0.033289
988.243447	0.032704
988.416554	0.032880
988.589642	0.031534
988.762712	0.032980
988.935764	0.031465
989.108798	0.029425
989.281813	0.028357
989.454811	0.027274
989.627790	0.027361
989.800751	0.027549
989.973693	0.028471
990.146617	0.028607
990.319524	0.028001
990.492412	0.029400
990.665281	0.031375
990.838133	0.031339
991.010966	0.032922
991.183781	0.033741
991.356578	0.034601
991.529356	0.033967
991.702117	0.034812
991.874859	0.034584
992.047583	0.033682
992.220288	0.034115
992.392976	0.034569
992.565645	0.035623
992.738296	0.033810
992.910929	0.033281
993.083543	0.033416
993.256139	0.032133
993.428718	0.031543
993.601277	0.030975
993.773819	0.030398
993.946342	0.029692
994.118848	0.029802
994.291335	0.030044
994.463803	0.029183
994.636254	0.030194
994.808686	0.029980
994.981100	0.030165
995.153496	0.031037
995.325874	0.031737
995.498233	0.034025
995.670574	0.033237
995.842897	0.033772
996.015202	0.034228
996.187488	0.033020
996.359757	0.033567
996.532007	0.033074
996.704239	0.032016
996.876452	0.030574
997.048648	0.028228
997.220825	0.026613
997.392984	0.026011
997.565124	0.026197
997.737247	0.024727
997.909351	0.023355
998.081437	0.022019
998.253505	0.022118
998.425554	0.023358
998.597586	0.023151
998.769599	0.023655
998.941594	0.024942
999.113571	0.025034
999.285529	0.024800
999.457469	0.026007
999.629391	0.028363
999.801295	0.028816
999.973181	0.028920
1000.145048	0.029915
1000.316897	0.031901
1000.488728	0.029221
1000.660541	0.030514
1000.832335	0.031809
1001.004111	0.031540
1001.175869	0.030514
1001.347609	0.031773
1001.519331	0.031031
1001.691034	0.029616
1001.862719	0.029427
1002.034386	0.030192
1002.206035	0.026699
1002.377665	0.027451
1002.549277	0.027836
1002.720871	0.027896
1002.892447	0.025559
1003.064004	0.024402
1003.235544	0.025360
1003.407065	0.022803
1003.578568	0.023887
1003.750052	0.025041
1003.921519	0.024687
1004.092967	0.024088
1004.264397	0.023722
1004.435809	0.023629
1004.607202	0.022780
1004.778577	0.023751
1004.949934	0.025939
1005.121273	0.025632
1005.292594	0.026431
1005.463896	0.025248
1005.635180	0.025889
1005.806446	0.026182
1005.977694	0.027633
1006.148923	0.029134
1006.320135	0.026843
1006.491328	0.027278
1006.662503	0.027242
1006.833659	0.025750
1007.004798	0.024952
1007.175918	0.024892
1007.347020	0.024417
1007.518103	0.023319
1007.689169	0.024101
1007.860216	0.023968
1008.031245	0.022686
1008.202256	0.022770
1008.373248	0.023197
1008.544223	0.022954
1008.715179	0.022506
1008.886117	0.023991
1009.057036	0.026417
1009.227938	0.025802
1009.398821	0.027095
1009.569686	0.027703
1009.740533	0.027855
1009.911361	0.028632
1010.082172	0.028572
1010.252964	0.029528
1010.423738	0.029989
1010.594493	0.028415
1010.765231	0.028365
1010.935950	0.028185
1011.106651	0.027805
1011.277334	0.026522
1011.447998	0.027159
1011.618645	0.028498
1011.789273	0.028487
1011.959882	0.027777
1012.130474	0.026499
1012.301048	0.024869
1012.471603	0.023489
1012.642140	0.023197
1012.812658	0.022683
1012.983159	0.022663
1013.153641	0.023823
1013.324105	0.024067
1013.494551	0.024113
1013.664979	0.025793
1013.835388	0.027515
1014.005779	0.027700
1014.176152	0.027406
1014.346507	0.029834
1014.516843	0.029535
1014.687162	0.029544
1014.857462	0.027925
1015.027744	0.027890
1015.198007	0.027380
1015.368252	0.024917
1015.538480	0.024396
1015.708689	0.025559
1015.878879	0.024060
1016.049052	0.024024
1016.219206	0.022246
1016.389342	0.023942
1016.559460	0.023587
1016.729559	0.023389
1016.899641	0.025105
1017.069704	0.027224
1017.239749	0.026230
1017.409775	0.026301
1017.579784	0.027404
1017.749774	0.028004
1017.919746	0.026872
1018.089700	0.026578
1018.259635	0.027127
1018.429553	0.026638
1018.599452	0.025962
1018.769333	0.026132
1018.939195	0.026840
1019.109040	0.026375
1019.278866	0.026492
1019.448674	0.027406
1019.618464	0.027016
1019.788235	0.024825
1019.957989	0.027139
1020.127724	0.026494
1020.297441	0.026803
1020.467139	0.026434
1020.636820	0.025776
1020.806482	0.026356
1020.976126	0.025772
1021.145752	0.026987
1021.315359	0.027529
1021.484948	0.026071
1021.654519	0.026807
1021.824072	0.026707
1021.993607	0.026439
1022.163123	0.024940
1022.332621	0.024256
1022.502101	0.024307
1022.671563	0.022096
1022.841007	0.024820
1023.010432	0.024064
1023.179839	0.024288
1023.349228	0.023947
1023.518598	0.025131
1023.687951	0.026228
1023.857285	0.027028
1024.026601	0.025014
1024.195899	0.026462
1024.365178	0.024410
1024.534439	0.025964
1024.703682	0.025432
1024.872907	0.024587
1025.042114	0.023020
1025.211302	0.024309
1025.380472	0.023706
1025.549624	0.024807
1025.718758	0.025048
1025.887873	0.024372
1026.056970	0.024083
1026.226049	0.022468
1026.395110	0.021870
1026.564153	0.023553
1026.733177	0.021891
1026.902183	0.022140
1027.071171	0.023607
1027.240141	0.023416
1027.409092	0.023920
1027.578026	0.023156
1027.746940	0.025682
1027.915837	0.026468
1028.084716	0.023797
1028.253576	0.023799
1028.422418	0.023906
1028.591242	0.022598
1028.760048	0.022270
1028.928835	0.022085
1029.097604	0.022165
1029.266355	0.020396
1029.435088	0.020554
1029.603803	0.022209
1029.772499	0.022519
1029.941177	0.022069
1030.109837	0.022954
1030.278478	0.023226
1030.447102	0.024403
1030.615707	0.024381
1030.784294	0.024750
1030.952863	0.024295
1031.121413	0.023930
1031.289945	0.024363
1031.458460	0.024813
1031.626955	0.023672
1031.795433	0.023765
1031.963892	0.023823
1032.132334	0.024346
1032.300756	0.024637
1032.469161	0.026495
1032.637548	0.027608
1032.805916	0.028376
1032.974266	0.029268
1033.142598	0.029715
1033.310911	0.028507
1033.479207	0.027491
1033.647484	0.027359
1033.815743	0.027179
1033.983983	0.024686
1034.152206	0.023204
1034.320410	0.021929
1034.488596	0.020443
1034.656764	0.020979
1034.824914	0.021308
1034.993045	0.022864
1035.161158	0.020333
1035.329253	0.019917
1035.497330	0.021903
1035.665388	0.021891
1035.833428	0.022215
1036.001450	0.021874
1036.169454	0.022243
1036.337440	0.023117
1036.505407	0.023146
1036.673356	0.025406
1036.841287	0.025995
1037.009200	0.025705
1037.177094	0.026260
1037.344970	0.026577
1037.512828	0.026477
1037.680668	0.026144
1037.848489	0.024685
1038.016293	0.023670
1038.184078	0.023722
1038.351845	0.023073
1038.519593	0.022592
1038.687324	0.024205
1038.855036	0.022456
1039.022730	0.022196
1039.190406	0.022611
1039.358063	0.024620
1039.525702	0.023070
1039.693323	0.022558
1039.860926	0.021780
1040.028511	0.023352
1040.196077	0.021717
1040.363625	0.023259
1040.531155	0.023230
1040.698667	0.023516
1040.866161	0.021659
1041.033636	0.023723
1041.201093	0.024244
1041.368532	0.027646
1041.535952	0.026013
1041.703355	0.026927
1041.870739	0.025972
1042.038105	0.027185
1042.205452	0.026142
1042.372782	0.026127
1042.540093	0.024927
1042.707386	0.022964
1042.874661	0.022149
1043.041918	0.022517
1043.209156	0.021428
1043.376376	0.021667
1043.543578	0.021376
1043.710762	0.023126
1043.877927	0.024402
1044.045074	0.024678
1044.212203	0.026791
1044.379314	0.025098
1044.546407	0.023684
1044.713481	0.024020
1044.880537	0.025829
1045.047575	0.025414
1045.214595	0.025391
1045.381596	0.024824
1045.548579	0.023814
1045.715544	0.023503
1045.882491	0.023109
1046.049420	0.025704
1046.216330	0.024099
1046.383222	0.022751
1046.550096	0.021737
1046.716951	0.020257
1046.883789	0.019376
1047.050608	0.020417
1047.217409	0.019001
1047.384192	0.020620
1047.550956	0.017999
1047.717703	0.018092
1047.884431	0.016902
1048.051140	0.017361
1048.217832	0.018121
1048.384505	0.018045
1048.551161	0.018578
1048.717798	0.018851
1048.884416	0.018269
1049.051017	0.018904
1049.217599	0.019833
1049.384163	0.020724
1049.550709	0.020777
1049.717237	0.019078
1049.883746	0.020748
1050.050237	0.020415
1050.216710	0.021191
1050.383165	0.019971
1050.549601	0.021264
1050.716019	0.021503
1050.882420	0.021380
1051.048801	0.021842
1051.215165	0.022514
1051.381510	0.022094
1051.547837	0.022084
1051.714146	0.021779
1051.880437	0.023406
1052.046709	0.022098
1052.212964	0.022372
1052.379200	0.022421
1052.545417	0.022906
1052.711617	0.022132
1052.877798	0.021598
1053.043961	0.021132
1053.210106	0.021762
1053.376233	0.020181
1053.542341	0.020431
1053.708432	0.021464
1053.874504	0.022486
1054.040557	0.022296
1054.206593	0.021317
1054.372610	0.022351
1054.538609	0.021992
1054.704590	0.023142
1054.870553	0.024653
1055.036497	0.025991
1055.202424	0.024138
1055.368331	0.024568
1055.534221	0.025026
1055.700093	0.028353
1055.865946	0.026007
1056.031781	0.026218
1056.197598	0.024955
1056.363397	0.024978
1056.529177	0.022109
1056.694939	0.022717
1056.860683	0.022286
1057.026409	0.021920
1057.192116	0.021339
1057.357806	0.022681
1057.523477	0.021593
1057.689130	0.023192
1057.854764	0.023870
1058.020381	0.025757
1058.185979	0.025574
1058.351559	0.025685
1058.517120	0.025910
1058.682664	0.024383
1058.848189	0.024602
1059.013696	0.026101
1059.179185	0.023615
1059.344656	0.020946
1059.510108	0.020295
1059.675542	0.020677
1059.840958	0.018526
1060.006356	0.018503
1060.171735	0.018996
1060.337096	0.019827
1060.502439	0.020518
1060.667764	0.020130
1060.833071	0.020495
1060.998359	0.020156
1061.163629	0.020170
1061.328881	0.021791
1061.494115	0.020468
1061.659330	0.020470
1061.824527	0.019853
1061.989706	0.018545
1062.154867	0.020405
1062.320010	0.021034
1062.485134	0.021739
1062.650240	0.021312
1062.815328	0.020718
1062.980398	0.022458
1063.145449	0.022935
1063.310482	0.024596
1063.475497	0.025191
1063.640494	0.022501
1063.805473	0.021538
1063.970433	0.020681
1064.135375	0.020842
1064.300299	0.022213
1064.465204	0.021707
1064.630092	0.020751
1064.794961	0.017320
1064.959812	0.017825
1065.124645	0.019054
1065.289459	0.020218
1065.454256	0.022426
1065.619034	0.021110
1065.783793	0.021071
1065.948535	0.020629
1066.113258	0.023022
1066.277964	0.025254
1066.442651	0.023741
1066.607319	0.024137
1066.771970	0.024715
1066.936602	0.024630
1067.101216	0.024001
1067.265812	0.023113
1067.430389	0.023937
1067.594949	0.021473
1067.759490	0.020762
1067.924013	0.024386
1068.088518	0.023997
1068.253004	0.023472
1068.417472	0.021625
1068.581922	0.024546
1068.746354	0.025404
1068.910768	0.023726
1069.075163	0.024741
1069.239540	0.024458
1069.403899	0.020226
1069.568240	0.017578
1069.732562	0.017827
1069.896866	0.017821
1070.061152	0.014913
1070.225420	0.012537
1070.389670	0.013366
1070.553901	0.012864
1070.718114	0.011455
1070.882309	0.014153
1071.046486	0.016200
1071.210644	0.013138
1071.374784	0.011816
1071.538906	0.013756
1071.703010	0.017160
1071.867096	0.016673
1072.031163	0.016862
1072.195212	0.017713
1072.359243	0.016025
1072.523256	0.015376
1072.687250	0.017412
1072.851226	0.020445
1073.015184	0.018122
1073.179124	0.014890
1073.343045	0.014271
1073.506949	0.012708
1073.670834	0.013949
1073.834701	0.014054
1073.998549	0.016035
1074.162380	0.016306
1074.326192	0.013696
1074.489986	0.017032
1074.653761	0.017439
1074.817519	0.018090
1074.981258	0.019822
1075.144979	0.015902
1075.308682	0.016295
1075.472367	0.015795
1075.636033	0.014440
1075.799681	0.015902
1075.963311	0.015250
1076.126923	0.014236
1076.290516	0.013176
1076.454092	0.013051
1076.617649	0.015720
1076.781187	0.016366
1076.944708	0.015336
1077.108210	0.016465
1077.271695	0.015107
1077.435160	0.013947
1077.598608	0.014449
1077.762038	0.018214
1077.925449	0.016050
1078.088842	0.017863
1078.252217	0.016219
1078.415573	0.017463
1078.578912	0.016844
1078.742232	0.017763
1078.905534	0.016452
1079.068817	0.017902
1079.232083	0.013546
1079.395330	0.014727
1079.558559	0.012992
1079.721770	0.013007
1079.884962	0.011331
1080.048136	0.011783
1080.211293	0.009868
1080.374430	0.010492
1080.537550	0.008660
1080.700651	0.010226
1080.863735	0.010674
1081.026800	0.009262
1081.189846	0.008080
1081.352875	0.008750
1081.515885	0.009277
1081.678877	0.011571
1081.841851	0.013274
1082.004807	0.015390
1082.167744	0.015243
1082.330663	0.012716
1082.493564	0.013622
1082.656447	0.014902
1082.819312	0.015518
1082.982158	0.013843
1083.144986	0.011677
1083.307796	0.012144
1083.470587	0.012107
1083.633361	0.011316
1083.796116	0.011473
1083.958853	0.010112
1084.121571	0.010451
1084.284272	0.009872
1084.446954	0.012010
1084.609618	0.011603
1084.772264	0.009259
1084.934892	0.006340
1085.097501	0.007130
1085.260092	0.007056
1085.422665	0.006629
1085.585220	0.003996
1085.747756	0.003972
1085.910274	0.002506
1086.072774	0.003737
1086.235256	0.005437
1086.397720	0.007178
1086.560165	0.008362
1086.722592	0.009037
1086.885001	0.011939
1087.047392	0.015125
1087.209764	0.013165
1087.372119	0.012672
1087.534455	0.013358
1087.696772	0.013529
1087.859072	0.011385
1088.021353	0.008794
1088.183616	0.009443
1088.345861	0.009638
1088.508088	0.008565
1088.670296	0.011861
1088.832486	0.011696
1088.994658	0.011355
1089.156812	0.010545
1089.318948	0.013191
1089.481065	0.014349
1089.643164	0.015156
1089.805245	0.013261
1089.967308	0.012142
1090.129352	0.010839
1090.291378	0.013475
1090.453386	0.014570
1090.615376	0.015023
1090.777347	0.009077
1090.939301	0.007306
1091.101236	0.006703
1091.263153	0.008379
1091.425051	0.008741
1091.586932	0.007640
1091.748794	0.006739
1091.910638	0.005286
1092.072463	0.002416
1092.234271	0.009969
1092.396060	0.010035
1092.557831	0.007782
1092.719584	0.006172
1092.881319	0.007658
1093.043035	0.010450
1093.204733	0.011392
1093.366413	0.010054
1093.528075	0.009117
1093.689718	0.003711
1093.851343	0.004215
1094.012950	0.006428
1094.174539	0.004740
1094.336110	0.005195
1094.497662	0.002803
1094.659196	0.002138
1094.820712	0.004310
1094.982210	0.008465
1095.143689	0.009781
1095.305151	0.007137
1095.466594	0.005139
1095.628018	0.008991
1095.789425	0.007678
1095.950813	0.008432
1096.112183	0.009896
1096.273535	0.010226
1096.434869	0.007402
1096.596184	0.010361
1096.757482	0.013819
1096.918761	0.014271
1097.080021	0.015539
1097.241264	0.012890
1097.402488	0.013275
1097.563694	0.011534
1097.724882	0.009581
1097.886052	0.009470
1098.047203	0.010583
1098.208336	0.012547
1098.369451	0.013990
1098.530548	0.012127
1098.691627	0.014868
1098.852687	0.015770
1099.013729	0.016322
1099.174753	0.015675
1099.335758	0.014829
1099.496746	0.011078
1099.657715	0.010414
1099.818666	0.013566
1099.979599	0.014167
1100.140513	0.012070
1100.301409	0.007190
1100.462287	0.007192
1100.623147	0.008680
1100.783989	0.007603
1100.944812	0.006469
1101.105617	0.005071
1101.266404	0.001994
1101.427173	-0.001337
1101.587923	-0.002551
1101.748656	0.000722
1101.909370	-0.000124
1102.070066	0.000928
1102.230743	0.002356
1102.391403	-0.000796
1102.552044	0.003545
1102.712667	0.002622
1102.873271	0.003893
1103.033858	0.003561
1103.194426	0.001366
1103.354976	0.003144
1103.515508	-0.002274
1103.676021	-0.001847
1103.836517	0.002792
1103.996994	0.002451
1104.157453	0.003208
1104.317893	0.001130
1104.478316	0.007723
1104.638720	0.012599
1104.799106	0.008070
1104.959474	0.014545
1105.119823	0.015028
1105.280155	0.014122
1105.440468	0.010585
1105.600763	0.010456
1105.761039	0.011170
1105.921298	0.009887
1106.081538	0.005047
1106.241760	0.006869
1106.401964	0.004621
1106.562149	0.005833
1106.722316	0.008888
1106.882465	0.006566
1107.042596	0.005298
1107.202709	0.006300
1107.362803	0.010500
1107.522879	0.014947
1107.682937	0.017271
1107.842977	0.019326
1108.002999	0.018813
1108.163002	0.015615
1108.322987	0.012816
1108.482954	0.018270
1108.642902	0.014317
1108.802833	0.005998
1108.962745	0.005426
1109.122639	0.005296
1109.282515	0.004317
1109.442372	0.006790
1109.602211	0.009734
1109.762032	0.011311
1109.921835	0.006114
1110.081620	0.011557
1110.241386	0.011022
1110.401134	0.007954
1110.560864	0.004883
1110.720576	0.003116
1110.880269	0.003701
1111.039945	-0.000056
1111.199602	0.005620
1111.359240	0.007041
1111.518861	0.005863
1111.678463	0.005432
1111.838047	0.009123
1111.997613	0.007929
1112.157161	0.007039
1112.316690	0.002414
1112.476202	0.005621
1112.635695	0.001923
1112.795169	0.003498
1112.954626	0.005559
1113.114064	0.009251
1113.273484	0.007277
1113.432886	0.004782
1113.592270	0.004224
1113.751635	0.004134
1113.910983	0.004652
1114.070312	0.002941
1114.229622	0.002065
1114.388915	-0.000065
1114.548189	0.002013
1114.707445	-0.004601
1114.866683	0.000963
1115.025903	0.003080
1115.185104	0.000248
1115.344287	0.002513
1115.503452	0.009028
1115.662599	0.008559
1115.821727	0.007500
1115.980838	0.009160
1116.139930	0.016185
1116.299004	0.014192
1116.458059	0.013116
1116.617097	0.016774
1116.776116	0.009944
1116.935117	0.005684
1117.094099	-0.001059
1117.253064	0.001060
1117.412010	-0.006640
1117.570938	-0.008653
1117.729848	-0.006975
1117.888740	-0.007749
1118.047613	-0.005793
1118.206468	-0.004682
1118.365305	-0.004775
1118.524124	0.002888
1118.682924	-0.001664
1118.841707	0.003207
1119.000471	0.001702
1119.159216	0.003181
1119.317944	0.003304
1119.476653	0.000745
1119.635344	0.002739
1119.794017	0.007336
1119.952672	0.005862
1120.111308	0.013158
1120.269927	0.010987
1120.428527	0.013479
1120.587108	0.011273
1120.745672	0.008487
1120.904217	0.005604
1121.062744	0.002594
1121.221253	-0.000111
1121.379744	-0.000975
1121.538216	-0.002970
1121.696671	-0.001566
1121.855107	-0.005991
1122.013524	-0.004365
1122.171924	0.000003
1122.330305	0.007602
1122.488668	0.007468
1122.647013	0.003782
1122.805340	0.005638
1122.963648	0.005211
1123.121938	0.002685
1123.280210	0.010065
1123.438464	0.001069
1123.596700	0.004451
1123.754917	-0.004447
1123.913116	-0.002989
1124.071297	-0.001805
1124.229459	-0.001013
1124.387604	-0.004253
1124.545730	-0.005605
1124.703838	-0.007532
1124.861928	-0.003090
1125.019999	-0.005383
1125.178052	-0.002809
1125.336088	-0.003070
1125.494104	-0.009351
1125.652103	-0.012538
1125.810083	-0.012246
1125.968045	-0.007540
1126.125989	-0.007781
1126.283915	-0.007011
1126.441823	-0.011363
1126.599712	-0.006924
1126.757583	-0.007882
1126.915436	-0.001165
1127.073270	0.003314
1127.231087	0.002803
1127.388885	-0.000004
1127.546665	-0.001931
1127.704426	0.000041
1127.862170	-0.004141
1128.019895	-0.004667
1128.177602	0.000784
1128.335291	0.000019
1128.492961	-0.006859
1128.650614	-0.007798
1128.808248	-0.002692
1128.965864	-0.006607
1129.123461	-0.010425
1129.281041	-0.002040
1129.438602	-0.000289
1129.596145	0.001185
1129.753670	0.005536
1129.911176	0.005900
1130.068665	0.003196
1130.226135	-0.004828
1130.383587	0.005560
1130.541020	0.012942
1130.698436	0.011870
1130.855833	0.006044
1131.013212	0.000456
1131.170573	-0.003616
1131.327915	-0.001780
1131.485239	0.006243
1131.642545	0.014828
1131.799833	0.010848
1131.957103	0.011434
1132.114354	0.008404
1132.271588	0.012764
1132.428803	0.009457
1132.585999	0.009012
1132.743178	0.007451
1132.900338	0.000553
1133.057480	-0.006115
1133.214604	-0.008339
1133.371710	-0.014405
1133.528797	-0.009438
1133.685866	-0.012138
1133.842917	-0.007185
1133.999950	-0.006119
1134.156964	0.001817
1134.313960	0.004715
1134.470938	0.004862
1134.627898	0.012688
1134.784840	0.014541
1134.941763	0.012402
1135.098668	0.013274
1135.255555	0.012854
1135.412424	0.015388
1135.569274	0.001561
1135.726107	0.000082
1135.882921	-0.005061
1136.039716	-0.012557
1136.196494	-0.011563
1136.353253	-0.015655
1136.509995	-0.014154
1136.666717	-0.012684
1136.823422	-0.014315
1136.980109	-0.002152
1137.136777	-0.000088
1137.293427	0.003278
1137.450059	0.008475
1137.606672	0.004513
1137.763267	0.012822
1137.919844	0.011182
1138.076403	0.006429
1138.232944	0.003619
1138.389466	0.000310
1138.545971	-0.007762
1138.702457	-0.002620
1138.858924	-0.005414
1139.015374	-0.004306
1139.171805	-0.008307
1139.328218	-0.013387
1139.484613	-0.010984
1139.640990	-0.011498
1139.797348	-0.013936
1139.953688	-0.007347
1140.110010	-0.001030
1140.266314	-0.007088
1140.422600	-0.010079
1140.578867	-0.014751
1140.735116	-0.008818
1140.891347	-0.011343
1141.047559	-0.010273
1141.203754	-0.012201
1141.359930	-0.013215
1141.516088	-0.018401
1141.672228	-0.017567
1141.828349	-0.018743
1141.984452	-0.012195
1142.140537	-0.015493
1142.296604	-0.014574
1142.452653	-0.010026
1142.608683	-0.001624
1142.764695	0.006937
1142.920689	0.010230
1143.076665	0.007512
1143.232622	0.014256
1143.388562	0.011653
1143.544483	0.011246
1143.700385	0.017061
1143.856270	0.014033
1144.012136	0.013435
1144.167985	0.007506
1144.323814	-0.001969
1144.479626	0.000855
1144.635420	0.001403
1144.791195	0.002206
1144.946952	0.003752
1145.102691	-0.005529
1145.258411	-0.005926
1145.414113	0.000102
1145.569798	0.004900
1145.725463	-0.001273
1145.881111	0.002377
1146.036741	0.002228
1146.192352	0.007548
1146.347945	0.001447
1146.503519	0.012177
1146.659076	0.012616
1146.814614	0.002258
1146.970134	-0.002509
1147.125636	0.006142
1147.281120	0.006676
1147.436585	0.006334
1147.592032	0.000519
1147.747461	0.011546
1147.902872	0.008758
1148.058265	0.013617
1148.213639	0.018165
1148.368995	0.021043
1148.524333	0.014265
1148.679653	0.007086
1148.834954	0.001115
1148.990237	-0.003620
1149.145502	-0.014857
1149.300749	-0.017453
1149.455977	-0.019509
1149.611188	-0.018814
1149.766380	-0.016893
1149.921553	-0.016294
1150.076709	-0.014268
1150.231846	-0.008548
1150.386966	-0.001990
1150.542066	0.003449
1150.697149	-0.000556
1150.852214	-0.012396
1151.007260	-0.018438
1151.162288	-0.017818
1151.317298	-0.015250
1151.472289	-0.011110
1151.627263	-0.004188
1151.782218	-0.012094
1151.937155	-0.015502
1152.092073	-0.011998
1152.246974	-0.006394
1152.401856	-0.007282
1152.556720	-0.015982
1152.711566	-0.010433
1152.866393	-0.012833
1153.021203	-0.023964
1153.175994	-0.016487
1153.330767	-0.016761
1153.485521	-0.015032
1153.640258	-0.016814
1153.794976	-0.005583
1153.949676	-0.003199
1154.104358	-0.000029
1154.259021	0.000931
1154.413667	0.003951
1154.568294	0.006172
1154.722903	0.011177
1154.877493	0.005612
1155.032066	0.015014
1155.186620	0.003361
1155.341156	-0.005029
1155.495674	-0.016067
1155.650173	-0.016263
1155.804654	-0.016791
1155.959118	-0.018265
1156.113562	-0.014804
1156.267989	-0.021622
1156.422397	-0.025622
1156.576788	-0.026717
1156.731160	-0.018504
1156.885513	-0.011650
1157.039849	-0.012056
1157.194166	-0.013401
1157.348465	-0.018945
1157.502746	-0.028574
1157.657009	-0.014177
1157.811253	-0.022570
1157.965479	-0.024812
1158.119687	-0.037869
1158.273877	-0.043135
1158.428048	-0.041964
1158.582201	-0.043450
1158.736337	-0.050148
1158.890453	-0.053326
1159.044552	-0.061815
1159.198632	-0.053144
1159.352694	-0.051360
1159.506738	-0.044702
1159.660764	-0.035858
1159.814771	-0.043794
1159.968761	-0.039957
1160.122732	-0.024112
1160.276685	0.002917
1160.430619	0.002056
1160.584535	-0.006683
1160.738434	-0.010042
1160.892313	-0.001022
1161.046175	0.016006
1161.200019	0.016568
1161.353844	0.015438
1161.507651	-0.002636
1161.661440	-0.016245
1161.815210	-0.004228
1161.968962	0.005740
1162.122697	0.019211
1162.276412	0.020609
1162.430110	-0.007388
1162.583789	-0.000661
1162.737451	-0.004568
1162.891094	0.013290
1163.044718	0.025586
1163.198325	0.010374
1163.351913	-0.006174
1163.505483	-0.014305
1163.659035	-0.011995
1163.812569	-0.023723
1163.966084	-0.022667
1164.119581	-0.030832
1164.273060	-0.027942
1164.426521	-0.055830
1164.579964	-0.052135
1164.733388	-0.038111
1164.886794	-0.040936
1165.040182	-0.034975
1165.193551	-0.031707
1165.346903	-0.034228
1165.500236	-0.017634
1165.653551	-0.017526
1165.806848	-0.003537
1165.960126	0.013382
1166.113386	0.013414
1166.266628	0.022966
1166.419852	0.026213
1166.573058	0.038897
1166.726245	0.044058
1166.879414	0.039393
1167.032565	0.034451
1167.185698	0.027132
1167.338812	-0.001289
1167.491909	-0.010971
1167.644987	-0.022623
1167.798046	-0.044881
1167.951088	-0.044749
1168.104111	-0.050015
1168.257117	-0.047971
1168.410103	-0.053691
1168.563072	-0.049790
1168.716023	-0.044968
1168.868955	-0.040235
1169.021869	-0.052139
1169.174765	-0.049951
1169.327642	-0.039200
1169.480501	-0.038108
1169.633343	-0.035200
1169.786165	-0.029315
1169.938970	-0.041252
1170.091757	-0.052492
1170.244525	-0.041489
1170.397275	-0.027354
1170.550007	-0.023941
1170.702720	-0.027163
1170.855415	-0.033658
1171.008092	-0.029961
1171.160751	-0.027656
1171.313392	-0.000503
1171.466014	-0.069225
1171.618619	0.092620
1171.771205	0.092620
1171.923772	0.092620
