sample name	sample
index	1056
start time	 04-22-2021  09:51:46 AM


Wavelength (nm)	Absorbance
494.344910	-0.071099
494.563924	-0.071099
494.782919	-0.071099
495.001897	0.038965
495.220856	0.029933
495.439797	0.057089
495.658719	0.046058
495.877624	0.083627
496.096510	0.031799
496.315378	0.041297
496.534227	0.038237
496.753059	0.009277
496.971872	-0.017767
497.190667	0.019526
497.409444	0.039902
497.628203	0.046556
497.846943	0.044650
498.065665	0.046984
498.284369	0.046831
498.503055	0.047988
498.721723	0.048918
498.940372	0.048722
499.159003	0.048064
499.377616	0.047006
499.596210	0.045310
499.814787	0.046256
500.033345	0.046367
500.251885	0.045590
500.470406	0.045852
500.688910	0.044994
500.907395	0.045180
501.125862	0.046029
501.344311	0.046843
501.562742	0.047640
501.781154	0.047724
501.999548	0.047068
502.217924	0.047438
502.436282	0.046140
502.654621	0.047046
502.872942	0.047724
503.091245	0.047413
503.309530	0.046056
503.527797	0.045660
503.746045	0.044957
503.964275	0.045228
504.182487	0.045369
504.400681	0.045353
504.618856	0.044419
504.837013	0.043475
505.055152	0.043757
505.273273	0.043952
505.491376	0.043649
505.709460	0.043484
505.927526	0.043662
506.145574	0.043976
506.363604	0.044760
506.581615	0.045042
506.799608	0.045334
507.017583	0.045169
507.235540	0.045958
507.453478	0.046014
507.671399	0.046360
507.889301	0.046231
508.107185	0.045784
508.325050	0.045030
508.542898	0.044820
508.760727	0.044869
508.978538	0.044426
509.196330	0.044438
509.414105	0.044539
509.631861	0.045091
509.849599	0.044510
510.067319	0.043400
510.285021	0.044452
510.502704	0.043859
510.720369	0.043829
510.938016	0.044618
511.155645	0.044266
511.373255	0.044985
511.590848	0.043403
511.808422	0.044261
512.025977	0.045452
512.243515	0.044476
512.461034	0.044963
512.678536	0.044735
512.896018	0.045259
513.113483	0.045493
513.330930	0.045048
513.548358	0.046134
513.765768	0.045193
513.983160	0.045111
514.200533	0.045356
514.417889	0.044969
514.635226	0.044750
514.852545	0.043673
515.069845	0.042972
515.287128	0.042503
515.504392	0.041866
515.721638	0.042434
515.938866	0.041498
516.156075	0.041534
516.373267	0.041618
516.590440	0.041607
516.807594	0.041595
517.024731	0.041731
517.241850	0.041567
517.458950	0.041767
517.676032	0.041005
517.893095	0.041403
518.110141	0.041343
518.327168	0.041885
518.544177	0.042228
518.761168	0.041935
518.978141	0.041302
519.195095	0.040998
519.412031	0.040530
519.628949	0.040393
519.845849	0.040922
520.062731	0.040376
520.279594	0.039656
520.496439	0.039286
520.713266	0.039610
520.930074	0.039859
521.146865	0.040078
521.363637	0.040475
521.580391	0.040630
521.797127	0.039961
522.013844	0.040068
522.230543	0.040615
522.447224	0.040058
522.663887	0.039898
522.880532	0.039308
523.097158	0.039738
523.313766	0.039537
523.530356	0.039693
523.746928	0.039611
523.963481	0.039779
524.180017	0.039351
524.396534	0.040182
524.613032	0.040180
524.829513	0.040780
525.045975	0.040654
525.262420	0.040430
525.478845	0.039990
525.695253	0.040100
525.911643	0.039364
526.128014	0.039729
526.344367	0.038814
526.560702	0.038535
526.777018	0.038433
526.993316	0.038111
527.209597	0.037951
527.425858	0.037910
527.642102	0.038475
527.858328	0.039067
528.074535	0.038665
528.290724	0.038927
528.506894	0.039100
528.723047	0.038793
528.939181	0.038725
529.155297	0.038752
529.371395	0.039004
529.587475	0.038408
529.803536	0.038116
530.019579	0.038497
530.235604	0.038360
530.451611	0.038262
530.667600	0.038300
530.883570	0.038302
531.099522	0.038217
531.315456	0.037985
531.531372	0.037925
531.747269	0.038064
531.963148	0.037226
532.179009	0.037010
532.394852	0.036878
532.610676	0.036891
532.826482	0.036285
533.042271	0.036347
533.258040	0.036024
533.473792	0.035910
533.689525	0.035521
533.905240	0.036030
534.120937	0.036099
534.336616	0.036116
534.552277	0.035914
534.767919	0.036225
534.983543	0.035718
535.199149	0.035528
535.414736	0.034797
535.630306	0.034602
535.845857	0.034222
536.061390	0.034096
536.276904	0.033905
536.492401	0.033844
536.707879	0.034017
536.923339	0.034204
537.138781	0.034059
537.354204	0.034891
537.569610	0.034793
537.784997	0.034881
538.000366	0.035074
538.215716	0.035145
538.431049	0.034782
538.646363	0.034008
538.861659	0.033875
539.076937	0.034241
539.292196	0.033463
539.507438	0.033410
539.722661	0.032790
539.937866	0.032186
540.153052	0.031920
540.368221	0.031754
540.583371	0.031972
540.798503	0.031816
541.013617	0.031748
541.228712	0.031860
541.443789	0.032041
541.658848	0.032486
541.873889	0.032924
542.088912	0.032790
542.303916	0.033091
542.518902	0.033434
542.733870	0.033494
542.948820	0.033513
543.163752	0.033398
543.378665	0.033270
543.593560	0.033108
543.808437	0.032794
544.023295	0.032795
544.238136	0.032709
544.452958	0.032482
544.667762	0.032503
544.882548	0.032331
545.097315	0.032785
545.312064	0.033032
545.526795	0.032801
545.741508	0.032767
545.956203	0.032697
546.170879	0.032608
546.385537	0.032169
546.600177	0.032115
546.814799	0.032142
547.029402	0.031706
547.243988	0.031201
547.458555	0.031448
547.673103	0.031358
547.887634	0.031482
548.102146	0.031966
548.316640	0.032528
548.531116	0.032738
548.745574	0.032670
548.960013	0.033025
549.174435	0.033035
549.388838	0.032775
549.603222	0.032933
549.817589	0.032813
550.031937	0.032538
550.246267	0.032162
550.460579	0.032246
550.674873	0.032124
550.889148	0.031595
551.103405	0.031599
551.317644	0.031508
551.531865	0.031421
551.746068	0.031279
551.960252	0.030952
552.174418	0.030803
552.388566	0.030415
552.602696	0.030431
552.816807	0.030390
553.030900	0.030415
553.244975	0.030275
553.459032	0.030223
553.673070	0.030298
553.887091	0.030245
554.101093	0.030232
554.315077	0.030195
554.529042	0.030161
554.742990	0.030359
554.956919	0.029969
555.170830	0.030133
555.384722	0.030094
555.598597	0.030029
555.812453	0.030343
556.026291	0.030477
556.240111	0.030308
556.453913	0.030332
556.667696	0.030023
556.881461	0.030222
557.095208	0.030023
557.308937	0.029637
557.522647	0.029383
557.736339	0.029166
557.950013	0.029202
558.163669	0.029487
558.377307	0.029414
558.590926	0.029617
558.804527	0.029700
559.018110	0.029736
559.231675	0.030109
559.445221	0.029823
559.658749	0.029623
559.872259	0.029317
560.085751	0.029106
560.299225	0.029026
560.512680	0.029016
560.726117	0.028849
560.939536	0.028728
561.152937	0.028366
561.366319	0.028772
561.579683	0.028866
561.793029	0.028744
562.006357	0.028663
562.219667	0.028337
562.432958	0.027926
562.646231	0.027875
562.859486	0.027766
563.072723	0.028059
563.285941	0.027814
563.499141	0.027374
563.712323	0.027509
563.925487	0.027413
564.138632	0.027267
564.351760	0.027411
564.564869	0.027290
564.777960	0.027463
564.991032	0.027232
565.204087	0.027201
565.417123	0.027453
565.630141	0.027366
565.843140	0.027522
566.056122	0.027793
566.269085	0.027894
566.482030	0.027860
566.694957	0.027931
566.907866	0.027943
567.120756	0.028025
567.333628	0.028065
567.546482	0.027936
567.759318	0.028118
567.972135	0.028146
568.184935	0.027965
568.397716	0.028278
568.610478	0.028034
568.823223	0.028176
569.035949	0.028606
569.248657	0.028601
569.461347	0.028712
569.674019	0.028180
569.886672	0.028129
570.099308	0.028180
570.311925	0.027848
570.524523	0.027732
570.737104	0.027652
570.949666	0.027259
571.162210	0.027006
571.374736	0.027225
571.587244	0.027493
571.799733	0.027372
572.012205	0.027464
572.224658	0.027646
572.437092	0.027533
572.649509	0.027438
572.861907	0.027069
573.074287	0.027058
573.286649	0.026800
573.498993	0.026599
573.711318	0.026352
573.923625	0.026089
574.135914	0.026131
574.348185	0.026174
574.560438	0.026056
574.772672	0.026222
574.984888	0.026289
575.197086	0.026382
575.409266	0.026405
575.621427	0.026767
575.833570	0.027146
576.045695	0.027138
576.257802	0.027884
576.469890	0.027911
576.681961	0.027851
576.894013	0.027768
577.106046	0.027737
577.318062	0.027775
577.530059	0.027465
577.742039	0.027188
577.954000	0.026970
578.165942	0.026493
578.377867	0.026293
578.589773	0.026755
578.801661	0.026723
579.013531	0.026775
579.225382	0.026639
579.437216	0.026762
579.649031	0.026755
579.860828	0.026675
580.072606	0.026405
580.284367	0.026419
580.496109	0.026399
580.707833	0.026799
580.919539	0.026331
581.131227	0.026385
581.342896	0.026458
581.554547	0.026389
581.766180	0.026305
581.977795	0.026639
582.189391	0.026730
582.400969	0.026454
582.612529	0.025994
582.824071	0.026373
583.035595	0.026319
583.247100	0.026421
583.458587	0.026341
583.670056	0.026489
583.881506	0.026500
584.092939	0.026678
584.304353	0.026600
584.515749	0.026941
584.727127	0.026970
584.938486	0.026778
585.149828	0.026626
585.361151	0.026609
585.572456	0.026644
585.783742	0.026427
585.995011	0.026146
586.206261	0.026272
586.417493	0.026037
586.628706	0.025798
586.839902	0.025840
587.051079	0.025913
587.262238	0.025887
587.473379	0.025612
587.684502	0.025596
587.895606	0.025567
588.106692	0.025582
588.317760	0.025636
588.528810	0.025652
588.739841	0.025838
588.950855	0.025661
589.161850	0.025569
589.372827	0.025725
589.583785	0.025797
589.794726	0.025899
590.005648	0.025529
590.216552	0.025488
590.427437	0.025380
590.638305	0.025481
590.849154	0.025592
591.059985	0.025738
591.270798	0.025876
591.481592	0.025623
591.692369	0.025410
591.903127	0.025322
592.113867	0.025312
592.324588	0.025331
592.535292	0.024988
592.745977	0.025084
592.956644	0.025008
593.167293	0.024772
593.377923	0.024878
593.588536	0.025103
593.799130	0.025301
594.009706	0.025087
594.220263	0.024887
594.430803	0.025020
594.641324	0.024955
594.851827	0.024719
595.062312	0.024761
595.272778	0.024724
595.483227	0.024820
595.693657	0.024859
595.904069	0.025014
596.114462	0.025131
596.324838	0.024941
596.535195	0.024746
596.745534	0.025069
596.955855	0.024838
597.166157	0.024726
597.376441	0.024639
597.586707	0.024506
597.796955	0.024532
598.007185	0.024615
598.217396	0.024675
598.427589	0.024514
598.637764	0.024154
598.847921	0.024265
599.058060	0.023982
599.268180	0.023973
599.478282	0.023929
599.688366	0.023726
599.898431	0.023789
600.108479	0.023961
600.318508	0.024060
600.528519	0.024227
600.738511	0.024374
600.948486	0.024423
601.158442	0.024149
601.368380	0.024162
601.578300	0.024264
601.788202	0.023876
601.998085	0.023520
602.207950	0.023414
602.417797	0.023257
602.627626	0.023034
602.837436	0.023179
603.047228	0.023302
603.257002	0.023015
603.466758	0.022906
603.676496	0.023212
603.886215	0.023173
604.095916	0.023390
604.305599	0.023383
604.515264	0.023283
604.724910	0.023225
604.934538	0.023215
605.144148	0.023261
605.353740	0.023128
605.563314	0.023035
605.772869	0.023190
605.982406	0.023087
606.191925	0.023179
606.401425	0.023450
606.610908	0.023513
606.820372	0.023447
607.029818	0.023508
607.239246	0.023710
607.448655	0.023587
607.658047	0.023553
607.867420	0.023547
608.076775	0.023570
608.286111	0.023254
608.495430	0.023065
608.704730	0.023214
608.914012	0.023304
609.123275	0.023033
609.332521	0.023176
609.541748	0.023130
609.750957	0.023007
609.960148	0.022648
610.169321	0.022932
610.378475	0.023209
610.587611	0.022923
610.796729	0.022870
611.005829	0.022810
611.214910	0.022681
611.423974	0.022620
611.633019	0.022637
611.842045	0.022624
612.051054	0.022440
612.260044	0.022151
612.469017	0.022180
612.677970	0.022057
612.886906	0.022062
613.095824	0.022066
613.304723	0.021944
613.513604	0.021717
613.722467	0.021825
613.931311	0.021805
614.140138	0.021778
614.348946	0.021465
614.557736	0.021588
614.766507	0.021633
614.975261	0.021394
615.183996	0.021571
615.392713	0.021549
615.601412	0.021730
615.810092	0.021654
616.018754	0.021526
616.227399	0.021541
616.436024	0.021323
616.644632	0.021362
616.853222	0.021517
617.061793	0.021426
617.270346	0.021238
617.478880	0.021054
617.687397	0.021093
617.895895	0.021010
618.104375	0.021253
618.312837	0.021092
618.521281	0.020889
618.729706	0.020723
618.938113	0.020549
619.146502	0.020802
619.354873	0.020923
619.563226	0.020633
619.771560	0.020851
619.979876	0.020691
620.188174	0.020877
620.396453	0.021016
620.604715	0.020995
620.812958	0.020874
621.021183	0.020753
621.229390	0.020487
621.437578	0.020471
621.645748	0.020449
621.853900	0.020513
622.062034	0.020361
622.270150	0.020184
622.478247	0.020334
622.686326	0.020455
622.894387	0.020491
623.102430	0.020572
623.310454	0.020703
623.518461	0.020518
623.726449	0.020157
623.934418	0.020310
624.142370	0.020267
624.350303	0.020262
624.558218	0.020329
624.766115	0.020334
624.973994	0.020144
625.181855	0.020179
625.389697	0.020090
625.597521	0.020431
625.805327	0.020324
626.013114	0.020375
626.220883	0.020117
626.428634	0.020099
626.636367	0.020156
626.844082	0.020146
627.051778	0.020056
627.259457	0.020253
627.467117	0.020325
627.674758	0.020332
627.882382	0.020095
628.089987	0.020141
628.297574	0.019946
628.505143	0.019855
628.712694	0.019957
628.920226	0.019825
629.127740	0.019845
629.335236	0.019717
629.542714	0.019595
629.750174	0.020097
629.957615	0.020202
630.165038	0.020282
630.372443	0.020478
630.579829	0.020164
630.787198	0.020465
630.994548	0.020473
631.201880	0.020429
631.409194	0.020461
631.616489	0.020129
631.823766	0.019859
632.031025	0.019768
632.238266	0.019634
632.445489	0.020106
632.652693	0.020070
632.859879	0.019879
633.067047	0.019710
633.274197	0.019858
633.481329	0.019859
633.688442	0.020147
633.895537	0.020175
634.102614	0.019935
634.309672	0.019762
634.516713	0.019494
634.723735	0.019661
634.930739	0.019641
635.137724	0.019487
635.344692	0.019402
635.551641	0.019146
635.758572	0.019074
635.965485	0.019255
636.172379	0.019300
636.379256	0.019296
636.586114	0.019246
636.792954	0.019256
636.999775	0.019218
637.206579	0.019258
637.413364	0.019424
637.620131	0.019660
637.826880	0.019670
638.033610	0.019526
638.240323	0.019451
638.447017	0.019292
638.653692	0.019478
638.860350	0.019511
639.066990	0.019598
639.273611	0.019625
639.480214	0.019296
639.686798	0.019174
639.893365	0.019189
640.099913	0.019316
640.306443	0.019338
640.512955	0.019212
640.719449	0.019180
640.925924	0.019361
641.132381	0.019277
641.338820	0.019500
641.545241	0.019442
641.751644	0.019422
641.958028	0.019411
642.164394	0.019572
642.370742	0.019683
642.577071	0.019622
642.783383	0.019372
642.989676	0.019270
643.195951	0.019153
643.402207	0.019051
643.608446	0.019047
643.814666	0.019028
644.020868	0.019017
644.227052	0.018903
644.433218	0.018876
644.639365	0.018923
644.845494	0.018931
645.051605	0.018956
645.257698	0.019194
645.463772	0.019135
645.669828	0.018898
645.875866	0.018842
646.081886	0.018732
646.287888	0.018838
646.493871	0.018641
646.699836	0.018701
646.905783	0.018518
647.111712	0.018227
647.317622	0.018186
647.523514	0.018171
647.729388	0.018099
647.935244	0.018280
648.141082	0.018208
648.346901	0.018160
648.552702	0.018009
648.758485	0.018026
648.964250	0.018162
649.169996	0.018214
649.375724	0.018328
649.581434	0.018189
649.787126	0.018031
649.992800	0.018073
650.198455	0.018100
650.404092	0.018235
650.609711	0.018319
650.815311	0.018382
651.020894	0.018456
651.226458	0.018582
651.432004	0.018754
651.637532	0.018680
651.843041	0.018659
652.048532	0.018717
652.254006	0.018657
652.459460	0.018645
652.664897	0.018670
652.870315	0.018751
653.075716	0.018932
653.281097	0.018720
653.486461	0.018980
653.691807	0.019160
653.897134	0.019227
654.102443	0.019237
654.307734	0.019303
654.513006	0.019375
654.718261	0.019349
654.923497	0.019192
655.128715	0.019182
655.333915	0.019189
655.539096	0.018978
655.744259	0.018934
655.949404	0.018801
656.154531	0.018853
656.359640	0.018781
656.564730	0.018668
656.769802	0.018363
656.974856	0.018284
657.179892	0.018083
657.384909	0.018134
657.589908	0.018163
657.794889	0.018533
657.999852	0.018392
658.204797	0.018169
658.409723	0.018310
658.614631	0.018590
658.819521	0.018620
659.024393	0.018613
659.229246	0.018651
659.434081	0.018713
659.638898	0.018425
659.843697	0.018417
660.048478	0.018611
660.253240	0.018406
660.457984	0.018473
660.662710	0.018659
660.867417	0.018639
661.072107	0.018459
661.276778	0.018235
661.481431	0.018293
661.686066	0.018313
661.890682	0.018315
662.095281	0.018212
662.299861	0.018196
662.504422	0.018021
662.708966	0.018159
662.913491	0.018346
663.117999	0.018398
663.322488	0.018398
663.526958	0.018349
663.731411	0.018280
663.935845	0.018293
664.140261	0.018240
664.344659	0.018548
664.549038	0.018476
664.753400	0.018528
664.957743	0.018705
665.162068	0.018771
665.366375	0.018967
665.570663	0.018959
665.774933	0.019035
665.979185	0.018929
666.183419	0.018780
666.387635	0.018816
666.591832	0.018549
666.796011	0.018361
667.000172	0.018341
667.204315	0.018295
667.408439	0.018279
667.612545	0.018244
667.816634	0.018242
668.020703	0.018324
668.224755	0.018267
668.428788	0.018198
668.632803	0.018066
668.836800	0.017855
669.040779	0.017699
669.244739	0.017480
669.448681	0.017583
669.652605	0.017508
669.856511	0.017211
670.060399	0.017060
670.264268	0.017034
670.468119	0.017015
670.671952	0.017048
670.875767	0.016972
671.079563	0.017270
671.283341	0.017249
671.487101	0.017169
671.690843	0.017261
671.894567	0.017111
672.098272	0.017204
672.301959	0.017306
672.505628	0.017318
672.709278	0.017232
672.912911	0.016892
673.116525	0.016916
673.320121	0.016913
673.523699	0.016770
673.727258	0.016891
673.930799	0.016908
674.134322	0.016955
674.337827	0.016935
674.541314	0.017023
674.744782	0.017098
674.948232	0.016865
675.151664	0.016990
675.355078	0.016911
675.558474	0.017086
675.761851	0.016991
675.965210	0.016936
676.168551	0.017031
676.371873	0.016944
676.575178	0.017181
676.778464	0.017302
676.981732	0.017323
677.184981	0.017587
677.388213	0.017527
677.591426	0.017499
677.794621	0.017626
677.997798	0.017493
678.200956	0.017642
678.404097	0.017589
678.607219	0.017607
678.810323	0.017558
679.013408	0.017404
679.216476	0.017314
679.419525	0.017384
679.622556	0.017302
679.825569	0.017225
680.028563	0.017059
680.231540	0.016776
680.434498	0.016709
680.637438	0.016733
680.840359	0.016739
681.043263	0.016574
681.246148	0.016628
681.449015	0.016596
681.651864	0.016614
681.854694	0.016811
682.057506	0.017125
682.260301	0.017282
682.463076	0.017282
682.665834	0.017306
682.868573	0.017370
683.071295	0.017294
683.273998	0.017299
683.476682	0.017436
683.679349	0.017370
683.881997	0.017158
684.084627	0.017040
684.287239	0.017046
684.489833	0.016947
684.692408	0.017091
684.894965	0.017241
685.097504	0.017071
685.300025	0.016957
685.502527	0.016972
685.705012	0.016908
685.907478	0.016690
686.109925	0.016467
686.312355	0.016565
686.514766	0.016398
686.717159	0.016092
686.919534	0.016043
687.121891	0.015918
687.324230	0.015750
687.526550	0.015639
687.728852	0.015569
687.931136	0.015434
688.133401	0.015242
688.335649	0.015141
688.537878	0.015121
688.740089	0.015078
688.942281	0.015090
689.144456	0.014969
689.346612	0.015016
689.548750	0.014932
689.750870	0.015118
689.952971	0.015344
690.155055	0.015469
690.357120	0.015552
690.559167	0.015694
690.761195	0.015831
690.963206	0.015985
691.165198	0.016044
691.367172	0.016156
691.569128	0.016201
691.771065	0.016043
691.972984	0.015937
692.174885	0.015926
692.376768	0.015945
692.578633	0.015737
692.780479	0.015810
692.982308	0.015822
693.184118	0.016005
693.385909	0.016155
693.587683	0.016172
693.789438	0.016379
693.991175	0.016223
694.192894	0.016225
694.394595	0.016448
694.596277	0.016236
694.797941	0.016158
694.999587	0.016070
695.201215	0.015693
695.402824	0.015678
695.604416	0.015468
695.805989	0.015679
696.007543	0.015713
696.209080	0.015711
696.410598	0.015815
696.612099	0.015812
696.813580	0.015859
697.015044	0.015955
697.216490	0.015921
697.417917	0.015943
697.619326	0.015727
697.820717	0.015561
698.022089	0.015358
698.223444	0.015344
698.424780	0.015340
698.626098	0.015320
698.827397	0.015319
699.028679	0.015313
699.229942	0.015353
699.431187	0.015527
699.632414	0.015611
699.833622	0.015510
700.034813	0.015287
700.235985	0.015080
700.437139	0.014871
700.638274	0.014735
700.839392	0.014738
701.040491	0.014670
701.241572	0.014762
701.442635	0.014862
701.643679	0.014885
701.844706	0.015067
702.045714	0.015363
702.246704	0.015417
702.447675	0.015406
702.648629	0.015562
702.849564	0.015667
703.050481	0.015544
703.251380	0.015334
703.452260	0.015367
703.653122	0.015428
703.853966	0.015342
704.054792	0.015464
704.255600	0.015550
704.456389	0.015571
704.657160	0.015473
704.857913	0.015442
705.058648	0.015350
705.259365	0.015243
705.460063	0.015108
705.660743	0.014781
705.861405	0.014616
706.062048	0.014621
706.262674	0.014231
706.463281	0.014231
706.663870	0.014074
706.864441	0.014046
707.064993	0.014047
707.265527	0.014206
707.466043	0.014346
707.666541	0.014374
707.867021	0.014302
708.067482	0.014348
708.267925	0.014304
708.468350	0.014355
708.668757	0.014383
708.869145	0.014446
709.069516	0.014210
709.269868	0.014294
709.470201	0.014320
709.670517	0.014324
709.870814	0.014296
710.071093	0.014243
710.271354	0.014282
710.471597	0.014399
710.671821	0.014483
710.872028	0.014652
711.072216	0.014809
711.272385	0.014681
711.472537	0.014690
711.672670	0.014741
711.872785	0.014710
712.072882	0.014673
712.272961	0.014629
712.473021	0.014729
712.673063	0.014491
712.873087	0.014265
713.073093	0.014203
713.273081	0.014349
713.473050	0.014397
713.673001	0.014473
713.872934	0.014431
714.072849	0.014457
714.272745	0.014195
714.472623	0.014377
714.672483	0.014329
714.872325	0.014363
715.072148	0.014176
715.271954	0.014232
715.471741	0.014282
715.671509	0.014214
715.871260	0.014009
716.070992	0.013986
716.270707	0.013718
716.470403	0.013837
716.670080	0.013883
716.869740	0.013860
717.069381	0.013738
717.269004	0.013644
717.468609	0.013857
717.668195	0.014047
717.867764	0.014034
718.067314	0.013963
718.266846	0.013854
718.466360	0.013714
718.665855	0.013738
718.865332	0.013573
719.064791	0.013421
719.264232	0.013098
719.463655	0.012949
719.663059	0.012937
719.862445	0.013068
720.061813	0.013093
720.261163	0.013184
720.460494	0.013175
720.659807	0.013197
720.859102	0.013243
721.058379	0.013301
721.257638	0.013348
721.456878	0.013374
721.656100	0.013417
721.855304	0.013313
722.054490	0.013267
722.253657	0.013246
722.452806	0.013431
722.651937	0.013561
722.851050	0.013789
723.050145	0.013628
723.249221	0.013589
723.448279	0.013603
723.647319	0.013845
723.846340	0.013879
724.045344	0.013993
724.244329	0.013949
724.443296	0.013856
724.642245	0.013736
724.841175	0.013923
725.040088	0.014041
725.238982	0.013952
725.437857	0.013776
725.636715	0.013833
725.835554	0.013697
726.034376	0.013809
726.233179	0.013764
726.431963	0.013657
726.630730	0.013616
726.829478	0.013752
727.028208	0.013701
727.226920	0.013759
727.425614	0.013605
727.624289	0.013573
727.822946	0.013537
728.021585	0.013338
728.220206	0.013283
728.418808	0.013028
728.617392	0.012586
728.815958	0.012570
729.014506	0.012369
729.213036	0.012414
729.411547	0.012341
729.610040	0.012190
729.808515	0.012368
730.006972	0.012267
730.205410	0.012402
730.403831	0.012472
730.602233	0.012528
730.800616	0.012667
730.998982	0.012605
731.197329	0.012612
731.395658	0.012485
731.593969	0.012350
731.792262	0.012595
731.990536	0.012667
732.188793	0.012764
732.387031	0.012903
732.585250	0.012856
732.783452	0.012952
732.981635	0.013068
733.179800	0.013086
733.377947	0.013198
733.576076	0.013154
733.774186	0.013057
733.972278	0.012975
734.170352	0.012718
734.368408	0.012649
734.566446	0.012541
734.764465	0.012524
734.962466	0.012602
735.160449	0.012438
735.358413	0.012179
735.556360	0.012058
735.754288	0.012014
735.952198	0.012208
736.150090	0.012133
736.347963	0.012115
736.545818	0.011974
736.743655	0.012077
736.941474	0.012205
737.139275	0.012246
737.337057	0.012409
737.534821	0.012507
737.732567	0.012414
737.930295	0.012654
738.128005	0.012654
738.325696	0.012712
738.523369	0.012602
738.721024	0.012564
738.918660	0.012785
739.116279	0.012641
739.313879	0.012636
739.511461	0.012623
739.709024	0.012441
739.906570	0.012326
740.104097	0.012412
740.301606	0.012328
740.499097	0.012404
740.696569	0.012427
740.894024	0.012594
741.091460	0.012676
741.288878	0.012860
741.486277	0.013032
741.683659	0.013254
741.881022	0.013301
742.078367	0.013452
742.275694	0.013498
742.473002	0.013552
742.670293	0.013707
742.867565	0.013591
743.064819	0.013564
743.262054	0.013600
743.459272	0.013676
743.656471	0.013598
743.853652	0.013707
744.050815	0.013892
744.247959	0.013710
744.445085	0.013689
744.642194	0.013822
744.839283	0.013832
745.036355	0.014011
745.233408	0.014047
745.430444	0.014244
745.627461	0.014340
745.824459	0.014115
746.021440	0.014247
746.218402	0.014183
746.415346	0.014292
746.612272	0.014291
746.809180	0.014166
747.006069	0.014172
747.202940	0.014000
747.399793	0.013681
747.596628	0.013670
747.793444	0.013734
747.990243	0.013615
748.187023	0.013390
748.383784	0.013340
748.580528	0.013074
748.777253	0.012915
748.973960	0.012907
749.170649	0.013067
749.367320	0.013010
749.563973	0.012744
749.760607	0.012854
749.957223	0.012900
750.153821	0.012807
750.350400	0.012890
750.546962	0.013051
750.743505	0.013099
750.940030	0.013063
751.136536	0.012981
751.333025	0.013058
751.529495	0.013091
751.725947	0.013234
751.922381	0.013333
752.118796	0.013473
752.315194	0.013408
752.511573	0.013294
752.707934	0.013535
752.904276	0.013782
753.100601	0.013916
753.296907	0.014013
753.493195	0.014008
753.689465	0.013956
753.885716	0.013881
754.081949	0.014006
754.278164	0.014120
754.474361	0.014044
754.670540	0.014017
754.866700	0.014121
755.062843	0.014144
755.258967	0.014032
755.455072	0.014306
755.651160	0.014368
755.847229	0.014327
756.043280	0.014292
756.239313	0.014065
756.435328	0.014238
756.631324	0.014049
756.827302	0.013767
757.023262	0.013778
757.219204	0.013616
757.415127	0.013584
757.611033	0.013536
757.806920	0.013550
758.002788	0.013615
758.198639	0.013460
758.394471	0.013551
758.590286	0.013620
758.786081	0.013603
758.981859	0.013528
759.177619	0.013473
759.373360	0.013455
759.569083	0.013436
759.764788	0.013527
759.960474	0.013515
760.156143	0.013411
760.351793	0.013663
760.547425	0.013751
760.743038	0.013730
760.938634	0.013997
761.134211	0.014025
761.329770	0.014135
761.525311	0.014282
761.720833	0.014274
761.916338	0.014517
762.111824	0.014216
762.307292	0.014328
762.502741	0.014483
762.698173	0.014415
762.893586	0.014594
763.088981	0.014731
763.284358	0.014608
763.479716	0.014689
763.675057	0.014562
763.870379	0.014669
764.065683	0.014504
764.260968	0.014521
764.456236	0.014505
764.651485	0.014493
764.846716	0.014187
765.041929	0.014242
765.237123	0.014271
765.432299	0.014480
765.627457	0.014535
765.822597	0.014688
766.017719	0.014589
766.212822	0.014575
766.407907	0.014733
766.602974	0.014792
766.798023	0.014931
766.993054	0.015008
767.188066	0.014612
767.383060	0.014617
767.578036	0.014698
767.772993	0.014628
767.967933	0.014633
768.162854	0.014427
768.357757	0.014551
768.552642	0.014288
768.747508	0.014189
768.942356	0.014470
769.137186	0.014651
769.331998	0.014553
769.526792	0.014726
769.721567	0.014679
769.916324	0.014566
770.111063	0.014618
770.305784	0.014714
770.500486	0.014772
770.695171	0.014644
770.889837	0.014478
771.084484	0.014325
771.279114	0.014116
771.473725	0.014100
771.668318	0.014153
771.862893	0.013969
772.057450	0.013949
772.251988	0.013922
772.446509	0.013976
772.641011	0.013972
772.835494	0.014132
773.029960	0.014415
773.224407	0.014312
773.418836	0.014475
773.613247	0.014579
773.807640	0.014528
774.002014	0.014632
774.196370	0.014686
774.390708	0.014715
774.585028	0.014648
774.779330	0.014491
774.973613	0.014871
775.167878	0.014729
775.362125	0.014641
775.556354	0.014764
775.750564	0.014618
775.944756	0.014468
776.138930	0.014425
776.333086	0.014478
776.527223	0.014495
776.721343	0.014263
776.915444	0.014140
777.109526	0.014191
777.303591	0.014034
777.497637	0.013961
777.691666	0.013905
777.885676	0.013845
778.079667	0.013735
778.273641	0.013593
778.467596	0.013620
778.661533	0.013438
778.855452	0.013536
779.049352	0.013558
779.243235	0.013522
779.437099	0.013623
779.630945	0.013670
779.824773	0.013621
780.018582	0.013756
780.212373	0.013493
780.406146	0.013765
780.599901	0.013606
780.793638	0.013597
780.987356	0.013676
781.181056	0.013776
781.374738	0.013796
781.568402	0.013938
781.762047	0.014050
781.955674	0.014368
782.149283	0.014270
782.342874	0.014324
782.536447	0.014401
782.730001	0.014426
782.923537	0.014452
783.117055	0.014494
783.310555	0.014676
783.504036	0.014643
783.697499	0.014556
783.890944	0.014768
784.084371	0.014907
784.277780	0.014773
784.471170	0.014858
784.664542	0.014843
784.857896	0.014843
785.051231	0.014654
785.244549	0.014798
785.437848	0.015047
785.631129	0.015033
785.824392	0.015103
786.017636	0.015647
786.210863	0.015794
786.404071	0.015932
786.597260	0.015972
786.790432	0.016282
786.983585	0.016244
787.176721	0.016095
787.369838	0.016217
787.562936	0.015949
787.756017	0.015552
787.949079	0.015375
788.142123	0.015233
788.335149	0.015300
788.528156	0.015053
788.721146	0.015180
788.914117	0.015257
789.107070	0.015029
789.300005	0.015216
789.492921	0.015310
789.685819	0.015217
789.878699	0.015309
790.071561	0.015331
790.264405	0.015422
790.457230	0.015100
790.650037	0.014982
790.842826	0.015179
791.035597	0.015171
791.228349	0.015026
791.421084	0.015207
791.613800	0.015291
791.806497	0.015078
791.999177	0.014963
792.191838	0.015053
792.384481	0.015064
792.577106	0.014825
792.769713	0.014733
792.962301	0.014871
793.154871	0.014737
793.347423	0.014482
793.539957	0.014553
793.732473	0.014594
793.924970	0.014621
794.117449	0.014740
794.309910	0.014751
794.502353	0.014976
794.694777	0.014857
794.887183	0.014895
795.079571	0.014935
795.271941	0.014927
795.464293	0.015107
795.656626	0.015046
795.848941	0.014946
796.041238	0.014954
796.233516	0.014757
796.425777	0.014778
796.618019	0.014979
796.810243	0.015202
797.002449	0.015438
797.194636	0.015282
797.386805	0.015324
797.578956	0.015331
797.771089	0.015600
797.963204	0.015668
798.155300	0.015574
798.347378	0.015522
798.539438	0.015349
798.731480	0.015148
798.923503	0.015274
799.115509	0.015359
799.307496	0.015433
799.499465	0.015200
799.691415	0.015371
799.883348	0.015710
800.075262	0.015644
800.267158	0.015847
800.459035	0.015602
800.650895	0.015412
800.842736	0.015172
801.034559	0.015109
801.226364	0.015037
801.418150	0.014699
801.609919	0.014305
801.801669	0.014181
801.993401	0.014012
802.185114	0.014276
802.376810	0.014158
802.568487	0.014376
802.760146	0.014419
802.951787	0.014610
803.143409	0.014864
803.335014	0.015057
803.526600	0.015128
803.718168	0.015163
803.909717	0.015220
804.101249	0.015442
804.292762	0.015483
804.484257	0.015493
804.675734	0.015659
804.867192	0.015443
805.058632	0.015630
805.250054	0.015883
805.441458	0.016001
805.632844	0.016173
805.824211	0.016323
806.015561	0.016159
806.206891	0.015993
806.398204	0.015977
806.589499	0.016208
806.780775	0.016162
806.972033	0.016133
807.163273	0.015995
807.354495	0.015850
807.545698	0.015777
807.736883	0.015837
807.928050	0.015919
808.119199	0.015734
808.310329	0.015687
808.501441	0.015685
808.692535	0.015728
808.883611	0.015808
809.074669	0.015924
809.265708	0.015645
809.456729	0.015806
809.647732	0.015846
809.838717	0.015972
810.029683	0.015987
810.220632	0.015990
810.411562	0.015685
810.602474	0.015740
810.793367	0.015514
810.984242	0.015746
811.175100	0.015821
811.365938	0.016066
811.556759	0.016146
811.747562	0.016241
811.938346	0.016303
812.129112	0.016647
812.319860	0.016489
812.510589	0.016884
812.701300	0.017061
812.891994	0.016995
813.082668	0.016680
813.273325	0.016416
813.463964	0.016385
813.654584	0.016314
813.845186	0.016169
814.035769	0.016256
814.226335	0.015916
814.416882	0.015901
814.607411	0.015913
814.797922	0.016054
814.988415	0.016113
815.178889	0.016021
815.369345	0.015869
815.559783	0.015817
815.750203	0.015677
815.940605	0.015838
816.130988	0.015524
816.321353	0.015571
816.511700	0.015514
816.702028	0.015580
816.892339	0.015671
817.082631	0.015711
817.272905	0.015864
817.463161	0.015935
817.653398	0.015786
817.843617	0.015642
818.033819	0.015318
818.224001	0.015449
818.414166	0.015332
818.604312	0.014970
818.794440	0.014927
818.984550	0.014725
819.174642	0.014670
819.364716	0.014796
819.554771	0.014983
819.744808	0.014971
819.934827	0.014832
820.124827	0.014824
820.314810	0.015047
820.504774	0.014972
820.694720	0.014754
820.884647	0.014899
821.074557	0.014511
821.264448	0.014427
821.454321	0.014540
821.644176	0.014448
821.834012	0.014270
822.023831	0.014185
822.213631	0.014025
822.403413	0.014023
822.593176	0.013853
822.782922	0.013853
822.972649	0.013831
823.162358	0.013753
823.352049	0.013824
823.541721	0.013877
823.731376	0.013966
823.921012	0.014134
824.110629	0.014178
824.300229	0.014323
824.489811	0.014695
824.679374	0.014827
824.868919	0.014844
825.058445	0.014621
825.247954	0.014628
825.437444	0.014728
825.626916	0.014683
825.816370	0.014952
826.005806	0.014780
826.195223	0.014759
826.384622	0.014894
826.574003	0.014829
826.763366	0.014891
826.952711	0.015093
827.142037	0.014947
827.331345	0.015094
827.520635	0.014922
827.709906	0.014955
827.899160	0.014643
828.088395	0.014320
828.277612	0.014381
828.466810	0.014435
828.655991	0.014384
828.845153	0.014266
829.034297	0.014035
829.223423	0.013928
829.412531	0.013937
829.601620	0.013959
829.790691	0.013970
829.979744	0.013768
830.168779	0.013581
830.357795	0.013348
830.546793	0.013396
830.735773	0.013272
830.924735	0.013288
831.113679	0.013195
831.302604	0.013180
831.491511	0.012989
831.680400	0.013128
831.869271	0.013129
832.058123	0.013108
832.246957	0.013162
832.435773	0.013238
832.624571	0.013226
832.813351	0.013221
833.002112	0.013203
833.190855	0.013307
833.379580	0.013176
833.568287	0.013391
833.756975	0.013491
833.945645	0.013367
834.134297	0.013542
834.322931	0.013664
834.511547	0.013605
834.700144	0.013881
834.888723	0.013898
835.077284	0.013857
835.265826	0.013734
835.454351	0.013754
835.642857	0.013855
835.831345	0.013824
836.019815	0.013765
836.208266	0.013643
836.396699	0.013310
836.585114	0.013486
836.773511	0.013622
836.961890	0.013599
837.150250	0.013650
837.338592	0.013637
837.526916	0.013340
837.715222	0.013044
837.903510	0.013013
838.091779	0.012941
838.280030	0.012583
838.468263	0.012527
838.656477	0.012537
838.844674	0.012503
839.032852	0.012392
839.221012	0.012758
839.409153	0.012996
839.597277	0.013187
839.785382	0.013195
839.973469	0.013382
840.161538	0.013351
840.349589	0.013237
840.537621	0.013328
840.725635	0.013194
840.913631	0.013109
841.101609	0.012958
841.289568	0.012845
841.477509	0.013057
841.665432	0.013216
841.853337	0.013267
842.041224	0.013524
842.229092	0.013274
842.416942	0.013407
842.604774	0.013287
842.792588	0.013317
842.980383	0.013494
843.168160	0.013398
843.355919	0.013279
843.543660	0.013099
843.731382	0.012903
843.919087	0.012771
844.106773	0.012753
844.294441	0.012756
844.482090	0.012878
844.669722	0.012999
844.857335	0.013016
845.044930	0.013015
845.232507	0.013108
845.420065	0.013223
845.607605	0.013433
845.795127	0.013293
845.982631	0.013191
846.170117	0.013222
846.357584	0.012961
846.545033	0.012935
846.732464	0.012807
846.919877	0.012932
847.107272	0.012881
847.294648	0.012851
847.482006	0.012933
847.669346	0.013330
847.856667	0.013185
848.043971	0.013276
848.231256	0.013242
848.418523	0.013364
848.605771	0.013266
848.793002	0.013296
848.980214	0.013409
849.167408	0.013707
849.354584	0.013609
849.541742	0.013650
849.728881	0.013582
849.916002	0.013629
850.103105	0.013512
850.290190	0.013781
850.477256	0.013911
850.664304	0.014033
850.851334	0.014072
851.038346	0.014143
851.225340	0.014341
851.412315	0.014580
851.599272	0.014826
851.786211	0.015058
851.973132	0.015146
852.160034	0.015260
852.346918	0.015212
852.533784	0.015053
852.720632	0.014943
852.907462	0.014964
853.094273	0.014869
853.281066	0.014874
853.467841	0.014906
853.654598	0.014720
853.841336	0.014636
854.028056	0.014744
854.214758	0.014872
854.401442	0.015277
854.588107	0.015503
854.774755	0.015868
854.961384	0.016237
855.147995	0.016401
855.334587	0.016439
855.521162	0.016669
855.707718	0.016577
855.894256	0.016661
856.080775	0.016454
856.267277	0.016333
856.453760	0.016108
856.640225	0.015658
856.826672	0.015682
857.013101	0.015835
857.199511	0.015483
857.385903	0.015738
857.572277	0.016041
857.758633	0.016079
857.944970	0.015915
858.131290	0.016087
858.317591	0.016008
858.503873	0.015878
858.690138	0.016025
858.876384	0.016229
859.062612	0.016096
859.248822	0.015766
859.435014	0.015747
859.621188	0.016065
859.807343	0.016010
859.993480	0.016310
860.179599	0.016332
860.365699	0.016242
860.551781	0.016198
860.737846	0.016023
860.923891	0.016124
861.109919	0.016279
861.295929	0.016060
861.481920	0.015860
861.667893	0.016044
861.853848	0.016060
862.039784	0.016179
862.225702	0.016130
862.411603	0.016551
862.597484	0.016578
862.783348	0.016433
862.969193	0.016417
863.155021	0.016626
863.340830	0.016389
863.526620	0.016435
863.712393	0.015930
863.898147	0.015820
864.083883	0.015721
864.269601	0.015755
864.455301	0.015780
864.640982	0.015784
864.826645	0.015700
865.012290	0.015329
865.197917	0.015118
865.383526	0.015247
865.569116	0.015347
865.754688	0.015038
865.940242	0.014811
866.125777	0.014795
866.311295	0.014808
866.496794	0.014744
866.682275	0.014917
866.867737	0.015002
867.053182	0.015316
867.238608	0.015452
867.424016	0.015891
867.609406	0.015742
867.794778	0.015625
867.980131	0.015813
868.165466	0.015740
868.350783	0.015931
868.536082	0.016424
868.721362	0.016151
868.906625	0.016038
869.091869	0.015600
869.277094	0.015740
869.462302	0.015575
869.647491	0.015323
869.832662	0.015278
870.017815	0.015033
870.202950	0.014665
870.388066	0.014558
870.573165	0.014368
870.758245	0.014713
870.943306	0.014771
871.128350	0.014898
871.313375	0.014850
871.498382	0.014853
871.683371	0.014980
871.868342	0.015092
872.053294	0.015340
872.238229	0.015443
872.423144	0.015105
872.608042	0.015117
872.792922	0.015198
872.977783	0.015298
873.162626	0.015478
873.347451	0.015748
873.532258	0.015573
873.717046	0.015522
873.901816	0.015480
874.086568	0.015728
874.271302	0.015373
874.456017	0.015265
874.640715	0.015321
874.825394	0.015247
875.010055	0.014873
875.194697	0.014780
875.379322	0.014613
875.563928	0.014520
875.748516	0.014457
875.933085	0.014514
876.117637	0.014619
876.302170	0.014771
876.486685	0.014826
876.671182	0.014743
876.855661	0.014777
877.040121	0.015027
877.224563	0.015196
877.408987	0.015167
877.593393	0.015534
877.777780	0.015486
877.962150	0.015525
878.146501	0.015828
878.330833	0.016284
878.515148	0.016563
878.699444	0.016694
878.883722	0.017064
879.067982	0.016984
879.252224	0.016993
879.436447	0.017347
879.620653	0.017242
879.804840	0.017082
879.989008	0.017299
880.173159	0.017181
880.357291	0.017032
880.541405	0.016934
880.725501	0.017028
880.909579	0.017041
881.093638	0.016869
881.277680	0.016841
881.461703	0.016725
881.645707	0.016644
881.829694	0.016825
882.013662	0.016923
882.197612	0.016852
882.381544	0.017006
882.565458	0.017035
882.749353	0.016934
882.933230	0.016992
883.117089	0.017097
883.300930	0.016749
883.484753	0.016775
883.668557	0.016849
883.852343	0.016895
884.036111	0.016803
884.219861	0.016937
884.403592	0.017031
884.587305	0.017374
884.771000	0.017635
884.954677	0.018095
885.138335	0.018330
885.321976	0.018441
885.505598	0.018962
885.689201	0.019075
885.872787	0.019242
886.056354	0.019413
886.239904	0.018774
886.423434	0.018597
886.606947	0.018447
886.790442	0.018427
886.973918	0.018454
887.157376	0.018244
887.340816	0.018624
887.524237	0.018709
887.707641	0.018676
887.891026	0.019240
888.074393	0.019522
888.257741	0.019541
888.441072	0.019518
888.624384	0.019444
888.807678	0.019303
888.990954	0.018948
889.174211	0.018747
889.357451	0.018900
889.540672	0.018959
889.723875	0.018538
889.907059	0.018477
890.090226	0.018381
890.273374	0.018658
890.456504	0.018726
890.639616	0.018899
890.822709	0.018750
891.005785	0.018744
891.188842	0.018624
891.371881	0.018816
891.554901	0.018990
891.737904	0.018986
891.920888	0.018869
892.103854	0.019083
892.286802	0.019070
892.469731	0.019333
892.652643	0.019381
892.835536	0.019971
893.018410	0.020211
893.201267	0.020388
893.384106	0.020350
893.566926	0.020294
893.749728	0.020325
893.932511	0.020489
894.115277	0.020559
894.298024	0.021002
894.480753	0.020395
894.663464	0.020291
894.846157	0.020068
895.028831	0.020047
895.211487	0.020090
895.394125	0.019726
895.576745	0.019475
895.759346	0.019482
895.941930	0.019125
896.124495	0.019204
896.307041	0.019144
896.489570	0.019332
896.672080	0.019624
896.854573	0.019503
897.037046	0.019734
897.219502	0.020436
897.401940	0.020586
897.584359	0.020721
897.766760	0.021279
897.949143	0.021449
898.131507	0.021413
898.313854	0.021129
898.496182	0.020913
898.678492	0.021045
898.860783	0.020800
899.043057	0.020616
899.225312	0.020670
899.407549	0.020234
899.589768	0.020290
899.771968	0.020201
899.954151	0.020425
900.136315	0.020851
900.318461	0.020776
900.500588	0.020713
900.682698	0.020597
900.864789	0.020348
901.046862	0.020280
901.228917	0.020179
901.410953	0.020261
901.592971	0.020040
901.774972	0.020019
901.956953	0.019629
902.138917	0.019194
902.320862	0.019224
902.502790	0.019043
902.684699	0.019098
902.866589	0.019064
903.048462	0.018856
903.230316	0.019040
903.412152	0.018893
903.593970	0.019121
903.775770	0.019260
903.957551	0.019583
904.139314	0.019488
904.321059	0.019569
904.502786	0.019797
904.684494	0.020147
904.866185	0.020325
905.047857	0.020375
905.229510	0.020645
905.411146	0.020510
905.592763	0.020265
905.774363	0.020345
905.955943	0.020143
906.137506	0.019682
906.319051	0.019743
906.500577	0.019683
906.682085	0.020122
906.863575	0.019934
907.045046	0.020236
907.226500	0.020339
907.407935	0.020437
907.589352	0.020558
907.770750	0.020913
907.952131	0.020622
908.133493	0.020764
908.314837	0.020668
908.496163	0.020576
908.677470	0.020363
908.858760	0.020376
909.040031	0.020599
909.221284	0.020629
909.402518	0.020219
909.583735	0.020045
909.764933	0.019763
909.946113	0.019247
910.127275	0.019720
910.308418	0.019699
910.489544	0.019269
910.670651	0.018805
910.851740	0.018692
911.032810	0.019266
911.213863	0.019581
911.394897	0.019680
911.575913	0.020170
911.756911	0.019837
911.937890	0.020079
912.118851	0.020089
912.299794	0.020311
912.480719	0.020201
912.661626	0.020358
912.842514	0.020061
913.023384	0.020044
913.204236	0.019605
913.385070	0.019276
913.565886	0.018748
913.746683	0.018894
913.927462	0.018600
914.108223	0.018909
914.288965	0.018222
914.469690	0.017970
914.650396	0.017697
914.831084	0.017723
915.011754	0.017726
915.192405	0.018289
915.373038	0.018474
915.553653	0.018817
915.734250	0.018254
915.914829	0.018380
916.095389	0.018658
916.275931	0.018322
916.456455	0.018322
916.636961	0.018093
916.817448	0.017571
916.997917	0.017115
917.178368	0.016861
917.358801	0.017250
917.539216	0.016861
917.719612	0.017418
917.899990	0.017580
918.080350	0.017674
918.260692	0.018389
918.441015	0.018618
918.621320	0.019055
918.801607	0.019175
918.981876	0.019042
919.162127	0.019264
919.342359	0.018692
919.522573	0.018768
919.702769	0.018839
919.882947	0.018356
920.063106	0.018258
920.243247	0.018217
920.423370	0.018463
920.603475	0.018173
920.783562	0.018303
920.963630	0.018409
921.143680	0.018314
921.323712	0.018182
921.503725	0.017802
921.683721	0.017825
921.863698	0.017436
922.043657	0.017216
922.223598	0.017589
922.403520	0.017609
922.583424	0.017586
922.763311	0.017848
922.943178	0.017865
923.123028	0.018317
923.302859	0.018433
923.482673	0.018468
923.662467	0.018259
923.842244	0.018260
924.022003	0.018367
924.201743	0.018149
924.381465	0.018191
924.561169	0.017965
924.740854	0.018021
924.920522	0.017795
925.100171	0.018002
925.279802	0.018091
925.459414	0.017489
925.639009	0.017092
925.818585	0.017092
925.998143	0.016745
926.177683	0.016770
926.357205	0.016775
926.536708	0.017058
926.716193	0.017247
926.895660	0.017159
927.075109	0.016961
927.254539	0.016775
927.433951	0.016609
927.613345	0.016779
927.792721	0.016209
927.972079	0.015812
928.151418	0.015246
928.330739	0.014852
928.510042	0.014482
928.689327	0.014892
928.868593	0.015308
929.047841	0.014927
929.227071	0.014577
929.406283	0.014696
929.585476	0.014599
929.764652	0.014888
929.943809	0.013986
930.122948	0.013970
930.302068	0.013316
930.481171	0.012828
930.660255	0.012824
930.839321	0.013037
931.018369	0.013764
931.197398	0.013324
931.376409	0.012913
931.555402	0.013156
931.734377	0.013273
931.913334	0.014050
932.092272	0.014351
932.271192	0.014093
932.450094	0.013840
932.628978	0.012764
932.807844	0.012791
932.986691	0.012406
933.165520	0.012689
933.344331	0.012358
933.523123	0.011885
933.701898	0.011401
933.880654	0.011822
934.059392	0.011330
934.238111	0.011585
934.416813	0.011765
934.595496	0.011764
934.774161	0.011492
934.952808	0.011191
935.131437	0.011171
935.310047	0.010974
935.488639	0.011017
935.667213	0.010888
935.845769	0.011055
936.024306	0.010777
936.202825	0.010880
936.381326	0.011282
936.559809	0.011368
936.738274	0.011437
936.916720	0.011667
937.095148	0.011439
937.273558	0.011457
937.451950	0.010896
937.630323	0.010863
937.808678	0.011536
937.987015	0.011061
938.165334	0.010919
938.343635	0.011128
938.521917	0.010669
938.700181	0.010152
938.878427	0.011087
939.056655	0.010815
939.234864	0.011121
939.413055	0.010161
939.591228	0.009539
939.769383	0.009575
939.947519	0.008942
940.125638	0.008507
940.303738	0.008928
940.481820	0.007580
940.659883	0.007900
940.837929	0.007524
941.015956	0.006863
941.193965	0.007154
941.371955	0.006676
941.549928	0.006189
941.727882	0.006457
941.905818	0.006372
942.083736	0.006508
942.261636	0.006137
942.439517	0.006004
942.617380	0.006099
942.795225	0.006490
942.973052	0.006627
943.150860	0.007223
943.328651	0.007159
943.506423	0.006565
943.684176	0.006483
943.861912	0.006665
944.039629	0.006410
944.217328	0.006772
944.395009	0.006267
944.572672	0.006742
944.750317	0.006331
944.927943	0.006508
945.105551	0.006595
945.283141	0.007168
945.460712	0.006896
945.638265	0.006877
945.815801	0.006634
945.993317	0.007401
946.170816	0.006820
946.348297	0.006648
946.525759	0.006115
946.703203	0.006191
946.880629	0.005400
947.058036	0.005558
947.235425	0.005941
947.412797	0.007741
947.590149	0.007348
947.767484	0.008806
947.944800	0.009390
948.122099	0.009305
948.299379	0.009530
948.476640	0.009528
948.653884	0.010206
948.831109	0.010407
949.008316	0.009287
949.185505	0.008497
949.362676	0.008660
949.539828	0.007103
949.716962	0.008184
949.894078	0.008787
950.071176	0.009878
950.248256	0.009647
950.425317	0.009610
950.602360	0.010056
950.779385	0.011286
950.956391	0.010240
951.133380	0.011972
951.310350	0.011994
951.487302	0.011998
951.664235	0.012342
951.841151	0.012935
952.018048	0.013422
952.194927	0.013883
952.371788	0.014275
952.548631	0.014470
952.725455	0.015003
952.902261	0.015487
953.079049	0.015095
953.255819	0.014412
953.432570	0.015078
953.609303	0.015092
953.786018	0.015393
953.962715	0.015318
954.139394	0.016501
954.316054	0.014852
954.492696	0.015304
954.669320	0.014450
954.845926	0.014737
955.022513	0.013973
955.199083	0.015250
955.375634	0.014599
955.552166	0.016244
955.728681	0.015580
955.905177	0.017316
956.081655	0.017086
956.258115	0.019172
956.434557	0.019243
956.610980	0.022023
956.787385	0.020137
956.963772	0.021305
957.140141	0.018796
957.316492	0.020117
957.492824	0.020881
957.669138	0.023383
957.845434	0.023240
958.021712	0.023578
958.197971	0.022614
958.374212	0.023961
958.550435	0.024660
958.726640	0.025500
958.902826	0.025246
959.078995	0.024605
959.255145	0.023813
959.431277	0.025081
959.607390	0.026137
959.783486	0.025905
959.959563	0.025175
960.135622	0.023973
960.311662	0.025382
960.487685	0.026189
960.663689	0.027381
960.839675	0.024965
961.015643	0.024020
961.191593	0.024325
961.367524	0.024526
961.543437	0.027403
961.719332	0.028626
961.895209	0.029699
962.071067	0.029712
962.246907	0.029301
962.422730	0.030825
962.598533	0.030665
962.774319	0.031063
962.950086	0.030725
963.125835	0.031505
963.301566	0.030003
963.477279	0.029145
963.652973	0.029038
963.828650	0.028608
964.004308	0.030864
964.179947	0.032635
964.355569	0.031933
964.531172	0.033512
964.706757	0.032582
964.882324	0.034364
965.057873	0.033520
965.233403	0.034077
965.408916	0.035373
965.584410	0.032929
965.759885	0.033623
965.935343	0.034248
966.110782	0.032718
966.286203	0.033286
966.461606	0.032454
966.636991	0.034470
966.812357	0.034158
966.987705	0.036688
967.163035	0.039664
967.338347	0.039201
967.513641	0.040634
967.688916	0.043407
967.864173	0.042661
968.039412	0.044001
968.214632	0.043903
968.389835	0.044773
968.565019	0.042393
968.740185	0.040998
968.915333	0.041463
969.090462	0.040665
969.265573	0.038826
969.440667	0.038908
969.615741	0.038869
969.790798	0.037384
969.965836	0.037182
970.140856	0.036474
970.315858	0.034379
970.490842	0.033137
970.665808	0.033834
970.840755	0.035059
971.015684	0.038105
971.190595	0.037572
971.365487	0.038419
971.540362	0.037799
971.715218	0.039445
971.890056	0.040672
972.064875	0.041956
972.239677	0.040679
972.414460	0.041870
972.589225	0.038861
972.763972	0.039801
972.938700	0.040680
973.113411	0.040771
973.288103	0.040742
973.462777	0.040712
973.637432	0.040117
973.812070	0.043365
973.986689	0.040867
974.161290	0.040542
974.335873	0.040920
974.510437	0.040798
974.684984	0.042212
974.859512	0.041075
975.034022	0.040962
975.208513	0.040600
975.382987	0.038680
975.557442	0.037994
975.731879	0.038116
975.906298	0.034552
976.080698	0.035117
976.255080	0.034935
976.429445	0.036112
976.603790	0.037124
976.778118	0.036467
976.952427	0.037612
977.126719	0.036743
977.300992	0.035982
977.475246	0.037839
977.649483	0.034755
977.823701	0.034585
977.997901	0.033516
978.172083	0.033980
978.346247	0.035412
978.520392	0.034003
978.694519	0.035973
978.868628	0.036946
979.042719	0.038704
979.216791	0.040891
979.390845	0.038198
979.564882	0.038018
979.738899	0.037906
979.912899	0.036741
980.086880	0.035938
980.260843	0.033791
980.434788	0.034470
980.608715	0.034090
980.782623	0.034301
980.956514	0.036206
981.130386	0.038031
981.304240	0.036286
981.478075	0.036558
981.651892	0.036756
981.825692	0.040727
981.999472	0.039572
982.173235	0.040561
982.346980	0.040420
982.520706	0.039357
982.694414	0.037788
982.868104	0.037905
983.041775	0.036819
983.215428	0.036978
983.389064	0.033320
983.562680	0.034038
983.736279	0.031351
983.909860	0.029855
984.083422	0.032724
984.256966	0.033956
984.430491	0.035295
984.603999	0.035308
984.777488	0.035577
984.950959	0.037368
985.124412	0.037421
985.297847	0.037767
985.471263	0.038087
985.644661	0.036730
985.818041	0.037323
985.991403	0.036169
986.164747	0.038018
986.338072	0.038267
986.511379	0.038056
986.684668	0.037483
986.857938	0.036460
987.031191	0.038031
987.204425	0.038267
987.377641	0.036612
987.550839	0.038060
987.724018	0.038084
987.897179	0.038320
988.070322	0.038084
988.243447	0.038641
988.416554	0.039920
988.589642	0.038922
988.762712	0.040135
988.935764	0.040980
989.108798	0.040709
989.281813	0.039587
989.454811	0.038679
989.627790	0.038576
989.800751	0.037750
989.973693	0.039896
990.146617	0.040874
990.319524	0.039328
990.492412	0.038529
990.665281	0.039476
990.838133	0.039018
991.010966	0.038261
991.183781	0.039169
991.356578	0.039215
991.529356	0.037866
991.702117	0.036661
991.874859	0.035243
992.047583	0.036282
992.220288	0.036380
992.392976	0.036659
992.565645	0.037860
992.738296	0.037554
992.910929	0.039774
993.083543	0.040535
993.256139	0.041785
993.428718	0.042210
993.601277	0.041434
993.773819	0.041037
993.946342	0.041933
994.118848	0.041641
994.291335	0.040539
994.463803	0.038220
994.636254	0.036451
994.808686	0.035262
994.981100	0.034736
995.153496	0.033184
995.325874	0.033082
995.498233	0.032341
995.670574	0.033250
995.842897	0.034193
996.015202	0.033779
996.187488	0.034713
996.359757	0.037033
996.532007	0.039136
996.704239	0.038899
996.876452	0.038702
997.048648	0.038197
997.220825	0.036806
997.392984	0.038103
997.565124	0.039196
997.737247	0.038934
997.909351	0.036835
998.081437	0.035122
998.253505	0.036850
998.425554	0.035249
998.597586	0.035943
998.769599	0.038018
998.941594	0.035727
999.113571	0.036028
999.285529	0.036038
999.457469	0.035901
999.629391	0.037317
999.801295	0.037029
999.973181	0.038620
1000.145048	0.038585
1000.316897	0.036912
1000.488728	0.040045
1000.660541	0.039973
1000.832335	0.040795
1001.004111	0.040658
1001.175869	0.038921
1001.347609	0.038530
1001.519331	0.037083
1001.691034	0.036717
1001.862719	0.035899
1002.034386	0.034634
1002.206035	0.035457
1002.377665	0.034644
1002.549277	0.035564
1002.720871	0.038302
1002.892447	0.036848
1003.064004	0.037100
1003.235544	0.037789
1003.407065	0.039285
1003.578568	0.039200
1003.750052	0.039978
1003.921519	0.040298
1004.092967	0.040271
1004.264397	0.039281
1004.435809	0.040491
1004.607202	0.041518
1004.778577	0.041797
1004.949934	0.041332
1005.121273	0.039903
1005.292594	0.037278
1005.463896	0.036019
1005.635180	0.035953
1005.806446	0.034733
1005.977694	0.035478
1006.148923	0.035344
1006.320135	0.036012
1006.491328	0.037112
1006.662503	0.038168
1006.833659	0.039225
1007.004798	0.039803
1007.175918	0.038673
1007.347020	0.039705
1007.518103	0.039374
1007.689169	0.039839
1007.860216	0.039458
1008.031245	0.038019
1008.202256	0.037483
1008.373248	0.036832
1008.544223	0.037917
1008.715179	0.036332
1008.886117	0.035188
1009.057036	0.036297
1009.227938	0.035533
1009.398821	0.035286
1009.569686	0.034543
1009.740533	0.033855
1009.911361	0.033540
1010.082172	0.031605
1010.252964	0.033152
1010.423738	0.033457
1010.594493	0.030897
1010.765231	0.030581
1010.935950	0.030585
1011.106651	0.030606
1011.277334	0.031174
1011.447998	0.031357
1011.618645	0.032806
1011.789273	0.033563
1011.959882	0.034174
1012.130474	0.035093
1012.301048	0.035392
1012.471603	0.033960
1012.642140	0.033920
1012.812658	0.035145
1012.983159	0.034787
1013.153641	0.033286
1013.324105	0.033862
1013.494551	0.032811
1013.664979	0.032220
1013.835388	0.031928
1014.005779	0.033409
1014.176152	0.035904
1014.346507	0.034106
1014.516843	0.035398
1014.687162	0.036426
1014.857462	0.035236
1015.027744	0.034484
1015.198007	0.037663
1015.368252	0.037712
1015.538480	0.036931
1015.708689	0.036299
1015.878879	0.036596
1016.049052	0.037310
1016.219206	0.037593
1016.389342	0.039010
1016.559460	0.040774
1016.729559	0.037840
1016.899641	0.036021
1017.069704	0.036071
1017.239749	0.034232
1017.409775	0.033671
1017.579784	0.033264
1017.749774	0.034242
1017.919746	0.033958
1018.089700	0.033500
1018.259635	0.034753
1018.429553	0.036310
1018.599452	0.036564
1018.769333	0.037600
1018.939195	0.039064
1019.109040	0.038764
1019.278866	0.037510
1019.448674	0.037302
1019.618464	0.037768
1019.788235	0.036694
1019.957989	0.035838
1020.127724	0.036299
1020.297441	0.036966
1020.467139	0.035369
1020.636820	0.034131
1020.806482	0.033815
1020.976126	0.033465
1021.145752	0.033590
1021.315359	0.034462
1021.484948	0.035671
1021.654519	0.034296
1021.824072	0.034417
1021.993607	0.035760
1022.163123	0.035104
1022.332621	0.035791
1022.502101	0.035778
1022.671563	0.035932
1022.841007	0.035586
1023.010432	0.036937
1023.179839	0.039575
1023.349228	0.037720
1023.518598	0.038484
1023.687951	0.039376
1023.857285	0.037149
1024.026601	0.037998
1024.195899	0.037820
1024.365178	0.038234
1024.534439	0.036106
1024.703682	0.032972
1024.872907	0.032743
1025.042114	0.033075
1025.211302	0.033123
1025.380472	0.034774
1025.549624	0.034514
1025.718758	0.034751
1025.887873	0.033696
1026.056970	0.033231
1026.226049	0.034775
1026.395110	0.037033
1026.564153	0.035329
1026.733177	0.034386
1026.902183	0.033849
1027.071171	0.033300
1027.240141	0.031578
1027.409092	0.031872
1027.578026	0.032055
1027.746940	0.031023
1027.915837	0.029485
1028.084716	0.028787
1028.253576	0.028499
1028.422418	0.028672
1028.591242	0.028299
1028.760048	0.029579
1028.928835	0.029582
1029.097604	0.030215
1029.266355	0.030445
1029.435088	0.031461
1029.603803	0.031497
1029.772499	0.031517
1029.941177	0.032296
1030.109837	0.031888
1030.278478	0.030268
1030.447102	0.029808
1030.615707	0.030849
1030.784294	0.032314
1030.952863	0.032361
1031.121413	0.031523
1031.289945	0.033593
1031.458460	0.032902
1031.626955	0.033461
1031.795433	0.035531
1031.963892	0.037570
1032.132334	0.036000
1032.300756	0.034788
1032.469161	0.033424
1032.637548	0.035250
1032.805916	0.034297
1032.974266	0.035042
1033.142598	0.034577
1033.310911	0.033013
1033.479207	0.032428
1033.647484	0.032581
1033.815743	0.033738
1033.983983	0.033678
1034.152206	0.033426
1034.320410	0.032828
1034.488596	0.032218
1034.656764	0.032929
1034.824914	0.034755
1034.993045	0.033651
1035.161158	0.033461
1035.329253	0.032948
1035.497330	0.033472
1035.665388	0.034819
1035.833428	0.035170
1036.001450	0.033815
1036.169454	0.034957
1036.337440	0.033986
1036.505407	0.033573
1036.673356	0.033671
1036.841287	0.033389
1037.009200	0.033438
1037.177094	0.033122
1037.344970	0.035243
1037.512828	0.035574
1037.680668	0.034289
1037.848489	0.034772
1038.016293	0.034577
1038.184078	0.035040
1038.351845	0.033686
1038.519593	0.033811
1038.687324	0.032716
1038.855036	0.029943
1039.022730	0.030069
1039.190406	0.028620
1039.358063	0.027847
1039.525702	0.028467
1039.693323	0.028200
1039.860926	0.028483
1040.028511	0.028475
1040.196077	0.028985
1040.363625	0.029777
1040.531155	0.030022
1040.698667	0.031369
1040.866161	0.031777
1041.033636	0.031669
1041.201093	0.032494
1041.368532	0.033560
1041.535952	0.033039
1041.703355	0.032827
1041.870739	0.033449
1042.038105	0.035259
1042.205452	0.035139
1042.372782	0.035558
1042.540093	0.037791
1042.707386	0.036926
1042.874661	0.036258
1043.041918	0.035441
1043.209156	0.035377
1043.376376	0.033801
1043.543578	0.032547
1043.710762	0.032980
1043.877927	0.032046
1044.045074	0.029326
1044.212203	0.031511
1044.379314	0.031017
1044.546407	0.033670
1044.713481	0.035767
1044.880537	0.035564
1045.047575	0.034666
1045.214595	0.035315
1045.381596	0.034537
1045.548579	0.035302
1045.715544	0.032411
1045.882491	0.033425
1046.049420	0.032250
1046.216330	0.030865
1046.383222	0.030567
1046.550096	0.031410
1046.716951	0.030147
1046.883789	0.032579
1047.050608	0.031930
1047.217409	0.032374
1047.384192	0.031135
1047.550956	0.029468
1047.717703	0.028697
1047.884431	0.029453
1048.051140	0.031928
1048.217832	0.033041
1048.384505	0.030122
1048.551161	0.031616
1048.717798	0.031429
1048.884416	0.031378
1049.051017	0.032742
1049.217599	0.033339
1049.384163	0.033758
1049.550709	0.032555
1049.717237	0.031176
1049.883746	0.031845
1050.050237	0.030612
1050.216710	0.030376
1050.383165	0.030702
1050.549601	0.030106
1050.716019	0.027590
1050.882420	0.027869
1051.048801	0.026615
1051.215165	0.027079
1051.381510	0.026573
1051.547837	0.026476
1051.714146	0.027576
1051.880437	0.026900
1052.046709	0.026592
1052.212964	0.028064
1052.379200	0.030080
1052.545417	0.030683
1052.711617	0.030495
1052.877798	0.029056
1053.043961	0.029090
1053.210106	0.029277
1053.376233	0.030706
1053.542341	0.032462
1053.708432	0.030866
1053.874504	0.027096
1054.040557	0.026798
1054.206593	0.025400
1054.372610	0.027598
1054.538609	0.029817
1054.704590	0.028534
1054.870553	0.028071
1055.036497	0.028444
1055.202424	0.031845
1055.368331	0.033352
1055.534221	0.032459
1055.700093	0.033977
1055.865946	0.033885
1056.031781	0.033148
1056.197598	0.033880
1056.363397	0.034773
1056.529177	0.035221
1056.694939	0.034033
1056.860683	0.033191
1057.026409	0.033045
1057.192116	0.032887
1057.357806	0.033651
1057.523477	0.031376
1057.689130	0.031401
1057.854764	0.028630
1058.020381	0.027498
1058.185979	0.025282
1058.351559	0.025611
1058.517120	0.025156
1058.682664	0.024718
1058.848189	0.023722
1059.013696	0.024561
1059.179185	0.025004
1059.344656	0.026105
1059.510108	0.024466
1059.675542	0.025490
1059.840958	0.028004
1060.006356	0.029653
1060.171735	0.029609
1060.337096	0.030329
1060.502439	0.030243
1060.667764	0.031227
1060.833071	0.030514
1060.998359	0.031031
1061.163629	0.031895
1061.328881	0.028867
1061.494115	0.028987
1061.659330	0.029812
1061.824527	0.028494
1061.989706	0.028014
1062.154867	0.027408
1062.320010	0.028881
1062.485134	0.027596
1062.650240	0.026542
1062.815328	0.027455
1062.980398	0.025588
1063.145449	0.025249
1063.310482	0.023255
1063.475497	0.023746
1063.640494	0.022456
1063.805473	0.023034
1063.970433	0.024518
1064.135375	0.025264
1064.300299	0.026601
1064.465204	0.028185
1064.630092	0.028379
1064.794961	0.029974
1064.959812	0.030631
1065.124645	0.029609
1065.289459	0.029506
1065.454256	0.029083
1065.619034	0.029827
1065.783793	0.029037
1065.948535	0.027918
1066.113258	0.025509
1066.277964	0.027682
1066.442651	0.027670
1066.607319	0.028179
1066.771970	0.026834
1066.936602	0.026550
1067.101216	0.026399
1067.265812	0.024418
1067.430389	0.023674
1067.594949	0.024285
1067.759490	0.024653
1067.924013	0.024627
1068.088518	0.025578
1068.253004	0.025955
1068.417472	0.026715
1068.581922	0.025366
1068.746354	0.026813
1068.910768	0.028001
1069.075163	0.030145
1069.239540	0.028993
1069.403899	0.028403
1069.568240	0.026900
1069.732562	0.026906
1069.896866	0.025743
1070.061152	0.024302
1070.225420	0.024742
1070.389670	0.025213
1070.553901	0.026321
1070.718114	0.025311
1070.882309	0.024840
1071.046486	0.026324
1071.210644	0.026170
1071.374784	0.027576
1071.538906	0.029906
1071.703010	0.027510
1071.867096	0.026235
1072.031163	0.023976
1072.195212	0.024610
1072.359243	0.026033
1072.523256	0.025829
1072.687250	0.026361
1072.851226	0.025423
1073.015184	0.025272
1073.179124	0.028116
1073.343045	0.027987
1073.506949	0.028384
1073.670834	0.029065
1073.834701	0.028910
1073.998549	0.029086
1074.162380	0.027279
1074.326192	0.026209
1074.489986	0.025077
1074.653761	0.021948
1074.817519	0.019626
1074.981258	0.020289
1075.144979	0.018955
1075.308682	0.018700
1075.472367	0.016141
1075.636033	0.016636
1075.799681	0.015549
1075.963311	0.016290
1076.126923	0.018552
1076.290516	0.020951
1076.454092	0.019471
1076.617649	0.018522
1076.781187	0.016273
1076.944708	0.019648
1077.108210	0.020931
1077.271695	0.022224
1077.435160	0.021708
1077.598608	0.021530
1077.762038	0.022416
1077.925449	0.022288
1078.088842	0.022374
1078.252217	0.024371
1078.415573	0.022589
1078.578912	0.025049
1078.742232	0.026253
1078.905534	0.026319
1079.068817	0.025627
1079.232083	0.026025
1079.395330	0.023523
1079.558559	0.024814
1079.721770	0.024119
1079.884962	0.025299
1080.048136	0.023034
1080.211293	0.022023
1080.374430	0.022190
1080.537550	0.021100
1080.700651	0.020286
1080.863735	0.023069
1081.026800	0.022835
1081.189846	0.021374
1081.352875	0.020671
1081.515885	0.019552
1081.678877	0.019105
1081.841851	0.019957
1082.004807	0.019162
1082.167744	0.019315
1082.330663	0.018693
1082.493564	0.018839
1082.656447	0.020427
1082.819312	0.020822
1082.982158	0.021347
1083.144986	0.024905
1083.307796	0.022892
1083.470587	0.025057
1083.633361	0.023310
1083.796116	0.024034
1083.958853	0.023139
1084.121571	0.021623
1084.284272	0.020483
1084.446954	0.022002
1084.609618	0.020249
1084.772264	0.021982
1084.934892	0.021438
1085.097501	0.022043
1085.260092	0.022321
1085.422665	0.021603
1085.585220	0.022950
1085.747756	0.023795
1085.910274	0.023533
1086.072774	0.023677
1086.235256	0.021901
1086.397720	0.020666
1086.560165	0.022950
1086.722592	0.023246
1086.885001	0.022249
1087.047392	0.020418
1087.209764	0.018998
1087.372119	0.017725
1087.534455	0.015982
1087.696772	0.014139
1087.859072	0.012396
1088.021353	0.010129
1088.183616	0.008676
1088.345861	0.012215
1088.508088	0.013309
1088.670296	0.011889
1088.832486	0.007703
1088.994658	0.009484
1089.156812	0.010637
1089.318948	0.013003
1089.481065	0.008966
1089.643164	0.007920
1089.805245	0.008817
1089.967308	0.009323
1090.129352	0.010373
1090.291378	0.012459
1090.453386	0.010675
1090.615376	0.011562
1090.777347	0.010492
1090.939301	0.011585
1091.101236	0.010401
1091.263153	0.006747
1091.425051	0.009514
1091.586932	0.011039
1091.748794	0.011325
1091.910638	0.011125
1092.072463	0.009661
1092.234271	0.010255
1092.396060	0.011430
1092.557831	0.013203
1092.719584	0.011859
1092.881319	0.007130
1093.043035	0.004449
1093.204733	0.007620
1093.366413	0.007357
1093.528075	0.005238
1093.689718	0.006201
1093.851343	0.011644
1094.012950	0.010719
1094.174539	0.013860
1094.336110	0.015111
1094.497662	0.014546
1094.659196	0.013826
1094.820712	0.013242
1094.982210	0.016306
1095.143689	0.015870
1095.305151	0.017772
1095.466594	0.016134
1095.628018	0.017186
1095.789425	0.017480
1095.950813	0.019983
1096.112183	0.022182
1096.273535	0.023444
1096.434869	0.023137
1096.596184	0.024452
1096.757482	0.019610
1096.918761	0.024451
1097.080021	0.021037
1097.241264	0.023173
1097.402488	0.023347
1097.563694	0.018814
1097.724882	0.017595
1097.886052	0.016626
1098.047203	0.016568
1098.208336	0.013925
1098.369451	0.015301
1098.530548	0.016203
1098.691627	0.018069
1098.852687	0.018937
1099.013729	0.016847
1099.174753	0.014931
1099.335758	0.016953
1099.496746	0.014713
1099.657715	0.015517
1099.818666	0.010506
1099.979599	0.010821
1100.140513	0.005178
1100.301409	0.001023
1100.462287	0.003364
1100.623147	0.005400
1100.783989	0.006047
1100.944812	0.010306
1101.105617	0.012651
1101.266404	0.013687
1101.427173	0.011819
1101.587923	0.013546
1101.748656	0.016872
1101.909370	0.015911
1102.070066	0.017950
1102.230743	0.018035
1102.391403	0.013720
1102.552044	0.012154
1102.712667	0.015269
1102.873271	0.015221
1103.033858	0.014513
1103.194426	0.013849
1103.354976	0.016132
1103.515508	0.012659
1103.676021	0.009911
1103.836517	0.012593
1103.996994	0.011782
1104.157453	0.008994
1104.317893	0.011622
1104.478316	0.013491
1104.638720	0.013066
1104.799106	0.011804
1104.959474	0.017491
1105.119823	0.020269
1105.280155	0.019908
1105.440468	0.021623
1105.600763	0.020363
1105.761039	0.019166
1105.921298	0.015828
1106.081538	0.014647
1106.241760	0.012663
1106.401964	0.010801
1106.562149	0.008438
1106.722316	0.004856
1106.882465	0.004382
1107.042596	0.005605
1107.202709	0.008133
1107.362803	0.008710
1107.522879	0.012757
1107.682937	0.014043
1107.842977	0.012212
1108.002999	0.015708
1108.163002	0.015186
1108.322987	0.012105
1108.482954	0.014121
1108.642902	0.011095
1108.802833	0.014513
1108.962745	0.009700
1109.122639	0.013661
1109.282515	0.014630
1109.442372	0.009835
1109.602211	0.015192
1109.762032	0.016814
1109.921835	0.014234
1110.081620	0.014023
1110.241386	0.007988
1110.401134	0.011720
1110.560864	0.011241
1110.720576	0.011526
1110.880269	0.013941
1111.039945	0.010008
1111.199602	0.012210
1111.359240	0.010177
1111.518861	0.011118
1111.678463	0.012643
1111.838047	0.008178
1111.997613	0.004020
1112.157161	0.001682
1112.316690	-0.000260
1112.476202	0.000650
1112.635695	-0.000570
1112.795169	0.003689
1112.954626	0.002871
1113.114064	0.001831
1113.273484	0.006408
1113.432886	0.008845
1113.592270	0.008183
1113.751635	0.013211
1113.910983	0.013313
1114.070312	0.015011
1114.229622	0.011602
1114.388915	0.011941
1114.548189	0.013191
1114.707445	0.009695
1114.866683	0.009613
1115.025903	0.010766
1115.185104	0.010237
1115.344287	0.008953
1115.503452	0.011870
1115.662599	0.014521
1115.821727	0.014434
1115.980838	0.015007
1116.139930	0.016604
1116.299004	0.016449
1116.458059	0.015927
1116.617097	0.009816
1116.776116	0.009363
1116.935117	0.002901
1117.094099	0.001786
1117.253064	0.000949
1117.412010	-0.003360
1117.570938	-0.002849
1117.729848	-0.008222
1117.888740	-0.006536
1118.047613	-0.004312
1118.206468	-0.001578
1118.365305	0.001326
1118.524124	-0.002617
1118.682924	-0.001108
1118.841707	0.001533
1119.000471	-0.002289
1119.159216	-0.000713
1119.317944	-0.001890
1119.476653	0.001452
1119.635344	0.002270
1119.794017	0.003883
1119.952672	0.009973
1120.111308	0.010178
1120.269927	0.011372
1120.428527	0.012717
1120.587108	0.015492
1120.745672	0.013236
1120.904217	0.008917
1121.062744	0.006918
1121.221253	0.003990
1121.379744	0.004561
1121.538216	0.005811
1121.696671	0.007266
1121.855107	0.009655
1122.013524	0.008774
1122.171924	0.011248
1122.330305	0.013619
1122.488668	0.013624
1122.647013	0.010107
1122.805340	0.004042
1122.963648	0.003256
1123.121938	-0.000812
1123.280210	-0.002500
1123.438464	-0.003072
1123.596700	-0.004221
1123.754917	-0.004141
1123.913116	-0.008199
1124.071297	-0.007279
1124.229459	-0.003939
1124.387604	-0.005100
1124.545730	0.000023
1124.703838	-0.000003
1124.861928	0.002957
1125.019999	0.000152
1125.178052	-0.001001
1125.336088	0.004501
1125.494104	0.010469
1125.652103	0.012388
1125.810083	0.009228
1125.968045	0.009931
1126.125989	0.013772
1126.283915	0.013298
1126.441823	0.014090
1126.599712	0.012426
1126.757583	0.011909
1126.915436	0.007934
1127.073270	0.005445
1127.231087	0.010153
1127.388885	0.004409
1127.546665	0.002145
1127.704426	-0.004972
1127.862170	0.001543
1128.019895	-0.002119
1128.177602	-0.007448
1128.335291	-0.006950
1128.492961	-0.008804
1128.650614	-0.008576
1128.808248	-0.005537
1128.965864	-0.003926
1129.123461	-0.001784
1129.281041	-0.007311
1129.438602	-0.003765
1129.596145	0.001050
1129.753670	-0.003251
1129.911176	-0.003379
1130.068665	-0.007932
1130.226135	-0.009681
1130.383587	-0.011055
1130.541020	-0.005610
1130.698436	-0.007088
1130.855833	-0.000123
1131.013212	-0.004895
1131.170573	-0.002029
1131.327915	-0.002747
1131.485239	-0.001023
1131.642545	-0.001891
1131.799833	-0.003000
1131.957103	-0.002318
1132.114354	0.001935
1132.271588	-0.003829
1132.428803	-0.000264
1132.585999	0.003735
1132.743178	0.007768
1132.900338	0.007694
1133.057480	0.011031
1133.214604	0.008045
1133.371710	0.002260
1133.528797	-0.001200
1133.685866	0.001793
1133.842917	-0.001227
1133.999950	-0.003892
1134.156964	-0.006309
1134.313960	-0.001185
1134.470938	0.001675
1134.627898	0.002173
1134.784840	0.008132
1134.941763	0.008062
1135.098668	0.001064
1135.255555	0.004139
1135.412424	0.001419
1135.569274	0.001656
1135.726107	-0.000645
1135.882921	-0.002435
1136.039716	-0.000816
1136.196494	-0.004309
1136.353253	-0.002605
1136.509995	0.001441
1136.666717	0.001463
1136.823422	-0.000637
1136.980109	-0.006199
1137.136777	-0.010089
1137.293427	-0.012015
1137.450059	-0.016471
1137.606672	-0.018148
1137.763267	-0.016746
1137.919844	-0.010620
1138.076403	-0.009258
1138.232944	-0.010475
1138.389466	-0.006277
1138.545971	-0.004996
1138.702457	-0.006301
1138.858924	-0.003736
1139.015374	0.002122
1139.171805	0.004223
1139.328218	-0.004800
1139.484613	-0.007431
1139.640990	-0.001850
1139.797348	-0.001588
1139.953688	-0.004692
1140.110010	0.000256
1140.266314	0.003585
1140.422600	0.007428
1140.578867	-0.002690
1140.735116	0.001843
1140.891347	0.005166
1141.047559	0.002765
1141.203754	-0.000513
1141.359930	0.002365
1141.516088	-0.001020
1141.672228	-0.001327
1141.828349	-0.006001
1141.984452	-0.000136
1142.140537	-0.000367
1142.296604	-0.002514
1142.452653	-0.005982
1142.608683	0.005566
1142.764695	0.005292
1142.920689	0.004650
1143.076665	0.002081
1143.232622	-0.005118
1143.388562	-0.006379
1143.544483	-0.008914
1143.700385	-0.008557
1143.856270	0.002281
1144.012136	-0.006774
1144.167985	-0.006451
1144.323814	-0.005458
1144.479626	-0.001422
1144.635420	0.001162
1144.791195	-0.000149
1144.946952	0.001694
1145.102691	0.001472
1145.258411	-0.011200
1145.414113	-0.015173
1145.569798	-0.016394
1145.725463	-0.018248
1145.881111	-0.021639
1146.036741	-0.018812
1146.192352	-0.013638
1146.347945	-0.016929
1146.503519	-0.008866
1146.659076	-0.006601
1146.814614	0.005027
1146.970134	0.000800
1147.125636	0.001601
1147.281120	-0.003097
1147.436585	-0.009288
1147.592032	-0.012138
1147.747461	-0.011150
1147.902872	-0.023820
1148.058265	-0.024885
1148.213639	-0.030290
1148.368995	-0.024225
1148.524333	-0.017420
1148.679653	-0.011361
1148.834954	-0.008782
1148.990237	-0.013168
1149.145502	-0.006687
1149.300749	0.000669
1149.455977	0.007893
1149.611188	-0.000303
1149.766380	-0.003400
1149.921553	-0.004232
1150.076709	-0.008313
1150.231846	-0.009156
1150.386966	-0.001525
1150.542066	-0.011478
1150.697149	-0.016350
1150.852214	-0.015049
1151.007260	-0.004395
1151.162288	-0.002679
1151.317298	-0.003495
1151.472289	0.001038
1151.627263	-0.001289
1151.782218	-0.006903
1151.937155	-0.005381
1152.092073	-0.008483
1152.246974	-0.010403
1152.401856	-0.014346
1152.556720	-0.007391
1152.711566	-0.010659
1152.866393	-0.009250
1153.021203	-0.007802
1153.175994	-0.008747
1153.330767	-0.004289
1153.485521	-0.007603
1153.640258	-0.001929
1153.794976	0.003143
1153.949676	-0.008219
1154.104358	-0.012469
1154.259021	-0.015518
1154.413667	-0.015084
1154.568294	-0.016388
1154.722903	-0.019291
1154.877493	-0.006076
1155.032066	-0.010702
1155.186620	-0.010429
1155.341156	-0.010989
1155.495674	-0.000672
1155.650173	0.000049
1155.804654	-0.001269
1155.959118	0.008080
1156.113562	0.006114
1156.267989	0.005916
1156.422397	-0.000171
1156.576788	0.000679
1156.731160	0.002414
1156.885513	-0.004201
1157.039849	-0.003546
1157.194166	-0.002783
1157.348465	-0.015532
1157.502746	-0.009248
1157.657009	-0.007241
1157.811253	-0.013234
1157.965479	-0.013246
1158.119687	-0.019032
1158.273877	-0.026051
1158.428048	-0.023360
1158.582201	-0.024021
1158.736337	-0.013457
1158.890453	-0.016847
1159.044552	-0.023471
1159.198632	-0.006890
1159.352694	-0.014998
1159.506738	-0.008412
1159.660764	-0.002404
1159.814771	-0.001629
1159.968761	0.000667
1160.122732	-0.001426
1160.276685	-0.003067
1160.430619	-0.010349
1160.584535	-0.014908
1160.738434	-0.010820
1160.892313	-0.008691
1161.046175	-0.005566
1161.200019	-0.002147
1161.353844	0.003514
1161.507651	-0.000691
1161.661440	0.001452
1161.815210	0.003343
1161.968962	0.005642
1162.122697	0.004258
1162.276412	0.001674
1162.430110	-0.000613
1162.583789	-0.009077
1162.737451	-0.020840
1162.891094	-0.023298
1163.044718	-0.010409
1163.198325	-0.002396
1163.351913	-0.012560
1163.505483	-0.015481
1163.659035	-0.015949
1163.812569	-0.026079
1163.966084	-0.033074
1164.119581	-0.024490
1164.273060	-0.006217
1164.426521	-0.023938
1164.579964	-0.017938
1164.733388	-0.004946
1164.886794	-0.005776
1165.040182	-0.008077
1165.193551	-0.003510
1165.346903	-0.000610
1165.500236	-0.008350
1165.653551	-0.018618
1165.806848	-0.016168
1165.960126	-0.031175
1166.113386	-0.033883
1166.266628	-0.030610
1166.419852	-0.031989
1166.573058	-0.032897
1166.726245	-0.030509
1166.879414	-0.019460
1167.032565	-0.024816
1167.185698	-0.016751
1167.338812	-0.015529
1167.491909	-0.010761
1167.644987	-0.022408
1167.798046	-0.021338
1167.951088	-0.018599
1168.104111	-0.021594
1168.257117	-0.019304
1168.410103	-0.014338
1168.563072	-0.022497
1168.716023	-0.023854
1168.868955	-0.046416
1169.021869	-0.043266
1169.174765	-0.045181
1169.327642	-0.049875
1169.480501	-0.042799
1169.633343	-0.061872
1169.786165	-0.062073
1169.938970	-0.074145
1170.091757	-0.073491
1170.244525	-0.058685
1170.397275	-0.055563
1170.550007	-0.044502
1170.702720	-0.041657
1170.855415	-0.056807
1171.008092	-0.052738
1171.160751	-0.063923
1171.313392	-0.057097
1171.466014	-0.127733
1171.618619	-0.090195
1171.771205	-0.090195
1171.923772	-0.090195
